Data from test_V78500241_93.txt Node
Date: Fri Mar 25 16:15:50 CST 2022
User: usil
Spectrometer: V785-0024
Trigger mode: 0
Integration Time (sec): 4.000000E-1
Scans to average: 1
Nonlinearity correction enabled: false
Boxcar width: 0
Storing dark spectrum: false
XAxis mode: Wavelengths
Number of Pixels in Spectrum: 1024
>>>>>Begin Spectral Data<<<<<
801.071	2948
801.214	2956
801.356	2891
801.499	2876
801.641	2883
801.783	2990
801.926	3055
802.068	2979
802.211	3024
802.353	3032
802.496	2952
802.638	3013
802.78	3077
802.923	3108
803.065	3070
803.208	2918
803.35	2937
803.492	2933
803.635	2918
803.777	2766
803.919	2861
804.061	3184
804.204	2944
804.346	2914
804.488	2880
804.63	2979
804.773	2906
804.915	2963
805.057	3081
805.199	2918
805.341	3001
805.483	3032
805.626	3005
805.768	2971
805.91	3077
806.052	3142
806.194	3062
806.336	3222
806.478	3032
806.62	2975
806.762	2982
806.904	3093
807.046	3199
807.188	2994
807.33	2914
807.472	2998
807.614	2914
807.756	2998
807.898	2975
808.04	2925
808.182	2979
808.324	2967
808.465	2895
808.607	2925
808.749	2800
808.891	2861
809.033	2998
809.174	3032
809.316	2880
809.458	2922
809.6	2796
809.741	2788
809.883	2769
810.025	2899
810.166	2895
810.308	2864
810.45	2853
810.591	2796
810.733	2819
810.875	2845
811.016	2807
811.158	2800
811.299	2823
811.441	2952
811.582	2952
811.724	2823
811.865	2842
812.007	2952
812.148	2914
812.29	2872
812.431	2910
812.573	2952
812.714	2979
812.855	3097
812.997	3058
813.138	3146
813.279	3013
813.421	3009
813.562	2975
813.703	2880
813.845	2918
813.986	2796
814.127	2746
814.268	2838
814.41	2899
814.551	2842
814.692	2872
814.833	2834
814.974	2906
815.115	2967
815.256	2838
815.397	2830
815.539	2906
815.68	2830
815.821	2819
815.962	2967
816.103	2918
816.244	2891
816.385	2902
816.526	2971
816.666	2902
816.807	2781
816.948	2925
817.089	2933
817.23	2842
817.371	2792
817.512	2804
817.653	2849
817.793	2842
817.934	2895
818.075	2937
818.216	2982
818.356	3032
818.497	2937
818.638	2781
818.778	2876
818.919	2792
819.06	2769
819.2	2891
819.341	2849
819.481	2815
819.622	2937
819.762	3081
819.903	3089
820.043	2963
820.184	2887
820.324	2929
820.465	3058
820.605	3047
820.746	3043
820.886	2914
821.026	3123
821.167	3165
821.307	3264
821.447	3302
821.588	3253
821.728	3256
821.868	3192
822.008	3093
822.149	3188
822.289	3241
822.429	3131
822.569	3116
822.709	3207
822.849	3074
822.99	3085
823.13	3131
823.27	3230
823.41	3161
823.55	3165
823.69	3161
823.83	3222
823.97	3108
824.11	2986
824.25	3020
824.389	3036
824.529	3131
824.669	3089
824.809	3256
824.949	3272
825.089	3233
825.228	3218
825.368	3024
825.508	2975
825.648	2975
825.787	3047
825.927	3043
826.067	3009
826.206	2998
826.346	3089
826.485	3104
826.625	3116
826.765	3294
826.904	3260
827.044	3062
827.183	2925
827.323	2895
827.462	3055
827.601	2925
827.741	2967
827.88	2986
828.02	2853
828.159	2998
828.298	3062
828.437	3123
828.577	3070
828.716	3249
828.855	3093
828.994	2952
829.134	2868
829.273	2937
829.412	2864
829.551	2906
829.69	2925
829.829	3024
829.968	3112
830.107	3024
830.246	3051
830.385	2941
830.524	2914
830.663	2845
830.802	2746
830.941	2655
831.08	2663
831.219	2769
831.357	2766
831.496	2956
831.635	2769
831.774	2674
831.913	2674
832.051	2556
832.19	2610
832.329	2689
832.467	2560
832.606	2541
832.744	2571
832.883	2590
833.022	2606
833.16	2644
833.299	2727
833.437	2716
833.576	2686
833.714	2739
833.852	2712
833.991	2746
834.129	2830
834.267	2853
834.406	2769
834.544	2849
834.682	2861
834.821	2864
834.959	3097
835.097	2902
835.235	3077
835.373	3013
835.511	3024
835.65	2944
835.788	2956
835.926	2864
836.064	2796
836.202	2842
836.34	3131
836.478	3161
836.615	3089
836.753	3157
836.891	3211
837.029	3127
837.167	3150
837.305	3051
837.443	3009
837.58	2971
837.718	3142
837.856	3097
837.993	3017
838.131	3123
838.269	3100
838.406	3097
838.544	3085
838.681	2944
838.819	2887
838.956	2800
839.094	2815
839.231	2899
839.369	3036
839.506	3374
839.643	3222
839.781	3017
839.918	2960
840.055	3077
840.193	3058
840.33	3100
840.467	3112
840.604	3184
840.742	3439
840.879	3070
841.016	3089
841.153	3157
841.29	3370
841.427	3291
841.564	3298
841.701	3340
841.838	3253
841.975	3207
842.112	3253
842.249	3157
842.385	3100
842.522	3298
842.659	3100
842.796	3119
842.933	3150
843.069	3097
843.206	3077
843.343	3230
843.479	3165
843.616	3154
843.752	2944
843.889	2948
844.025	3146
844.162	2960
844.298	3131
844.435	3001
844.571	2990
844.708	3112
844.844	3279
844.98	3302
845.117	3256
845.253	3104
845.389	3116
845.525	3138
845.661	3157
845.798	3089
845.934	3214
846.07	3116
846.206	3253
846.342	3401
846.478	3237
846.614	3119
846.75	3123
846.886	3081
847.022	3291
847.158	3203
847.294	3264
847.429	3302
847.565	3272
847.701	3526
847.837	3093
847.972	3074
848.108	3226
848.244	3222
848.379	3017
848.515	3017
848.65	2979
848.786	3058
848.921	3070
849.057	3154
849.192	3199
849.328	3150
849.463	3176
849.598	3097
849.734	3131
849.869	3062
850.004	2956
850.14	3024
850.275	2994
850.41	2922
850.545	2990
850.68	3013
850.815	3020
850.95	3028
851.085	3264
851.22	3154
851.355	3119
851.49	3062
851.625	3074
851.76	3055
851.895	2998
852.03	2944
852.165	3116
852.299	3180
852.434	3226
852.569	3218
852.703	3226
852.838	3317
852.973	3378
853.107	3397
853.242	3211
853.376	3104
853.511	3017
853.645	3077
853.78	3275
853.914	3226
854.048	3169
854.183	3150
854.317	3226
854.451	3382
854.585	3192
854.72	3127
854.854	3241
854.988	3123
855.122	3138
855.256	3043
855.39	3154
855.524	3313
855.658	3233
855.792	3249
855.926	3253
856.06	3291
856.194	3313
856.327	3218
856.461	3108
856.595	3138
856.729	3142
856.862	3291
856.996	3192
857.13	3264
857.263	3298
857.397	3340
857.53	3150
857.664	3230
857.797	3283
857.931	3310
858.064	3233
858.197	3237
858.331	3188
858.464	3184
858.597	3051
858.731	3138
858.864	3211
858.997	3165
859.13	3188
859.263	3245
859.396	3256
859.529	3150
859.662	3142
859.795	3085
859.928	3192
860.061	3344
860.194	3367
860.327	3188
860.46	3173
860.592	3310
860.725	3336
860.858	3283
860.99	3119
861.123	3119
861.256	3104
861.388	3180
861.521	3766
861.653	3100
861.786	3055
861.918	3047
862.05	3123
862.183	3169
862.315	3180
862.447	3241
862.58	3146
862.712	2998
862.844	2906
862.976	3047
863.108	3097
863.24	3481
863.372	2910
863.504	3009
863.636	3036
863.768	3047
863.9	3036
864.032	2963
864.164	2986
864.296	3058
864.428	3131
864.559	3154
864.691	3154
864.823	3112
864.954	3085
865.086	3097
865.217	3043
865.349	2994
865.48	3039
865.612	3085
865.743	3207
865.875	2998
866.006	2982
866.137	3058
866.269	2982
866.4	2967
866.531	2975
866.662	2982
866.793	2929
866.924	2929
867.055	3043
867.186	2994
867.317	2960
867.448	2891
867.579	2925
867.71	2902
867.841	2891
867.972	2994
868.103	2944
868.233	2899
868.364	2914
868.495	2967
868.625	3131
868.756	3211
868.886	3043
869.017	3081
869.147	3195
869.278	3226
869.408	3116
869.539	3127
869.669	3154
869.799	3081
869.929	3211
870.06	3180
870.19	3382
870.32	3317
870.45	3378
870.58	3435
870.71	3469
870.84	3488
870.97	3336
871.1	3283
871.23	3564
871.36	3549
871.489	3454
871.619	3431
871.749	3481
871.879	3485
872.008	3564
872.138	3412
872.267	3340
872.397	3199
872.526	3123
872.656	3066
872.785	3169
872.915	3332
873.044	3382
873.173	3275
873.303	3298
873.432	3325
873.561	3310
873.69	3214
873.819	3184
873.948	3237
874.077	3157
874.206	3097
874.335	3142
874.464	3226
874.593	3405
874.722	3245
874.851	3462
874.979	3412
875.108	3412
875.237	3279
875.365	3211
875.494	3199
875.623	3329
875.751	3112
875.88	3165
876.008	3249
876.136	3306
876.265	3492
876.393	3595
876.521	3466
876.65	3477
876.778	3401
876.906	3279
877.034	3256
877.162	3291
877.29	3226
877.418	3287
877.546	3294
877.674	3321
877.802	3302
877.93	3245
878.058	3199
878.185	3165
878.313	3245
878.441	3275
878.568	3138
878.696	3157
878.824	3317
878.951	3363
879.079	3542
879.206	3705
879.333	3515
879.461	3382
879.588	3382
879.715	3538
879.842	3610
879.97	3450
880.097	3256
880.224	3203
880.351	3214
880.478	3268
880.605	3249
880.732	3211
880.859	3530
880.986	3348
881.112	3409
881.239	3214
881.366	3138
881.493	3077
881.619	3077
881.746	3119
881.872	3138
881.999	3150
882.125	3218
882.252	3302
882.378	3370
882.505	3481
882.631	3332
882.757	3199
882.883	3310
883.01	3283
883.136	3245
883.262	3157
883.388	3195
883.514	3332
883.64	3416
883.766	3355
883.892	3245
884.018	3253
884.143	3496
884.269	3599
884.395	3275
884.52	3253
884.646	3214
884.772	3230
884.897	3150
885.023	3279
885.148	3393
885.274	3458
885.399	3409
885.524	3325
885.65	3313
885.775	3355
885.9	3367
886.025	3477
886.15	3466
886.275	3397
886.4	3275
886.525	3344
886.65	3329
886.775	3332
886.9	3553
887.025	3713
887.149	3435
887.274	3313
887.399	3230
887.523	3272
887.648	3241
887.773	3241
887.897	3431
888.021	3431
888.146	3367
888.27	3454
888.395	3576
888.519	3462
888.643	3515
888.767	3542
888.891	3348
889.015	3298
889.139	3359
889.263	3287
889.387	3447
889.511	3557
889.635	3507
889.759	3374
889.883	3363
890.006	3443
890.13	3549
890.254	3317
890.377	3412
890.501	3279
890.624	3237
890.748	3370
890.871	3237
890.995	3161
891.118	3135
891.241	3253
891.364	3256
891.488	3386
891.611	3226
891.734	3268
891.857	3329
891.98	3298
892.103	3409
892.226	3329
892.349	3256
892.471	3169
892.594	3245
892.717	3332
892.839	3329
892.962	3329
893.085	3378
893.207	3302
893.33	3184
893.452	3279
893.575	3382
893.697	3313
893.819	3481
893.941	3526
894.064	3523
894.186	3344
894.308	3359
894.43	3496
894.552	3545
894.674	3488
894.796	3329
894.918	3355
895.04	3363
895.161	3462
895.283	3439
895.405	3317
895.526	3443
895.648	3458
895.769	3443
895.891	3500
896.012	3504
896.134	3477
896.255	3428
896.376	3435
896.498	3409
896.619	3477
896.74	3416
896.861	3485
896.982	3736
897.103	3918
897.224	3622
897.345	3557
897.466	3462
897.587	3523
897.708	3690
897.828	3633
897.949	3500
898.07	3351
898.19	3473
898.311	3671
898.431	3507
898.552	3534
898.672	3644
898.792	3641
898.913	3591
899.033	3443
899.153	3344
899.273	3275
899.393	3363
899.513	3363
899.633	3359
899.753	3378
899.873	3359
899.993	3370
900.113	3397
900.232	3416
900.352	3409
900.472	3340
900.591	3233
900.711	3317
900.83	3310
900.95	3450
901.069	3523
901.189	3370
901.308	3233
901.427	3169
901.546	3230
901.665	3344
901.784	3374
901.904	3256
902.023	3199
902.141	3070
902.26	3062
902.379	3169
902.498	3123
902.617	3085
902.735	3253
902.854	3272
902.973	3264
903.091	3097
903.21	3070
903.328	3199
903.446	3127
903.565	3154
903.683	3207
903.801	3176
903.919	3272
904.038	3291
904.156	3218
904.274	3363
904.392	3310
904.51	3306
904.627	3367
904.745	3492
904.863	3523
904.981	3348
905.098	3237
905.216	3275
905.334	3367
905.451	3351
905.569	3359
905.686	3469
905.803	3466
905.921	3321
906.038	3485
906.155	3405
906.272	3336
906.389	3386
906.506	3279
906.623	3298
906.74	3329
906.857	3214
906.974	3306
907.091	3477
907.208	3675
907.324	3504
907.441	3393
907.557	3291
907.674	3287
907.79	3256
907.907	3302
908.023	3416
908.139	3431
908.256	3382
908.372	3389
908.488	3401
908.604	3317
908.72	3264
908.836	3298
908.952	3332
909.068	3412
909.184	3549
909.3	3435
909.415	3538
909.531	3500
909.647	3317
909.762	3344
909.878	3313
909.993	3397
910.108	3382
910.224	3367
910.339	3450
910.454	3382
910.57	3336
910.685	3272
910.8	3599
910.915	3576
911.03	3473
911.145	3336
911.259	3313
911.374	3359
911.489	3310
911.604	3249
911.718	3135
911.833	3207
911.947	3093
912.062	3013
912.176	3195
912.291	3237
912.405	3264
912.519	3469
912.633	3485
912.748	3382
912.862	3310
912.976	3184
913.09	3100
913.204	3192
913.318	3275
913.431	3405
913.545	3363
913.659	3443
913.772	3389
913.886	3249
914	3237
914.113	3431
914.226	3454
914.34	3431
914.453	3287
914.566	3488
914.68	3329
914.793	3382
914.906	3180
915.019	3135
915.132	3097
915.245	3230
915.358	3272
915.47	3256
915.583	3321
915.696	3344
915.809	3454
915.921	3515
916.034	3340
916.146	3325
916.259	3306
916.371	3435
916.483	3412
916.595	3355
916.708	3412
916.82	3420
916.932	3420
917.044	3428
917.156	3405
917.268	3332
917.38	3355
917.491	3351
917.603	3443
917.715	3526
917.826	3549
917.938	3496
918.049	3393
918.161	3488
918.272	3694
918.384	3656
918.495	3534
918.606	3454
918.717	3359
918.828	3443
918.939	3504
919.05	3428
919.161	3443
919.272	3272
919.383	3367
919.494	3587
919.604	3751
919.715	3515
919.826	3500
919.936	3557
920.047	3682
920.157	3633
920.267	3865
920.378	3682
920.488	3629
920.598	3857
920.708	4036
920.818	3873
920.928	3896
921.038	4097
921.148	4067
921.258	3789
921.368	3671
921.477	3637
921.587	3625
921.697	3557
921.806	3694
921.916	3542
922.025	3454
922.134	3435
922.244	3401
922.353	3496
922.462	3321
922.571	3279
922.68	3180
922.789	3135
922.898	3275
923.007	3142
923.116	3249
923.224	3256
923.333	3272
923.442	3226
923.55	3161
923.659	3214
923.767	3272
923.876	3173
923.984	3336
924.092	3192
924.201	3260
924.309	3264
924.417	3317
924.525	3264
924.633	3310
924.741	4291
924.849	3112
924.956	3359
925.064	3119
925.172	3112
925.279	3184
925.387	3256
925.494	3283
925.602	3405
925.709	3420
925.816	3256
925.924	3340
926.031	3428
926.138	3374
926.245	3435
926.352	3313
926.459	3519
926.566	3561
926.673	3447
926.779	3291
926.886	3317
926.993	3245
927.099	3180
927.206	3146
927.312	3214
927.419	3302
927.525	3241
927.631	3355
927.737	3214
927.843	3169
927.95	3116
928.056	3245
928.162	3222
928.267	3351
928.373	3880
928.479	3359
928.585	3138
928.69	3302
928.796	3374
928.901	3256
929.007	3131
929.112	3268
929.218	3245
929.323	3184
929.428	3237
929.533	3374
929.638	3192
929.743	3233
929.848	3336
929.953	3268
930.058	3230
930.163	3062
930.267	3100
930.372	3283
930.477	3104
930.581	3348
930.685	3241
930.79	3127
930.894	3218
930.998	3161
931.103	3317
931.207	3036
931.311	3001
931.415	2952
931.519	2842
931.623	2857
