Data from test_V78500241_612.txt Node
Date: Fri Mar 25 16:19:26 CST 2022
User: usil
Spectrometer: V785-0024
Trigger mode: 0
Integration Time (sec): 4.000000E-1
Scans to average: 1
Nonlinearity correction enabled: false
Boxcar width: 0
Storing dark spectrum: false
XAxis mode: Wavelengths
Number of Pixels in Spectrum: 1024
>>>>>Begin Spectral Data<<<<<
801.071	2918
801.214	2982
801.356	2880
801.499	2891
801.641	2887
801.783	2929
801.926	3066
802.068	2998
802.211	3024
802.353	3013
802.496	2944
802.638	3043
802.78	3017
802.923	3093
803.065	3020
803.208	2868
803.35	2925
803.492	2944
803.635	2933
803.777	2758
803.919	2819
804.061	3211
804.204	2941
804.346	2922
804.488	2864
804.63	2979
804.773	2891
804.915	2956
805.057	3081
805.199	2899
805.341	2990
805.483	3062
805.626	2975
805.768	2948
805.91	3100
806.052	3127
806.194	3024
806.336	3230
806.478	3047
806.62	2956
806.762	2982
806.904	3100
807.046	3188
807.188	2994
807.33	2925
807.472	2998
807.614	2944
807.756	3001
807.898	2956
808.04	2902
808.182	2982
808.324	3001
808.465	2883
808.607	2857
808.749	2792
808.891	2849
809.033	2982
809.174	3020
809.316	2872
809.458	2895
809.6	2766
809.741	2796
809.883	2800
810.025	2868
810.166	2864
810.308	2842
810.45	2834
810.591	2804
810.733	2777
810.875	2845
811.016	2792
811.158	2800
811.299	2845
811.441	2918
811.582	2891
811.724	2823
811.865	2834
812.007	2872
812.148	2899
812.29	2872
812.431	2883
812.573	2971
812.714	2952
812.855	3039
812.997	3028
813.138	3142
813.279	2994
813.421	2994
813.562	2990
813.703	2891
813.845	2868
813.986	2807
814.127	2777
814.268	2788
814.41	2830
814.551	2800
814.692	2857
814.833	2807
814.974	2910
815.115	2948
815.256	2876
815.397	2815
815.539	2891
815.68	2781
815.821	2792
815.962	2914
816.103	2952
816.244	2925
816.385	2853
816.526	3001
816.666	2960
816.807	2762
816.948	2876
817.089	2864
817.23	2826
817.371	2777
817.512	2785
817.653	2811
817.793	2819
817.934	2906
818.075	2963
818.216	3020
818.356	3024
818.497	2887
818.638	2788
818.778	2826
818.919	2769
819.06	2785
819.2	2853
819.341	2807
819.481	2826
819.622	2925
819.762	3104
819.903	3039
820.043	2914
820.184	2880
820.324	2906
820.465	3009
820.605	3024
820.746	3032
820.886	2902
821.026	3077
821.167	3165
821.307	3237
821.447	3264
821.588	3222
821.728	3222
821.868	3211
822.008	3077
822.149	3195
822.289	3233
822.429	3104
822.569	3104
822.709	3195
822.849	3039
822.99	3066
823.13	3176
823.27	3192
823.41	3135
823.55	3146
823.69	3108
823.83	3211
823.97	3108
824.11	2990
824.25	2986
824.389	3028
824.529	3104
824.669	3066
824.809	3184
824.949	3291
825.089	3233
825.228	3150
825.368	3020
825.508	2956
825.648	2933
825.787	3036
825.927	3009
826.067	2971
826.206	2937
826.346	3047
826.485	3066
826.625	3093
826.765	3253
826.904	3233
827.044	2967
827.183	2914
827.323	2880
827.462	2979
827.601	2910
827.741	2944
827.88	2956
828.02	2834
828.159	2971
828.298	3001
828.437	3123
828.577	3062
828.716	3214
828.855	3112
828.994	2925
829.134	2899
829.273	2925
829.412	2861
829.551	2922
829.69	2918
829.829	2986
829.968	3138
830.107	3009
830.246	3024
830.385	2975
830.524	2868
830.663	2834
830.802	2727
830.941	2659
831.08	2648
831.219	2796
831.357	2743
831.496	2963
831.635	2693
831.774	2689
831.913	2648
832.051	2530
832.19	2598
832.329	2708
832.467	2541
832.606	2476
832.744	2568
832.883	2587
833.022	2606
833.16	2651
833.299	2701
833.437	2705
833.576	2708
833.714	2716
833.852	2758
833.991	2766
834.129	2823
834.267	2815
834.406	2769
834.544	2845
834.682	2902
834.821	2857
834.959	3055
835.097	2910
835.235	3074
835.373	3047
835.511	3036
835.65	2979
835.788	2963
835.926	2849
836.064	2804
836.202	2868
836.34	3074
836.478	3131
836.615	3047
836.753	3173
836.891	3192
837.029	3116
837.167	3135
837.305	3062
837.443	3043
837.58	2967
837.718	3142
837.856	3081
837.993	3055
838.131	3146
838.269	3074
838.406	3070
838.544	3108
838.681	2918
838.819	2910
838.956	2823
839.094	2796
839.231	2918
839.369	3017
839.506	3340
839.643	3176
839.781	2990
839.918	2960
840.055	3070
840.193	3043
840.33	3058
840.467	3081
840.604	3173
840.742	3393
840.879	3055
841.016	3017
841.153	3097
841.29	3321
841.427	3294
841.564	3287
841.701	3310
841.838	3203
841.975	3192
842.112	3241
842.249	3077
842.385	3058
842.522	3249
842.659	3081
842.796	3036
842.933	3089
843.069	3043
843.206	3081
843.343	3180
843.479	3131
843.616	3150
843.752	2929
843.889	2868
844.025	3074
844.162	2872
844.298	3058
844.435	2929
844.571	2918
844.708	3051
844.844	3157
844.98	3226
845.117	3222
845.253	3028
845.389	3005
845.525	3070
845.661	3127
845.798	2986
845.934	3135
846.07	3058
846.206	3207
846.342	3313
846.478	3241
846.614	3100
846.75	3051
846.886	3036
847.022	3245
847.158	3108
847.294	3199
847.429	3233
847.565	3192
847.701	3481
847.837	3051
847.972	2994
848.108	3169
848.244	3157
848.379	3009
848.515	2937
848.65	2922
848.786	2975
848.921	2994
849.057	3093
849.192	3157
849.328	3085
849.463	3116
849.598	3058
849.734	3051
849.869	2971
850.004	2929
850.14	2956
850.275	2933
850.41	2838
850.545	2853
850.68	2933
850.815	2937
850.95	2952
851.085	3169
851.22	3100
851.355	3017
851.49	2979
851.625	2998
851.76	3028
851.895	2933
852.03	2902
852.165	3009
852.299	3131
852.434	3203
852.569	3150
852.703	3157
852.838	3241
852.973	3332
853.107	3351
853.242	3173
853.376	3081
853.511	2963
853.645	3055
853.78	3207
853.914	3116
854.048	3108
854.183	3093
854.317	3150
854.451	3268
854.585	3131
854.72	3058
854.854	3188
854.988	3085
855.122	3093
855.256	2944
855.39	3097
855.524	3230
855.658	3169
855.792	3173
855.926	3154
856.06	3222
856.194	3279
856.327	3169
856.461	3055
856.595	3074
856.729	3062
856.862	3230
856.996	3176
857.13	3211
857.263	3222
857.397	3249
857.53	3146
857.664	3188
857.797	3222
857.931	3256
858.064	3161
858.197	3199
858.331	3131
858.464	3100
858.597	3009
858.731	3116
858.864	3146
858.997	3077
859.13	3131
859.263	3207
859.396	3192
859.529	3104
859.662	3058
859.795	3070
859.928	3142
860.061	3260
860.194	3302
860.327	3104
860.46	3036
860.592	3253
860.725	3230
860.858	3287
860.99	3123
861.123	3028
861.256	3085
861.388	3119
861.521	3740
861.653	3020
861.786	2975
861.918	3013
862.05	3066
862.183	3112
862.315	3108
862.447	3233
862.58	3066
862.712	2918
862.844	2872
862.976	3013
863.108	2982
863.24	3382
863.372	2883
863.504	2952
863.636	2956
863.768	3028
863.9	2963
864.032	2922
864.164	2941
864.296	3020
864.428	3089
864.559	3089
864.691	3028
864.823	3051
864.954	3020
865.086	3039
865.217	3005
865.349	2986
865.48	2960
865.612	3017
865.743	3154
865.875	2994
866.006	2937
866.137	2933
866.269	2929
866.4	2914
866.531	2933
866.662	2891
866.793	2857
866.924	2895
867.055	2963
867.186	2933
867.317	2933
867.448	2830
867.579	2834
867.71	2849
867.841	2815
867.972	2918
868.103	2887
868.233	2845
868.364	2845
868.495	2910
868.625	3085
868.756	3188
868.886	2925
869.017	3009
869.147	3195
869.278	3180
869.408	3085
869.539	2998
869.669	3112
869.799	3066
869.929	3108
870.06	3077
870.19	3321
870.32	3298
870.45	3291
870.58	3382
870.71	3500
870.84	3447
870.97	3272
871.1	3241
871.23	3492
871.36	3454
871.489	3367
871.619	3412
871.749	3378
871.879	3424
872.008	3496
872.138	3344
872.267	3264
872.397	3138
872.526	3104
872.656	3020
872.785	3093
872.915	3253
873.044	3294
873.173	3195
873.303	3233
873.432	3218
873.561	3211
873.69	3123
873.819	3135
873.948	3146
874.077	3062
874.206	3024
874.335	3066
874.464	3199
874.593	3317
874.722	3237
874.851	3382
874.979	3359
875.108	3313
875.237	3222
875.365	3161
875.494	3165
875.623	3253
875.751	3074
875.88	3123
876.008	3203
876.136	3214
876.265	3363
876.393	3526
876.521	3382
876.65	3389
876.778	3329
876.906	3256
877.034	3188
877.162	3237
877.29	3169
877.418	3279
877.546	3222
877.674	3226
877.802	3207
877.93	3195
878.058	3161
878.185	3104
878.313	3180
878.441	3180
878.568	3028
878.696	3161
878.824	3230
878.951	3302
879.079	3447
879.206	3603
879.333	3428
879.461	3344
879.588	3393
879.715	3485
879.842	3568
879.97	3386
880.097	3146
880.224	3097
880.351	3157
880.478	3199
880.605	3192
880.732	3180
880.859	3492
880.986	3287
881.112	3275
881.239	3207
881.366	3062
881.493	3043
881.619	3028
881.746	3074
881.872	3070
881.999	3085
882.125	3146
882.252	3256
882.378	3279
882.505	3435
882.631	3294
882.757	3180
882.883	3211
883.01	3226
883.136	3199
883.262	3051
883.388	3081
883.514	3332
883.64	3367
883.766	3313
883.892	3150
884.018	3245
884.143	3416
884.269	3542
884.395	3195
884.52	3180
884.646	3207
884.772	3112
884.897	3119
885.023	3199
885.148	3336
885.274	3386
885.399	3374
885.524	3291
885.65	3283
885.775	3329
885.9	3287
886.025	3458
886.15	3355
886.275	3275
886.4	3226
886.525	3294
886.65	3249
886.775	3313
886.9	3435
887.025	3641
887.149	3393
887.274	3233
887.399	3192
887.523	3211
887.648	3169
887.773	3214
887.897	3348
888.021	3412
888.146	3294
888.27	3458
888.395	3519
888.519	3412
888.643	3447
888.767	3424
888.891	3306
889.015	3260
889.139	3302
889.263	3268
889.387	3405
889.511	3564
889.635	3412
889.759	3268
889.883	3306
890.006	3393
890.13	3485
890.254	3264
890.377	3363
890.501	3176
890.624	3203
890.748	3310
890.871	3165
890.995	3093
891.118	3051
891.241	3199
891.364	3253
891.488	3294
891.611	3211
891.734	3253
891.857	3264
891.98	3226
892.103	3325
892.226	3249
892.349	3211
892.471	3077
892.594	3268
892.717	3283
892.839	3264
892.962	3310
893.085	3355
893.207	3313
893.33	3146
893.452	3188
893.575	3310
893.697	3264
893.819	3466
893.941	3458
894.064	3458
894.186	3214
894.308	3260
894.43	3409
894.552	3561
894.674	3462
894.796	3272
894.918	3336
895.04	3245
895.161	3389
895.283	3412
895.405	3329
895.526	3344
895.648	3435
895.769	3405
895.891	3420
896.012	3504
896.134	3469
896.255	3397
896.376	3355
896.498	3374
896.619	3439
896.74	3344
896.861	3397
896.982	3667
897.103	3823
897.224	3564
897.345	3435
897.466	3485
897.587	3500
897.708	3591
897.828	3576
897.949	3443
898.07	3264
898.19	3344
898.311	3587
898.431	3458
898.552	3511
898.672	3572
898.792	3595
898.913	3511
899.033	3401
899.153	3302
899.273	3165
899.393	3313
899.513	3298
899.633	3329
899.753	3329
899.873	3283
899.993	3359
900.113	3321
900.232	3389
900.352	3340
900.472	3298
900.591	3207
900.711	3272
900.83	3230
900.95	3405
901.069	3485
901.189	3351
901.308	3173
901.427	3135
901.546	3203
901.665	3279
901.784	3321
901.904	3199
902.023	3085
902.141	3024
902.26	2979
902.379	3135
902.498	3032
902.617	3043
902.735	3222
902.854	3241
902.973	3222
903.091	3077
903.21	3062
903.328	3146
903.446	3119
903.565	3100
903.683	3165
903.801	3131
903.919	3237
904.038	3287
904.156	3188
904.274	3306
904.392	3264
904.51	3310
904.627	3313
904.745	3435
904.863	3511
904.981	3264
905.098	3195
905.216	3222
905.334	3275
905.451	3272
905.569	3291
905.686	3412
905.803	3466
905.921	3268
906.038	3424
906.155	3355
906.272	3256
906.389	3317
906.506	3260
906.623	3256
906.74	3253
906.857	3165
906.974	3211
907.091	3439
907.208	3545
907.324	3431
907.441	3397
907.557	3226
907.674	3260
907.79	3214
907.907	3275
908.023	3386
908.139	3348
908.256	3329
908.372	3363
908.488	3359
908.604	3256
908.72	3249
908.836	3291
908.952	3279
909.068	3344
909.184	3515
909.3	3348
909.415	3462
909.531	3466
909.647	3256
909.762	3287
909.878	3275
909.993	3363
910.108	3321
910.224	3317
910.339	3405
910.454	3348
910.57	3302
910.685	3256
910.8	3610
910.915	3523
911.03	3405
911.145	3264
911.259	3321
911.374	3355
911.489	3275
911.604	3241
911.718	3127
911.833	3138
911.947	3070
912.062	2963
912.176	3176
912.291	3165
912.405	3207
912.519	3397
912.633	3447
912.748	3325
912.862	3306
912.976	3188
913.09	3039
913.204	3108
913.318	3218
913.431	3336
913.545	3374
913.659	3424
913.772	3329
913.886	3226
914	3249
914.113	3424
914.226	3416
914.34	3393
914.453	3180
914.566	3405
914.68	3287
914.793	3298
914.906	3138
915.019	3119
915.132	3066
915.245	3157
915.358	3241
915.47	3192
915.583	3253
915.696	3283
915.809	3363
915.921	3393
916.034	3291
916.146	3256
916.259	3226
916.371	3367
916.483	3386
916.595	3283
916.708	3325
916.82	3321
916.932	3344
917.044	3351
917.156	3317
917.268	3233
917.38	3294
917.491	3283
917.603	3351
917.715	3481
917.826	3481
917.938	3401
918.049	3313
918.161	3450
918.272	3584
918.384	3587
918.495	3504
918.606	3378
918.717	3245
918.828	3329
918.939	3412
919.05	3302
919.161	3359
919.272	3184
919.383	3264
919.494	3504
919.604	3660
919.715	3485
919.826	3389
919.936	3458
920.047	3564
920.157	3549
920.267	3747
920.378	3625
920.488	3595
920.598	3778
920.708	3960
920.818	3774
920.928	3861
921.038	3998
921.148	4006
921.258	3663
921.368	3656
921.477	3576
921.587	3542
921.697	3462
921.806	3637
921.916	3523
922.025	3340
922.134	3321
922.244	3317
922.353	3409
922.462	3237
922.571	3222
922.68	3089
922.789	3108
922.898	3165
923.007	3093
923.116	3218
923.224	3161
923.333	3184
923.442	3100
923.55	3089
923.659	3112
923.767	3275
923.876	3123
923.984	3279
924.092	3104
924.201	3207
924.309	3180
924.417	3272
924.525	3161
924.633	3203
924.741	4017
924.849	3039
924.956	3279
925.064	3100
925.172	3070
925.279	3077
925.387	3199
925.494	3142
925.602	3332
925.709	3321
925.816	3222
925.924	3291
926.031	3397
926.138	3306
926.245	3336
926.352	3253
926.459	3431
926.566	3416
926.673	3310
926.779	3237
926.886	3268
926.993	3116
927.099	3135
927.206	3119
927.312	3154
927.419	3214
927.525	3214
927.631	3302
927.737	3195
927.843	3150
927.95	3020
928.056	3123
928.162	3119
928.267	3249
928.373	3778
928.479	3310
928.585	3058
928.69	3226
928.796	3241
928.901	3157
929.007	3074
929.112	3180
929.218	3150
929.323	3150
929.428	3135
929.533	3310
929.638	3077
929.743	3161
929.848	3256
929.953	3161
930.058	3135
930.163	2979
930.267	3039
930.372	3222
930.477	3085
930.581	3313
930.685	3192
930.79	3081
930.894	3108
930.998	3066
931.103	3256
931.207	2937
931.311	2937
931.415	2918
931.519	2800
931.623	2830
