Data from test_V78500241_50.txt Node
Date: Fri Mar 25 16:15:33 CST 2022
User: usil
Spectrometer: V785-0024
Trigger mode: 0
Integration Time (sec): 4.000000E-1
Scans to average: 1
Nonlinearity correction enabled: false
Boxcar width: 0
Storing dark spectrum: false
XAxis mode: Wavelengths
Number of Pixels in Spectrum: 1024
>>>>>Begin Spectral Data<<<<<
801.071	2948
801.214	2956
801.356	2918
801.499	2944
801.641	2883
801.783	2944
801.926	3081
802.068	3020
802.211	3051
802.353	3127
802.496	2986
802.638	3085
802.78	3085
802.923	3154
803.065	3081
803.208	2967
803.35	2963
803.492	2975
803.635	2998
803.777	2800
803.919	2899
804.061	3245
804.204	2971
804.346	2998
804.488	2914
804.63	3051
804.773	2922
804.915	2990
805.057	3146
805.199	2979
805.341	3066
805.483	3074
805.626	3028
805.768	3032
805.91	3119
806.052	3138
806.194	3081
806.336	3279
806.478	3070
806.62	3017
806.762	3024
806.904	3123
807.046	3230
807.188	3047
807.33	2960
807.472	3005
807.614	2960
807.756	3081
807.898	2967
808.04	2941
808.182	3020
808.324	2956
808.465	2956
808.607	2933
808.749	2842
808.891	2933
809.033	3013
809.174	3036
809.316	2960
809.458	2937
809.6	2804
809.741	2826
809.883	2792
810.025	2895
810.166	2899
810.308	2868
810.45	2925
810.591	2826
810.733	2819
810.875	2929
811.016	2830
811.158	2826
811.299	2842
811.441	2937
811.582	2937
811.724	2891
811.865	2899
812.007	3013
812.148	2906
812.29	2948
812.431	2925
812.573	3017
812.714	3020
812.855	3108
812.997	3142
813.138	3203
813.279	3085
813.421	3047
813.562	3020
813.703	2910
813.845	2918
813.986	2796
814.127	2766
814.268	2868
814.41	2883
814.551	2880
814.692	2918
814.833	2861
814.974	2941
815.115	3039
815.256	2895
815.397	2876
815.539	2899
815.68	2819
815.821	2857
815.962	2941
816.103	2994
816.244	2910
816.385	2963
816.526	3001
816.666	2948
816.807	2785
816.948	2937
817.089	2933
817.23	2906
817.371	2838
817.512	2842
817.653	2887
817.793	2880
817.934	2914
818.075	3020
818.216	3005
818.356	3066
818.497	2895
818.638	2849
818.778	2845
818.919	2826
819.06	2811
819.2	2944
819.341	2868
819.481	2819
819.622	2952
819.762	3165
819.903	3100
820.043	2948
820.184	2971
820.324	2941
820.465	3093
820.605	3070
820.746	3032
820.886	3005
821.026	3161
821.167	3230
821.307	3275
821.447	3306
821.588	3279
821.728	3260
821.868	3249
822.008	3104
822.149	3241
822.289	3294
822.429	3142
822.569	3176
822.709	3214
822.849	3074
822.99	3169
823.13	3226
823.27	3291
823.41	3192
823.55	3195
823.69	3188
823.83	3233
823.97	3138
824.11	3043
824.25	3077
824.389	3131
824.529	3173
824.669	3100
824.809	3226
824.949	3317
825.089	3279
825.228	3207
825.368	3036
825.508	3001
825.648	3047
825.787	3047
825.927	3070
826.067	3005
826.206	3001
826.346	3089
826.485	3100
826.625	3180
826.765	3294
826.904	3264
827.044	3039
827.183	2982
827.323	2902
827.462	3070
827.601	2979
827.741	2967
827.88	2994
828.02	2880
828.159	3017
828.298	3062
828.437	3165
828.577	3085
828.716	3272
828.855	3173
828.994	2956
829.134	2937
829.273	2971
829.412	2910
829.551	2868
829.69	2933
829.829	3013
829.968	3180
830.107	3074
830.246	3100
830.385	2975
830.524	2952
830.663	2845
830.802	2762
830.941	2701
831.08	2682
831.219	2769
831.357	2785
831.496	2971
831.635	2762
831.774	2693
831.913	2689
832.051	2590
832.19	2606
832.329	2716
832.467	2583
832.606	2522
832.744	2640
832.883	2648
833.022	2602
833.16	2667
833.299	2739
833.437	2739
833.576	2743
833.714	2750
833.852	2781
833.991	2773
834.129	2842
834.267	2891
834.406	2826
834.544	2918
834.682	2929
834.821	2895
834.959	3131
835.097	2986
835.235	3104
835.373	3039
835.511	3062
835.65	2982
835.788	3001
835.926	2845
836.064	2842
836.202	2891
836.34	3157
836.478	3199
836.615	3127
836.753	3157
836.891	3275
837.029	3180
837.167	3138
837.305	3097
837.443	3070
837.58	3001
837.718	3176
837.856	3104
837.993	3081
838.131	3135
838.269	3150
838.406	3135
838.544	3154
838.681	2956
838.819	2956
838.956	2857
839.094	2899
839.231	2929
839.369	3066
839.506	3389
839.643	3268
839.781	3043
839.918	3009
840.055	3070
840.193	3116
840.33	3142
840.467	3184
840.604	3192
840.742	3443
840.879	3100
841.016	3097
841.153	3180
841.29	3382
841.427	3363
841.564	3306
841.701	3393
841.838	3253
841.975	3165
842.112	3237
842.249	3150
842.385	3058
842.522	3310
842.659	3161
842.796	3108
842.933	3154
843.069	3097
843.206	3089
843.343	3253
843.479	3142
843.616	3203
843.752	2952
843.889	2872
844.025	3131
844.162	2876
844.298	3108
844.435	2982
844.571	2956
844.708	3093
844.844	3218
844.98	3298
845.117	3230
845.253	3112
845.389	3070
845.525	3100
845.661	3150
845.798	3089
845.934	3157
846.07	3104
846.206	3279
846.342	3348
846.478	3230
846.614	3131
846.75	3108
846.886	3047
847.022	3275
847.158	3188
847.294	3241
847.429	3291
847.565	3253
847.701	3553
847.837	3108
847.972	3081
848.108	3226
848.244	3173
848.379	2990
848.515	2967
848.65	3005
848.786	3013
848.921	3043
849.057	3154
849.192	3199
849.328	3097
849.463	3157
849.598	3131
849.734	3043
849.869	3017
850.004	2960
850.14	2994
850.275	2963
850.41	2864
850.545	2922
850.68	2937
850.815	3047
850.95	2990
851.085	3241
851.22	3112
851.355	3066
851.49	3028
851.625	3039
851.76	3093
851.895	2944
852.03	2971
852.165	3112
852.299	3154
852.434	3230
852.569	3165
852.703	3199
852.838	3275
852.973	3386
853.107	3405
853.242	3173
853.376	3138
853.511	3028
853.645	3074
853.78	3275
853.914	3138
854.048	3131
854.183	3165
854.317	3173
854.451	3344
854.585	3116
854.72	3173
854.854	3260
854.988	3119
855.122	3108
855.256	3009
855.39	3112
855.524	3275
855.658	3233
855.792	3203
855.926	3176
856.06	3233
856.194	3306
856.327	3195
856.461	3119
856.595	3112
856.729	3135
856.862	3226
856.996	3214
857.13	3245
857.263	3294
857.397	3359
857.53	3150
857.664	3230
857.797	3264
857.931	3279
858.064	3207
858.197	3214
858.331	3169
858.464	3097
858.597	3074
858.731	3173
858.864	3135
858.997	3104
859.13	3192
859.263	3199
859.396	3214
859.529	3135
859.662	3116
859.795	3081
859.928	3180
860.061	3340
860.194	3279
860.327	3173
860.46	3150
860.592	3249
860.725	3310
860.858	3306
860.99	3150
861.123	3108
861.256	3100
861.388	3169
861.521	3861
861.653	3070
861.786	2990
861.918	3039
862.05	3097
862.183	3157
862.315	3188
862.447	3245
862.58	3108
862.712	2979
862.844	2872
862.976	3066
863.108	3051
863.24	3355
863.372	2910
863.504	3024
863.636	2982
863.768	3085
863.9	3036
864.032	2914
864.164	2990
864.296	3024
864.428	3123
864.559	3146
864.691	3100
864.823	3074
864.954	3043
865.086	3108
865.217	3055
865.349	2994
865.48	3020
865.612	3047
865.743	3165
865.875	2994
866.006	2967
866.137	3020
866.269	2982
866.4	2979
866.531	2986
866.662	2899
866.793	2925
866.924	2941
867.055	3001
867.186	2948
867.317	2933
867.448	2899
867.579	2895
867.71	2876
867.841	2861
867.972	2937
868.103	2956
868.233	2922
868.364	2906
868.495	2967
868.625	3097
868.756	3192
868.886	3005
869.017	3032
869.147	3173
869.278	3207
869.408	3097
869.539	3043
869.669	3127
869.799	3058
869.929	3176
870.06	3165
870.19	3351
870.32	3340
870.45	3348
870.58	3412
870.71	3500
870.84	3469
870.97	3332
871.1	3310
871.23	3500
871.36	3492
871.489	3397
871.619	3450
871.749	3424
871.879	3500
872.008	3515
872.138	3412
872.267	3325
872.397	3176
872.526	3161
872.656	3047
872.785	3146
872.915	3260
873.044	3329
873.173	3272
873.303	3287
873.432	3268
873.561	3272
873.69	3199
873.819	3180
873.948	3218
874.077	3146
874.206	3070
874.335	3116
874.464	3245
874.593	3397
874.722	3302
874.851	3428
874.979	3374
875.108	3397
875.237	3237
875.365	3195
875.494	3222
875.623	3294
875.751	3127
875.88	3154
876.008	3249
876.136	3233
876.265	3397
876.393	3545
876.521	3469
876.65	3420
876.778	3344
876.906	3275
877.034	3237
877.162	3313
877.29	3203
877.418	3268
877.546	3302
877.674	3272
877.802	3302
877.93	3245
878.058	3192
878.185	3131
878.313	3245
878.441	3226
878.568	3108
878.696	3165
878.824	3264
878.951	3340
879.079	3538
879.206	3663
879.333	3485
879.461	3374
879.588	3412
879.715	3504
879.842	3618
879.97	3416
880.097	3192
880.224	3165
880.351	3192
880.478	3268
880.605	3253
880.732	3218
880.859	3568
880.986	3321
881.112	3424
881.239	3222
881.366	3138
881.493	3074
881.619	3036
881.746	3138
881.872	3150
881.999	3138
882.125	3169
882.252	3283
882.378	3325
882.505	3492
882.631	3325
882.757	3176
882.883	3233
883.01	3268
883.136	3241
883.262	3116
883.388	3157
883.514	3332
883.64	3401
883.766	3340
883.892	3272
884.018	3279
884.143	3439
884.269	3603
884.395	3279
884.52	3230
884.646	3188
884.772	3176
884.897	3180
885.023	3230
885.148	3332
885.274	3450
885.399	3409
885.524	3340
885.65	3264
885.775	3332
885.9	3321
886.025	3447
886.15	3450
886.275	3355
886.4	3287
886.525	3359
886.65	3351
886.775	3306
886.9	3523
887.025	3671
887.149	3473
887.274	3321
887.399	3222
887.523	3275
887.648	3226
887.773	3214
887.897	3378
888.021	3454
888.146	3310
888.27	3458
888.395	3568
888.519	3519
888.643	3504
888.767	3504
888.891	3336
889.015	3287
889.139	3306
889.263	3260
889.387	3435
889.511	3549
889.635	3496
889.759	3329
889.883	3336
890.006	3393
890.13	3549
890.254	3313
890.377	3386
890.501	3218
890.624	3241
890.748	3332
890.871	3222
890.995	3180
891.118	3119
891.241	3226
891.364	3245
891.488	3351
891.611	3207
891.734	3241
891.857	3340
891.98	3268
892.103	3374
892.226	3351
892.349	3233
892.471	3180
892.594	3291
892.717	3348
892.839	3306
892.962	3351
893.085	3405
893.207	3332
893.33	3195
893.452	3268
893.575	3382
893.697	3275
893.819	3500
893.941	3545
894.064	3462
894.186	3340
894.308	3302
894.43	3469
894.552	3572
894.674	3511
894.796	3302
894.918	3359
895.04	3275
895.161	3477
895.283	3462
895.405	3336
895.526	3405
895.648	3488
895.769	3443
895.891	3469
896.012	3511
896.134	3504
896.255	3443
896.376	3420
896.498	3405
896.619	3496
896.74	3405
896.861	3488
896.982	3740
897.103	3850
897.224	3648
897.345	3568
897.466	3500
897.587	3545
897.708	3652
897.828	3572
897.949	3454
898.07	3416
898.19	3481
898.311	3660
898.431	3485
898.552	3561
898.672	3656
898.792	3599
898.913	3572
899.033	3447
899.153	3344
899.273	3260
899.393	3348
899.513	3317
899.633	3348
899.753	3401
899.873	3355
899.993	3389
900.113	3359
900.232	3485
900.352	3386
900.472	3336
900.591	3249
900.711	3306
900.83	3279
900.95	3469
901.069	3526
901.189	3374
901.308	3230
901.427	3180
901.546	3211
901.665	3351
901.784	3359
901.904	3253
902.023	3214
902.141	3062
902.26	3028
902.379	3199
902.498	3108
902.617	3089
902.735	3226
902.854	3264
902.973	3245
903.091	3077
903.21	3131
903.328	3192
903.446	3123
903.565	3135
903.683	3241
903.801	3188
903.919	3294
904.038	3351
904.156	3211
904.274	3336
904.392	3279
904.51	3336
904.627	3359
904.745	3500
904.863	3511
904.981	3321
905.098	3192
905.216	3230
905.334	3332
905.451	3378
905.569	3336
905.686	3435
905.803	3496
905.921	3283
906.038	3473
906.155	3393
906.272	3313
906.389	3397
906.506	3332
906.623	3306
906.74	3336
906.857	3199
906.974	3310
907.091	3511
907.208	3633
907.324	3549
907.441	3466
907.557	3253
907.674	3245
907.79	3253
907.907	3310
908.023	3428
908.139	3435
908.256	3393
908.372	3443
908.488	3409
908.604	3291
908.72	3283
908.836	3310
908.952	3317
909.068	3348
909.184	3496
909.3	3450
909.415	3526
909.531	3519
909.647	3313
909.762	3294
909.878	3306
909.993	3409
910.108	3355
910.224	3401
910.339	3443
910.454	3409
910.57	3332
910.685	3294
910.8	3648
910.915	3561
911.03	3485
911.145	3302
911.259	3272
911.374	3363
911.489	3272
911.604	3237
911.718	3154
911.833	3211
911.947	3062
912.062	3017
912.176	3214
912.291	3203
912.405	3253
912.519	3462
912.633	3545
912.748	3382
912.862	3325
912.976	3203
913.09	3093
913.204	3180
913.318	3256
913.431	3397
913.545	3363
913.659	3450
913.772	3389
913.886	3253
914	3268
914.113	3389
914.226	3431
914.34	3389
914.453	3241
914.566	3507
914.68	3313
914.793	3405
914.906	3199
915.019	3157
915.132	3112
915.245	3203
915.358	3199
915.47	3272
915.583	3306
915.696	3332
915.809	3447
915.921	3492
916.034	3310
916.146	3317
916.259	3256
916.371	3409
916.483	3378
916.595	3283
916.708	3401
916.82	3363
916.932	3401
917.044	3382
917.156	3386
917.268	3298
917.38	3351
917.491	3348
917.603	3435
917.715	3485
917.826	3519
917.938	3405
918.049	3336
918.161	3450
918.272	3633
918.384	3580
918.495	3553
918.606	3374
918.717	3291
918.828	3389
918.939	3466
919.05	3348
919.161	3439
919.272	3241
919.383	3310
919.494	3572
919.604	3728
919.715	3599
919.826	3462
919.936	3492
920.047	3614
920.157	3618
920.267	3819
920.378	3660
920.488	3618
920.598	3842
920.708	3983
920.818	3903
920.928	3838
921.038	4055
921.148	4029
921.258	3781
921.368	3660
921.477	3644
921.587	3572
921.697	3515
921.806	3686
921.916	3545
922.025	3409
922.134	3443
922.244	3389
922.353	3488
922.462	3325
922.571	3272
922.68	3123
922.789	3131
922.898	3214
923.007	3123
923.116	3253
923.224	3207
923.333	3241
923.442	3127
923.55	3146
923.659	3176
923.767	3302
923.876	3173
923.984	3275
924.092	3165
924.201	3222
924.309	3291
924.417	3268
924.525	3230
924.633	3268
924.741	4246
924.849	3077
924.956	3310
925.064	3127
925.172	3085
925.279	3138
925.387	3222
925.494	3237
925.602	3405
925.709	3340
925.816	3203
925.924	3351
926.031	3424
926.138	3386
926.245	3431
926.352	3272
926.459	3469
926.566	3515
926.673	3359
926.779	3291
926.886	3325
926.993	3211
927.099	3180
927.206	3199
927.312	3119
927.419	3279
927.525	3245
927.631	3279
927.737	3173
927.843	3211
927.95	3097
928.056	3207
928.162	3241
928.267	3287
928.373	3800
928.479	3359
928.585	3104
928.69	3245
928.796	3298
928.901	3218
929.007	3085
929.112	3230
929.218	3214
929.323	3222
929.428	3176
929.533	3325
929.638	3154
929.743	3226
929.848	3264
929.953	3272
930.058	3161
930.163	3024
930.267	3108
930.372	3226
930.477	3108
930.581	3382
930.685	3188
930.79	3058
930.894	3154
930.998	3119
931.103	3344
931.207	3005
931.311	2990
931.415	2990
931.519	2807
931.623	2887
