Data from test_V78500241_82.txt Node
Date: Fri Mar 25 16:15:46 CST 2022
User: usil
Spectrometer: V785-0024
Trigger mode: 0
Integration Time (sec): 4.000000E-1
Scans to average: 1
Nonlinearity correction enabled: false
Boxcar width: 0
Storing dark spectrum: false
XAxis mode: Wavelengths
Number of Pixels in Spectrum: 1024
>>>>>Begin Spectral Data<<<<<
801.071	2986
801.214	3009
801.356	2918
801.499	2937
801.641	2944
801.783	2960
801.926	3077
802.068	3039
802.211	3032
802.353	3077
802.496	2986
802.638	3070
802.78	3093
802.923	3138
803.065	3097
803.208	2941
803.35	2975
803.492	3036
803.635	2998
803.777	2766
803.919	2918
804.061	3256
804.204	2994
804.346	2941
804.488	2883
804.63	3028
804.773	2910
804.915	2929
805.057	3123
805.199	2918
805.341	3024
805.483	3074
805.626	3043
805.768	3017
805.91	3112
806.052	3119
806.194	3116
806.336	3272
806.478	3074
806.62	2998
806.762	3009
806.904	3104
807.046	3203
807.188	3024
807.33	2937
807.472	3028
807.614	2944
807.756	3001
807.898	2975
808.04	2963
808.182	3017
808.324	2994
808.465	2941
808.607	2887
808.749	2842
808.891	2872
809.033	2975
809.174	3005
809.316	2910
809.458	2925
809.6	2804
809.741	2811
809.883	2785
810.025	2891
810.166	2880
810.308	2899
810.45	2891
810.591	2785
810.733	2769
810.875	2891
811.016	2842
811.158	2762
811.299	2861
811.441	2960
811.582	2925
811.724	2849
811.865	2857
812.007	2941
812.148	2933
812.29	2868
812.431	2941
812.573	3005
812.714	2982
812.855	3039
812.997	3062
813.138	3138
813.279	3058
813.421	3047
813.562	3020
813.703	2933
813.845	2941
813.986	2800
814.127	2766
814.268	2845
814.41	2902
814.551	2853
814.692	2914
814.833	2838
814.974	2910
815.115	2982
815.256	2868
815.397	2838
815.539	2895
815.68	2788
815.821	2811
815.962	2948
816.103	2933
816.244	2914
816.385	2906
816.526	2986
816.666	2952
816.807	2758
816.948	2883
817.089	2975
817.23	2902
817.371	2811
817.512	2807
817.653	2887
817.793	2864
817.934	2918
818.075	2956
818.216	2998
818.356	3024
818.497	2895
818.638	2815
818.778	2834
818.919	2842
819.06	2762
819.2	2937
819.341	2849
819.481	2838
819.622	2971
819.762	3135
819.903	3077
820.043	2910
820.184	2899
820.324	2918
820.465	3047
820.605	3024
820.746	3047
820.886	2967
821.026	3150
821.167	3203
821.307	3275
821.447	3294
821.588	3268
821.728	3256
821.868	3237
822.008	3104
822.149	3214
822.289	3279
822.429	3169
822.569	3146
822.709	3192
822.849	3066
822.99	3161
823.13	3230
823.27	3245
823.41	3173
823.55	3218
823.69	3226
823.83	3253
823.97	3154
824.11	3081
824.25	3047
824.389	3146
824.529	3165
824.669	3131
824.809	3233
824.949	3344
825.089	3287
825.228	3230
825.368	3077
825.508	3039
825.648	3043
825.787	3077
825.927	3116
826.067	3036
826.206	3039
826.346	3104
826.485	3123
826.625	3188
826.765	3336
826.904	3272
827.044	3062
827.183	3017
827.323	2944
827.462	3058
827.601	3013
827.741	3001
827.88	3043
828.02	2937
828.159	3055
828.298	3112
828.437	3173
828.577	3116
828.716	3329
828.855	3154
828.994	3005
829.134	2963
829.273	2982
829.412	2956
829.551	2933
829.69	2963
829.829	3017
829.968	3245
830.107	3104
830.246	3081
830.385	2960
830.524	2918
830.663	2868
830.802	2811
830.941	2712
831.08	2674
831.219	2849
831.357	2834
831.496	3009
831.635	2838
831.774	2746
831.913	2708
832.051	2617
832.19	2651
832.329	2777
832.467	2625
832.606	2530
832.744	2613
832.883	2648
833.022	2644
833.16	2705
833.299	2739
833.437	2758
833.576	2766
833.714	2792
833.852	2807
833.991	2861
834.129	2910
834.267	2891
834.406	2845
834.544	2929
834.682	2975
834.821	2933
834.959	3165
835.097	3032
835.235	3104
835.373	3039
835.511	3077
835.65	3043
835.788	3013
835.926	2883
836.064	2880
836.202	2914
836.34	3169
836.478	3207
836.615	3104
836.753	3180
836.891	3268
837.029	3245
837.167	3150
837.305	3119
837.443	3116
837.58	3005
837.718	3184
837.856	3165
837.993	3097
838.131	3192
838.269	3165
838.406	3180
838.544	3138
838.681	2982
838.819	2960
838.956	2895
839.094	2899
839.231	2982
839.369	3100
839.506	3439
839.643	3275
839.781	3093
839.918	2990
840.055	3127
840.193	3108
840.33	3100
840.467	3195
840.604	3199
840.742	3477
840.879	3104
841.016	3127
841.153	3173
841.29	3386
841.427	3348
841.564	3344
841.701	3340
841.838	3268
841.975	3291
842.112	3302
842.249	3154
842.385	3074
842.522	3298
842.659	3176
842.796	3146
842.933	3203
843.069	3108
843.206	3127
843.343	3233
843.479	3188
843.616	3176
843.752	2956
843.889	2956
844.025	3119
844.162	2925
844.298	3165
844.435	3017
844.571	2975
844.708	3112
844.844	3245
844.98	3313
845.117	3241
845.253	3116
845.389	3047
845.525	3150
845.661	3165
845.798	3058
845.934	3169
846.07	3154
846.206	3260
846.342	3370
846.478	3298
846.614	3161
846.75	3081
846.886	3074
847.022	3283
847.158	3253
847.294	3245
847.429	3294
847.565	3275
847.701	3545
847.837	3097
847.972	3066
848.108	3218
848.244	3195
848.379	3070
848.515	2982
848.65	2986
848.786	3039
848.921	3070
849.057	3173
849.192	3203
849.328	3146
849.463	3150
849.598	3135
849.734	3093
849.869	3013
850.004	3001
850.14	3047
850.275	2982
850.41	2918
850.545	2948
850.68	2990
850.815	3020
850.95	3032
851.085	3249
851.22	3138
851.355	3097
851.49	3013
851.625	3055
851.76	3097
851.895	2967
852.03	2960
852.165	3074
852.299	3188
852.434	3272
852.569	3222
852.703	3249
852.838	3294
852.973	3382
853.107	3401
853.242	3192
853.376	3165
853.511	3028
853.645	3085
853.78	3264
853.914	3199
854.048	3169
854.183	3127
854.317	3241
854.451	3340
854.585	3157
854.72	3138
854.854	3291
854.988	3085
855.122	3138
855.256	3032
855.39	3188
855.524	3332
855.658	3283
855.792	3180
855.926	3237
856.06	3291
856.194	3325
856.327	3230
856.461	3146
856.595	3142
856.729	3195
856.862	3230
856.996	3214
857.13	3275
857.263	3306
857.397	3336
857.53	3161
857.664	3233
857.797	3294
857.931	3317
858.064	3249
858.197	3298
858.331	3192
858.464	3173
858.597	3081
858.731	3154
858.864	3214
858.997	3169
859.13	3222
859.263	3211
859.396	3272
859.529	3138
859.662	3131
859.795	3116
859.928	3199
860.061	3351
860.194	3340
860.327	3192
860.46	3146
860.592	3275
860.725	3272
860.858	3306
860.99	3176
861.123	3093
861.256	3089
861.388	3195
861.521	3713
861.653	3051
861.786	3043
861.918	3047
862.05	3146
862.183	3093
862.315	3222
862.447	3256
862.58	3146
862.712	3013
862.844	2952
862.976	3062
863.108	3032
863.24	3397
863.372	2918
863.504	3017
863.636	3017
863.768	3085
863.9	3074
864.032	2929
864.164	3001
864.296	3062
864.428	3116
864.559	3150
864.691	3116
864.823	3131
864.954	3097
865.086	3070
865.217	3047
865.349	2998
865.48	3028
865.612	3058
865.743	3192
865.875	3055
866.006	3013
866.137	3013
866.269	3028
866.4	2986
866.531	2998
866.662	2986
866.793	2971
866.924	2929
867.055	3005
867.186	2975
867.317	2922
867.448	2914
867.579	2922
867.71	2887
867.841	2845
867.972	2948
868.103	2960
868.233	2918
868.364	2937
868.495	2937
868.625	3138
868.756	3241
868.886	3039
869.017	3093
869.147	3241
869.278	3241
869.408	3093
869.539	3089
869.669	3146
869.799	3100
869.929	3203
870.06	3138
870.19	3378
870.32	3389
870.45	3378
870.58	3443
870.71	3500
870.84	3538
870.97	3359
871.1	3298
871.23	3530
871.36	3496
871.489	3424
871.619	3458
871.749	3450
871.879	3504
872.008	3526
872.138	3397
872.267	3348
872.397	3195
872.526	3180
872.656	3039
872.785	3150
872.915	3256
873.044	3344
873.173	3253
873.303	3359
873.432	3294
873.561	3283
873.69	3226
873.819	3192
873.948	3245
874.077	3142
874.206	3077
874.335	3116
874.464	3279
874.593	3431
874.722	3294
874.851	3454
874.979	3409
875.108	3374
875.237	3256
875.365	3188
875.494	3218
875.623	3287
875.751	3131
875.88	3146
876.008	3226
876.136	3268
876.265	3409
876.393	3549
876.521	3496
876.65	3439
876.778	3378
876.906	3283
877.034	3260
877.162	3283
877.29	3283
877.418	3325
877.546	3294
877.674	3291
877.802	3279
877.93	3256
878.058	3203
878.185	3116
878.313	3241
878.441	3264
878.568	3146
878.696	3226
878.824	3344
878.951	3363
879.079	3511
879.206	3690
879.333	3500
879.461	3386
879.588	3374
879.715	3519
879.842	3584
879.97	3447
880.097	3233
880.224	3161
880.351	3253
880.478	3268
880.605	3256
880.732	3249
880.859	3523
880.986	3329
881.112	3351
881.239	3256
881.366	3108
881.493	3100
881.619	3055
881.746	3112
881.872	3127
881.999	3157
882.125	3176
882.252	3306
882.378	3321
882.505	3542
882.631	3336
882.757	3214
882.883	3260
883.01	3313
883.136	3241
883.262	3108
883.388	3207
883.514	3370
883.64	3393
883.766	3386
883.892	3260
884.018	3294
884.143	3462
884.269	3564
884.395	3211
884.52	3195
884.646	3203
884.772	3180
884.897	3150
885.023	3279
885.148	3378
885.274	3481
885.399	3431
885.524	3317
885.65	3294
885.775	3374
885.9	3317
886.025	3458
886.15	3405
886.275	3397
886.4	3279
886.525	3374
886.65	3302
886.775	3340
886.9	3545
887.025	3698
887.149	3435
887.274	3302
887.399	3249
887.523	3313
887.648	3241
887.773	3260
887.897	3409
888.021	3435
888.146	3336
888.27	3485
888.395	3557
888.519	3485
888.643	3485
888.767	3492
888.891	3321
889.015	3294
889.139	3302
889.263	3256
889.387	3481
889.511	3580
889.635	3496
889.759	3351
889.883	3351
890.006	3416
890.13	3542
890.254	3279
890.377	3405
890.501	3253
890.624	3214
890.748	3351
890.871	3245
890.995	3180
891.118	3077
891.241	3245
891.364	3302
891.488	3359
891.611	3214
891.734	3264
891.857	3351
891.98	3291
892.103	3397
892.226	3313
892.349	3291
892.471	3123
892.594	3279
892.717	3329
892.839	3363
892.962	3336
893.085	3393
893.207	3340
893.33	3195
893.452	3264
893.575	3393
893.697	3291
893.819	3500
893.941	3545
894.064	3488
894.186	3317
894.308	3279
894.43	3481
894.552	3572
894.674	3504
894.796	3306
894.918	3363
895.04	3287
895.161	3492
895.283	3462
895.405	3367
895.526	3435
895.648	3458
895.769	3416
895.891	3473
896.012	3557
896.134	3485
896.255	3492
896.376	3428
896.498	3382
896.619	3488
896.74	3378
896.861	3454
896.982	3736
897.103	3899
897.224	3614
897.345	3599
897.466	3485
897.587	3568
897.708	3652
897.828	3603
897.949	3473
898.07	3412
898.19	3450
898.311	3614
898.431	3515
898.552	3599
898.672	3648
898.792	3633
898.913	3587
899.033	3416
899.153	3306
899.273	3233
899.393	3321
899.513	3325
899.633	3340
899.753	3370
899.873	3367
899.993	3416
900.113	3329
900.232	3428
900.352	3405
900.472	3340
900.591	3233
900.711	3298
900.83	3279
900.95	3462
901.069	3496
901.189	3382
901.308	3207
901.427	3180
901.546	3233
901.665	3321
901.784	3359
901.904	3237
902.023	3199
902.141	3043
902.26	3028
902.379	3195
902.498	3116
902.617	3077
902.735	3260
902.854	3275
902.973	3241
903.091	3112
903.21	3135
903.328	3203
903.446	3157
903.565	3135
903.683	3222
903.801	3192
903.919	3283
904.038	3329
904.156	3260
904.274	3340
904.392	3287
904.51	3306
904.627	3336
904.745	3458
904.863	3530
904.981	3302
905.098	3218
905.216	3298
905.334	3344
905.451	3344
905.569	3321
905.686	3458
905.803	3466
905.921	3325
906.038	3488
906.155	3386
906.272	3306
906.389	3367
906.506	3279
906.623	3283
906.74	3325
906.857	3237
906.974	3298
907.091	3447
907.208	3625
907.324	3515
907.441	3397
907.557	3237
907.674	3275
907.79	3283
907.907	3340
908.023	3439
908.139	3405
908.256	3367
908.372	3424
908.488	3359
908.604	3317
908.72	3291
908.836	3321
908.952	3325
909.068	3367
909.184	3542
909.3	3443
909.415	3534
909.531	3542
909.647	3302
909.762	3332
909.878	3306
909.993	3447
910.108	3405
910.224	3378
910.339	3488
910.454	3336
910.57	3329
910.685	3226
910.8	3625
910.915	3599
911.03	3450
911.145	3302
911.259	3306
911.374	3325
911.489	3291
911.604	3291
911.718	3169
911.833	3192
911.947	3062
912.062	3013
912.176	3184
912.291	3241
912.405	3253
912.519	3473
912.633	3511
912.748	3370
912.862	3355
912.976	3211
913.09	3123
913.204	3188
913.318	3294
913.431	3412
913.545	3382
913.659	3477
913.772	3382
913.886	3283
914	3241
914.113	3374
914.226	3496
914.34	3397
914.453	3226
914.566	3435
914.68	3348
914.793	3397
914.906	3218
915.019	3180
915.132	3146
915.245	3180
915.358	3241
915.47	3253
915.583	3325
915.696	3340
915.809	3431
915.921	3447
916.034	3298
916.146	3287
916.259	3268
916.371	3382
916.483	3389
916.595	3310
916.708	3359
916.82	3340
916.932	3351
917.044	3355
917.156	3409
917.268	3294
917.38	3355
917.491	3359
917.603	3401
917.715	3492
917.826	3462
917.938	3416
918.049	3340
918.161	3439
918.272	3637
918.384	3595
918.495	3485
918.606	3405
918.717	3310
918.828	3447
918.939	3500
919.05	3340
919.161	3412
919.272	3226
919.383	3317
919.494	3504
919.604	3713
919.715	3534
919.826	3454
919.936	3481
920.047	3622
920.157	3610
920.267	3838
920.378	3641
920.488	3606
920.598	3850
920.708	4021
920.818	3838
920.928	3896
921.038	4090
921.148	4021
921.258	3770
921.368	3682
921.477	3660
921.587	3584
921.697	3504
921.806	3667
921.916	3542
922.025	3424
922.134	3363
922.244	3351
922.353	3450
922.462	3306
922.571	3275
922.68	3119
922.789	3119
922.898	3169
923.007	3100
923.116	3226
923.224	3211
923.333	3199
923.442	3131
923.55	3074
923.659	3195
923.767	3249
923.876	3165
923.984	3294
924.092	3119
924.201	3233
924.309	3260
924.417	3241
924.525	3249
924.633	3249
924.741	4268
924.849	3104
924.956	3294
925.064	3077
925.172	3089
925.279	3161
925.387	3253
925.494	3207
925.602	3348
925.709	3397
925.816	3241
925.924	3313
926.031	3428
926.138	3329
926.245	3386
926.352	3310
926.459	3447
926.566	3515
926.673	3351
926.779	3298
926.886	3302
926.993	3218
927.099	3176
927.206	3135
927.312	3173
927.419	3321
927.525	3226
927.631	3283
927.737	3173
927.843	3203
927.95	3089
928.056	3157
928.162	3230
928.267	3329
928.373	3865
928.479	3351
928.585	3077
928.69	3218
928.796	3313
928.901	3211
929.007	3074
929.112	3241
929.218	3192
929.323	3173
929.428	3184
929.533	3359
929.638	3135
929.743	3199
929.848	3302
929.953	3218
930.058	3192
930.163	3020
930.267	3089
930.372	3230
930.477	3104
930.581	3351
930.685	3195
930.79	3081
930.894	3142
930.998	3085
931.103	3329
931.207	2986
931.311	2967
931.415	2948
931.519	2804
931.623	2819
