Data from test_V78500241_26.txt Node
Date: Fri Mar 25 16:15:23 CST 2022
User: usil
Spectrometer: V785-0024
Trigger mode: 0
Integration Time (sec): 4.000000E-1
Scans to average: 1
Nonlinearity correction enabled: false
Boxcar width: 0
Storing dark spectrum: false
XAxis mode: Wavelengths
Number of Pixels in Spectrum: 1024
>>>>>Begin Spectral Data<<<<<
801.071	2941
801.214	2994
801.356	2899
801.499	2994
801.641	2918
801.783	2967
801.926	3097
802.068	3051
802.211	3047
802.353	3081
802.496	3005
802.638	3058
802.78	3062
802.923	3131
803.065	3081
803.208	2948
803.35	2956
803.492	2967
803.635	2982
803.777	2773
803.919	2910
804.061	3230
804.204	2975
804.346	2948
804.488	2880
804.63	3043
804.773	2902
804.915	2929
805.057	3146
805.199	2956
805.341	3039
805.483	3047
805.626	3051
805.768	3005
805.91	3119
806.052	3165
806.194	3074
806.336	3256
806.478	3055
806.62	2979
806.762	3047
806.904	3100
807.046	3233
807.188	3043
807.33	2933
807.472	3066
807.614	2925
807.756	3020
807.898	2975
808.04	2925
808.182	3032
808.324	3013
808.465	2956
808.607	2937
808.749	2853
808.891	2876
809.033	3001
809.174	3055
809.316	2929
809.458	2902
809.6	2811
809.741	2800
809.883	2853
810.025	2864
810.166	2906
810.308	2857
810.45	2918
810.591	2792
810.733	2811
810.875	2849
811.016	2811
811.158	2800
811.299	2861
811.441	3001
811.582	2975
811.724	2876
811.865	2906
812.007	2937
812.148	2880
812.29	2876
812.431	2910
812.573	2975
812.714	2990
812.855	3112
812.997	3150
813.138	3169
813.279	3051
813.421	3020
813.562	2998
813.703	2887
813.845	2971
813.986	2796
814.127	2766
814.268	2883
814.41	2883
814.551	2788
814.692	2914
814.833	2864
814.974	2925
815.115	2990
815.256	2853
815.397	2849
815.539	2891
815.68	2849
815.821	2823
815.962	2960
816.103	2971
816.244	2902
816.385	2914
816.526	3001
816.666	2956
816.807	2788
816.948	2937
817.089	2918
817.23	2899
817.371	2796
817.512	2830
817.653	2899
817.793	2868
817.934	2906
818.075	3024
818.216	3051
818.356	3081
818.497	2933
818.638	2819
818.778	2868
818.919	2815
819.06	2766
819.2	2918
819.341	2876
819.481	2823
819.622	2948
819.762	3142
819.903	3104
820.043	2933
820.184	2952
820.324	2937
820.465	3074
820.605	3112
820.746	3074
820.886	2956
821.026	3138
821.167	3214
821.307	3317
821.447	3340
821.588	3283
821.728	3260
821.868	3218
822.008	3138
822.149	3184
822.289	3283
822.429	3165
822.569	3154
822.709	3230
822.849	3043
822.99	3119
823.13	3226
823.27	3245
823.41	3142
823.55	3188
823.69	3180
823.83	3275
823.97	3169
824.11	3051
824.25	3070
824.389	3093
824.529	3165
824.669	3108
824.809	3214
824.949	3325
825.089	3283
825.228	3211
825.368	3062
825.508	2998
825.648	2998
825.787	3055
825.927	3066
826.067	3024
826.206	3017
826.346	3066
826.485	3146
826.625	3142
826.765	3279
826.904	3283
827.044	3066
827.183	2967
827.323	2918
827.462	3062
827.601	2941
827.741	2998
827.88	3009
828.02	2895
828.159	3005
828.298	3085
828.437	3180
828.577	3108
828.716	3291
828.855	3097
828.994	2963
829.134	2902
829.273	2963
829.412	2895
829.551	2887
829.69	2929
829.829	3017
829.968	3188
830.107	3032
830.246	3062
830.385	2998
830.524	2944
830.663	2872
830.802	2754
830.941	2693
831.08	2682
831.219	2788
831.357	2796
831.496	3036
831.635	2792
831.774	2674
831.913	2705
832.051	2583
832.19	2625
832.329	2705
832.467	2549
832.606	2514
832.744	2602
832.883	2621
833.022	2621
833.16	2686
833.299	2739
833.437	2724
833.576	2754
833.714	2762
833.852	2750
833.991	2819
834.129	2880
834.267	2895
834.406	2830
834.544	2891
834.682	2937
834.821	2902
834.959	3123
835.097	2941
835.235	3138
835.373	3055
835.511	3043
835.65	3039
835.788	3009
835.926	2891
836.064	2845
836.202	2895
836.34	3108
836.478	3184
836.615	3108
836.753	3157
836.891	3226
837.029	3157
837.167	3165
837.305	3119
837.443	3077
837.58	3013
837.718	3169
837.856	3116
837.993	3085
838.131	3123
838.269	3169
838.406	3150
838.544	3116
838.681	2986
838.819	3005
838.956	2826
839.094	2864
839.231	2967
839.369	3066
839.506	3389
839.643	3245
839.781	3062
839.918	2982
840.055	3074
840.193	3119
840.33	3112
840.467	3085
840.604	3176
840.742	3420
840.879	3100
841.016	3089
841.153	3154
841.29	3409
841.427	3329
841.564	3298
841.701	3355
841.838	3268
841.975	3241
842.112	3241
842.249	3123
842.385	3055
842.522	3313
842.659	3169
842.796	3093
842.933	3146
843.069	3100
843.206	3039
843.343	3199
843.479	3116
843.616	3188
843.752	2952
843.889	2895
844.025	3127
844.162	2887
844.298	3135
844.435	3036
844.571	2956
844.708	3123
844.844	3237
844.98	3279
845.117	3249
845.253	3051
845.389	3062
845.525	3127
845.661	3131
845.798	3077
845.934	3192
846.07	3104
846.206	3253
846.342	3367
846.478	3283
846.614	3119
846.75	3074
846.886	3070
847.022	3279
847.158	3165
847.294	3253
847.429	3287
847.565	3275
847.701	3534
847.837	3062
847.972	3051
848.108	3203
848.244	3199
848.379	3032
848.515	2990
848.65	2971
848.786	3039
848.921	3028
849.057	3123
849.192	3157
849.328	3097
849.463	3146
849.598	3097
849.734	3070
849.869	3013
850.004	2994
850.14	3039
850.275	2982
850.41	2868
850.545	2922
850.68	2979
850.815	3009
850.95	2982
851.085	3241
851.22	3142
851.355	3077
851.49	3058
851.625	3039
851.76	3070
851.895	2952
852.03	2982
852.165	3066
852.299	3161
852.434	3264
852.569	3176
852.703	3195
852.838	3268
852.973	3397
853.107	3401
853.242	3169
853.376	3089
853.511	3009
853.645	3074
853.78	3279
853.914	3184
854.048	3180
854.183	3112
854.317	3176
854.451	3325
854.585	3138
854.72	3131
854.854	3275
854.988	3104
855.122	3123
855.256	3020
855.39	3146
855.524	3283
855.658	3195
855.792	3180
855.926	3218
856.06	3287
856.194	3317
856.327	3176
856.461	3146
856.595	3157
856.729	3131
856.862	3279
856.996	3192
857.13	3230
857.263	3260
857.397	3389
857.53	3157
857.664	3245
857.797	3291
857.931	3302
858.064	3214
858.197	3272
858.331	3199
858.464	3142
858.597	3028
858.731	3188
858.864	3165
858.997	3131
859.13	3192
859.263	3199
859.396	3260
859.529	3108
859.662	3131
859.795	3085
859.928	3211
860.061	3306
860.194	3336
860.327	3165
860.46	3157
860.592	3310
860.725	3306
860.858	3279
860.99	3127
861.123	3089
861.256	3135
861.388	3188
861.521	3770
861.653	3043
861.786	3020
861.918	2982
862.05	3104
862.183	3127
862.315	3222
862.447	3218
862.58	3131
862.712	2971
862.844	2929
862.976	3039
863.108	3089
863.24	3507
863.372	2956
863.504	3009
863.636	3009
863.768	3055
863.9	3017
864.032	2952
864.164	2998
864.296	3051
864.428	3119
864.559	3142
864.691	3138
864.823	3116
864.954	3127
865.086	3070
865.217	3070
865.349	2979
865.48	3020
865.612	3028
865.743	3199
865.875	3017
866.006	2971
866.137	3020
866.269	2971
866.4	3017
866.531	2948
866.662	2937
866.793	2937
866.924	2967
867.055	3024
867.186	2956
867.317	2918
867.448	2872
867.579	2891
867.71	2914
867.841	2838
867.972	2910
868.103	2933
868.233	2891
868.364	2922
868.495	2929
868.625	3112
868.756	3226
868.886	2994
869.017	3070
869.147	3245
869.278	3214
869.408	3085
869.539	3085
869.669	3127
869.799	3070
869.929	3188
870.06	3161
870.19	3359
870.32	3332
870.45	3351
870.58	3439
870.71	3481
870.84	3481
870.97	3386
871.1	3306
871.23	3561
871.36	3511
871.489	3389
871.619	3416
871.749	3439
871.879	3462
872.008	3534
872.138	3389
872.267	3283
872.397	3203
872.526	3176
872.656	3036
872.785	3135
872.915	3298
873.044	3359
873.173	3256
873.303	3294
873.432	3283
873.561	3287
873.69	3203
873.819	3157
873.948	3253
874.077	3169
874.206	3116
874.335	3116
874.464	3260
874.593	3378
874.722	3264
874.851	3428
874.979	3416
875.108	3382
875.237	3233
875.365	3169
875.494	3222
875.623	3317
875.751	3104
875.88	3097
876.008	3230
876.136	3275
876.265	3393
876.393	3595
876.521	3458
876.65	3405
876.778	3382
876.906	3332
877.034	3214
877.162	3218
877.29	3218
877.418	3310
877.546	3298
877.674	3287
877.802	3272
877.93	3241
878.058	3199
878.185	3161
878.313	3260
878.441	3268
878.568	3116
878.696	3226
878.824	3313
878.951	3344
879.079	3492
879.206	3724
879.333	3500
879.461	3382
879.588	3405
879.715	3534
879.842	3679
879.97	3412
880.097	3203
880.224	3207
880.351	3222
880.478	3279
880.605	3184
880.732	3222
880.859	3496
880.986	3355
881.112	3386
881.239	3253
881.366	3127
881.493	3112
881.619	3070
881.746	3100
881.872	3127
881.999	3135
882.125	3184
882.252	3260
882.378	3340
882.505	3469
882.631	3389
882.757	3207
882.883	3302
883.01	3222
883.136	3192
883.262	3131
883.388	3184
883.514	3393
883.64	3393
883.766	3374
883.892	3237
884.018	3294
884.143	3507
884.269	3599
884.395	3249
884.52	3192
884.646	3253
884.772	3165
884.897	3131
885.023	3272
885.148	3351
885.274	3477
885.399	3420
885.524	3344
885.65	3321
885.775	3351
885.9	3336
886.025	3469
886.15	3405
886.275	3363
886.4	3291
886.525	3332
886.65	3279
886.775	3317
886.9	3534
887.025	3686
887.149	3450
887.274	3317
887.399	3241
887.523	3214
887.648	3230
887.773	3207
887.897	3405
888.021	3435
888.146	3340
888.27	3469
888.395	3606
888.519	3526
888.643	3469
888.767	3523
888.891	3401
889.015	3298
889.139	3329
889.263	3287
889.387	3462
889.511	3557
889.635	3504
889.759	3355
889.883	3348
890.006	3428
890.13	3545
890.254	3348
890.377	3431
890.501	3230
890.624	3241
890.748	3367
890.871	3214
890.995	3180
891.118	3104
891.241	3241
891.364	3268
891.488	3382
891.611	3203
891.734	3287
891.857	3317
891.98	3256
892.103	3409
892.226	3317
892.349	3260
892.471	3142
892.594	3256
892.717	3374
892.839	3291
892.962	3355
893.085	3424
893.207	3351
893.33	3214
893.452	3272
893.575	3374
893.697	3313
893.819	3549
893.941	3580
894.064	3447
894.186	3310
894.308	3279
894.43	3530
894.552	3587
894.674	3515
894.796	3317
894.918	3359
895.04	3348
895.161	3469
895.283	3439
895.405	3370
895.526	3416
895.648	3504
895.769	3473
895.891	3564
896.012	3587
896.134	3530
896.255	3439
896.376	3401
896.498	3454
896.619	3481
896.74	3450
896.861	3443
896.982	3759
897.103	3873
897.224	3637
897.345	3534
897.466	3504
897.587	3534
897.708	3682
897.828	3549
897.949	3496
898.07	3382
898.19	3500
898.311	3633
898.431	3492
898.552	3618
898.672	3633
898.792	3644
898.913	3603
899.033	3462
899.153	3329
899.273	3211
899.393	3363
899.513	3325
899.633	3348
899.753	3351
899.873	3386
899.993	3431
900.113	3370
900.232	3447
900.352	3389
900.472	3317
900.591	3237
900.711	3272
900.83	3272
900.95	3454
901.069	3564
901.189	3450
901.308	3237
901.427	3184
901.546	3233
901.665	3306
901.784	3344
901.904	3237
902.023	3199
902.141	3055
902.26	3047
902.379	3180
902.498	3135
902.617	3093
902.735	3245
902.854	3241
902.973	3249
903.091	3093
903.21	3093
903.328	3184
903.446	3176
903.565	3161
903.683	3241
903.801	3169
903.919	3294
904.038	3340
904.156	3249
904.274	3302
904.392	3321
904.51	3359
904.627	3382
904.745	3504
904.863	3545
904.981	3344
905.098	3222
905.216	3230
905.334	3340
905.451	3386
905.569	3367
905.686	3511
905.803	3492
905.921	3332
906.038	3454
906.155	3424
906.272	3325
906.389	3393
906.506	3310
906.623	3317
906.74	3374
906.857	3279
906.974	3317
907.091	3526
907.208	3599
907.324	3469
907.441	3462
907.557	3279
907.674	3268
907.79	3287
907.907	3310
908.023	3443
908.139	3428
908.256	3332
908.372	3393
908.488	3378
908.604	3317
908.72	3291
908.836	3317
908.952	3329
909.068	3401
909.184	3553
909.3	3477
909.415	3568
909.531	3515
909.647	3306
909.762	3329
909.878	3313
909.993	3420
910.108	3386
910.224	3401
910.339	3473
910.454	3348
910.57	3329
910.685	3359
910.8	3667
910.915	3614
911.03	3454
911.145	3329
911.259	3298
911.374	3351
911.489	3313
911.604	3275
911.718	3199
911.833	3218
911.947	3051
912.062	3009
912.176	3249
912.291	3268
912.405	3268
912.519	3492
912.633	3534
912.748	3374
912.862	3313
912.976	3249
913.09	3123
913.204	3211
913.318	3310
913.431	3386
913.545	3382
913.659	3458
913.772	3374
913.886	3268
914	3256
914.113	3389
914.226	3473
914.34	3405
914.453	3268
914.566	3420
914.68	3336
914.793	3386
914.906	3218
915.019	3173
915.132	3058
915.245	3253
915.358	3249
915.47	3272
915.583	3321
915.696	3340
915.809	3450
915.921	3431
916.034	3291
916.146	3287
916.259	3275
916.371	3420
916.483	3386
916.595	3332
916.708	3428
916.82	3386
916.932	3393
917.044	3389
917.156	3382
917.268	3287
917.38	3378
917.491	3344
917.603	3393
917.715	3504
917.826	3515
917.938	3458
918.049	3321
918.161	3519
918.272	3603
918.384	3610
918.495	3576
918.606	3367
918.717	3310
918.828	3454
918.939	3435
919.05	3370
919.161	3416
919.272	3222
919.383	3355
919.494	3580
919.604	3728
919.715	3523
919.826	3466
919.936	3481
920.047	3644
920.157	3603
920.267	3819
920.378	3652
920.488	3614
920.598	3800
920.708	4006
920.818	3869
920.928	3865
921.038	4116
921.148	4040
921.258	3720
921.368	3705
921.477	3679
921.587	3557
921.697	3515
921.806	3709
921.916	3606
922.025	3389
922.134	3431
922.244	3348
922.353	3458
922.462	3310
922.571	3275
922.68	3165
922.789	3131
922.898	3173
923.007	3169
923.116	3241
923.224	3222
923.333	3203
923.442	3150
923.55	3123
923.659	3195
923.767	3264
923.876	3192
923.984	3268
924.092	3138
924.201	3256
924.309	3256
924.417	3313
924.525	3230
924.633	3264
924.741	4207
924.849	3077
924.956	3332
925.064	3104
925.172	3104
925.279	3123
925.387	3256
925.494	3268
925.602	3401
925.709	3370
925.816	3214
925.924	3310
926.031	3435
926.138	3370
926.245	3431
926.352	3310
926.459	3458
926.566	3519
926.673	3386
926.779	3283
926.886	3287
926.993	3195
927.099	3203
927.206	3161
927.312	3165
927.419	3291
927.525	3222
927.631	3302
927.737	3207
927.843	3165
927.95	3116
928.056	3169
928.162	3249
928.267	3325
928.373	3827
928.479	3355
928.585	3104
928.69	3260
928.796	3340
928.901	3207
929.007	3093
929.112	3272
929.218	3256
929.323	3211
929.428	3214
929.533	3359
929.638	3142
929.743	3253
929.848	3302
929.953	3268
930.058	3192
930.163	3036
930.267	3051
930.372	3233
930.477	3100
930.581	3355
930.685	3188
930.79	3081
930.894	3138
930.998	3165
931.103	3351
931.207	3017
931.311	2975
931.415	2963
931.519	2792
931.623	2857
