Data from test_V78500241_24.txt Node
Date: Fri Mar 25 16:15:22 CST 2022
User: usil
Spectrometer: V785-0024
Trigger mode: 0
Integration Time (sec): 4.000000E-1
Scans to average: 1
Nonlinearity correction enabled: false
Boxcar width: 0
Storing dark spectrum: false
XAxis mode: Wavelengths
Number of Pixels in Spectrum: 1024
>>>>>Begin Spectral Data<<<<<
801.071	2952
801.214	3009
801.356	2910
801.499	2929
801.641	2910
801.783	2948
801.926	3104
802.068	3005
802.211	3020
802.353	3108
802.496	3001
802.638	3081
802.78	3081
802.923	3077
803.065	3039
803.208	2937
803.35	2948
803.492	2944
803.635	2979
803.777	2819
803.919	2925
804.061	3233
804.204	2975
804.346	2948
804.488	2868
804.63	3032
804.773	2891
804.915	2956
805.057	3123
805.199	2918
805.341	3039
805.483	3108
805.626	3047
805.768	3043
805.91	3097
806.052	3214
806.194	3074
806.336	3272
806.478	3081
806.62	2971
806.762	3062
806.904	3100
807.046	3188
807.188	2998
807.33	2994
807.472	3024
807.614	2933
807.756	3009
807.898	2975
808.04	2902
808.182	3017
808.324	3005
808.465	2937
808.607	2883
808.749	2830
808.891	2864
809.033	2979
809.174	3009
809.316	2914
809.458	2925
809.6	2815
809.741	2788
809.883	2773
810.025	2868
810.166	2868
810.308	2872
810.45	2883
810.591	2769
810.733	2773
810.875	2845
811.016	2834
811.158	2773
811.299	2857
811.441	2986
811.582	2929
811.724	2861
811.865	2853
812.007	2929
812.148	2925
812.29	2902
812.431	2902
812.573	3005
812.714	3005
812.855	3085
812.997	3097
813.138	3173
813.279	2998
813.421	3051
813.562	3028
813.703	2922
813.845	2899
813.986	2838
814.127	2750
814.268	2857
814.41	2899
814.551	2853
814.692	2902
814.833	2883
814.974	2948
815.115	2967
815.256	2880
815.397	2819
815.539	2891
815.68	2815
815.821	2830
815.962	2994
816.103	2960
816.244	2891
816.385	2933
816.526	2998
816.666	2967
816.807	2769
816.948	2887
817.089	2944
817.23	2918
817.371	2834
817.512	2823
817.653	2853
817.793	2876
817.934	2906
818.075	3013
818.216	3062
818.356	3051
818.497	2902
818.638	2815
818.778	2880
818.919	2845
819.06	2777
819.2	2906
819.341	2834
819.481	2861
819.622	2956
819.762	3116
819.903	3112
820.043	2986
820.184	2933
820.324	2937
820.465	3043
820.605	3051
820.746	3085
820.886	3013
821.026	3123
821.167	3161
821.307	3279
821.447	3306
821.588	3260
821.728	3249
821.868	3241
822.008	3100
822.149	3233
822.289	3287
822.429	3100
822.569	3108
822.709	3233
822.849	3066
822.99	3100
823.13	3199
823.27	3230
823.41	3131
823.55	3173
823.69	3195
823.83	3237
823.97	3180
824.11	2990
824.25	3036
824.389	3081
824.529	3138
824.669	3123
824.809	3199
824.949	3325
825.089	3241
825.228	3192
825.368	3043
825.508	2994
825.648	2994
825.787	3028
825.927	3081
826.067	2998
826.206	3028
826.346	3104
826.485	3070
826.625	3119
826.765	3306
826.904	3233
827.044	3013
827.183	2982
827.323	2868
827.462	3020
827.601	2963
827.741	2944
827.88	3005
828.02	2868
828.159	3055
828.298	3089
828.437	3146
828.577	3097
828.716	3313
828.855	3100
828.994	2963
829.134	2918
829.273	2963
829.412	2880
829.551	2887
829.69	2933
829.829	3017
829.968	3184
830.107	3081
830.246	3081
830.385	2971
830.524	2933
830.663	2845
830.802	2777
830.941	2667
831.08	2659
831.219	2785
831.357	2811
831.496	2975
831.635	2758
831.774	2670
831.913	2693
832.051	2587
832.19	2606
832.329	2697
832.467	2629
832.606	2518
832.744	2617
832.883	2598
833.022	2598
833.16	2693
833.299	2716
833.437	2701
833.576	2686
833.714	2758
833.852	2727
833.991	2792
834.129	2899
834.267	2861
834.406	2792
834.544	2914
834.682	2906
834.821	2899
834.959	3093
835.097	2952
835.235	3116
835.373	3028
835.511	3043
835.65	2952
835.788	3013
835.926	2864
836.064	2849
836.202	2899
836.34	3131
836.478	3218
836.615	3089
836.753	3146
836.891	3237
837.029	3195
837.167	3161
837.305	3135
837.443	3100
837.58	2994
837.718	3192
837.856	3089
837.993	3058
838.131	3150
838.269	3173
838.406	3131
838.544	3131
838.681	2952
838.819	2956
838.956	2834
839.094	2876
839.231	2990
839.369	3055
839.506	3416
839.643	3272
839.781	3043
839.918	2990
840.055	3039
840.193	3077
840.33	3116
840.467	3108
840.604	3180
840.742	3454
840.879	3070
841.016	3047
841.153	3173
841.29	3401
841.427	3329
841.564	3329
841.701	3370
841.838	3249
841.975	3241
842.112	3245
842.249	3123
842.385	3039
842.522	3279
842.659	3146
842.796	3112
842.933	3142
843.069	3074
843.206	3081
843.343	3237
843.479	3150
843.616	3173
843.752	2929
843.889	2868
844.025	3119
844.162	2895
844.298	3135
844.435	3001
844.571	2956
844.708	3142
844.844	3203
844.98	3272
845.117	3256
845.253	3077
845.389	3001
845.525	3131
845.661	3142
845.798	3055
845.934	3138
846.07	3131
846.206	3287
846.342	3382
846.478	3226
846.614	3131
846.75	3138
846.886	3097
847.022	3302
847.158	3218
847.294	3245
847.429	3317
847.565	3230
847.701	3511
847.837	3112
847.972	3009
848.108	3195
848.244	3188
848.379	3024
848.515	2960
848.65	2986
848.786	3009
848.921	3001
849.057	3173
849.192	3195
849.328	3100
849.463	3161
849.598	3119
849.734	3062
849.869	2994
850.004	2937
850.14	3017
850.275	2963
850.41	2891
850.545	2914
850.68	2952
850.815	3009
850.95	3032
851.085	3245
851.22	3142
851.355	3081
851.49	3001
851.625	3028
851.76	2998
851.895	2963
852.03	2941
852.165	3100
852.299	3188
852.434	3268
852.569	3188
852.703	3226
852.838	3294
852.973	3389
853.107	3367
853.242	3180
853.376	3127
853.511	2986
853.645	3100
853.78	3283
853.914	3146
854.048	3142
854.183	3123
854.317	3195
854.451	3321
854.585	3161
854.72	3123
854.854	3199
854.988	3100
855.122	3142
855.256	2998
855.39	3116
855.524	3310
855.658	3237
855.792	3192
855.926	3203
856.06	3253
856.194	3291
856.327	3138
856.461	3123
856.595	3135
856.729	3165
856.862	3249
856.996	3218
857.13	3233
857.263	3249
857.397	3325
857.53	3169
857.664	3241
857.797	3245
857.931	3287
858.064	3218
858.197	3283
858.331	3157
858.464	3131
858.597	3028
858.731	3127
858.864	3142
858.997	3089
859.13	3207
859.263	3203
859.396	3241
859.529	3154
859.662	3100
859.795	3070
859.928	3150
860.061	3306
860.194	3336
860.327	3161
860.46	3161
860.592	3230
860.725	3272
860.858	3302
860.99	3138
861.123	3127
861.256	3097
861.388	3180
861.521	3732
861.653	3024
861.786	3036
861.918	3043
862.05	3135
862.183	3150
862.315	3173
862.447	3249
862.58	3138
862.712	2975
862.844	2887
862.976	3017
863.108	3001
863.24	3420
863.372	2925
863.504	2998
863.636	2998
863.768	3058
863.9	3055
864.032	2963
864.164	2963
864.296	3039
864.428	3138
864.559	3131
864.691	3112
864.823	3104
864.954	3070
865.086	3077
865.217	3047
865.349	3009
865.48	3039
865.612	3074
865.743	3230
865.875	3039
866.006	2967
866.137	3013
866.269	3032
866.4	2990
866.531	3024
866.662	2952
866.793	2933
866.924	2963
867.055	3047
867.186	2994
867.317	2948
867.448	2906
867.579	2910
867.71	2857
867.841	2857
867.972	2963
868.103	2960
868.233	2914
868.364	2971
868.495	2971
868.625	3207
868.756	3249
868.886	3032
869.017	3070
869.147	3203
869.278	3195
869.408	3108
869.539	3085
869.669	3188
869.799	3116
869.929	3214
870.06	3184
870.19	3431
870.32	3336
870.45	3386
870.58	3462
870.71	3545
870.84	3553
870.97	3412
871.1	3325
871.23	3572
871.36	3561
871.489	3447
871.619	3462
871.749	3515
871.879	3519
872.008	3553
872.138	3450
872.267	3363
872.397	3249
872.526	3222
872.656	3112
872.785	3180
872.915	3344
873.044	3401
873.173	3329
873.303	3351
873.432	3332
873.561	3332
873.69	3256
873.819	3241
873.948	3264
874.077	3211
874.206	3112
874.335	3188
874.464	3291
874.593	3428
874.722	3329
874.851	3519
874.979	3424
875.108	3412
875.237	3275
875.365	3260
875.494	3241
875.623	3329
875.751	3173
875.88	3233
876.008	3275
876.136	3287
876.265	3481
876.393	3625
876.521	3504
876.65	3469
876.778	3424
876.906	3348
877.034	3264
877.162	3287
877.29	3272
877.418	3359
877.546	3359
877.674	3321
877.802	3287
877.93	3313
878.058	3260
878.185	3195
878.313	3279
878.441	3302
878.568	3150
878.696	3256
878.824	3336
878.951	3370
879.079	3496
879.206	3717
879.333	3511
879.461	3443
879.588	3466
879.715	3561
879.842	3732
879.97	3454
880.097	3237
880.224	3226
880.351	3260
880.478	3287
880.605	3260
880.732	3241
880.859	3572
880.986	3386
881.112	3393
881.239	3279
881.366	3188
881.493	3127
881.619	3089
881.746	3165
881.872	3146
881.999	3161
882.125	3218
882.252	3313
882.378	3386
882.505	3515
882.631	3313
882.757	3211
882.883	3287
883.01	3294
883.136	3222
883.262	3214
883.388	3207
883.514	3401
883.64	3454
883.766	3363
883.892	3230
884.018	3310
884.143	3492
884.269	3629
884.395	3302
884.52	3253
884.646	3287
884.772	3180
884.897	3169
885.023	3294
885.148	3393
885.274	3504
885.399	3439
885.524	3332
885.65	3310
885.775	3397
885.9	3340
886.025	3530
886.15	3473
886.275	3382
886.4	3313
886.525	3363
886.65	3344
886.775	3359
886.9	3603
887.025	3732
887.149	3488
887.274	3359
887.399	3256
887.523	3283
887.648	3260
887.773	3268
887.897	3401
888.021	3473
888.146	3340
888.27	3507
888.395	3591
888.519	3545
888.643	3519
888.767	3568
888.891	3382
889.015	3313
889.139	3389
889.263	3363
889.387	3477
889.511	3618
889.635	3462
889.759	3378
889.883	3382
890.006	3428
890.13	3576
890.254	3340
890.377	3435
890.501	3291
890.624	3298
890.748	3409
890.871	3275
890.995	3146
891.118	3161
891.241	3291
891.364	3245
891.488	3374
891.611	3256
891.734	3302
891.857	3367
891.98	3306
892.103	3431
892.226	3378
892.349	3279
892.471	3192
892.594	3306
892.717	3363
892.839	3363
892.962	3397
893.085	3431
893.207	3363
893.33	3199
893.452	3310
893.575	3382
893.697	3351
893.819	3530
893.941	3656
894.064	3557
894.186	3325
894.308	3363
894.43	3549
894.552	3557
894.674	3542
894.796	3374
894.918	3424
895.04	3344
895.161	3504
895.283	3477
895.405	3409
895.526	3435
895.648	3496
895.769	3481
895.891	3534
896.012	3557
896.134	3542
896.255	3519
896.376	3466
896.498	3454
896.619	3511
896.74	3450
896.861	3458
896.982	3781
897.103	3934
897.224	3698
897.345	3584
897.466	3511
897.587	3610
897.708	3724
897.828	3663
897.949	3507
898.07	3428
898.19	3519
898.311	3701
898.431	3561
898.552	3576
898.672	3682
898.792	3667
898.913	3595
899.033	3492
899.153	3348
899.273	3363
899.393	3374
899.513	3367
899.633	3405
899.753	3412
899.873	3367
899.993	3443
900.113	3401
900.232	3458
900.352	3454
900.472	3412
900.591	3310
900.711	3401
900.83	3302
900.95	3504
901.069	3561
901.189	3428
901.308	3218
901.427	3207
901.546	3283
901.665	3355
901.784	3420
901.904	3355
902.023	3230
902.141	3131
902.26	3070
902.379	3207
902.498	3123
902.617	3100
902.735	3275
902.854	3287
902.973	3268
903.091	3157
903.21	3135
903.328	3207
903.446	3173
903.565	3165
903.683	3241
903.801	3237
903.919	3336
904.038	3378
904.156	3268
904.274	3351
904.392	3367
904.51	3386
904.627	3393
904.745	3519
904.863	3599
904.981	3325
905.098	3241
905.216	3298
905.334	3340
905.451	3359
905.569	3393
905.686	3526
905.803	3492
905.921	3367
906.038	3500
906.155	3462
906.272	3344
906.389	3405
906.506	3306
906.623	3321
906.74	3359
906.857	3260
906.974	3336
907.091	3542
907.208	3690
907.324	3534
907.441	3481
907.557	3306
907.674	3294
907.79	3283
907.907	3382
908.023	3473
908.139	3416
908.256	3420
908.372	3454
908.488	3397
908.604	3355
908.72	3325
908.836	3386
908.952	3401
909.068	3405
909.184	3549
909.3	3488
909.415	3580
909.531	3538
909.647	3355
909.762	3351
909.878	3321
909.993	3424
910.108	3424
910.224	3393
910.339	3504
910.454	3389
910.57	3351
910.685	3294
910.8	3713
910.915	3584
911.03	3504
911.145	3317
911.259	3348
911.374	3405
911.489	3340
911.604	3348
911.718	3169
911.833	3192
911.947	3097
912.062	3066
912.176	3218
912.291	3302
912.405	3306
912.519	3485
912.633	3553
912.748	3405
912.862	3321
912.976	3237
913.09	3135
913.204	3211
913.318	3283
913.431	3443
913.545	3344
913.659	3519
913.772	3397
913.886	3275
914	3260
914.113	3450
914.226	3477
914.34	3431
914.453	3306
914.566	3485
914.68	3317
914.793	3386
914.906	3180
915.019	3207
915.132	3150
915.245	3264
915.358	3264
915.47	3321
915.583	3306
915.696	3355
915.809	3496
915.921	3488
916.034	3355
916.146	3359
916.259	3310
916.371	3458
916.483	3439
916.595	3310
916.708	3431
916.82	3416
916.932	3450
917.044	3424
917.156	3401
917.268	3336
917.38	3351
917.491	3348
917.603	3424
917.715	3526
917.826	3523
917.938	3485
918.049	3382
918.161	3507
918.272	3595
918.384	3644
918.495	3587
918.606	3378
918.717	3332
918.828	3450
918.939	3485
919.05	3355
919.161	3405
919.272	3249
919.383	3367
919.494	3591
919.604	3770
919.715	3557
919.826	3447
919.936	3580
920.047	3614
920.157	3622
920.267	3823
920.378	3694
920.488	3629
920.598	3850
920.708	4067
920.818	3911
920.928	3934
921.038	4086
921.148	4051
921.258	3800
921.368	3728
921.477	3618
921.587	3625
921.697	3545
921.806	3679
921.916	3580
922.025	3466
922.134	3439
922.244	3393
922.353	3473
922.462	3344
922.571	3340
922.68	3173
922.789	3150
922.898	3230
923.007	3169
923.116	3275
923.224	3233
923.333	3264
923.442	3135
923.55	3146
923.659	3218
923.767	3344
923.876	3169
923.984	3310
924.092	3161
924.201	3256
924.309	3264
924.417	3287
924.525	3249
924.633	3298
924.741	4284
924.849	3104
924.956	3348
925.064	3173
925.172	3104
925.279	3180
925.387	3260
925.494	3279
925.602	3450
925.709	3393
925.816	3214
925.924	3340
926.031	3443
926.138	3416
926.245	3428
926.352	3294
926.459	3496
926.566	3557
926.673	3393
926.779	3325
926.886	3325
926.993	3203
927.099	3195
927.206	3188
927.312	3184
927.419	3306
927.525	3249
927.631	3321
927.737	3226
927.843	3222
927.95	3020
928.056	3195
928.162	3241
928.267	3306
928.373	3857
928.479	3370
928.585	3146
928.69	3264
928.796	3306
928.901	3256
929.007	3077
929.112	3256
929.218	3241
929.323	3184
929.428	3218
929.533	3382
929.638	3150
929.743	3253
929.848	3329
929.953	3279
930.058	3230
930.163	3058
930.267	3066
930.372	3233
930.477	3070
930.581	3340
930.685	3237
930.79	3074
930.894	3138
930.998	3150
931.103	3332
931.207	3024
931.311	3001
931.415	2967
931.519	2811
931.623	2868
