Data from test_V78500241_2001.txt Node
Date: Fri Mar 25 16:29:03 CST 2022
User: usil
Spectrometer: V785-0024
Trigger mode: 0
Integration Time (sec): 4.000000E-1
Scans to average: 1
Nonlinearity correction enabled: false
Boxcar width: 0
Storing dark spectrum: false
XAxis mode: Wavelengths
Number of Pixels in Spectrum: 1024
>>>>>Begin Spectral Data<<<<<
801.071	2910
801.214	2895
801.356	2853
801.499	2918
801.641	2929
801.783	2891
801.926	3066
802.068	2986
802.211	2971
802.353	3036
802.496	2967
802.638	3009
802.78	3032
802.923	3028
803.065	3009
803.208	2895
803.35	2899
803.492	2937
803.635	2910
803.777	2762
803.919	2849
804.061	3195
804.204	2922
804.346	2925
804.488	2838
804.63	2982
804.773	2861
804.915	2895
805.057	3104
805.199	2918
805.341	2933
805.483	3024
805.626	3032
805.768	2982
805.91	3058
806.052	3116
806.194	2994
806.336	3233
806.478	3020
806.62	2944
806.762	2948
806.904	3024
807.046	3180
807.188	2944
807.33	2876
807.472	2971
807.614	2906
807.756	2918
807.898	2906
808.04	2849
808.182	2960
808.324	2922
808.465	2876
808.607	2868
808.749	2804
808.891	2823
809.033	2982
809.174	2929
809.316	2883
809.458	2922
809.6	2773
809.741	2769
809.883	2777
810.025	2857
810.166	2853
810.308	2861
810.45	2826
810.591	2777
810.733	2785
810.875	2834
811.016	2777
811.158	2758
811.299	2807
811.441	2891
811.582	2876
811.724	2857
811.865	2834
812.007	2902
812.148	2864
812.29	2815
812.431	2910
812.573	2944
812.714	2960
812.855	3100
812.997	3036
813.138	3097
813.279	2971
813.421	2944
813.562	2944
813.703	2861
813.845	2872
813.986	2773
814.127	2724
814.268	2838
814.41	2838
814.551	2796
814.692	2857
814.833	2785
814.974	2906
815.115	2937
815.256	2815
815.397	2823
815.539	2823
815.68	2785
815.821	2777
815.962	2895
816.103	2941
816.244	2876
816.385	2883
816.526	2948
816.666	2933
816.807	2735
816.948	2895
817.089	2899
817.23	2861
817.371	2796
817.512	2777
817.653	2853
817.793	2796
817.934	2853
818.075	2933
818.216	2952
818.356	3043
818.497	2895
818.638	2758
818.778	2826
818.919	2804
819.06	2712
819.2	2895
819.341	2800
819.481	2804
819.622	2914
819.762	3085
819.903	3047
820.043	2944
820.184	2914
820.324	2857
820.465	2994
820.605	3039
820.746	3032
820.886	2883
821.026	3116
821.167	3161
821.307	3226
821.447	3260
821.588	3184
821.728	3226
821.868	3214
822.008	3039
822.149	3142
822.289	3214
822.429	3077
822.569	3062
822.709	3211
822.849	3005
822.99	3093
823.13	3135
823.27	3192
823.41	3108
823.55	3123
823.69	3116
823.83	3176
823.97	3085
824.11	2994
824.25	2986
824.389	3039
824.529	3081
824.669	3066
824.809	3161
824.949	3279
825.089	3226
825.228	3176
825.368	3039
825.508	2975
825.648	2956
825.787	2994
825.927	2994
826.067	2948
826.206	2941
826.346	3036
826.485	3081
826.625	3100
826.765	3287
826.904	3233
827.044	2982
827.183	2941
827.323	2857
827.462	2994
827.601	2895
827.741	2895
827.88	2963
828.02	2845
828.159	2925
828.298	3043
828.437	3077
828.577	3017
828.716	3218
828.855	3081
828.994	2853
829.134	2842
829.273	2929
829.412	2861
829.551	2868
829.69	2880
829.829	2971
829.968	3116
830.107	3013
830.246	3036
830.385	2902
830.524	2872
830.663	2792
830.802	2731
830.941	2655
831.08	2629
831.219	2758
831.357	2750
831.496	2944
831.635	2743
831.774	2629
831.913	2644
832.051	2545
832.19	2583
832.329	2682
832.467	2514
832.606	2469
832.744	2590
832.883	2568
833.022	2571
833.16	2648
833.299	2667
833.437	2667
833.576	2697
833.714	2697
833.852	2701
833.991	2735
834.129	2807
834.267	2807
834.406	2777
834.544	2845
834.682	2861
834.821	2891
834.959	3055
835.097	2864
835.235	3036
835.373	3005
835.511	3024
835.65	2956
835.788	2948
835.926	2834
836.064	2811
836.202	2823
836.34	3062
836.478	3100
836.615	3032
836.753	3093
836.891	3203
837.029	3150
837.167	3055
837.305	3066
837.443	3024
837.58	2956
837.718	3165
837.856	3066
837.993	3028
838.131	3123
838.269	3108
838.406	3077
838.544	3074
838.681	2948
838.819	2902
838.956	2845
839.094	2811
839.231	2872
839.369	3001
839.506	3325
839.643	3180
839.781	2994
839.918	2956
840.055	3062
840.193	3013
840.33	3051
840.467	3104
840.604	3127
840.742	3386
840.879	3039
841.016	3055
841.153	3116
841.29	3302
841.427	3306
841.564	3279
841.701	3283
841.838	3207
841.975	3176
842.112	3184
842.249	3066
842.385	3009
842.522	3275
842.659	3062
842.796	3062
842.933	3089
843.069	3047
843.206	3020
843.343	3199
843.479	3077
843.616	3138
843.752	2895
843.889	2845
844.025	3085
844.162	2883
844.298	3074
844.435	2929
844.571	2910
844.708	3070
844.844	3203
844.98	3218
845.117	3161
845.253	3066
845.389	2952
845.525	3055
845.661	3074
845.798	3028
845.934	3077
846.07	3039
846.206	3214
846.342	3306
846.478	3199
846.614	3070
846.75	3062
846.886	3036
847.022	3249
847.158	3127
847.294	3154
847.429	3233
847.565	3165
847.701	3462
847.837	3024
847.972	2994
848.108	3154
848.244	3097
848.379	3001
848.515	2933
848.65	2922
848.786	2960
848.921	2967
849.057	3093
849.192	3116
849.328	3077
849.463	3097
849.598	3043
849.734	3051
849.869	2994
850.004	2891
850.14	2956
850.275	2868
850.41	2815
850.545	2891
850.68	2937
850.815	2933
850.95	2963
851.085	3165
851.22	3089
851.355	3028
851.49	2994
851.625	3005
851.76	3013
851.895	2883
852.03	2876
852.165	3005
852.299	3108
852.434	3169
852.569	3135
852.703	3165
852.838	3233
852.973	3344
853.107	3310
853.242	3135
853.376	3081
853.511	2982
853.645	3047
853.78	3214
853.914	3093
854.048	3108
854.183	3097
854.317	3127
854.451	3291
854.585	3112
854.72	3070
854.854	3195
854.988	3032
855.122	3051
855.256	2982
855.39	3135
855.524	3245
855.658	3180
855.792	3146
855.926	3165
856.06	3180
856.194	3233
856.327	3119
856.461	3047
856.595	3013
856.729	3070
856.862	3222
856.996	3154
857.13	3211
857.263	3241
857.397	3249
857.53	3070
857.664	3211
857.797	3173
857.931	3211
858.064	3131
858.197	3211
858.331	3112
858.464	3074
858.597	3017
858.731	3104
858.864	3081
858.997	3039
859.13	3135
859.263	3165
859.396	3199
859.529	3077
859.662	3058
859.795	3047
859.928	3135
860.061	3245
860.194	3237
860.327	3119
860.46	3051
860.592	3272
860.725	3237
860.858	3241
860.99	3097
861.123	3001
861.256	3020
861.388	3123
861.521	3850
861.653	2979
861.786	2967
861.918	3036
862.05	3051
862.183	3043
862.315	3173
862.447	3203
862.58	3100
862.712	2948
862.844	2876
862.976	3001
863.108	3024
863.24	3317
863.372	2895
863.504	2971
863.636	2960
863.768	3017
863.9	2971
864.032	2933
864.164	2929
864.296	2998
864.428	3089
864.559	3138
864.691	3066
864.823	3066
864.954	3047
865.086	3123
865.217	3001
865.349	2960
865.48	3005
865.612	3039
865.743	3176
865.875	2979
866.006	2971
866.137	2994
866.269	2975
866.4	2967
866.531	2918
866.662	2925
866.793	2891
866.924	2899
867.055	3001
867.186	2952
867.317	2925
867.448	2857
867.579	2914
867.71	2895
867.841	2857
867.972	2948
868.103	2963
868.233	2895
868.364	2952
868.495	2918
868.625	3085
868.756	3195
868.886	3009
869.017	3066
869.147	3218
869.278	3180
869.408	3074
869.539	3047
869.669	3142
869.799	3058
869.929	3173
870.06	3173
870.19	3348
870.32	3298
870.45	3329
870.58	3389
870.71	3466
870.84	3485
870.97	3298
871.1	3291
871.23	3534
871.36	3488
871.489	3401
871.619	3416
871.749	3424
871.879	3439
872.008	3507
872.138	3439
872.267	3302
872.397	3203
872.526	3150
872.656	3039
872.785	3165
872.915	3264
873.044	3367
873.173	3253
873.303	3321
873.432	3272
873.561	3317
873.69	3176
873.819	3184
873.948	3268
874.077	3135
874.206	3081
874.335	3100
874.464	3214
874.593	3397
874.722	3291
874.851	3443
874.979	3363
875.108	3359
875.237	3260
875.365	3253
875.494	3207
875.623	3283
875.751	3077
875.88	3157
876.008	3176
876.136	3249
876.265	3409
876.393	3557
876.521	3435
876.65	3435
876.778	3348
876.906	3302
877.034	3272
877.162	3283
877.29	3226
877.418	3275
877.546	3260
877.674	3298
877.802	3253
877.93	3253
878.058	3165
878.185	3138
878.313	3211
878.441	3249
878.568	3093
878.696	3230
878.824	3272
878.951	3348
879.079	3492
879.206	3644
879.333	3466
879.461	3386
879.588	3378
879.715	3553
879.842	3641
879.97	3382
880.097	3195
880.224	3180
880.351	3188
880.478	3256
880.605	3214
880.732	3199
880.859	3500
880.986	3344
881.112	3340
881.239	3264
881.366	3142
881.493	3089
881.619	3055
881.746	3089
881.872	3135
881.999	3142
882.125	3203
882.252	3279
882.378	3332
882.505	3435
882.631	3287
882.757	3176
882.883	3275
883.01	3253
883.136	3169
883.262	3089
883.388	3146
883.514	3355
883.64	3424
883.766	3336
883.892	3211
884.018	3253
884.143	3450
884.269	3553
884.395	3226
884.52	3173
884.646	3195
884.772	3112
884.897	3119
885.023	3226
885.148	3336
885.274	3469
885.399	3420
885.524	3283
885.65	3272
885.775	3351
885.9	3260
886.025	3473
886.15	3405
886.275	3302
886.4	3260
886.525	3329
886.65	3279
886.775	3298
886.9	3500
887.025	3694
887.149	3393
887.274	3287
887.399	3230
887.523	3233
887.648	3245
887.773	3203
887.897	3405
888.021	3374
888.146	3298
888.27	3466
888.395	3545
888.519	3431
888.643	3488
888.767	3515
888.891	3340
889.015	3329
889.139	3317
889.263	3306
889.387	3439
889.511	3511
889.635	3424
889.759	3313
889.883	3317
890.006	3382
890.13	3515
890.254	3294
890.377	3382
890.501	3230
890.624	3207
890.748	3317
890.871	3188
890.995	3131
891.118	3070
891.241	3207
891.364	3275
891.488	3389
891.611	3222
891.734	3237
891.857	3306
891.98	3256
892.103	3409
892.226	3321
892.349	3287
892.471	3135
892.594	3253
892.717	3302
892.839	3268
892.962	3325
893.085	3386
893.207	3374
893.33	3142
893.452	3195
893.575	3386
893.697	3272
893.819	3511
893.941	3504
894.064	3473
894.186	3298
894.308	3256
894.43	3504
894.552	3568
894.674	3488
894.796	3306
894.918	3313
895.04	3302
895.161	3450
895.283	3450
895.405	3348
895.526	3405
895.648	3469
895.769	3466
895.891	3466
896.012	3492
896.134	3473
896.255	3447
896.376	3405
896.498	3401
896.619	3409
896.74	3370
896.861	3428
896.982	3694
897.103	3854
897.224	3618
897.345	3526
897.466	3435
897.587	3519
897.708	3667
897.828	3625
897.949	3481
898.07	3359
898.19	3450
898.311	3599
898.431	3485
898.552	3519
898.672	3572
898.792	3614
898.913	3526
899.033	3409
899.153	3291
899.273	3249
899.393	3348
899.513	3378
899.633	3325
899.753	3325
899.873	3374
899.993	3409
900.113	3344
900.232	3363
900.352	3359
900.472	3313
900.591	3222
900.711	3291
900.83	3241
900.95	3424
901.069	3523
901.189	3363
901.308	3165
901.427	3165
901.546	3222
901.665	3310
901.784	3348
901.904	3203
902.023	3192
902.141	3058
902.26	3013
902.379	3165
902.498	3085
902.617	3055
902.735	3203
902.854	3241
902.973	3207
903.091	3055
903.21	3097
903.328	3150
903.446	3116
903.565	3154
903.683	3245
903.801	3154
903.919	3287
904.038	3310
904.156	3176
904.274	3298
904.392	3298
904.51	3275
904.627	3378
904.745	3469
904.863	3526
904.981	3321
905.098	3195
905.216	3275
905.334	3329
905.451	3336
905.569	3344
905.686	3416
905.803	3466
905.921	3336
906.038	3386
906.155	3351
906.272	3302
906.389	3321
906.506	3203
906.623	3249
906.74	3298
906.857	3165
906.974	3283
907.091	3462
907.208	3587
907.324	3500
907.441	3416
907.557	3249
907.674	3230
907.79	3233
907.907	3298
908.023	3386
908.139	3374
908.256	3348
908.372	3370
908.488	3397
908.604	3268
908.72	3272
908.836	3306
908.952	3279
909.068	3370
909.184	3504
909.3	3435
909.415	3515
909.531	3485
909.647	3321
909.762	3332
909.878	3302
909.993	3363
910.108	3370
910.224	3344
910.339	3454
910.454	3367
910.57	3336
910.685	3253
910.8	3591
910.915	3519
911.03	3447
911.145	3302
911.259	3275
911.374	3291
911.489	3279
911.604	3214
911.718	3119
911.833	3146
911.947	3051
912.062	3009
912.176	3211
912.291	3211
912.405	3184
912.519	3424
912.633	3496
912.748	3359
912.862	3291
912.976	3192
913.09	3070
913.204	3146
913.318	3207
913.431	3367
913.545	3363
913.659	3450
913.772	3329
913.886	3249
914	3249
914.113	3367
914.226	3431
914.34	3401
914.453	3260
914.566	3435
914.68	3287
914.793	3283
914.906	3161
915.019	3146
915.132	3062
915.245	3180
915.358	3275
915.47	3253
915.583	3291
915.696	3329
915.809	3435
915.921	3492
916.034	3279
916.146	3291
916.259	3249
916.371	3389
916.483	3401
916.595	3275
916.708	3302
916.82	3355
916.932	3317
917.044	3367
917.156	3344
917.268	3287
917.38	3310
917.491	3279
917.603	3393
917.715	3454
917.826	3492
917.938	3393
918.049	3310
918.161	3443
918.272	3553
918.384	3591
918.495	3530
918.606	3325
918.717	3313
918.828	3409
918.939	3439
919.05	3344
919.161	3393
919.272	3169
919.383	3310
919.494	3526
919.604	3648
919.715	3523
919.826	3424
919.936	3431
920.047	3580
920.157	3553
920.267	3781
920.378	3614
920.488	3610
920.598	3778
920.708	3960
920.818	3876
920.928	3850
921.038	4044
921.148	3994
921.258	3698
921.368	3610
921.477	3618
921.587	3557
921.697	3473
921.806	3633
921.916	3580
922.025	3420
922.134	3367
922.244	3363
922.353	3485
922.462	3275
922.571	3256
922.68	3127
922.789	3093
922.898	3119
923.007	3097
923.116	3253
923.224	3195
923.333	3165
923.442	3100
923.55	3077
923.659	3154
923.767	3188
923.876	3154
923.984	3272
924.092	3138
924.201	3211
924.309	3241
924.417	3260
924.525	3249
924.633	3264
924.741	4169
924.849	3047
924.956	3275
925.064	3085
925.172	3043
925.279	3123
925.387	3218
925.494	3180
925.602	3389
925.709	3348
925.816	3218
925.924	3291
926.031	3374
926.138	3321
926.245	3359
926.352	3211
926.459	3397
926.566	3492
926.673	3306
926.779	3275
926.886	3214
926.993	3108
927.099	3119
927.206	3150
927.312	3138
927.419	3264
927.525	3233
927.631	3268
927.737	3161
927.843	3127
927.95	3032
928.056	3161
928.162	3199
928.267	3264
928.373	3911
928.479	3294
928.585	3047
928.69	3203
928.796	3260
928.901	3138
929.007	3062
929.112	3245
929.218	3199
929.323	3116
929.428	3142
929.533	3294
929.638	3150
929.743	3180
929.848	3268
929.953	3211
930.058	3199
930.163	3028
930.267	3058
930.372	3230
930.477	3039
930.581	3367
930.685	3161
930.79	3070
930.894	3146
930.998	3100
931.103	3332
931.207	2963
931.311	2948
931.415	2944
931.519	2804
931.623	2857
