Data from test_V78500241_567.txt Node
Date: Fri Mar 25 16:19:07 CST 2022
User: usil
Spectrometer: V785-0024
Trigger mode: 0
Integration Time (sec): 4.000000E-1
Scans to average: 1
Nonlinearity correction enabled: false
Boxcar width: 0
Storing dark spectrum: false
XAxis mode: Wavelengths
Number of Pixels in Spectrum: 1024
>>>>>Begin Spectral Data<<<<<
801.071	2925
801.214	2944
801.356	2910
801.499	2883
801.641	2861
801.783	2906
801.926	3039
802.068	2979
802.211	2994
802.353	3039
802.496	2948
802.638	3009
802.78	3013
802.923	3081
803.065	2975
803.208	2872
803.35	2925
803.492	2952
803.635	2910
803.777	2788
803.919	2876
804.061	3222
804.204	2929
804.346	2880
804.488	2830
804.63	2990
804.773	2864
804.915	2914
805.057	3131
805.199	2925
805.341	2990
805.483	3017
805.626	3013
805.768	2941
805.91	3055
806.052	3119
806.194	3028
806.336	3264
806.478	3017
806.62	2941
806.762	2967
806.904	3039
807.046	3097
807.188	2982
807.33	2922
807.472	2971
807.614	2883
807.756	3032
807.898	2925
808.04	2933
808.182	2975
808.324	2941
808.465	2899
808.607	2887
808.749	2819
808.891	2864
809.033	3013
809.174	2967
809.316	2891
809.458	2880
809.6	2735
809.741	2746
809.883	2773
810.025	2849
810.166	2853
810.308	2842
810.45	2830
810.591	2777
810.733	2792
810.875	2807
811.016	2788
811.158	2781
811.299	2823
811.441	2906
811.582	2899
811.724	2838
811.865	2826
812.007	2891
812.148	2876
812.29	2853
812.431	2918
812.573	2925
812.714	2967
812.855	3062
812.997	3058
813.138	3112
813.279	2979
813.421	2990
813.562	2956
813.703	2864
813.845	2853
813.986	2785
814.127	2746
814.268	2815
814.41	2857
814.551	2785
814.692	2895
814.833	2796
814.974	2910
815.115	2956
815.256	2823
815.397	2834
815.539	2887
815.68	2762
815.821	2781
815.962	2944
816.103	2899
816.244	2899
816.385	2857
816.526	2990
816.666	2941
816.807	2750
816.948	2887
817.089	2899
817.23	2853
817.371	2788
817.512	2807
817.653	2857
817.793	2830
817.934	2868
818.075	2918
818.216	3009
818.356	3020
818.497	2902
818.638	2807
818.778	2819
818.919	2788
819.06	2743
819.2	2868
819.341	2781
819.481	2792
819.622	2899
819.762	3085
819.903	3055
820.043	2952
820.184	2883
820.324	2925
820.465	3039
820.605	3020
820.746	3036
820.886	2963
821.026	3066
821.167	3173
821.307	3275
821.447	3272
821.588	3218
821.728	3195
821.868	3188
822.008	3089
822.149	3211
822.289	3233
822.429	3100
822.569	3093
822.709	3176
822.849	3001
822.99	3047
823.13	3135
823.27	3211
823.41	3100
823.55	3112
823.69	3131
823.83	3176
823.97	3135
824.11	2990
824.25	2971
824.389	3055
824.529	3112
824.669	3055
824.809	3188
824.949	3260
825.089	3176
825.228	3176
825.368	2998
825.508	2937
825.648	2944
825.787	3043
825.927	3039
826.067	2990
826.206	2941
826.346	2994
826.485	3089
826.625	3123
826.765	3249
826.904	3203
827.044	3005
827.183	2910
827.323	2880
827.462	3020
827.601	2880
827.741	2929
827.88	2979
828.02	2845
828.159	2979
828.298	3039
828.437	3066
828.577	3032
828.716	3260
828.855	3077
828.994	2910
829.134	2880
829.273	2910
829.412	2880
829.551	2861
829.69	2872
829.829	2963
829.968	3142
830.107	2986
830.246	3043
830.385	2891
830.524	2887
830.663	2815
830.802	2743
830.941	2640
831.08	2659
831.219	2754
831.357	2731
831.496	2960
831.635	2758
831.774	2640
831.913	2674
832.051	2537
832.19	2594
832.329	2689
832.467	2533
832.606	2465
832.744	2575
832.883	2594
833.022	2560
833.16	2670
833.299	2670
833.437	2663
833.576	2663
833.714	2739
833.852	2712
833.991	2750
834.129	2849
834.267	2845
834.406	2769
834.544	2876
834.682	2876
834.821	2857
834.959	3028
835.097	2895
835.235	3032
835.373	2967
835.511	3017
835.65	2960
835.788	2975
835.926	2842
836.064	2792
836.202	2853
836.34	3104
836.478	3123
836.615	3024
836.753	3131
836.891	3218
837.029	3142
837.167	3066
837.305	3074
837.443	3047
837.58	2937
837.718	3150
837.856	3062
837.993	3039
838.131	3119
838.269	3131
838.406	3127
838.544	3085
838.681	2937
838.819	2872
838.956	2792
839.094	2800
839.231	2933
839.369	3005
839.506	3355
839.643	3203
839.781	3036
839.918	2952
840.055	3047
840.193	3009
840.33	3039
840.467	3104
840.604	3112
840.742	3405
840.879	3058
841.016	3043
841.153	3089
841.29	3351
841.427	3298
841.564	3233
841.701	3222
841.838	3214
841.975	3173
842.112	3207
842.249	3055
842.385	3009
842.522	3287
842.659	3077
842.796	3062
842.933	3108
843.069	3039
843.206	2998
843.343	3192
843.479	3142
843.616	3116
843.752	2883
843.889	2918
844.025	3123
844.162	2876
844.298	3081
844.435	2929
844.571	2925
844.708	3058
844.844	3218
844.98	3249
845.117	3180
845.253	3070
845.389	2975
845.525	3100
845.661	3055
845.798	3009
845.934	3157
846.07	3013
846.206	3173
846.342	3310
846.478	3230
846.614	3081
846.75	3036
846.886	2979
847.022	3230
847.158	3131
847.294	3203
847.429	3245
847.565	3195
847.701	3511
847.837	3047
847.972	3009
848.108	3192
848.244	3150
848.379	2990
848.515	2914
848.65	2899
848.786	2941
848.921	3032
849.057	3108
849.192	3135
849.328	3085
849.463	3100
849.598	3089
849.734	3032
849.869	2963
850.004	2937
850.14	2937
850.275	2910
850.41	2853
850.545	2906
850.68	2929
850.815	2944
850.95	2956
851.085	3161
851.22	3097
851.355	3020
851.49	2971
851.625	2960
851.76	3001
851.895	2948
852.03	2880
852.165	3074
852.299	3085
852.434	3169
852.569	3108
852.703	3165
852.838	3264
852.973	3382
853.107	3310
853.242	3119
853.376	3089
853.511	2956
853.645	3039
853.78	3226
853.914	3093
854.048	3093
854.183	3066
854.317	3157
854.451	3203
854.585	3104
854.72	3070
854.854	3214
854.988	3039
855.122	3097
855.256	2933
855.39	3097
855.524	3233
855.658	3207
855.792	3127
855.926	3173
856.06	3249
856.194	3298
856.327	3135
856.461	3043
856.595	3097
856.729	3077
856.862	3207
856.996	3157
857.13	3218
857.263	3195
857.397	3283
857.53	3100
857.664	3184
857.797	3207
857.931	3233
858.064	3123
858.197	3222
858.331	3138
858.464	3070
858.597	2982
858.731	3093
858.864	3085
858.997	3085
859.13	3131
859.263	3180
859.396	3199
859.529	3100
859.662	3055
859.795	3017
859.928	3123
860.061	3260
860.194	3249
860.327	3093
860.46	3081
860.592	3222
860.725	3294
860.858	3222
860.99	3089
861.123	3055
861.256	3020
861.388	3097
861.521	3679
861.653	3005
861.786	2998
861.918	2975
862.05	3047
862.183	3081
862.315	3142
862.447	3165
862.58	3104
862.712	2918
862.844	2887
862.976	3017
863.108	3005
863.24	3420
863.372	2826
863.504	2929
863.636	2967
863.768	3013
863.9	2971
864.032	2883
864.164	2944
864.296	3032
864.428	3100
864.559	3123
864.691	3089
864.823	3074
864.954	3028
865.086	3039
865.217	2967
865.349	2925
865.48	2971
865.612	3062
865.743	3146
865.875	2952
866.006	2922
866.137	2971
866.269	2910
866.4	2948
866.531	2918
866.662	2868
866.793	2906
866.924	2910
867.055	2948
867.186	2918
867.317	2880
867.448	2823
867.579	2834
867.71	2838
867.841	2842
867.972	2910
868.103	2902
868.233	2861
868.364	2842
868.495	2910
868.625	3051
868.756	3108
868.886	2944
869.017	3001
869.147	3131
869.278	3154
869.408	3039
869.539	2990
869.669	3100
869.799	3028
869.929	3104
870.06	3097
870.19	3306
870.32	3268
870.45	3275
870.58	3370
870.71	3447
870.84	3447
870.97	3275
871.1	3226
871.23	3488
871.36	3462
871.489	3329
871.619	3389
871.749	3405
871.879	3393
872.008	3492
872.138	3329
872.267	3268
872.397	3169
872.526	3081
872.656	2990
872.785	3074
872.915	3222
873.044	3348
873.173	3268
873.303	3256
873.432	3199
873.561	3211
873.69	3127
873.819	3077
873.948	3165
874.077	3081
874.206	3036
874.335	3058
874.464	3173
874.593	3374
874.722	3272
874.851	3386
874.979	3310
875.108	3287
875.237	3184
875.365	3135
875.494	3154
875.623	3237
875.751	3100
875.88	3108
876.008	3218
876.136	3226
876.265	3340
876.393	3477
876.521	3435
876.65	3374
876.778	3313
876.906	3260
877.034	3207
877.162	3214
877.29	3203
877.418	3222
877.546	3230
877.674	3275
877.802	3237
877.93	3249
878.058	3161
878.185	3146
878.313	3207
878.441	3214
878.568	3077
878.696	3138
878.824	3233
878.951	3302
879.079	3424
879.206	3648
879.333	3393
879.461	3355
879.588	3386
879.715	3504
879.842	3610
879.97	3389
880.097	3157
880.224	3138
880.351	3180
880.478	3207
880.605	3180
880.732	3188
880.859	3519
880.986	3336
881.112	3321
881.239	3203
881.366	3127
881.493	3009
881.619	3043
881.746	3062
881.872	3089
881.999	3097
882.125	3154
882.252	3260
882.378	3340
882.505	3431
882.631	3310
882.757	3142
882.883	3226
883.01	3203
883.136	3169
883.262	3077
883.388	3089
883.514	3317
883.64	3370
883.766	3329
883.892	3154
884.018	3230
884.143	3397
884.269	3515
884.395	3192
884.52	3142
884.646	3192
884.772	3154
884.897	3100
885.023	3222
885.148	3367
885.274	3428
885.399	3351
885.524	3272
885.65	3253
885.775	3302
885.9	3253
886.025	3439
886.15	3325
886.275	3317
886.4	3256
886.525	3317
886.65	3245
886.775	3230
886.9	3488
887.025	3606
887.149	3367
887.274	3188
887.399	3161
887.523	3195
887.648	3165
887.773	3192
887.897	3363
888.021	3355
888.146	3279
888.27	3405
888.395	3542
888.519	3405
888.643	3424
888.767	3458
888.891	3325
889.015	3268
889.139	3313
889.263	3253
889.387	3370
889.511	3504
889.635	3443
889.759	3256
889.883	3245
890.006	3405
890.13	3485
890.254	3230
890.377	3329
890.501	3192
890.624	3138
890.748	3260
890.871	3176
890.995	3112
891.118	3062
891.241	3169
891.364	3264
891.488	3340
891.611	3161
891.734	3241
891.857	3272
891.98	3237
892.103	3340
892.226	3245
892.349	3199
892.471	3093
892.594	3260
892.717	3253
892.839	3253
892.962	3298
893.085	3344
893.207	3306
893.33	3123
893.452	3165
893.575	3317
893.697	3233
893.819	3462
893.941	3435
894.064	3450
894.186	3279
894.308	3249
894.43	3485
894.552	3500
894.674	3416
894.796	3287
894.918	3313
895.04	3294
895.161	3469
895.283	3382
895.405	3302
895.526	3367
895.648	3416
895.769	3397
895.891	3473
896.012	3500
896.134	3507
896.255	3431
896.376	3382
896.498	3336
896.619	3409
896.74	3389
896.861	3382
896.982	3709
897.103	3857
897.224	3599
897.345	3496
897.466	3374
897.587	3523
897.708	3648
897.828	3564
897.949	3439
898.07	3348
898.19	3420
898.311	3576
898.431	3416
898.552	3515
898.672	3633
898.792	3591
898.913	3488
899.033	3416
899.153	3283
899.273	3211
899.393	3272
899.513	3329
899.633	3313
899.753	3351
899.873	3294
899.993	3382
900.113	3313
900.232	3397
900.352	3363
900.472	3302
900.591	3176
900.711	3302
900.83	3237
900.95	3359
901.069	3450
901.189	3329
901.308	3157
901.427	3097
901.546	3184
901.665	3291
901.784	3370
901.904	3211
902.023	3142
902.141	3051
902.26	2990
902.379	3165
902.498	3058
902.617	3024
902.735	3207
902.854	3203
902.973	3161
903.091	3036
903.21	3081
903.328	3142
903.446	3123
903.565	3112
903.683	3169
903.801	3138
903.919	3207
904.038	3272
904.156	3112
904.274	3264
904.392	3245
904.51	3298
904.627	3283
904.745	3374
904.863	3454
904.981	3272
905.098	3180
905.216	3253
905.334	3275
905.451	3302
905.569	3310
905.686	3424
905.803	3450
905.921	3275
906.038	3443
906.155	3329
906.272	3287
906.389	3340
906.506	3233
906.623	3214
906.74	3256
906.857	3195
906.974	3222
907.091	3416
907.208	3561
907.324	3485
907.441	3370
907.557	3256
907.674	3230
907.79	3203
907.907	3275
908.023	3348
908.139	3393
908.256	3317
908.372	3370
908.488	3355
908.604	3268
908.72	3230
908.836	3298
908.952	3256
909.068	3332
909.184	3477
909.3	3386
909.415	3515
909.531	3481
909.647	3272
909.762	3310
909.878	3237
909.993	3382
910.108	3351
910.224	3329
910.339	3416
910.454	3325
910.57	3279
910.685	3218
910.8	3584
910.915	3545
911.03	3462
911.145	3237
911.259	3313
911.374	3313
911.489	3222
911.604	3218
911.718	3100
911.833	3119
911.947	3009
912.062	2986
912.176	3154
912.291	3176
912.405	3192
912.519	3401
912.633	3424
912.748	3321
912.862	3237
912.976	3131
913.09	3043
913.204	3127
913.318	3222
913.431	3325
913.545	3374
913.659	3420
913.772	3283
913.886	3249
914	3188
914.113	3329
914.226	3397
914.34	3359
914.453	3199
914.566	3397
914.68	3317
914.793	3321
914.906	3199
915.019	3077
915.132	3036
915.245	3173
915.358	3230
915.47	3260
915.583	3272
915.696	3272
915.809	3378
915.921	3428
916.034	3241
916.146	3260
916.259	3203
916.371	3363
916.483	3329
916.595	3245
916.708	3332
916.82	3321
916.932	3340
917.044	3336
917.156	3317
917.268	3272
917.38	3306
917.491	3279
917.603	3378
917.715	3454
917.826	3462
917.938	3351
918.049	3256
918.161	3439
918.272	3603
918.384	3580
918.495	3500
918.606	3340
918.717	3302
918.828	3397
918.939	3409
919.05	3302
919.161	3367
919.272	3184
919.383	3310
919.494	3515
919.604	3663
919.715	3481
919.826	3420
919.936	3458
920.047	3549
920.157	3549
920.267	3759
920.378	3591
920.488	3576
920.598	3774
920.708	3975
920.818	3857
920.928	3797
921.038	4002
921.148	3983
921.258	3724
921.368	3599
921.477	3557
921.587	3526
921.697	3458
921.806	3622
921.916	3515
922.025	3351
922.134	3359
922.244	3340
922.353	3443
922.462	3291
922.571	3184
922.68	3093
922.789	3100
922.898	3135
923.007	3097
923.116	3184
923.224	3161
923.333	3203
923.442	3074
923.55	3032
923.659	3154
923.767	3241
923.876	3097
923.984	3237
924.092	3112
924.201	3157
924.309	3195
924.417	3230
924.525	3188
924.633	3237
924.741	4010
924.849	3017
924.956	3272
925.064	3104
925.172	3043
925.279	3135
925.387	3230
925.494	3192
925.602	3370
925.709	3363
925.816	3211
925.924	3279
926.031	3374
926.138	3283
926.245	3336
926.352	3249
926.459	3405
926.566	3485
926.673	3310
926.779	3268
926.886	3268
926.993	3154
927.099	3104
927.206	3074
927.312	3116
927.419	3233
927.525	3195
927.631	3275
927.737	3138
927.843	3135
927.95	3039
928.056	3119
928.162	3176
928.267	3256
928.373	3797
928.479	3313
928.585	3058
928.69	3195
928.796	3291
928.901	3142
929.007	3020
929.112	3211
929.218	3203
929.323	3119
929.428	3135
929.533	3283
929.638	3055
929.743	3176
929.848	3253
929.953	3214
930.058	3165
930.163	3013
930.267	3043
930.372	3214
930.477	3066
930.581	3294
930.685	3157
930.79	3062
930.894	3127
930.998	3093
931.103	3260
931.207	2937
931.311	2956
931.415	2948
931.519	2777
931.623	2853
