Data from test_V78500241_1720.txt Node
Date: Fri Mar 25 16:27:07 CST 2022
User: usil
Spectrometer: V785-0024
Trigger mode: 0
Integration Time (sec): 4.000000E-1
Scans to average: 1
Nonlinearity correction enabled: false
Boxcar width: 0
Storing dark spectrum: false
XAxis mode: Wavelengths
Number of Pixels in Spectrum: 1024
>>>>>Begin Spectral Data<<<<<
801.071	2944
801.214	2906
801.356	2891
801.499	2918
801.641	2876
801.783	2925
801.926	3058
802.068	2994
802.211	2990
802.353	3024
802.496	2960
802.638	2990
802.78	3043
802.923	3066
803.065	2986
803.208	2899
803.35	2922
803.492	2925
803.635	2937
803.777	2708
803.919	2838
804.061	3173
804.204	2922
804.346	2933
804.488	2849
804.63	2979
804.773	2857
804.915	2872
805.057	3058
805.199	2906
805.341	2944
805.483	3028
805.626	3009
805.768	2994
805.91	3039
806.052	3077
806.194	3039
806.336	3260
806.478	3036
806.62	2963
806.762	2971
806.904	3043
807.046	3142
807.188	2929
807.33	2887
807.472	2967
807.614	2887
807.756	3001
807.898	2925
808.04	2918
808.182	2963
808.324	2937
808.465	2883
808.607	2887
808.749	2792
808.891	2823
809.033	2971
809.174	2982
809.316	2842
809.458	2876
809.6	2758
809.741	2769
809.883	2766
810.025	2830
810.166	2876
810.308	2845
810.45	2823
810.591	2762
810.733	2762
810.875	2796
811.016	2766
811.158	2781
811.299	2796
811.441	2922
811.582	2876
811.724	2773
811.865	2834
812.007	2941
812.148	2861
812.29	2864
812.431	2868
812.573	2902
812.714	2956
812.855	3001
812.997	3081
813.138	3097
813.279	2994
813.421	2975
813.562	2937
813.703	2876
813.845	2857
813.986	2750
814.127	2716
814.268	2830
814.41	2826
814.551	2800
814.692	2845
814.833	2796
814.974	2880
815.115	2929
815.256	2845
815.397	2796
815.539	2845
815.68	2796
815.821	2769
815.962	2948
816.103	2952
816.244	2895
816.385	2853
816.526	2963
816.666	2910
816.807	2712
816.948	2883
817.089	2902
817.23	2864
817.371	2796
817.512	2807
817.653	2838
817.793	2819
817.934	2906
818.075	2967
818.216	3005
818.356	2990
818.497	2842
818.638	2769
818.778	2811
818.919	2773
819.06	2720
819.2	2883
819.341	2819
819.481	2823
819.622	2899
819.762	3112
819.903	3013
820.043	2922
820.184	2941
820.324	2899
820.465	3028
820.605	3024
820.746	3051
820.886	2895
821.026	3104
821.167	3157
821.307	3253
821.447	3256
821.588	3233
821.728	3135
821.868	3214
822.008	3077
822.149	3211
822.289	3207
822.429	3062
822.569	3108
822.709	3176
822.849	3047
822.99	3100
823.13	3119
823.27	3214
823.41	3077
823.55	3127
823.69	3173
823.83	3142
823.97	3119
824.11	2990
824.25	2967
824.389	3043
824.529	3093
824.669	3089
824.809	3173
824.949	3253
825.089	3203
825.228	3169
825.368	3024
825.508	2948
825.648	2975
825.787	2982
825.927	3020
826.067	2952
826.206	2956
826.346	3039
826.485	3039
826.625	3081
826.765	3241
826.904	3180
827.044	3013
827.183	2880
827.323	2864
827.462	2960
827.601	2906
827.741	2914
827.88	2956
828.02	2819
828.159	3001
828.298	3028
828.437	3104
828.577	3043
828.716	3214
828.855	3058
828.994	2845
829.134	2918
829.273	2914
829.412	2887
829.551	2853
829.69	2864
829.829	2971
829.968	3142
830.107	3009
830.246	3051
830.385	2910
830.524	2895
830.663	2830
830.802	2731
830.941	2651
831.08	2663
831.219	2807
831.357	2735
831.496	2971
831.635	2708
831.774	2621
831.913	2674
832.051	2522
832.19	2556
832.329	2651
832.467	2530
832.606	2495
832.744	2587
832.883	2590
833.022	2568
833.16	2689
833.299	2651
833.437	2686
833.576	2659
833.714	2708
833.852	2735
833.991	2769
834.129	2853
834.267	2811
834.406	2769
834.544	2906
834.682	2872
834.821	2861
834.959	3043
835.097	2845
835.235	3036
835.373	2975
835.511	3001
835.65	2929
835.788	2914
835.926	2842
836.064	2800
836.202	2857
836.34	3093
836.478	3142
836.615	3077
836.753	3150
836.891	3207
837.029	3138
837.167	3097
837.305	3108
837.443	3043
837.58	2963
837.718	3157
837.856	3055
837.993	3001
838.131	3112
838.269	3093
838.406	3127
838.544	3051
838.681	2952
838.819	2944
838.956	2800
839.094	2815
839.231	2895
839.369	3005
839.506	3367
839.643	3226
839.781	3028
839.918	2990
840.055	3047
840.193	3058
840.33	3074
840.467	3081
840.604	3116
840.742	3370
840.879	3058
841.016	3013
841.153	3142
841.29	3325
841.427	3287
841.564	3268
841.701	3298
841.838	3214
841.975	3176
842.112	3195
842.249	3085
842.385	3009
842.522	3260
842.659	3104
842.796	3058
842.933	3058
843.069	3055
843.206	3013
843.343	3195
843.479	3104
843.616	3123
843.752	2880
843.889	2838
844.025	3093
844.162	2849
844.298	3043
844.435	2952
844.571	2933
844.708	3077
844.844	3180
844.98	3214
845.117	3184
845.253	3066
845.389	3020
845.525	3062
845.661	3112
845.798	3001
845.934	3119
846.07	3047
846.206	3218
846.342	3363
846.478	3226
846.614	3051
846.75	3024
846.886	3020
847.022	3245
847.158	3127
847.294	3165
847.429	3222
847.565	3180
847.701	3496
847.837	3020
847.972	2956
848.108	3169
848.244	3123
848.379	2994
848.515	2914
848.65	2895
848.786	2922
848.921	2986
849.057	3123
849.192	3150
849.328	3089
849.463	3104
849.598	3077
849.734	3036
849.869	2979
850.004	2918
850.14	2937
850.275	2944
850.41	2849
850.545	2880
850.68	2929
850.815	2960
850.95	2929
851.085	3157
851.22	3051
851.355	3024
851.49	2956
851.625	3001
851.76	2998
851.895	2902
852.03	2910
852.165	3024
852.299	3085
852.434	3169
852.569	3157
852.703	3165
852.838	3253
852.973	3336
853.107	3317
853.242	3165
853.376	3074
853.511	2982
853.645	3043
853.78	3253
853.914	3093
854.048	3116
854.183	3100
854.317	3165
854.451	3306
854.585	3108
854.72	3070
854.854	3207
854.988	3047
855.122	3036
855.256	2971
855.39	3074
855.524	3264
855.658	3180
855.792	3146
855.926	3157
856.06	3230
856.194	3253
856.327	3165
856.461	3058
856.595	3024
856.729	3051
856.862	3230
856.996	3161
857.13	3184
857.263	3233
857.397	3279
857.53	3142
857.664	3180
857.797	3211
857.931	3226
858.064	3138
858.197	3195
858.331	3100
858.464	3104
858.597	2986
858.731	3108
858.864	3135
858.997	3047
859.13	3180
859.263	3146
859.396	3207
859.529	3058
859.662	3043
859.795	3024
859.928	3135
860.061	3241
860.194	3249
860.327	3116
860.46	3135
860.592	3226
860.725	3188
860.858	3237
860.99	3070
861.123	3085
861.256	3058
861.388	3135
861.521	3953
861.653	2990
861.786	2986
861.918	2986
862.05	3062
862.183	3077
862.315	3150
862.447	3184
862.58	3058
862.712	2925
862.844	2845
862.976	3001
863.108	2994
863.24	3359
863.372	2872
863.504	2941
863.636	2944
863.768	3017
863.9	2986
864.032	2876
864.164	2929
864.296	3013
864.428	3062
864.559	3108
864.691	3093
864.823	3100
864.954	3013
865.086	3039
865.217	2979
865.349	2937
865.48	2971
865.612	3013
865.743	3146
865.875	2956
866.006	2963
866.137	2971
866.269	2971
866.4	2975
866.531	2906
866.662	2899
866.793	2864
866.924	2872
867.055	2975
867.186	2902
867.317	2853
867.448	2826
867.579	2823
867.71	2849
867.841	2804
867.972	2906
868.103	2899
868.233	2895
868.364	2861
868.495	2910
868.625	3047
868.756	3150
868.886	2960
869.017	2998
869.147	3150
869.278	3112
869.408	3039
869.539	3005
869.669	3085
869.799	3055
869.929	3119
870.06	3112
870.19	3298
870.32	3291
870.45	3321
870.58	3351
870.71	3443
870.84	3416
870.97	3321
871.1	3218
871.23	3454
871.36	3469
871.489	3386
871.619	3409
871.749	3370
871.879	3454
872.008	3481
872.138	3340
872.267	3306
872.397	3127
872.526	3093
872.656	3013
872.785	3116
872.915	3253
873.044	3294
873.173	3230
873.303	3230
873.432	3226
873.561	3245
873.69	3142
873.819	3108
873.948	3173
874.077	3089
874.206	3013
874.335	3051
874.464	3214
874.593	3370
874.722	3222
874.851	3374
874.979	3329
875.108	3291
875.237	3188
875.365	3127
875.494	3127
875.623	3218
875.751	3085
875.88	3104
876.008	3157
876.136	3218
876.265	3336
876.393	3507
876.521	3393
876.65	3367
876.778	3321
876.906	3272
877.034	3180
877.162	3256
877.29	3180
877.418	3249
877.546	3211
877.674	3207
877.802	3241
877.93	3241
878.058	3131
878.185	3089
878.313	3218
878.441	3192
878.568	3047
878.696	3116
878.824	3192
878.951	3291
879.079	3393
879.206	3603
879.333	3397
879.461	3317
879.588	3363
879.715	3488
879.842	3584
879.97	3397
880.097	3131
880.224	3135
880.351	3195
880.478	3192
880.605	3180
880.732	3157
880.859	3496
880.986	3283
881.112	3310
881.239	3180
881.366	3085
881.493	2998
881.619	2998
881.746	3070
881.872	3100
881.999	3097
882.125	3157
882.252	3256
882.378	3272
882.505	3428
882.631	3249
882.757	3119
882.883	3211
883.01	3192
883.136	3142
883.262	3093
883.388	3123
883.514	3325
883.64	3389
883.766	3275
883.892	3176
884.018	3207
884.143	3389
884.269	3564
884.395	3226
884.52	3138
884.646	3195
884.772	3081
884.897	3055
885.023	3180
885.148	3321
885.274	3420
885.399	3363
885.524	3268
885.65	3287
885.775	3272
885.9	3256
886.025	3393
886.15	3363
886.275	3272
886.4	3211
886.525	3306
886.65	3264
886.775	3279
886.9	3458
887.025	3606
887.149	3389
887.274	3195
887.399	3180
887.523	3192
887.648	3165
887.773	3173
887.897	3405
888.021	3435
888.146	3260
888.27	3424
888.395	3534
888.519	3409
888.643	3462
888.767	3454
888.891	3264
889.015	3256
889.139	3256
889.263	3218
889.387	3344
889.511	3504
889.635	3420
889.759	3268
889.883	3351
890.006	3389
890.13	3454
890.254	3272
890.377	3306
890.501	3211
890.624	3142
890.748	3302
890.871	3192
890.995	3119
891.118	3051
891.241	3180
891.364	3207
891.488	3332
891.611	3157
891.734	3226
891.857	3279
891.98	3260
892.103	3336
892.226	3253
892.349	3199
892.471	3097
892.594	3241
892.717	3272
892.839	3249
892.962	3272
893.085	3317
893.207	3291
893.33	3146
893.452	3211
893.575	3344
893.697	3237
893.819	3458
893.941	3492
894.064	3393
894.186	3245
894.308	3241
894.43	3462
894.552	3507
894.674	3488
894.796	3279
894.918	3298
895.04	3294
895.161	3405
895.283	3340
895.405	3336
895.526	3321
895.648	3420
895.769	3393
895.891	3428
896.012	3500
896.134	3443
896.255	3405
896.376	3359
896.498	3332
896.619	3424
896.74	3329
896.861	3389
896.982	3698
897.103	3827
897.224	3561
897.345	3496
897.466	3443
897.587	3504
897.708	3561
897.828	3534
897.949	3401
898.07	3332
898.19	3405
898.311	3584
898.431	3439
898.552	3500
898.672	3557
898.792	3584
898.913	3515
899.033	3393
899.153	3351
899.273	3165
899.393	3279
899.513	3302
899.633	3283
899.753	3302
899.873	3298
899.993	3332
900.113	3310
900.232	3363
900.352	3306
900.472	3249
900.591	3199
900.711	3302
900.83	3230
900.95	3443
901.069	3428
901.189	3344
901.308	3150
901.427	3100
901.546	3157
901.665	3275
901.784	3329
901.904	3207
902.023	3138
902.141	3009
902.26	2998
902.379	3097
902.498	3055
902.617	3047
902.735	3165
902.854	3230
902.973	3230
903.091	3043
903.21	3058
903.328	3112
903.446	3074
903.565	3097
903.683	3195
903.801	3131
903.919	3272
904.038	3272
904.156	3188
904.274	3287
904.392	3302
904.51	3302
904.627	3329
904.745	3435
904.863	3519
904.981	3272
905.098	3184
905.216	3256
905.334	3306
905.451	3268
905.569	3321
905.686	3458
905.803	3454
905.921	3306
906.038	3462
906.155	3370
906.272	3272
906.389	3355
906.506	3230
906.623	3272
906.74	3279
906.857	3226
906.974	3294
907.091	3485
907.208	3610
907.324	3507
907.441	3462
907.557	3291
907.674	3294
907.79	3268
907.907	3310
908.023	3397
908.139	3409
908.256	3367
908.372	3466
908.488	3405
908.604	3298
908.72	3283
908.836	3336
908.952	3329
909.068	3370
909.184	3507
909.3	3378
909.415	3542
909.531	3492
909.647	3344
909.762	3317
909.878	3253
909.993	3386
910.108	3393
910.224	3378
910.339	3431
910.454	3359
910.57	3344
910.685	3329
910.8	3625
910.915	3553
911.03	3443
911.145	3302
911.259	3325
911.374	3370
911.489	3287
911.604	3268
911.718	3176
911.833	3207
911.947	3100
912.062	3005
912.176	3199
912.291	3253
912.405	3260
912.519	3431
912.633	3523
912.748	3393
912.862	3283
912.976	3226
913.09	3119
913.204	3195
913.318	3241
913.431	3329
913.545	3389
913.659	3416
913.772	3378
913.886	3245
914	3211
914.113	3397
914.226	3450
914.34	3405
914.453	3275
914.566	3488
914.68	3325
914.793	3332
914.906	3173
915.019	3135
915.132	3100
915.245	3211
915.358	3233
915.47	3241
915.583	3249
915.696	3313
915.809	3435
915.921	3435
916.034	3310
916.146	3272
916.259	3268
916.371	3401
916.483	3409
916.595	3336
916.708	3336
916.82	3374
916.932	3374
917.044	3412
917.156	3363
917.268	3279
917.38	3340
917.491	3348
917.603	3389
917.715	3428
917.826	3488
917.938	3401
918.049	3321
918.161	3492
918.272	3595
918.384	3606
918.495	3534
918.606	3382
918.717	3317
918.828	3374
918.939	3435
919.05	3321
919.161	3405
919.272	3207
919.383	3298
919.494	3538
919.604	3709
919.715	3519
919.826	3378
919.936	3485
920.047	3610
920.157	3606
920.267	3785
920.378	3660
920.488	3587
920.598	3785
920.708	3964
920.818	3835
920.928	3873
921.038	4025
921.148	4010
921.258	3743
921.368	3641
921.477	3618
921.587	3549
921.697	3504
921.806	3663
921.916	3549
922.025	3386
922.134	3431
922.244	3344
922.353	3481
922.462	3241
922.571	3241
922.68	3135
922.789	3150
922.898	3203
923.007	3150
923.116	3260
923.224	3203
923.333	3211
923.442	3173
923.55	3119
923.659	3123
923.767	3245
923.876	3161
923.984	3298
924.092	3146
924.201	3249
924.309	3233
924.417	3268
924.525	3218
924.633	3275
924.741	4063
924.849	3112
924.956	3272
925.064	3100
925.172	3108
925.279	3138
925.387	3226
925.494	3245
925.602	3389
925.709	3351
925.816	3195
925.924	3298
926.031	3447
926.138	3355
926.245	3428
926.352	3287
926.459	3405
926.566	3504
926.673	3325
926.779	3313
926.886	3321
926.993	3173
927.099	3104
927.206	3100
927.312	3157
927.419	3275
927.525	3233
927.631	3302
927.737	3199
927.843	3154
927.95	3028
928.056	3150
928.162	3237
928.267	3291
928.373	3922
928.479	3302
928.585	3070
928.69	3256
928.796	3302
928.901	3218
929.007	3062
929.112	3249
929.218	3211
929.323	3207
929.428	3161
929.533	3348
929.638	3154
929.743	3154
929.848	3313
929.953	3214
930.058	3199
930.163	2979
930.267	3100
930.372	3199
930.477	3070
930.581	3359
930.685	3218
930.79	3074
930.894	3199
930.998	3116
931.103	3298
931.207	3005
931.311	2941
931.415	2948
931.519	2811
931.623	2838
