Data from test_V78500241_1934.txt Node
Date: Fri Mar 25 16:28:36 CST 2022
User: usil
Spectrometer: V785-0024
Trigger mode: 0
Integration Time (sec): 4.000000E-1
Scans to average: 1
Nonlinearity correction enabled: false
Boxcar width: 0
Storing dark spectrum: false
XAxis mode: Wavelengths
Number of Pixels in Spectrum: 1024
>>>>>Begin Spectral Data<<<<<
801.071	2937
801.214	2998
801.356	2918
801.499	2956
801.641	2937
801.783	2967
801.926	3077
802.068	3001
802.211	3062
802.353	3081
802.496	3017
802.638	3055
802.78	3058
802.923	3089
803.065	3017
803.208	2933
803.35	2933
803.492	2963
803.635	2960
803.777	2807
803.919	2883
804.061	3230
804.204	2979
804.346	2960
804.488	2845
804.63	3039
804.773	2922
804.915	2960
805.057	3097
805.199	3005
805.341	2990
805.483	3028
805.626	3024
805.768	2998
805.91	3142
806.052	3119
806.194	3077
806.336	3279
806.478	3024
806.62	2982
806.762	3036
806.904	3093
807.046	3192
807.188	2998
807.33	2937
807.472	3005
807.614	2910
807.756	2986
807.898	2963
808.04	2937
808.182	3024
808.324	3009
808.465	2948
808.607	2895
808.749	2838
808.891	2864
809.033	3020
809.174	2994
809.316	2941
809.458	2948
809.6	2804
809.741	2788
809.883	2788
810.025	2883
810.166	2883
810.308	2849
810.45	2887
810.591	2766
810.733	2762
810.875	2914
811.016	2811
811.158	2785
811.299	2857
811.441	2960
811.582	2925
811.724	2883
811.865	2830
812.007	2929
812.148	2922
812.29	2887
812.431	2910
812.573	2994
812.714	3001
812.855	3074
812.997	3100
813.138	3169
813.279	3055
813.421	3039
813.562	2990
813.703	2929
813.845	2933
813.986	2792
814.127	2804
814.268	2838
814.41	2849
814.551	2868
814.692	2895
814.833	2845
814.974	2918
815.115	2979
815.256	2868
815.397	2842
815.539	2887
815.68	2807
815.821	2838
815.962	2956
816.103	2960
816.244	2895
816.385	2868
816.526	2994
816.666	2925
816.807	2762
816.948	2914
817.089	2929
817.23	2883
817.371	2792
817.512	2819
817.653	2857
817.793	2861
817.934	2902
818.075	3009
818.216	3051
818.356	3043
818.497	2910
818.638	2819
818.778	2834
818.919	2842
819.06	2762
819.2	2937
819.341	2834
819.481	2834
819.622	2956
819.762	3100
819.903	3070
820.043	2910
820.184	2914
820.324	2933
820.465	3036
820.605	3020
820.746	3051
820.886	2948
821.026	3112
821.167	3195
821.307	3321
821.447	3279
821.588	3245
821.728	3233
821.868	3211
822.008	3100
822.149	3214
822.289	3253
822.429	3112
822.569	3119
822.709	3199
822.849	3024
822.99	3062
823.13	3195
823.27	3253
823.41	3108
823.55	3169
823.69	3169
823.83	3218
823.97	3085
824.11	3039
824.25	3032
824.389	3093
824.529	3131
824.669	3108
824.809	3176
824.949	3245
825.089	3253
825.228	3207
825.368	3055
825.508	2922
825.648	2975
825.787	3024
825.927	3047
826.067	2960
826.206	2986
826.346	3051
826.485	3089
826.625	3154
826.765	3249
826.904	3237
827.044	3036
827.183	2960
827.323	2929
827.462	3001
827.601	2910
827.741	2975
827.88	2963
828.02	2914
828.159	2998
828.298	3058
828.437	3100
828.577	3047
828.716	3218
828.855	3074
828.994	2929
829.134	2902
829.273	2937
829.412	2891
829.551	2891
829.69	2906
829.829	2994
829.968	3150
830.107	3051
830.246	3043
830.385	2941
830.524	2891
830.663	2834
830.802	2750
830.941	2663
831.08	2648
831.219	2834
831.357	2785
831.496	2952
831.635	2724
831.774	2659
831.913	2697
832.051	2564
832.19	2632
832.329	2716
832.467	2533
832.606	2541
832.744	2613
832.883	2613
833.022	2636
833.16	2655
833.299	2727
833.437	2697
833.576	2750
833.714	2758
833.852	2750
833.991	2758
834.129	2838
834.267	2868
834.406	2811
834.544	2918
834.682	2902
834.821	2880
834.959	3077
835.097	2872
835.235	3024
835.373	2982
835.511	3047
835.65	2929
835.788	3001
835.926	2845
836.064	2804
836.202	2876
836.34	3116
836.478	3176
836.615	3055
836.753	3100
836.891	3207
837.029	3192
837.167	3131
837.305	3100
837.443	3081
837.58	3009
837.718	3154
837.856	3051
837.993	3039
838.131	3150
838.269	3157
838.406	3093
838.544	3112
838.681	2952
838.819	2937
838.956	2834
839.094	2868
839.231	2944
839.369	3074
839.506	3363
839.643	3226
839.781	3009
839.918	2994
840.055	3081
840.193	3047
840.33	3104
840.467	3123
840.604	3176
840.742	3435
840.879	3081
841.016	3062
841.153	3119
841.29	3344
841.427	3298
841.564	3253
841.701	3298
841.838	3237
841.975	3165
842.112	3207
842.249	3089
842.385	3039
842.522	3321
842.659	3097
842.796	3074
842.933	3123
843.069	3062
843.206	3043
843.343	3199
843.479	3127
843.616	3131
843.752	2952
843.889	2910
844.025	3077
844.162	2925
844.298	3116
844.435	2975
844.571	2937
844.708	3085
844.844	3195
844.98	3169
845.117	3222
845.253	3093
845.389	3051
845.525	3131
845.661	3097
845.798	3005
845.934	3112
846.07	3058
846.206	3203
846.342	3329
846.478	3218
846.614	3104
846.75	3032
846.886	3089
847.022	3287
847.158	3161
847.294	3192
847.429	3256
847.565	3195
847.701	3454
847.837	3013
847.972	2982
848.108	3169
848.244	3154
848.379	3001
848.515	2960
848.65	2952
848.786	2944
848.921	3036
849.057	3127
849.192	3157
849.328	3066
849.463	3119
849.598	3074
849.734	3028
849.869	2971
850.004	2944
850.14	2956
850.275	2902
850.41	2880
850.545	2891
850.68	2952
850.815	2979
850.95	2994
851.085	3226
851.22	3127
851.355	3051
851.49	2941
851.625	3028
851.76	3020
851.895	2967
852.03	2914
852.165	3077
852.299	3074
852.434	3146
852.569	3142
852.703	3192
852.838	3253
852.973	3336
853.107	3317
853.242	3157
853.376	3119
853.511	2975
853.645	3039
853.78	3245
853.914	3112
854.048	3142
854.183	3077
854.317	3176
854.451	3294
854.585	3138
854.72	3108
854.854	3207
854.988	3077
855.122	3131
855.256	3009
855.39	3104
855.524	3218
855.658	3173
855.792	3157
855.926	3188
856.06	3222
856.194	3279
856.327	3165
856.461	3093
856.595	3104
856.729	3085
856.862	3203
856.996	3188
857.13	3199
857.263	3253
857.397	3306
857.53	3135
857.664	3207
857.797	3245
857.931	3211
858.064	3176
858.197	3218
858.331	3112
858.464	3135
858.597	2990
858.731	3112
858.864	3116
858.997	3066
859.13	3146
859.263	3173
859.396	3230
859.529	3108
859.662	3070
859.795	3085
859.928	3150
860.061	3275
860.194	3306
860.327	3127
860.46	3108
860.592	3211
860.725	3256
860.858	3268
860.99	3135
861.123	3062
861.256	3077
861.388	3135
861.521	3823
861.653	3001
861.786	2990
861.918	3009
862.05	3081
862.183	3112
862.315	3154
862.447	3192
862.58	3116
862.712	2971
862.844	2899
862.976	3005
863.108	3020
863.24	3310
863.372	2876
863.504	2963
863.636	2963
863.768	3100
863.9	3005
864.032	2925
864.164	2979
864.296	2998
864.428	3104
864.559	3135
864.691	3058
864.823	3074
864.954	3039
865.086	3028
865.217	2982
865.349	2937
865.48	3001
865.612	3028
865.743	3184
865.875	3001
866.006	2960
866.137	2986
866.269	2941
866.4	2960
866.531	2918
866.662	2902
866.793	2918
866.924	2922
867.055	2948
867.186	2941
867.317	2918
867.448	2864
867.579	2880
867.71	2868
867.841	2853
867.972	2880
868.103	2952
868.233	2914
868.364	2910
868.495	2937
868.625	3058
868.756	3161
868.886	2998
869.017	3005
869.147	3169
869.278	3176
869.408	3085
869.539	3058
869.669	3108
869.799	3036
869.929	3169
870.06	3104
870.19	3359
870.32	3291
870.45	3317
870.58	3420
870.71	3439
870.84	3454
870.97	3272
871.1	3283
871.23	3504
871.36	3466
871.489	3340
871.619	3447
871.749	3378
871.879	3435
872.008	3496
872.138	3367
872.267	3310
872.397	3161
872.526	3123
872.656	3032
872.785	3104
872.915	3222
873.044	3317
873.173	3233
873.303	3222
873.432	3256
873.561	3199
873.69	3112
873.819	3116
873.948	3203
874.077	3089
874.206	3039
874.335	3116
874.464	3211
874.593	3302
874.722	3245
874.851	3401
874.979	3378
875.108	3306
875.237	3180
875.365	3157
875.494	3180
875.623	3233
875.751	3058
875.88	3085
876.008	3176
876.136	3218
876.265	3344
876.393	3504
876.521	3401
876.65	3428
876.778	3302
876.906	3245
877.034	3226
877.162	3222
877.29	3188
877.418	3211
877.546	3233
877.674	3245
877.802	3256
877.93	3249
878.058	3150
878.185	3150
878.313	3199
878.441	3222
878.568	3116
878.696	3104
878.824	3245
878.951	3275
879.079	3439
879.206	3633
879.333	3428
879.461	3291
879.588	3344
879.715	3466
879.842	3599
879.97	3370
880.097	3157
880.224	3116
880.351	3188
880.478	3207
880.605	3188
880.732	3207
880.859	3523
880.986	3287
881.112	3321
881.239	3188
881.366	3138
881.493	3066
881.619	3020
881.746	3070
881.872	3100
881.999	3081
882.125	3142
882.252	3260
882.378	3275
882.505	3466
882.631	3283
882.757	3119
882.883	3188
883.01	3233
883.136	3173
883.262	3085
883.388	3138
883.514	3332
883.64	3344
883.766	3298
883.892	3211
884.018	3207
884.143	3424
884.269	3530
884.395	3180
884.52	3150
884.646	3195
884.772	3119
884.897	3081
885.023	3237
885.148	3344
885.274	3431
885.399	3401
885.524	3306
885.65	3253
885.775	3313
885.9	3260
886.025	3409
886.15	3386
886.275	3272
886.4	3249
886.525	3302
886.65	3253
886.775	3279
886.9	3507
887.025	3641
887.149	3412
887.274	3264
887.399	3150
887.523	3169
887.648	3192
887.773	3211
887.897	3382
888.021	3401
888.146	3313
888.27	3393
888.395	3564
888.519	3424
888.643	3454
888.767	3447
888.891	3340
889.015	3253
889.139	3279
889.263	3253
889.387	3409
889.511	3523
889.635	3469
889.759	3287
889.883	3306
890.006	3386
890.13	3500
890.254	3302
890.377	3355
890.501	3226
890.624	3188
890.748	3275
890.871	3169
890.995	3135
891.118	3097
891.241	3176
891.364	3237
891.488	3272
891.611	3195
891.734	3260
891.857	3233
891.98	3245
892.103	3306
892.226	3237
892.349	3218
892.471	3112
892.594	3214
892.717	3291
892.839	3264
892.962	3336
893.085	3382
893.207	3310
893.33	3199
893.452	3165
893.575	3344
893.697	3253
893.819	3507
893.941	3542
894.064	3420
894.186	3291
894.308	3275
894.43	3450
894.552	3530
894.674	3481
894.796	3302
894.918	3272
895.04	3294
895.161	3435
895.283	3378
895.405	3310
895.526	3329
895.648	3462
895.769	3435
895.891	3443
896.012	3469
896.134	3469
896.255	3412
896.376	3409
896.498	3359
896.619	3447
896.74	3382
896.861	3397
896.982	3652
897.103	3850
897.224	3614
897.345	3485
897.466	3477
897.587	3507
897.708	3671
897.828	3545
897.949	3428
898.07	3336
898.19	3382
898.311	3629
898.431	3469
898.552	3534
898.672	3587
898.792	3591
898.913	3530
899.033	3412
899.153	3287
899.273	3211
899.393	3287
899.513	3317
899.633	3302
899.753	3348
899.873	3336
899.993	3336
900.113	3336
900.232	3389
900.352	3325
900.472	3291
900.591	3218
900.711	3313
900.83	3260
900.95	3405
901.069	3504
901.189	3321
901.308	3211
901.427	3169
901.546	3192
901.665	3279
901.784	3321
901.904	3226
902.023	3142
902.141	3047
902.26	2975
902.379	3150
902.498	3138
902.617	3062
902.735	3211
902.854	3233
902.973	3165
903.091	3047
903.21	3055
903.328	3093
903.446	3142
903.565	3100
903.683	3199
903.801	3142
903.919	3230
904.038	3272
904.156	3157
904.274	3279
904.392	3233
904.51	3275
904.627	3329
904.745	3435
904.863	3523
904.981	3302
905.098	3161
905.216	3218
905.334	3325
905.451	3310
905.569	3279
905.686	3389
905.803	3462
905.921	3268
906.038	3424
906.155	3298
906.272	3264
906.389	3351
906.506	3207
906.623	3275
906.74	3249
906.857	3173
906.974	3233
907.091	3447
907.208	3576
907.324	3469
907.441	3359
907.557	3253
907.674	3287
907.79	3230
907.907	3260
908.023	3397
908.139	3374
908.256	3329
908.372	3374
908.488	3359
908.604	3249
908.72	3230
908.836	3310
908.952	3279
909.068	3287
909.184	3485
909.3	3382
909.415	3481
909.531	3454
909.647	3272
909.762	3279
909.878	3245
909.993	3332
910.108	3325
910.224	3344
910.339	3389
910.454	3359
910.57	3306
910.685	3233
910.8	3584
910.915	3542
911.03	3389
911.145	3260
911.259	3310
911.374	3317
911.489	3222
911.604	3230
911.718	3127
911.833	3180
911.947	3039
912.062	2960
912.176	3188
912.291	3176
912.405	3237
912.519	3405
912.633	3473
912.748	3344
912.862	3272
912.976	3150
913.09	3081
913.204	3150
913.318	3195
913.431	3325
913.545	3321
913.659	3370
913.772	3332
913.886	3230
914	3180
914.113	3344
914.226	3405
914.34	3382
914.453	3249
914.566	3428
914.68	3256
914.793	3325
914.906	3142
915.019	3131
915.132	3077
915.245	3138
915.358	3203
915.47	3222
915.583	3222
915.696	3306
915.809	3389
915.921	3420
916.034	3192
916.146	3249
916.259	3230
916.371	3367
916.483	3363
916.595	3268
916.708	3340
916.82	3340
916.932	3374
917.044	3370
917.156	3363
917.268	3283
917.38	3279
917.491	3306
917.603	3348
917.715	3458
917.826	3447
917.938	3409
918.049	3279
918.161	3420
918.272	3545
918.384	3564
918.495	3469
918.606	3374
918.717	3287
918.828	3355
918.939	3431
919.05	3264
919.161	3363
919.272	3180
919.383	3287
919.494	3507
919.604	3686
919.715	3473
919.826	3389
919.936	3428
920.047	3591
920.157	3572
920.267	3743
920.378	3595
920.488	3576
920.598	3789
920.708	3945
920.818	3770
920.928	3838
921.038	4029
921.148	4036
921.258	3705
921.368	3648
921.477	3568
921.587	3526
921.697	3477
921.806	3591
921.916	3523
922.025	3359
922.134	3348
922.244	3325
922.353	3428
922.462	3294
922.571	3218
922.68	3131
922.789	3089
922.898	3138
923.007	3089
923.116	3207
923.224	3146
923.333	3180
923.442	3100
923.55	3085
923.659	3169
923.767	3207
923.876	3127
923.984	3233
924.092	3077
924.201	3173
924.309	3211
924.417	3264
924.525	3165
924.633	3218
924.741	4211
924.849	3009
924.956	3291
925.064	3077
925.172	3043
925.279	3100
925.387	3192
925.494	3165
925.602	3359
925.709	3302
925.816	3165
925.924	3260
926.031	3363
926.138	3340
926.245	3332
926.352	3253
926.459	3428
926.566	3481
926.673	3321
926.779	3256
926.886	3222
926.993	3142
927.099	3135
927.206	3093
927.312	3116
927.419	3264
927.525	3214
927.631	3291
927.737	3150
927.843	3089
927.95	3020
928.056	3146
928.162	3165
928.267	3218
928.373	3884
928.479	3340
928.585	3066
928.69	3199
928.796	3283
928.901	3165
929.007	3036
929.112	3169
929.218	3176
929.323	3161
929.428	3199
929.533	3336
929.638	3112
929.743	3173
929.848	3245
929.953	3184
930.058	3135
930.163	2990
930.267	3077
930.372	3211
930.477	3039
930.581	3279
930.685	3199
930.79	3085
930.894	3100
930.998	3112
931.103	3302
931.207	2929
931.311	2925
931.415	2899
931.519	2804
931.623	2800
