Data from test_V78500241_494.txt Node
Date: Fri Mar 25 16:18:37 CST 2022
User: usil
Spectrometer: V785-0024
Trigger mode: 0
Integration Time (sec): 4.000000E-1
Scans to average: 1
Nonlinearity correction enabled: false
Boxcar width: 0
Storing dark spectrum: false
XAxis mode: Wavelengths
Number of Pixels in Spectrum: 1024
>>>>>Begin Spectral Data<<<<<
801.071	2929
801.214	2975
801.356	2895
801.499	2922
801.641	2857
801.783	2944
801.926	3066
802.068	3001
802.211	3039
802.353	3070
802.496	2998
802.638	3017
802.78	3081
802.923	3112
803.065	3077
803.208	2925
803.35	2922
803.492	2952
803.635	2944
803.777	2796
803.919	2899
804.061	3192
804.204	3001
804.346	2925
804.488	2868
804.63	3017
804.773	2899
804.915	2952
805.057	3093
805.199	2880
805.341	3001
805.483	3066
805.626	3017
805.768	2998
805.91	3104
806.052	3131
806.194	3047
806.336	3279
806.478	3017
806.62	2967
806.762	2986
806.904	3055
807.046	3195
807.188	3017
807.33	2922
807.472	3013
807.614	2944
807.756	2979
807.898	2906
808.04	2929
808.182	2979
808.324	2963
808.465	2914
808.607	2845
808.749	2804
808.891	2880
809.033	3009
809.174	2990
809.316	2906
809.458	2933
809.6	2807
809.741	2773
809.883	2815
810.025	2857
810.166	2883
810.308	2849
810.45	2891
810.591	2750
810.733	2807
810.875	2861
811.016	2762
811.158	2792
811.299	2800
811.441	2933
811.582	2918
811.724	2826
811.865	2830
812.007	2899
812.148	2891
812.29	2853
812.431	2922
812.573	2914
812.714	2948
812.855	3055
812.997	3058
813.138	3089
813.279	3036
813.421	3013
813.562	2982
813.703	2887
813.845	2944
813.986	2800
814.127	2750
814.268	2811
814.41	2826
814.551	2819
814.692	2891
814.833	2830
814.974	2891
815.115	2986
815.256	2819
815.397	2823
815.539	2887
815.68	2811
815.821	2769
815.962	2956
816.103	2944
816.244	2906
816.385	2899
816.526	2948
816.666	2941
816.807	2746
816.948	2933
817.089	2918
817.23	2864
817.371	2766
817.512	2804
817.653	2845
817.793	2830
817.934	2891
818.075	2967
818.216	2979
818.356	3043
818.497	2910
818.638	2819
818.778	2815
818.919	2792
819.06	2754
819.2	2880
819.341	2819
819.481	2823
819.622	2914
819.762	3058
819.903	3062
820.043	2941
820.184	2910
820.324	2880
820.465	3055
820.605	3028
820.746	3051
820.886	2937
821.026	3127
821.167	3142
821.307	3253
821.447	3306
821.588	3237
821.728	3214
821.868	3192
822.008	3131
822.149	3176
822.289	3214
822.429	3097
822.569	3097
822.709	3176
822.849	3017
822.99	3104
823.13	3169
823.27	3230
823.41	3138
823.55	3150
823.69	3184
823.83	3211
823.97	3123
824.11	2990
824.25	3036
824.389	3055
824.529	3119
824.669	3074
824.809	3222
824.949	3260
825.089	3176
825.228	3188
825.368	3009
825.508	2960
825.648	2982
825.787	3032
825.927	3020
826.067	2982
826.206	2925
826.346	2994
826.485	3058
826.625	3119
826.765	3272
826.904	3230
827.044	2998
827.183	2937
827.323	2864
827.462	2998
827.601	2922
827.741	2937
827.88	2990
828.02	2853
828.159	2975
828.298	3066
828.437	3112
828.577	3055
828.716	3241
828.855	3112
828.994	2918
829.134	2899
829.273	2937
829.412	2910
829.551	2868
829.69	2876
829.829	2998
829.968	3176
830.107	3024
830.246	3058
830.385	2922
830.524	2868
830.663	2785
830.802	2766
830.941	2663
831.08	2667
831.219	2735
831.357	2735
831.496	2963
831.635	2724
831.774	2636
831.913	2693
832.051	2560
832.19	2587
832.329	2708
832.467	2533
832.606	2495
832.744	2571
832.883	2610
833.022	2564
833.16	2689
833.299	2697
833.437	2678
833.576	2739
833.714	2743
833.852	2727
833.991	2746
834.129	2883
834.267	2838
834.406	2781
834.544	2872
834.682	2891
834.821	2876
834.959	3058
835.097	2906
835.235	3074
835.373	3020
835.511	3024
835.65	2937
835.788	2982
835.926	2853
836.064	2819
836.202	2853
836.34	3112
836.478	3146
836.615	3051
836.753	3146
836.891	3203
837.029	3207
837.167	3135
837.305	3055
837.443	3062
837.58	2956
837.718	3157
837.856	3028
837.993	3001
838.131	3097
838.269	3112
838.406	3089
838.544	3089
838.681	2944
838.819	2925
838.956	2819
839.094	2864
839.231	2902
839.369	3013
839.506	3386
839.643	3214
839.781	3017
839.918	2982
840.055	3070
840.193	3074
840.33	3070
840.467	3104
840.604	3150
840.742	3389
840.879	3051
841.016	3036
841.153	3119
841.29	3359
841.427	3291
841.564	3256
841.701	3317
841.838	3180
841.975	3211
842.112	3169
842.249	3055
842.385	3051
842.522	3310
842.659	3085
842.796	3066
842.933	3108
843.069	3058
843.206	3055
843.343	3176
843.479	3146
843.616	3142
843.752	2918
843.889	2868
844.025	3089
844.162	2906
844.298	3077
844.435	2925
844.571	2922
844.708	3055
844.844	3199
844.98	3268
845.117	3165
845.253	3058
845.389	3058
845.525	3085
845.661	3108
845.798	2990
845.934	3093
846.07	3058
846.206	3222
846.342	3321
846.478	3237
846.614	3104
846.75	3051
846.886	3017
847.022	3233
847.158	3116
847.294	3161
847.429	3256
847.565	3195
847.701	3431
847.837	3032
847.972	2990
848.108	3142
848.244	3150
848.379	3001
848.515	2948
848.65	2948
848.786	2963
848.921	3005
849.057	3138
849.192	3142
849.328	3066
849.463	3100
849.598	3043
849.734	3055
849.869	2944
850.004	2899
850.14	3009
850.275	2880
850.41	2826
850.545	2891
850.68	2948
850.815	2952
850.95	2998
851.085	3211
851.22	3097
851.355	3013
851.49	2986
851.625	3024
851.76	3005
851.895	2922
852.03	2902
852.165	3024
852.299	3112
852.434	3180
852.569	3199
852.703	3218
852.838	3241
852.973	3325
853.107	3370
853.242	3142
853.376	3108
853.511	3051
853.645	3055
853.78	3233
853.914	3161
854.048	3142
854.183	3135
854.317	3142
854.451	3321
854.585	3157
854.72	3127
854.854	3230
854.988	3108
855.122	3150
855.256	3001
855.39	3119
855.524	3237
855.658	3173
855.792	3180
855.926	3226
856.06	3245
856.194	3302
856.327	3184
856.461	3081
856.595	3077
856.729	3093
856.862	3260
856.996	3211
857.13	3195
857.263	3321
857.397	3306
857.53	3131
857.664	3203
857.797	3245
857.931	3287
858.064	3211
858.197	3245
858.331	3184
858.464	3104
858.597	3051
858.731	3119
858.864	3203
858.997	3116
859.13	3203
859.263	3214
859.396	3233
859.529	3131
859.662	3127
859.795	3135
859.928	3207
860.061	3283
860.194	3298
860.327	3180
860.46	3157
860.592	3302
860.725	3268
860.858	3310
860.99	3074
861.123	3119
861.256	3093
861.388	3188
861.521	3854
861.653	3047
861.786	3009
861.918	3062
862.05	3131
862.183	3104
862.315	3199
862.447	3245
862.58	3169
862.712	3024
862.844	2899
862.976	3017
863.108	3062
863.24	3363
863.372	2941
863.504	3020
863.636	3001
863.768	3070
863.9	3039
864.032	2956
864.164	3017
864.296	3077
864.428	3123
864.559	3192
864.691	3089
864.823	3093
864.954	3043
865.086	3089
865.217	3039
865.349	2990
865.48	3017
865.612	3051
865.743	3135
865.875	2982
866.006	2948
866.137	3020
866.269	2990
866.4	2952
866.531	2937
866.662	2922
866.793	2925
866.924	2944
867.055	3024
867.186	2967
867.317	2906
867.448	2883
867.579	2880
867.71	2914
867.841	2853
867.972	2967
868.103	2933
868.233	2910
868.364	2895
868.495	2918
868.625	3077
868.756	3195
868.886	2971
869.017	3066
869.147	3199
869.278	3188
869.408	3108
869.539	3024
869.669	3100
869.799	3070
869.929	3161
870.06	3161
870.19	3344
870.32	3313
870.45	3317
870.58	3355
870.71	3473
870.84	3534
870.97	3325
871.1	3256
871.23	3519
871.36	3477
871.489	3370
871.619	3428
871.749	3473
871.879	3469
872.008	3500
872.138	3405
872.267	3287
872.397	3146
872.526	3154
872.656	3055
872.785	3138
872.915	3264
873.044	3351
873.173	3230
873.303	3230
873.432	3283
873.561	3268
873.69	3176
873.819	3180
873.948	3218
874.077	3119
874.206	3070
874.335	3150
874.464	3214
874.593	3424
874.722	3260
874.851	3382
874.979	3367
875.108	3359
875.237	3233
875.365	3184
875.494	3226
875.623	3287
875.751	3119
875.88	3123
876.008	3214
876.136	3272
876.265	3389
876.393	3545
876.521	3439
876.65	3405
876.778	3382
876.906	3253
877.034	3176
877.162	3283
877.29	3188
877.418	3283
877.546	3253
877.674	3260
877.802	3233
877.93	3237
878.058	3203
878.185	3119
878.313	3192
878.441	3245
878.568	3108
878.696	3184
878.824	3268
878.951	3348
879.079	3466
879.206	3656
879.333	3469
879.461	3393
879.588	3401
879.715	3462
879.842	3633
879.97	3378
880.097	3173
880.224	3127
880.351	3241
880.478	3275
880.605	3195
880.732	3211
880.859	3504
880.986	3344
881.112	3348
881.239	3230
881.366	3146
881.493	3070
881.619	3028
881.746	3077
881.872	3146
881.999	3150
882.125	3150
882.252	3275
882.378	3313
882.505	3420
882.631	3317
882.757	3192
882.883	3245
883.01	3230
883.136	3161
883.262	3127
883.388	3142
883.514	3374
883.64	3382
883.766	3302
883.892	3237
884.018	3260
884.143	3462
884.269	3587
884.395	3245
884.52	3203
884.646	3226
884.772	3154
884.897	3142
885.023	3253
885.148	3340
885.274	3393
885.399	3409
885.524	3310
885.65	3294
885.775	3359
885.9	3272
886.025	3439
886.15	3389
886.275	3336
886.4	3233
886.525	3359
886.65	3321
886.775	3313
886.9	3500
887.025	3671
887.149	3435
887.274	3272
887.399	3218
887.523	3214
887.648	3230
887.773	3226
887.897	3409
888.021	3447
888.146	3317
888.27	3447
888.395	3591
888.519	3462
888.643	3435
888.767	3450
888.891	3325
889.015	3241
889.139	3348
889.263	3294
889.387	3428
889.511	3511
889.635	3469
889.759	3291
889.883	3321
890.006	3393
890.13	3545
890.254	3298
890.377	3370
890.501	3253
890.624	3188
890.748	3310
890.871	3226
890.995	3100
891.118	3036
891.241	3199
891.364	3245
891.488	3340
891.611	3226
891.734	3226
891.857	3298
891.98	3260
892.103	3363
892.226	3310
892.349	3222
892.471	3180
892.594	3279
892.717	3306
892.839	3325
892.962	3317
893.085	3359
893.207	3321
893.33	3180
893.452	3245
893.575	3344
893.697	3264
893.819	3504
893.941	3492
894.064	3511
894.186	3272
894.308	3313
894.43	3450
894.552	3534
894.674	3462
894.796	3241
894.918	3329
895.04	3325
895.161	3435
895.283	3412
895.405	3363
895.526	3378
895.648	3431
895.769	3420
895.891	3473
896.012	3523
896.134	3454
896.255	3447
896.376	3412
896.498	3378
896.619	3431
896.74	3435
896.861	3439
896.982	3709
897.103	3873
897.224	3622
897.345	3530
897.466	3435
897.587	3530
897.708	3644
897.828	3584
897.949	3447
898.07	3336
898.19	3458
898.311	3606
898.431	3477
898.552	3492
898.672	3603
898.792	3599
898.913	3519
899.033	3443
899.153	3317
899.273	3279
899.393	3260
899.513	3325
899.633	3329
899.753	3344
899.873	3367
899.993	3389
900.113	3374
900.232	3431
900.352	3332
900.472	3325
900.591	3237
900.711	3283
900.83	3264
900.95	3447
901.069	3488
901.189	3401
901.308	3214
901.427	3150
901.546	3226
901.665	3294
901.784	3370
901.904	3222
902.023	3157
902.141	3062
902.26	2971
902.379	3135
902.498	3070
902.617	3104
902.735	3211
902.854	3260
902.973	3230
903.091	3036
903.21	3089
903.328	3169
903.446	3146
903.565	3104
903.683	3214
903.801	3127
903.919	3256
904.038	3302
904.156	3142
904.274	3317
904.392	3283
904.51	3291
904.627	3359
904.745	3481
904.863	3515
904.981	3279
905.098	3184
905.216	3218
905.334	3332
905.451	3359
905.569	3313
905.686	3462
905.803	3443
905.921	3253
906.038	3424
906.155	3363
906.272	3336
906.389	3351
906.506	3260
906.623	3256
906.74	3249
906.857	3199
906.974	3310
907.091	3500
907.208	3576
907.324	3504
907.441	3397
907.557	3249
907.674	3249
907.79	3241
907.907	3279
908.023	3378
908.139	3389
908.256	3359
908.372	3389
908.488	3386
908.604	3302
908.72	3268
908.836	3287
908.952	3302
909.068	3332
909.184	3519
909.3	3393
909.415	3488
909.531	3507
909.647	3264
909.762	3321
909.878	3287
909.993	3409
910.108	3363
910.224	3344
910.339	3450
910.454	3348
910.57	3294
910.685	3283
910.8	3580
910.915	3549
911.03	3473
911.145	3283
911.259	3275
911.374	3310
911.489	3272
911.604	3264
911.718	3119
911.833	3180
911.947	3070
912.062	3009
912.176	3150
912.291	3176
912.405	3218
912.519	3382
912.633	3458
912.748	3317
912.862	3272
912.976	3169
913.09	3089
913.204	3184
913.318	3253
913.431	3325
913.545	3344
913.659	3412
913.772	3332
913.886	3230
914	3203
914.113	3359
914.226	3443
914.34	3363
914.453	3203
914.566	3401
914.68	3279
914.793	3378
914.906	3165
915.019	3100
915.132	3062
915.245	3184
915.358	3230
915.47	3203
915.583	3249
915.696	3287
915.809	3428
915.921	3389
916.034	3256
916.146	3249
916.259	3226
916.371	3348
916.483	3374
916.595	3283
916.708	3355
916.82	3325
916.932	3370
917.044	3367
917.156	3374
917.268	3287
917.38	3313
917.491	3291
917.603	3370
917.715	3454
917.826	3454
917.938	3386
918.049	3298
918.161	3469
918.272	3587
918.384	3561
918.495	3473
918.606	3344
918.717	3264
918.828	3351
918.939	3428
919.05	3321
919.161	3363
919.272	3176
919.383	3310
919.494	3500
919.604	3713
919.715	3545
919.826	3416
919.936	3435
920.047	3610
920.157	3564
920.267	3774
920.378	3606
920.488	3576
920.598	3759
920.708	3956
920.818	3797
920.928	3804
921.038	4002
921.148	3983
921.258	3759
921.368	3591
921.477	3580
921.587	3553
921.697	3447
921.806	3618
921.916	3549
922.025	3363
922.134	3355
922.244	3317
922.353	3443
922.462	3233
922.571	3249
922.68	3138
922.789	3089
922.898	3119
923.007	3085
923.116	3230
923.224	3192
923.333	3199
923.442	3123
923.55	3108
923.659	3146
923.767	3207
923.876	3135
923.984	3241
924.092	3112
924.201	3173
924.309	3264
924.417	3298
924.525	3207
924.633	3241
924.741	4044
924.849	3100
924.956	3279
925.064	3093
925.172	3036
925.279	3116
925.387	3199
925.494	3184
925.602	3351
925.709	3351
925.816	3184
925.924	3313
926.031	3389
926.138	3359
926.245	3351
926.352	3279
926.459	3416
926.566	3496
926.673	3310
926.779	3253
926.886	3241
926.993	3150
927.099	3104
927.206	3138
927.312	3097
927.419	3253
927.525	3192
927.631	3306
927.737	3104
927.843	3097
927.95	3024
928.056	3077
928.162	3211
928.267	3283
928.373	3816
928.479	3348
928.585	3081
928.69	3222
928.796	3275
928.901	3154
929.007	3024
929.112	3230
929.218	3165
929.323	3176
929.428	3173
929.533	3321
929.638	3119
929.743	3195
929.848	3226
929.953	3203
930.058	3142
930.163	2982
930.267	3085
930.372	3157
930.477	3047
930.581	3332
930.685	3226
930.79	3047
930.894	3104
930.998	3093
931.103	3256
931.207	2956
931.311	2952
931.415	2929
931.519	2743
931.623	2800
