Data from test_V78500241_1.txt Node
Date: Fri Mar 25 16:15:12 CST 2022
User: usil
Spectrometer: V785-0024
Trigger mode: 0
Integration Time (sec): 4.000000E-1
Scans to average: 1
Nonlinearity correction enabled: false
Boxcar width: 0
Storing dark spectrum: false
XAxis mode: Wavelengths
Number of Pixels in Spectrum: 1024
>>>>>Begin Spectral Data<<<<<
801.071	2963
801.214	3020
801.356	2876
801.499	2967
801.641	2876
801.783	2948
801.926	3081
802.068	2994
802.211	3066
802.353	3077
802.496	3013
802.638	3043
802.78	3116
802.923	3119
803.065	3032
803.208	2922
803.35	2937
803.492	3001
803.635	2979
803.777	2815
803.919	2922
804.061	3203
804.204	3028
804.346	2941
804.488	2849
804.63	3089
804.773	2929
804.915	2963
805.057	3097
805.199	2971
805.341	2990
805.483	3074
805.626	3032
805.768	3020
805.91	3131
806.052	3123
806.194	3066
806.336	3268
806.478	3070
806.62	2998
806.762	3051
806.904	3093
807.046	3211
807.188	3028
807.33	2944
807.472	3024
807.614	2967
807.756	3066
807.898	2967
808.04	2922
808.182	3024
808.324	2986
808.465	2925
808.607	2937
808.749	2838
808.891	2902
809.033	2979
809.174	3024
809.316	2899
809.458	2941
809.6	2815
809.741	2785
809.883	2811
810.025	2895
810.166	2906
810.308	2853
810.45	2887
810.591	2826
810.733	2785
810.875	2849
811.016	2853
811.158	2766
811.299	2872
811.441	2990
811.582	2937
811.724	2861
811.865	2857
812.007	2960
812.148	2910
812.29	2902
812.431	2941
812.573	2994
812.714	3001
812.855	3085
812.997	3093
813.138	3169
813.279	3058
813.421	3047
813.562	2998
813.703	2929
813.845	2944
813.986	2830
814.127	2788
814.268	2902
814.41	2861
814.551	2891
814.692	2925
814.833	2880
814.974	2918
815.115	3009
815.256	2876
815.397	2872
815.539	2902
815.68	2796
815.821	2849
815.962	2990
816.103	2948
816.244	2925
816.385	2929
816.526	2990
816.666	2960
816.807	2773
816.948	2937
817.089	2975
817.23	2906
817.371	2811
817.512	2792
817.653	2880
817.793	2842
817.934	2895
818.075	2971
818.216	3020
818.356	3085
818.497	2922
818.638	2826
818.778	2876
818.919	2830
819.06	2807
819.2	2914
819.341	2815
819.481	2826
819.622	2963
819.762	3131
819.903	3119
820.043	2960
820.184	2956
820.324	2937
820.465	3062
820.605	3036
820.746	3036
820.886	2986
821.026	3142
821.167	3241
821.307	3294
821.447	3317
821.588	3264
821.728	3260
821.868	3230
822.008	3138
822.149	3237
822.289	3283
822.429	3142
822.569	3089
822.709	3222
822.849	3100
822.99	3112
823.13	3176
823.27	3264
823.41	3169
823.55	3203
823.69	3161
823.83	3241
823.97	3150
824.11	3074
824.25	3024
824.389	3081
824.529	3108
824.669	3119
824.809	3272
824.949	3329
825.089	3291
825.228	3180
825.368	3039
825.508	3005
825.648	2990
825.787	3085
825.927	3081
826.067	3020
826.206	2982
826.346	3100
826.485	3135
826.625	3169
826.765	3344
826.904	3283
827.044	3081
827.183	2994
827.323	2925
827.462	3089
827.601	2971
827.741	3005
827.88	3020
828.02	2887
828.159	3070
828.298	3108
828.437	3195
828.577	3116
828.716	3306
828.855	3142
828.994	3032
829.134	2967
829.273	3028
829.412	2956
829.551	2937
829.69	2963
829.829	3070
829.968	3222
830.107	3085
830.246	3104
830.385	3024
830.524	2967
830.663	2914
830.802	2800
830.941	2727
831.08	2724
831.219	2880
831.357	2857
831.496	3020
831.635	2823
831.774	2773
831.913	2724
832.051	2629
832.19	2663
832.329	2777
832.467	2621
832.606	2545
832.744	2640
832.883	2667
833.022	2689
833.16	2727
833.299	2758
833.437	2769
833.576	2773
833.714	2811
833.852	2845
833.991	2849
834.129	2910
834.267	2906
834.406	2944
834.544	2990
834.682	2986
834.821	2906
834.959	3135
835.097	2979
835.235	3161
835.373	3119
835.511	3127
835.65	3024
835.788	3028
835.926	2929
836.064	2937
836.202	2948
836.34	3188
836.478	3241
836.615	3119
836.753	3214
836.891	3302
837.029	3226
837.167	3199
837.305	3188
837.443	3131
837.58	3036
837.718	3260
837.856	3138
837.993	3146
838.131	3218
838.269	3195
838.406	3199
838.544	3184
838.681	3032
838.819	2982
838.956	2887
839.094	2933
839.231	3043
839.369	3138
839.506	3458
839.643	3310
839.781	3097
839.918	3051
840.055	3184
840.193	3123
840.33	3123
840.467	3203
840.604	3264
840.742	3523
840.879	3154
841.016	3131
841.153	3211
841.29	3435
841.427	3386
841.564	3393
841.701	3428
841.838	3325
841.975	3241
842.112	3329
842.249	3142
842.385	3097
842.522	3370
842.659	3176
842.796	3131
842.933	3199
843.069	3138
843.206	3138
843.343	3283
843.479	3214
843.616	3260
843.752	2960
843.889	2967
844.025	3154
844.162	2960
844.298	3214
844.435	3039
844.571	3013
844.708	3150
844.844	3264
844.98	3355
845.117	3283
845.253	3173
845.389	3062
845.525	3169
845.661	3195
845.798	3074
845.934	3218
846.07	3150
846.206	3283
846.342	3389
846.478	3321
846.614	3157
846.75	3135
846.886	3093
847.022	3332
847.158	3241
847.294	3241
847.429	3378
847.565	3222
847.701	3572
847.837	3112
847.972	3074
848.108	3214
848.244	3264
848.379	3097
848.515	3047
848.65	3013
848.786	3039
848.921	3062
849.057	3203
849.192	3211
849.328	3142
849.463	3203
849.598	3188
849.734	3150
849.869	3058
850.004	2994
850.14	3058
850.275	3001
850.41	2944
850.545	2986
850.68	3005
850.815	3017
850.95	3032
851.085	3249
851.22	3180
851.355	3112
851.49	3081
851.625	3116
851.76	3131
851.895	3047
852.03	3024
852.165	3123
852.299	3161
852.434	3253
852.569	3241
852.703	3264
852.838	3336
852.973	3447
853.107	3435
853.242	3233
853.376	3142
853.511	3051
853.645	3131
853.78	3317
853.914	3237
854.048	3241
854.183	3211
854.317	3249
854.451	3386
854.585	3222
854.72	3188
854.854	3291
854.988	3154
855.122	3188
855.256	3074
855.39	3207
855.524	3325
855.658	3260
855.792	3203
855.926	3340
856.06	3325
856.194	3389
856.327	3291
856.461	3207
856.595	3180
856.729	3169
856.862	3298
856.996	3256
857.13	3272
857.263	3306
857.397	3351
857.53	3214
857.664	3291
857.797	3306
857.931	3336
858.064	3249
858.197	3310
858.331	3203
858.464	3154
858.597	3089
858.731	3214
858.864	3222
858.997	3154
859.13	3211
859.263	3233
859.396	3325
859.529	3142
859.662	3138
859.795	3142
859.928	3249
860.061	3401
860.194	3382
860.327	3203
860.46	3112
860.592	3329
860.725	3332
860.858	3336
860.99	3165
861.123	3138
861.256	3138
861.388	3184
861.521	3804
861.653	3131
861.786	3066
861.918	3108
862.05	3135
862.183	3188
862.315	3218
862.447	3253
862.58	3184
862.712	3036
862.844	2952
862.976	3108
863.108	3085
863.24	3568
863.372	2963
863.504	3024
863.636	3005
863.768	3131
863.9	3005
864.032	2982
864.164	3009
864.296	3077
864.428	3199
864.559	3214
864.691	3157
864.823	3154
864.954	3119
865.086	3127
865.217	3116
865.349	3005
865.48	3062
865.612	3066
865.743	3233
865.875	3047
866.006	3001
866.137	3058
866.269	3005
866.4	3028
866.531	3013
866.662	2948
866.793	2998
866.924	2960
867.055	3043
867.186	3001
867.317	2941
867.448	2922
867.579	2937
867.71	2933
867.841	2876
867.972	2998
868.103	2998
868.233	2967
868.364	2967
868.495	2982
868.625	3161
868.756	3275
868.886	3051
869.017	3138
869.147	3211
869.278	3249
869.408	3093
869.539	3127
869.669	3161
869.799	3062
869.929	3207
870.06	3192
870.19	3382
870.32	3370
870.45	3397
870.58	3473
870.71	3557
870.84	3538
870.97	3374
871.1	3340
871.23	3587
871.36	3553
871.489	3435
871.619	3538
871.749	3519
871.879	3549
872.008	3538
872.138	3450
872.267	3393
872.397	3203
872.526	3169
872.656	3085
872.785	3180
872.915	3302
873.044	3386
873.173	3268
873.303	3336
873.432	3336
873.561	3340
873.69	3256
873.819	3256
873.948	3279
874.077	3192
874.206	3161
874.335	3154
874.464	3260
874.593	3416
874.722	3317
874.851	3462
874.979	3462
875.108	3378
875.237	3298
875.365	3245
875.494	3195
875.623	3317
875.751	3161
875.88	3222
876.008	3298
876.136	3287
876.265	3473
876.393	3576
876.521	3500
876.65	3454
876.778	3416
876.906	3325
877.034	3283
877.162	3313
877.29	3272
877.418	3336
877.546	3348
877.674	3348
877.802	3332
877.93	3287
878.058	3230
878.185	3157
878.313	3291
878.441	3329
878.568	3154
878.696	3207
878.824	3332
878.951	3386
879.079	3530
879.206	3648
879.333	3553
879.461	3405
879.588	3462
879.715	3576
879.842	3682
879.97	3454
880.097	3222
880.224	3176
880.351	3294
880.478	3275
880.605	3306
880.732	3253
880.859	3564
880.986	3378
881.112	3454
881.239	3256
881.366	3146
881.493	3066
881.619	3081
881.746	3127
881.872	3173
881.999	3154
882.125	3275
882.252	3325
882.378	3340
882.505	3500
882.631	3340
882.757	3199
882.883	3298
883.01	3298
883.136	3241
883.262	3192
883.388	3184
883.514	3397
883.64	3443
883.766	3397
883.892	3241
884.018	3348
884.143	3534
884.269	3637
884.395	3249
884.52	3233
884.646	3260
884.772	3241
884.897	3176
885.023	3253
885.148	3409
885.274	3511
885.399	3481
885.524	3344
885.65	3325
885.775	3409
885.9	3359
886.025	3523
886.15	3435
886.275	3405
886.4	3370
886.525	3405
886.65	3370
886.775	3393
886.9	3572
887.025	3705
887.149	3496
887.274	3336
887.399	3291
887.523	3306
887.648	3279
887.773	3245
887.897	3443
888.021	3469
888.146	3351
888.27	3504
888.395	3641
888.519	3500
888.643	3542
888.767	3538
888.891	3374
889.015	3325
889.139	3359
889.263	3321
889.387	3462
889.511	3572
889.635	3462
889.759	3367
889.883	3348
890.006	3477
890.13	3530
890.254	3359
890.377	3420
890.501	3298
890.624	3245
890.748	3359
890.871	3272
890.995	3169
891.118	3142
891.241	3241
891.364	3329
891.488	3393
891.611	3283
891.734	3287
891.857	3355
891.98	3317
892.103	3443
892.226	3382
892.349	3256
892.471	3146
892.594	3279
892.717	3409
892.839	3367
892.962	3386
893.085	3454
893.207	3393
893.33	3203
893.452	3283
893.575	3412
893.697	3306
893.819	3568
893.941	3614
894.064	3500
894.186	3367
894.308	3351
894.43	3488
894.552	3625
894.674	3545
894.796	3336
894.918	3336
895.04	3340
895.161	3519
895.283	3462
895.405	3389
895.526	3454
895.648	3469
895.769	3519
895.891	3530
896.012	3530
896.134	3545
896.255	3530
896.376	3443
896.498	3412
896.619	3492
896.74	3428
896.861	3469
896.982	3781
897.103	3884
897.224	3701
897.345	3580
897.466	3526
897.587	3576
897.708	3629
897.828	3622
897.949	3519
898.07	3405
898.19	3462
898.311	3690
898.431	3515
898.552	3641
898.672	3679
898.792	3656
898.913	3610
899.033	3481
899.153	3329
899.273	3302
899.393	3351
899.513	3351
899.633	3355
899.753	3389
899.873	3393
899.993	3473
900.113	3428
900.232	3412
900.352	3374
900.472	3355
900.591	3287
900.711	3389
900.83	3298
900.95	3519
901.069	3553
901.189	3424
901.308	3283
901.427	3214
901.546	3233
901.665	3378
901.784	3386
901.904	3332
902.023	3214
902.141	3119
902.26	3081
902.379	3218
902.498	3173
902.617	3119
902.735	3298
902.854	3344
902.973	3310
903.091	3104
903.21	3180
903.328	3233
903.446	3211
903.565	3180
903.683	3272
903.801	3256
903.919	3355
904.038	3374
904.156	3253
904.274	3386
904.392	3336
904.51	3389
904.627	3466
904.745	3576
904.863	3568
904.981	3355
905.098	3245
905.216	3329
905.334	3386
905.451	3424
905.569	3424
905.686	3576
905.803	3576
905.921	3416
906.038	3564
906.155	3492
906.272	3336
906.389	3466
906.506	3393
906.623	3359
906.74	3409
906.857	3332
906.974	3389
907.091	3538
907.208	3713
907.324	3591
907.441	3496
907.557	3374
907.674	3351
907.79	3302
907.907	3409
908.023	3435
908.139	3504
908.256	3443
908.372	3469
908.488	3462
908.604	3344
908.72	3332
908.836	3431
908.952	3355
909.068	3435
909.184	3561
909.3	3515
909.415	3591
909.531	3580
909.647	3389
909.762	3409
909.878	3348
909.993	3481
910.108	3515
910.224	3450
910.339	3504
910.454	3439
910.57	3431
910.685	3321
910.8	3660
910.915	3641
911.03	3557
911.145	3389
911.259	3359
911.374	3424
911.489	3382
911.604	3321
911.718	3195
911.833	3226
911.947	3157
912.062	3077
912.176	3233
912.291	3321
912.405	3329
912.519	3538
912.633	3618
912.748	3447
912.862	3386
912.976	3275
913.09	3154
913.204	3279
913.318	3313
913.431	3462
913.545	3462
913.659	3530
913.772	3428
913.886	3325
914	3275
914.113	3481
914.226	3523
914.34	3466
914.453	3298
914.566	3507
914.68	3409
914.793	3397
914.906	3233
915.019	3188
915.132	3180
915.245	3302
915.358	3332
915.47	3340
915.583	3405
915.696	3389
915.809	3538
915.921	3507
916.034	3317
916.146	3378
916.259	3298
916.371	3538
916.483	3435
916.595	3355
916.708	3412
916.82	3469
916.932	3447
917.044	3435
917.156	3431
917.268	3401
917.38	3405
917.491	3374
917.603	3492
917.715	3530
917.826	3557
917.938	3504
918.049	3325
918.161	3526
918.272	3656
918.384	3698
918.495	3591
918.606	3450
918.717	3374
918.828	3511
918.939	3530
919.05	3389
919.161	3450
919.272	3268
919.383	3401
919.494	3587
919.604	3755
919.715	3587
919.826	3519
919.936	3557
920.047	3648
920.157	3667
920.267	3842
920.378	3686
920.488	3671
920.598	3873
920.708	4078
920.818	3903
920.928	3941
921.038	4150
921.148	4082
921.258	3774
921.368	3785
921.477	3675
921.587	3648
921.697	3545
921.806	3717
921.916	3629
922.025	3496
922.134	3469
922.244	3382
922.353	3530
922.462	3340
922.571	3313
922.68	3195
922.789	3119
922.898	3253
923.007	3218
923.116	3275
923.224	3253
923.333	3272
923.442	3203
923.55	3184
923.659	3264
923.767	3329
923.876	3211
923.984	3378
924.092	3180
924.201	3279
924.309	3268
924.417	3370
924.525	3256
924.633	3359
924.741	4276
924.849	3146
924.956	3348
925.064	3195
925.172	3146
925.279	3184
925.387	3306
925.494	3287
925.602	3485
925.709	3450
925.816	3313
925.924	3382
926.031	3462
926.138	3450
926.245	3424
926.352	3329
926.459	3568
926.566	3557
926.673	3435
926.779	3348
926.886	3332
926.993	3268
927.099	3233
927.206	3218
927.312	3226
927.419	3294
927.525	3294
927.631	3348
927.737	3230
927.843	3195
927.95	3085
928.056	3233
928.162	3283
928.267	3336
928.373	3983
928.479	3435
928.585	3165
928.69	3317
928.796	3382
928.901	3226
929.007	3119
929.112	3298
929.218	3245
929.323	3237
929.428	3249
929.533	3409
929.638	3211
929.743	3268
929.848	3325
929.953	3306
930.058	3268
930.163	3104
930.267	3127
930.372	3298
930.477	3127
930.581	3412
930.685	3268
930.79	3157
930.894	3226
930.998	3199
931.103	3428
931.207	3058
931.311	3017
931.415	3017
931.519	2853
931.623	2906
