Data from test_V78500241_1995.txt Node
Date: Fri Mar 25 16:29:01 CST 2022
User: usil
Spectrometer: V785-0024
Trigger mode: 0
Integration Time (sec): 4.000000E-1
Scans to average: 1
Nonlinearity correction enabled: false
Boxcar width: 0
Storing dark spectrum: false
XAxis mode: Wavelengths
Number of Pixels in Spectrum: 1024
>>>>>Begin Spectral Data<<<<<
801.071	2937
801.214	2941
801.356	2880
801.499	2876
801.641	2891
801.783	2868
801.926	3036
802.068	2971
802.211	2990
802.353	3043
802.496	2929
802.638	3017
802.78	3043
802.923	3036
803.065	2975
803.208	2872
803.35	2876
803.492	2929
803.635	2952
803.777	2773
803.919	2845
804.061	3154
804.204	2922
804.346	2952
804.488	2823
804.63	2982
804.773	2872
804.915	2906
805.057	3112
805.199	2918
805.341	2971
805.483	3043
805.626	2982
805.768	2941
805.91	3097
806.052	3112
806.194	3024
806.336	3233
806.478	3017
806.62	2963
806.762	2960
806.904	2990
807.046	3176
807.188	2979
807.33	2910
807.472	2990
807.614	2868
807.756	2967
807.898	2952
808.04	2933
808.182	2967
808.324	2929
808.465	2849
808.607	2864
808.749	2773
808.891	2830
809.033	2937
809.174	2937
809.316	2880
809.458	2895
809.6	2746
809.741	2750
809.883	2773
810.025	2842
810.166	2830
810.308	2842
810.45	2876
810.591	2796
810.733	2720
810.875	2788
811.016	2781
811.158	2746
811.299	2826
811.441	2929
811.582	2902
811.724	2823
811.865	2792
812.007	2902
812.148	2857
812.29	2834
812.431	2853
812.573	2906
812.714	2963
812.855	3032
812.997	3070
813.138	3108
813.279	2994
813.421	2960
813.562	2956
813.703	2906
813.845	2910
813.986	2769
814.127	2766
814.268	2807
814.41	2861
814.551	2792
814.692	2849
814.833	2819
814.974	2891
815.115	2967
815.256	2830
815.397	2807
815.539	2853
815.68	2773
815.821	2807
815.962	2929
816.103	2895
816.244	2861
816.385	2868
816.526	2952
816.666	2891
816.807	2731
816.948	2895
817.089	2899
817.23	2826
817.371	2758
817.512	2811
817.653	2845
817.793	2781
817.934	2853
818.075	2948
818.216	2994
818.356	3024
818.497	2872
818.638	2800
818.778	2796
818.919	2804
819.06	2758
819.2	2849
819.341	2804
819.481	2842
819.622	2914
819.762	3119
819.903	3020
820.043	2933
820.184	2902
820.324	2922
820.465	2990
820.605	2994
820.746	2986
820.886	2918
821.026	3077
821.167	3180
821.307	3222
821.447	3256
821.588	3256
821.728	3192
821.868	3157
822.008	3089
822.149	3131
822.289	3199
822.429	3077
822.569	3097
822.709	3154
822.849	2998
822.99	3081
823.13	3146
823.27	3176
823.41	3089
823.55	3157
823.69	3176
823.83	3176
823.97	3077
824.11	2994
824.25	2979
824.389	3070
824.529	3104
824.669	3066
824.809	3180
824.949	3256
825.089	3218
825.228	3142
825.368	3001
825.508	2941
825.648	3013
825.787	2990
825.927	2986
826.067	2952
826.206	2944
826.346	3017
826.485	3039
826.625	3119
826.765	3245
826.904	3211
827.044	2975
827.183	2910
827.323	2826
827.462	2967
827.601	2906
827.741	2937
827.88	2952
828.02	2853
828.159	3009
828.298	3005
828.437	3131
828.577	3043
828.716	3256
828.855	3032
828.994	2864
829.134	2880
829.273	2922
829.412	2834
829.551	2853
829.69	2880
829.829	2941
829.968	3100
830.107	2994
830.246	3017
830.385	2895
830.524	2853
830.663	2807
830.802	2697
830.941	2644
831.08	2613
831.219	2766
831.357	2785
831.496	2944
831.635	2754
831.774	2625
831.913	2659
832.051	2488
832.19	2564
832.329	2663
832.467	2503
832.606	2488
832.744	2549
832.883	2590
833.022	2625
833.16	2636
833.299	2693
833.437	2701
833.576	2659
833.714	2701
833.852	2724
833.991	2788
834.129	2800
834.267	2830
834.406	2754
834.544	2857
834.682	2883
834.821	2826
834.959	3066
835.097	2876
835.235	3043
835.373	3001
835.511	3005
835.65	2971
835.788	2937
835.926	2819
836.064	2849
836.202	2834
836.34	3100
836.478	3112
836.615	3097
836.753	3142
836.891	3207
837.029	3157
837.167	3077
837.305	3039
837.443	3005
837.58	2941
837.718	3150
837.856	3055
837.993	3081
838.131	3116
838.269	3074
838.406	3066
838.544	3085
838.681	2929
838.819	2891
838.956	2777
839.094	2857
839.231	2895
839.369	3005
839.506	3344
839.643	3188
839.781	3047
839.918	2982
840.055	3047
840.193	3032
840.33	3051
840.467	3097
840.604	3104
840.742	3401
840.879	3036
841.016	3058
841.153	3123
841.29	3306
841.427	3279
841.564	3249
841.701	3306
841.838	3218
841.975	3169
842.112	3192
842.249	3085
842.385	3051
842.522	3253
842.659	3085
842.796	3032
842.933	3089
843.069	3066
843.206	3081
843.343	3173
843.479	3093
843.616	3100
843.752	2895
843.889	2853
844.025	3077
844.162	2880
844.298	3066
844.435	2941
844.571	2944
844.708	3077
844.844	3180
844.98	3260
845.117	3157
845.253	3039
845.389	2975
845.525	3085
845.661	3104
845.798	3013
845.934	3146
846.07	3013
846.206	3218
846.342	3306
846.478	3222
846.614	3100
846.75	3070
846.886	3001
847.022	3272
847.158	3142
847.294	3157
847.429	3199
847.565	3188
847.701	3477
847.837	3017
847.972	3005
848.108	3138
848.244	3089
848.379	2956
848.515	2929
848.65	2941
848.786	2975
848.921	2994
849.057	3074
849.192	3146
849.328	3047
849.463	3116
849.598	3028
849.734	3074
849.869	2933
850.004	2952
850.14	2944
850.275	2876
850.41	2819
850.545	2906
850.68	2918
850.815	2941
850.95	2990
851.085	3135
851.22	3089
851.355	3013
851.49	2975
851.625	2971
851.76	3001
851.895	2941
852.03	2902
852.165	3036
852.299	3066
852.434	3157
852.569	3135
852.703	3161
852.838	3192
852.973	3325
853.107	3340
853.242	3123
853.376	3036
853.511	2937
853.645	3039
853.78	3222
853.914	3074
854.048	3058
854.183	3077
854.317	3146
854.451	3249
854.585	3097
854.72	3089
854.854	3253
854.988	3017
855.122	3062
855.256	2975
855.39	3089
855.524	3214
855.658	3154
855.792	3165
855.926	3195
856.06	3157
856.194	3264
856.327	3180
856.461	3070
856.595	3047
856.729	3077
856.862	3192
856.996	3142
857.13	3188
857.263	3237
857.397	3256
857.53	3112
857.664	3203
857.797	3249
857.931	3253
858.064	3192
858.197	3249
858.331	3123
858.464	3089
858.597	2998
858.731	3104
858.864	3074
858.997	3077
859.13	3180
859.263	3169
859.396	3180
859.529	3108
859.662	3100
859.795	3043
859.928	3161
860.061	3279
860.194	3279
860.327	3112
860.46	3127
860.592	3260
860.725	3256
860.858	3241
860.99	3119
861.123	3074
861.256	3097
861.388	3157
861.521	3896
861.653	3043
861.786	3001
861.918	3005
862.05	3070
862.183	3157
862.315	3157
862.447	3218
862.58	3119
862.712	2990
862.844	2918
862.976	3051
863.108	3051
863.24	3458
863.372	2910
863.504	3005
863.636	2998
863.768	3055
863.9	2998
864.032	2902
864.164	3009
864.296	3081
864.428	3116
864.559	3123
864.691	3123
864.823	3097
864.954	3055
865.086	3085
865.217	3036
865.349	2994
865.48	3001
865.612	3047
865.743	3207
865.875	3024
866.006	2990
866.137	2979
866.269	3001
866.4	2975
866.531	2975
866.662	2895
866.793	2902
866.924	2933
867.055	2990
867.186	2956
867.317	2918
867.448	2876
867.579	2895
867.71	2887
867.841	2838
867.972	2944
868.103	3005
868.233	2941
868.364	2902
868.495	2944
868.625	3116
868.756	3188
868.886	3020
869.017	3062
869.147	3188
869.278	3180
869.408	3104
869.539	3055
869.669	3123
869.799	3039
869.929	3161
870.06	3161
870.19	3363
870.32	3287
870.45	3325
870.58	3397
870.71	3477
870.84	3477
870.97	3306
871.1	3279
871.23	3473
871.36	3458
871.489	3409
871.619	3469
871.749	3435
871.879	3458
872.008	3515
872.138	3397
872.267	3321
872.397	3169
872.526	3157
872.656	3028
872.785	3116
872.915	3245
873.044	3332
873.173	3241
873.303	3264
873.432	3230
873.561	3287
873.69	3157
873.819	3173
873.948	3230
874.077	3112
874.206	3062
874.335	3077
874.464	3214
874.593	3355
874.722	3237
874.851	3416
874.979	3386
875.108	3355
875.237	3237
875.365	3169
875.494	3214
875.623	3275
875.751	3135
875.88	3142
876.008	3237
876.136	3283
876.265	3393
876.393	3515
876.521	3401
876.65	3469
876.778	3370
876.906	3272
877.034	3256
877.162	3237
877.29	3211
877.418	3260
877.546	3253
877.674	3287
877.802	3264
877.93	3241
878.058	3203
878.185	3127
878.313	3214
878.441	3264
878.568	3058
878.696	3173
878.824	3260
878.951	3329
879.079	3428
879.206	3625
879.333	3443
879.461	3351
879.588	3370
879.715	3530
879.842	3641
879.97	3344
880.097	3245
880.224	3138
880.351	3249
880.478	3218
880.605	3222
880.732	3218
880.859	3526
880.986	3332
881.112	3344
881.239	3249
881.366	3150
881.493	3036
881.619	3055
881.746	3127
881.872	3146
881.999	3108
882.125	3192
882.252	3264
882.378	3321
882.505	3473
882.631	3306
882.757	3165
882.883	3230
883.01	3226
883.136	3192
883.262	3142
883.388	3150
883.514	3336
883.64	3416
883.766	3325
883.892	3173
884.018	3260
884.143	3439
884.269	3538
884.395	3245
884.52	3207
884.646	3184
884.772	3173
884.897	3146
885.023	3249
885.148	3340
885.274	3401
885.399	3401
885.524	3313
885.65	3317
885.775	3344
885.9	3302
886.025	3450
886.15	3416
886.275	3306
886.4	3279
886.525	3302
886.65	3348
886.775	3325
886.9	3530
887.025	3637
887.149	3378
887.274	3256
887.399	3214
887.523	3245
887.648	3211
887.773	3218
887.897	3386
888.021	3416
888.146	3283
888.27	3450
888.395	3587
888.519	3511
888.643	3481
888.767	3466
888.891	3329
889.015	3260
889.139	3306
889.263	3245
889.387	3454
889.511	3561
889.635	3428
889.759	3287
889.883	3306
890.006	3420
890.13	3504
890.254	3291
890.377	3405
890.501	3207
890.624	3199
890.748	3306
890.871	3207
890.995	3154
891.118	3108
891.241	3222
891.364	3283
891.488	3336
891.611	3211
891.734	3241
891.857	3306
891.98	3279
892.103	3344
892.226	3321
892.349	3203
892.471	3154
892.594	3249
892.717	3325
892.839	3291
892.962	3317
893.085	3389
893.207	3302
893.33	3165
893.452	3256
893.575	3355
893.697	3272
893.819	3477
893.941	3568
894.064	3473
894.186	3272
894.308	3291
894.43	3462
894.552	3538
894.674	3488
894.796	3310
894.918	3370
895.04	3348
895.161	3469
895.283	3443
895.405	3321
895.526	3344
895.648	3447
895.769	3435
895.891	3450
896.012	3473
896.134	3496
896.255	3428
896.376	3386
896.498	3359
896.619	3450
896.74	3416
896.861	3458
896.982	3713
897.103	3869
897.224	3637
897.345	3542
897.466	3462
897.587	3473
897.708	3610
897.828	3572
897.949	3481
898.07	3329
898.19	3443
898.311	3648
898.431	3488
898.552	3534
898.672	3584
898.792	3591
898.913	3530
899.033	3416
899.153	3302
899.273	3207
899.393	3310
899.513	3370
899.633	3321
899.753	3367
899.873	3321
899.993	3389
900.113	3397
900.232	3386
900.352	3378
900.472	3321
900.591	3241
900.711	3317
900.83	3283
900.95	3469
901.069	3504
901.189	3370
901.308	3226
901.427	3173
901.546	3253
901.665	3321
901.784	3363
901.904	3214
902.023	3192
902.141	3024
902.26	3028
902.379	3157
902.498	3127
902.617	3058
902.735	3214
902.854	3264
902.973	3218
903.091	3039
903.21	3112
903.328	3165
903.446	3119
903.565	3108
903.683	3188
903.801	3146
903.919	3272
904.038	3313
904.156	3188
904.274	3336
904.392	3313
904.51	3321
904.627	3348
904.745	3473
904.863	3523
904.981	3275
905.098	3157
905.216	3253
905.334	3310
905.451	3302
905.569	3336
905.686	3477
905.803	3466
905.921	3332
906.038	3450
906.155	3351
906.272	3275
906.389	3340
906.506	3256
906.623	3264
906.74	3294
906.857	3218
906.974	3306
907.091	3443
907.208	3591
907.324	3492
907.441	3424
907.557	3237
907.674	3237
907.79	3249
907.907	3332
908.023	3420
908.139	3389
908.256	3363
908.372	3405
908.488	3378
908.604	3256
908.72	3211
908.836	3294
908.952	3298
909.068	3329
909.184	3466
909.3	3412
909.415	3538
909.531	3469
909.647	3264
909.762	3317
909.878	3260
909.993	3397
910.108	3382
910.224	3401
910.339	3420
910.454	3317
910.57	3306
910.685	3272
910.8	3614
910.915	3542
911.03	3420
911.145	3302
911.259	3294
911.374	3359
911.489	3291
911.604	3211
911.718	3138
911.833	3192
911.947	3032
912.062	3009
912.176	3157
912.291	3184
912.405	3222
912.519	3454
912.633	3454
912.748	3344
912.862	3268
912.976	3169
913.09	3066
913.204	3165
913.318	3211
913.431	3325
913.545	3340
913.659	3431
913.772	3325
913.886	3241
914	3199
914.113	3412
914.226	3370
914.34	3370
914.453	3222
914.566	3355
914.68	3306
914.793	3298
914.906	3184
915.019	3127
915.132	3077
915.245	3192
915.358	3203
915.47	3245
915.583	3249
915.696	3287
915.809	3397
915.921	3428
916.034	3256
916.146	3253
916.259	3279
916.371	3363
916.483	3374
916.595	3253
916.708	3382
916.82	3329
916.932	3310
917.044	3389
917.156	3348
917.268	3275
917.38	3325
917.491	3344
917.603	3393
917.715	3469
917.826	3458
917.938	3359
918.049	3279
918.161	3389
918.272	3561
918.384	3603
918.495	3538
918.606	3363
918.717	3317
918.828	3386
918.939	3393
919.05	3310
919.161	3389
919.272	3154
919.383	3306
919.494	3477
919.604	3732
919.715	3500
919.826	3458
919.936	3515
920.047	3591
920.157	3584
920.267	3781
920.378	3610
920.488	3584
920.598	3793
920.708	3949
920.818	3831
920.928	3842
921.038	4013
921.148	4013
921.258	3717
921.368	3610
921.477	3561
921.587	3549
921.697	3439
921.806	3641
921.916	3534
922.025	3348
922.134	3370
922.244	3325
922.353	3397
922.462	3279
922.571	3245
922.68	3108
922.789	3077
922.898	3165
923.007	3116
923.116	3218
923.224	3157
923.333	3222
923.442	3108
923.55	3100
923.659	3104
923.767	3188
923.876	3135
923.984	3264
924.092	3077
924.201	3199
924.309	3207
924.417	3268
924.525	3180
924.633	3256
924.741	4181
924.849	3077
924.956	3279
925.064	3085
925.172	3077
925.279	3135
925.387	3195
925.494	3180
925.602	3382
925.709	3351
925.816	3222
925.924	3256
926.031	3386
926.138	3351
926.245	3412
926.352	3291
926.459	3435
926.566	3473
926.673	3355
926.779	3310
926.886	3287
926.993	3233
927.099	3127
927.206	3112
927.312	3131
927.419	3214
927.525	3207
927.631	3302
927.737	3176
927.843	3154
927.95	3077
928.056	3176
928.162	3222
928.267	3310
928.373	3880
928.479	3302
928.585	3089
928.69	3211
928.796	3325
928.901	3222
929.007	3055
929.112	3211
929.218	3222
929.323	3199
929.428	3176
929.533	3344
929.638	3154
929.743	3222
929.848	3313
929.953	3283
930.058	3192
930.163	3062
930.267	3100
930.372	3218
930.477	3112
930.581	3351
930.685	3222
930.79	3112
930.894	3150
930.998	3138
931.103	3363
931.207	2986
931.311	3009
931.415	2975
931.519	2815
931.623	2864
