Data from test_V78500241_933.txt Node
Date: Fri Mar 25 16:21:39 CST 2022
User: usil
Spectrometer: V785-0024
Trigger mode: 0
Integration Time (sec): 4.000000E-1
Scans to average: 1
Nonlinearity correction enabled: false
Boxcar width: 0
Storing dark spectrum: false
XAxis mode: Wavelengths
Number of Pixels in Spectrum: 1024
>>>>>Begin Spectral Data<<<<<
801.071	2891
801.214	2952
801.356	2876
801.499	2895
801.641	2864
801.783	2880
801.926	3005
802.068	2986
802.211	3013
802.353	3024
802.496	2933
802.638	2975
802.78	3074
802.923	3074
803.065	2979
803.208	2902
803.35	2887
803.492	2918
803.635	2971
803.777	2735
803.919	2861
804.061	3203
804.204	2956
804.346	2902
804.488	2826
804.63	2982
804.773	2883
804.915	2910
805.057	3116
805.199	2902
805.341	2986
805.483	3020
805.626	2948
805.768	2960
805.91	3112
806.052	3123
806.194	2990
806.336	3214
806.478	3032
806.62	2990
806.762	2960
806.904	3039
807.046	3131
807.188	2982
807.33	2902
807.472	2971
807.614	2902
807.756	2979
807.898	2944
808.04	2899
808.182	2967
808.324	2971
808.465	2899
808.607	2868
808.749	2792
808.891	2842
809.033	2982
809.174	2960
809.316	2895
809.458	2922
809.6	2785
809.741	2758
809.883	2766
810.025	2891
810.166	2857
810.308	2823
810.45	2811
810.591	2785
810.733	2766
810.875	2861
811.016	2773
811.158	2769
811.299	2800
811.441	2899
811.582	2876
811.724	2796
811.865	2864
812.007	2895
812.148	2899
812.29	2842
812.431	2895
812.573	2922
812.714	2952
812.855	3055
812.997	3020
813.138	3077
813.279	3024
813.421	2998
813.562	2922
813.703	2872
813.845	2872
813.986	2823
814.127	2705
814.268	2842
814.41	2834
814.551	2815
814.692	2899
814.833	2823
814.974	2861
815.115	2948
815.256	2823
815.397	2777
815.539	2845
815.68	2777
815.821	2792
815.962	2914
816.103	2925
816.244	2842
816.385	2864
816.526	2967
816.666	2906
816.807	2762
816.948	2899
817.089	2891
817.23	2834
817.371	2781
817.512	2800
817.653	2830
817.793	2853
817.934	2864
818.075	2994
818.216	3017
818.356	3043
818.497	2895
818.638	2796
818.778	2823
818.919	2792
819.06	2769
819.2	2906
819.341	2800
819.481	2777
819.622	2937
819.762	3055
819.903	2982
820.043	2948
820.184	2857
820.324	2887
820.465	3017
820.605	3005
820.746	3020
820.886	2929
821.026	3089
821.167	3180
821.307	3218
821.447	3260
821.588	3264
821.728	3184
821.868	3150
822.008	3089
822.149	3176
822.289	3233
822.429	3055
822.569	3077
822.709	3180
822.849	3013
822.99	3089
823.13	3173
823.27	3154
823.41	3116
823.55	3180
823.69	3131
823.83	3195
823.97	3093
824.11	3005
824.25	2982
824.389	3066
824.529	3119
824.669	3055
824.809	3165
824.949	3249
825.089	3214
825.228	3142
825.368	3017
825.508	2956
825.648	2982
825.787	3020
825.927	2982
826.067	2967
826.206	2952
826.346	3001
826.485	3074
826.625	3097
826.765	3272
826.904	3214
827.044	2998
827.183	2929
827.323	2857
827.462	3005
827.601	2910
827.741	2887
827.88	2937
828.02	2838
828.159	2956
828.298	3055
828.437	3081
828.577	3028
828.716	3245
828.855	3058
828.994	2914
829.134	2853
829.273	2906
829.412	2868
829.551	2830
829.69	2872
829.829	2948
829.968	3119
830.107	3001
830.246	2994
830.385	2910
830.524	2853
830.663	2819
830.802	2708
830.941	2648
831.08	2648
831.219	2777
831.357	2766
831.496	2960
831.635	2670
831.774	2629
831.913	2613
832.051	2545
832.19	2556
832.329	2705
832.467	2560
832.606	2492
832.744	2526
832.883	2560
833.022	2606
833.16	2636
833.299	2655
833.437	2670
833.576	2701
833.714	2686
833.852	2743
833.991	2746
834.129	2819
834.267	2826
834.406	2769
834.544	2853
834.682	2861
834.821	2853
834.959	3077
835.097	2891
835.235	3039
835.373	3005
835.511	3039
835.65	2925
835.788	2929
835.926	2857
836.064	2823
836.202	2861
836.34	3043
836.478	3161
836.615	3017
836.753	3104
836.891	3214
837.029	3157
837.167	3085
837.305	3028
837.443	3020
837.58	2948
837.718	3104
837.856	3058
837.993	3032
838.131	3116
838.269	3108
838.406	3070
838.544	3043
838.681	2925
838.819	2891
838.956	2785
839.094	2830
839.231	2899
839.369	3005
839.506	3359
839.643	3237
839.781	3043
839.918	2967
840.055	3043
840.193	3043
840.33	3089
840.467	3100
840.604	3116
840.742	3397
840.879	3055
841.016	3070
841.153	3112
841.29	3302
841.427	3291
841.564	3272
841.701	3275
841.838	3230
841.975	3161
842.112	3207
842.249	3062
842.385	3036
842.522	3264
842.659	3070
842.796	3058
842.933	3097
843.069	3036
843.206	3020
843.343	3199
843.479	3077
843.616	3146
843.752	2902
843.889	2906
844.025	3100
844.162	2845
844.298	3093
844.435	2952
844.571	2902
844.708	3051
844.844	3169
844.98	3245
845.117	3180
845.253	3085
845.389	3009
845.525	3112
845.661	3085
845.798	3005
845.934	3135
846.07	3093
846.206	3188
846.342	3332
846.478	3142
846.614	3058
846.75	3051
846.886	3024
847.022	3222
847.158	3119
847.294	3195
847.429	3218
847.565	3241
847.701	3496
847.837	3020
847.972	3005
848.108	3165
848.244	3135
848.379	3013
848.515	2952
848.65	2922
848.786	2971
848.921	3013
849.057	3089
849.192	3154
849.328	3047
849.463	3100
849.598	3039
849.734	3013
849.869	2971
850.004	2876
850.14	2998
850.275	2925
850.41	2823
850.545	2899
850.68	2902
850.815	2941
850.95	2979
851.085	3199
851.22	3097
851.355	3009
851.49	2956
851.625	2975
851.76	3043
851.895	2944
852.03	2887
852.165	3036
852.299	3135
852.434	3180
852.569	3119
852.703	3184
852.838	3264
852.973	3363
853.107	3336
853.242	3104
853.376	3100
853.511	2967
853.645	3055
853.78	3268
853.914	3119
854.048	3081
854.183	3051
854.317	3138
854.451	3302
854.585	3116
854.72	3085
854.854	3169
854.988	3074
855.122	3055
855.256	2933
855.39	3100
855.524	3230
855.658	3192
855.792	3135
855.926	3176
856.06	3173
856.194	3241
856.327	3142
856.461	3089
856.595	3081
856.729	3119
856.862	3237
856.996	3176
857.13	3161
857.263	3207
857.397	3272
857.53	3104
857.664	3207
857.797	3237
857.931	3249
858.064	3135
858.197	3207
858.331	3127
858.464	3112
858.597	3017
858.731	3097
858.864	3131
858.997	3085
859.13	3173
859.263	3169
859.396	3207
859.529	3119
859.662	3028
859.795	3043
859.928	3123
860.061	3268
860.194	3287
860.327	3150
860.46	3066
860.592	3214
860.725	3233
860.858	3249
860.99	3104
861.123	3043
861.256	3070
861.388	3104
861.521	3835
861.653	3039
861.786	2956
861.918	3005
862.05	3047
862.183	3055
862.315	3116
862.447	3203
862.58	3112
862.712	2895
862.844	2853
862.976	3036
863.108	3005
863.24	3393
863.372	2853
863.504	2952
863.636	2960
863.768	3001
863.9	2960
864.032	2914
864.164	2906
864.296	2990
864.428	3104
864.559	3081
864.691	3077
864.823	3036
864.954	3020
865.086	3074
865.217	2979
865.349	2952
865.48	3001
865.612	3043
865.743	3138
865.875	2975
866.006	2971
866.137	2975
866.269	2956
866.4	2906
866.531	2937
866.662	2872
866.793	2887
866.924	2880
867.055	2952
867.186	2941
867.317	2864
867.448	2868
867.579	2815
867.71	2861
867.841	2796
867.972	2880
868.103	2910
868.233	2872
868.364	2838
868.495	2883
868.625	3062
868.756	3146
868.886	2967
869.017	3036
869.147	3165
869.278	3154
869.408	3051
869.539	3001
869.669	3100
869.799	3013
869.929	3089
870.06	3131
870.19	3310
870.32	3279
870.45	3302
870.58	3355
870.71	3447
870.84	3454
870.97	3268
871.1	3237
871.23	3454
871.36	3447
871.489	3344
871.619	3378
871.749	3393
871.879	3416
872.008	3504
872.138	3363
872.267	3291
872.397	3150
872.526	3108
872.656	2975
872.785	3093
872.915	3275
873.044	3294
873.173	3207
873.303	3253
873.432	3226
873.561	3275
873.69	3146
873.819	3119
873.948	3199
874.077	3112
874.206	3036
874.335	3062
874.464	3184
874.593	3310
874.722	3218
874.851	3386
874.979	3397
875.108	3325
875.237	3222
875.365	3180
875.494	3157
875.623	3230
875.751	3116
875.88	3089
876.008	3211
876.136	3226
876.265	3344
876.393	3500
876.521	3409
876.65	3367
876.778	3332
876.906	3241
877.034	3203
877.162	3272
877.29	3176
877.418	3275
877.546	3207
877.674	3264
877.802	3214
877.93	3214
878.058	3184
878.185	3104
878.313	3184
878.441	3199
878.568	3081
878.696	3157
878.824	3214
878.951	3302
879.079	3428
879.206	3644
879.333	3447
879.461	3351
879.588	3359
879.715	3485
879.842	3568
879.97	3409
880.097	3176
880.224	3127
880.351	3199
880.478	3184
880.605	3203
880.732	3188
880.859	3477
880.986	3294
881.112	3336
881.239	3184
881.366	3070
881.493	3047
881.619	2990
881.746	3070
881.872	3127
881.999	3131
882.125	3127
882.252	3253
882.378	3249
882.505	3416
882.631	3260
882.757	3150
882.883	3169
883.01	3211
883.136	3138
883.262	3085
883.388	3138
883.514	3329
883.64	3355
883.766	3302
883.892	3173
884.018	3256
884.143	3420
884.269	3530
884.395	3192
884.52	3176
884.646	3154
884.772	3070
884.897	3104
885.023	3203
885.148	3359
885.274	3397
885.399	3374
885.524	3306
885.65	3237
885.775	3329
885.9	3237
886.025	3412
886.15	3340
886.275	3332
886.4	3249
886.525	3359
886.65	3306
886.775	3249
886.9	3488
887.025	3637
887.149	3416
887.274	3245
887.399	3161
887.523	3207
887.648	3180
887.773	3199
887.897	3340
888.021	3389
888.146	3306
888.27	3424
888.395	3515
888.519	3462
888.643	3424
888.767	3439
888.891	3306
889.015	3298
889.139	3287
889.263	3245
889.387	3389
889.511	3511
889.635	3397
889.759	3264
889.883	3264
890.006	3370
890.13	3454
890.254	3260
890.377	3340
890.501	3157
890.624	3192
890.748	3306
890.871	3142
890.995	3100
891.118	3047
891.241	3214
891.364	3207
891.488	3321
891.611	3176
891.734	3245
891.857	3253
891.98	3214
892.103	3332
892.226	3272
892.349	3188
892.471	3100
892.594	3249
892.717	3298
892.839	3264
892.962	3313
893.085	3321
893.207	3329
893.33	3131
893.452	3241
893.575	3359
893.697	3268
893.819	3462
893.941	3492
894.064	3416
894.186	3245
894.308	3256
894.43	3424
894.552	3526
894.674	3454
894.796	3260
894.918	3291
895.04	3272
895.161	3450
895.283	3363
895.405	3287
895.526	3325
895.648	3443
895.769	3424
895.891	3462
896.012	3466
896.134	3462
896.255	3424
896.376	3367
896.498	3382
896.619	3409
896.74	3359
896.861	3393
896.982	3682
897.103	3865
897.224	3614
897.345	3511
897.466	3416
897.587	3515
897.708	3629
897.828	3549
897.949	3447
898.07	3317
898.19	3389
898.311	3591
898.431	3435
898.552	3526
898.672	3591
898.792	3591
898.913	3500
899.033	3363
899.153	3298
899.273	3237
899.393	3253
899.513	3310
899.633	3306
899.753	3370
899.873	3325
899.993	3386
900.113	3389
900.232	3374
900.352	3310
900.472	3306
900.591	3214
900.711	3279
900.83	3249
900.95	3409
901.069	3477
901.189	3355
901.308	3169
901.427	3127
901.546	3161
901.665	3294
901.784	3302
901.904	3230
902.023	3146
902.141	3013
902.26	2994
902.379	3135
902.498	3062
902.617	3032
902.735	3157
902.854	3226
902.973	3173
903.091	3020
903.21	3066
903.328	3123
903.446	3100
903.565	3131
903.683	3180
903.801	3169
903.919	3253
904.038	3287
904.156	3188
904.274	3287
904.392	3256
904.51	3275
904.627	3329
904.745	3428
904.863	3458
904.981	3253
905.098	3146
905.216	3230
905.334	3283
905.451	3245
905.569	3367
905.686	3454
905.803	3450
905.921	3245
906.038	3363
906.155	3367
906.272	3264
906.389	3310
906.506	3222
906.623	3245
906.74	3253
906.857	3192
906.974	3256
907.091	3409
907.208	3568
907.324	3500
907.441	3367
907.557	3199
907.674	3203
907.79	3169
907.907	3287
908.023	3363
908.139	3363
908.256	3348
908.372	3393
908.488	3340
908.604	3253
908.72	3268
908.836	3310
908.952	3264
909.068	3332
909.184	3511
909.3	3332
909.415	3496
909.531	3458
909.647	3272
909.762	3298
909.878	3249
909.993	3340
910.108	3325
910.224	3389
910.339	3409
910.454	3302
910.57	3245
910.685	3214
910.8	3587
910.915	3534
911.03	3447
911.145	3298
911.259	3260
911.374	3317
911.489	3294
911.604	3211
911.718	3127
911.833	3108
911.947	3005
912.062	2986
912.176	3150
912.291	3226
912.405	3211
912.519	3420
912.633	3458
912.748	3344
912.862	3268
912.976	3142
913.09	3089
913.204	3131
913.318	3203
913.431	3325
913.545	3329
913.659	3389
913.772	3325
913.886	3226
914	3207
914.113	3329
914.226	3431
914.34	3336
914.453	3211
914.566	3405
914.68	3268
914.793	3264
914.906	3135
915.019	3138
915.132	3097
915.245	3150
915.358	3176
915.47	3226
915.583	3260
915.696	3283
915.809	3386
915.921	3382
916.034	3279
916.146	3233
916.259	3249
916.371	3370
916.483	3348
916.595	3275
916.708	3351
916.82	3359
916.932	3340
917.044	3355
917.156	3359
917.268	3211
917.38	3279
917.491	3325
917.603	3397
917.715	3416
917.826	3431
917.938	3344
918.049	3268
918.161	3401
918.272	3553
918.384	3580
918.495	3485
918.606	3336
918.717	3264
918.828	3336
918.939	3435
919.05	3283
919.161	3370
919.272	3173
919.383	3260
919.494	3504
919.604	3660
919.715	3462
919.826	3412
919.936	3469
920.047	3572
920.157	3553
920.267	3766
920.378	3603
920.488	3542
920.598	3743
920.708	3972
920.818	3835
920.928	3816
921.038	4051
921.148	4013
921.258	3717
921.368	3622
921.477	3568
921.587	3530
921.697	3462
921.806	3652
921.916	3504
922.025	3367
922.134	3363
922.244	3370
922.353	3424
922.462	3294
922.571	3245
922.68	3138
922.789	3081
922.898	3138
923.007	3085
923.116	3188
923.224	3138
923.333	3138
923.442	3097
923.55	3089
923.659	3108
923.767	3203
923.876	3108
923.984	3233
924.092	3097
924.201	3226
924.309	3199
924.417	3268
924.525	3188
924.633	3230
924.741	4166
924.849	3062
924.956	3245
925.064	3089
925.172	3062
925.279	3123
925.387	3165
925.494	3192
925.602	3348
925.709	3306
925.816	3195
925.924	3272
926.031	3386
926.138	3306
926.245	3367
926.352	3222
926.459	3386
926.566	3454
926.673	3329
926.779	3268
926.886	3230
926.993	3150
927.099	3157
927.206	3131
927.312	3104
927.419	3233
927.525	3199
927.631	3272
927.737	3131
927.843	3116
927.95	3013
928.056	3161
928.162	3135
928.267	3241
928.373	3816
928.479	3306
928.585	3074
928.69	3237
928.796	3283
928.901	3142
929.007	3047
929.112	3195
929.218	3169
929.323	3176
929.428	3119
929.533	3287
929.638	3077
929.743	3173
929.848	3268
929.953	3222
930.058	3116
930.163	2963
930.267	3062
930.372	3188
930.477	3032
930.581	3310
930.685	3161
930.79	2998
930.894	3138
930.998	3081
931.103	3256
931.207	2941
931.311	2925
931.415	2929
931.519	2769
931.623	2788
