Data from test_V78500241_910.txt Node
Date: Fri Mar 25 16:21:30 CST 2022
User: usil
Spectrometer: V785-0024
Trigger mode: 0
Integration Time (sec): 4.000000E-1
Scans to average: 1
Nonlinearity correction enabled: false
Boxcar width: 0
Storing dark spectrum: false
XAxis mode: Wavelengths
Number of Pixels in Spectrum: 1024
>>>>>Begin Spectral Data<<<<<
801.071	2895
801.214	2941
801.356	2891
801.499	2918
801.641	2914
801.783	2941
801.926	3055
802.068	2979
802.211	3024
802.353	3039
802.496	3005
802.638	3024
802.78	3036
802.923	3093
803.065	2986
803.208	2910
803.35	2929
803.492	2941
803.635	2929
803.777	2769
803.919	2872
804.061	3199
804.204	2952
804.346	2933
804.488	2872
804.63	2956
804.773	2876
804.915	2914
805.057	3112
805.199	2902
805.341	2948
805.483	3024
805.626	2971
805.768	2979
805.91	3100
806.052	3116
806.194	3001
806.336	3249
806.478	3020
806.62	2944
806.762	2967
806.904	3062
807.046	3169
807.188	3043
807.33	2895
807.472	3039
807.614	2956
807.756	2986
807.898	2929
808.04	2883
808.182	2986
808.324	2944
808.465	2887
808.607	2853
808.749	2796
808.891	2830
809.033	2982
809.174	2941
809.316	2853
809.458	2849
809.6	2800
809.741	2777
809.883	2769
810.025	2845
810.166	2891
810.308	2838
810.45	2842
810.591	2773
810.733	2781
810.875	2838
811.016	2735
811.158	2792
811.299	2804
811.441	2914
811.582	2902
811.724	2830
811.865	2815
812.007	2933
812.148	2891
812.29	2845
812.431	2857
812.573	2948
812.714	2990
812.855	3024
812.997	3036
813.138	3104
813.279	3062
813.421	2979
813.562	2971
813.703	2857
813.845	2887
813.986	2800
814.127	2758
814.268	2804
814.41	2853
814.551	2807
814.692	2906
814.833	2754
814.974	2895
815.115	2963
815.256	2834
815.397	2823
815.539	2819
815.68	2754
815.821	2804
815.962	2922
816.103	2986
816.244	2883
816.385	2834
816.526	2941
816.666	2906
816.807	2800
816.948	2876
817.089	2891
817.23	2826
817.371	2766
817.512	2766
817.653	2819
817.793	2834
817.934	2880
818.075	2925
818.216	2975
818.356	3036
818.497	2880
818.638	2773
818.778	2807
818.919	2773
819.06	2731
819.2	2868
819.341	2781
819.481	2842
819.622	2902
819.762	3097
819.903	3043
820.043	2891
820.184	2902
820.324	2899
820.465	3017
820.605	3032
820.746	3024
820.886	2910
821.026	3093
821.167	3188
821.307	3249
821.447	3260
821.588	3222
821.728	3184
821.868	3195
822.008	3058
822.149	3184
822.289	3253
822.429	3047
822.569	3077
822.709	3173
822.849	3024
822.99	3093
823.13	3150
823.27	3173
823.41	3085
823.55	3146
823.69	3150
823.83	3165
823.97	3081
824.11	2990
824.25	2994
824.389	3051
824.529	3116
824.669	3062
824.809	3154
824.949	3233
825.089	3207
825.228	3192
825.368	3020
825.508	2967
825.648	2982
825.787	3005
825.927	3009
826.067	2975
826.206	2975
826.346	3009
826.485	3097
826.625	3116
826.765	3291
826.904	3222
827.044	3005
827.183	2933
827.323	2868
827.462	3017
827.601	2922
827.741	2990
827.88	3017
828.02	2872
828.159	3009
828.298	3047
828.437	3104
828.577	3036
828.716	3260
828.855	3093
828.994	2952
829.134	2944
829.273	2956
829.412	2887
829.551	2902
829.69	2967
829.829	3017
829.968	3222
830.107	3013
830.246	3051
830.385	2963
830.524	2906
830.663	2853
830.802	2766
830.941	2686
831.08	2674
831.219	2785
831.357	2758
831.496	2994
831.635	2758
831.774	2674
831.913	2708
832.051	2610
832.19	2636
832.329	2750
832.467	2571
832.606	2492
832.744	2617
832.883	2655
833.022	2632
833.16	2724
833.299	2735
833.437	2754
833.576	2788
833.714	2796
833.852	2788
833.991	2792
834.129	2861
834.267	2864
834.406	2823
834.544	2937
834.682	2887
834.821	2906
834.959	3043
835.097	2952
835.235	3093
835.373	3043
835.511	3028
835.65	2982
835.788	2967
835.926	2883
836.064	2838
836.202	2880
836.34	3123
836.478	3146
836.615	3074
836.753	3169
836.891	3214
837.029	3207
837.167	3093
837.305	3062
837.443	3100
837.58	3005
837.718	3138
837.856	3058
837.993	3047
838.131	3184
838.269	3161
838.406	3127
838.544	3127
838.681	2937
838.819	2925
838.956	2849
839.094	2857
839.231	2948
839.369	3089
839.506	3405
839.643	3279
839.781	3070
839.918	3009
840.055	3112
840.193	3093
840.33	3104
840.467	3104
840.604	3157
840.742	3428
840.879	3127
841.016	3055
841.153	3146
841.29	3367
841.427	3329
841.564	3294
841.701	3325
841.838	3245
841.975	3195
842.112	3272
842.249	3097
842.385	3081
842.522	3344
842.659	3142
842.796	3058
842.933	3138
843.069	3066
843.206	3062
843.343	3211
843.479	3123
843.616	3161
843.752	2910
843.889	2933
844.025	3077
844.162	2899
844.298	3081
844.435	2956
844.571	2952
844.708	3112
844.844	3233
844.98	3275
845.117	3253
845.253	3116
845.389	3036
845.525	3127
845.661	3131
845.798	3051
845.934	3157
846.07	3070
846.206	3230
846.342	3374
846.478	3279
846.614	3131
846.75	3100
846.886	3036
847.022	3279
847.158	3184
847.294	3226
847.429	3253
847.565	3230
847.701	3507
847.837	3036
847.972	3005
848.108	3180
848.244	3131
848.379	3036
848.515	2944
848.65	2986
848.786	3001
848.921	3066
849.057	3085
849.192	3169
849.328	3036
849.463	3165
849.598	3081
849.734	3123
849.869	2990
850.004	2956
850.14	2971
850.275	2899
850.41	2849
850.545	2933
850.68	2963
850.815	3001
850.95	2994
851.085	3222
851.22	3119
851.355	3077
851.49	3017
851.625	2990
851.76	3085
851.895	2948
852.03	2937
852.165	3081
852.299	3135
852.434	3176
852.569	3184
852.703	3203
852.838	3222
852.973	3389
853.107	3367
853.242	3157
853.376	3127
853.511	3009
853.645	3089
853.78	3260
853.914	3157
854.048	3108
854.183	3135
854.317	3157
854.451	3336
854.585	3161
854.72	3093
854.854	3230
854.988	3112
855.122	3142
855.256	2982
855.39	3123
855.524	3260
855.658	3180
855.792	3218
855.926	3192
856.06	3245
856.194	3291
856.327	3218
856.461	3081
856.595	3093
856.729	3127
856.862	3260
856.996	3192
857.13	3233
857.263	3230
857.397	3283
857.53	3142
857.664	3222
857.797	3283
857.931	3344
858.064	3203
858.197	3237
858.331	3180
858.464	3131
858.597	3013
858.731	3089
858.864	3169
858.997	3112
859.13	3188
859.263	3192
859.396	3211
859.529	3127
859.662	3070
859.795	3043
859.928	3138
860.061	3298
860.194	3310
860.327	3146
860.46	3081
860.592	3245
860.725	3291
860.858	3264
860.99	3146
861.123	3089
861.256	3058
861.388	3146
861.521	3850
861.653	3036
861.786	2990
861.918	3017
862.05	3119
862.183	3112
862.315	3150
862.447	3192
862.58	3142
862.712	2967
862.844	2887
862.976	3036
863.108	3032
863.24	3313
863.372	2925
863.504	2994
863.636	2948
863.768	3039
863.9	2944
864.032	2925
864.164	2979
864.296	3055
864.428	3089
864.559	3131
864.691	3066
864.823	3112
864.954	3066
865.086	3058
865.217	3013
865.349	2967
865.48	3032
865.612	3028
865.743	3161
865.875	3005
866.006	2986
866.137	3009
866.269	2971
866.4	2944
866.531	2944
866.662	2918
866.793	2925
866.924	2941
867.055	2982
867.186	2922
867.317	2868
867.448	2880
867.579	2849
867.71	2857
867.841	2849
867.972	2922
868.103	2906
868.233	2872
868.364	2891
868.495	2902
868.625	3131
868.756	3165
868.886	3032
869.017	3047
869.147	3218
869.278	3173
869.408	3066
869.539	3036
869.669	3142
869.799	3047
869.929	3131
870.06	3108
870.19	3313
870.32	3306
870.45	3329
870.58	3420
870.71	3481
870.84	3485
870.97	3348
871.1	3268
871.23	3488
871.36	3477
871.489	3348
871.619	3409
871.749	3409
871.879	3450
872.008	3500
872.138	3378
872.267	3287
872.397	3146
872.526	3089
872.656	3028
872.785	3135
872.915	3256
873.044	3336
873.173	3249
873.303	3275
873.432	3283
873.561	3275
873.69	3161
873.819	3135
873.948	3195
874.077	3157
874.206	3047
874.335	3108
874.464	3268
874.593	3393
874.722	3264
874.851	3374
874.979	3374
875.108	3313
875.237	3218
875.365	3211
875.494	3161
875.623	3249
875.751	3097
875.88	3146
876.008	3203
876.136	3256
876.265	3382
876.393	3500
876.521	3469
876.65	3397
876.778	3348
876.906	3253
877.034	3207
877.162	3245
877.29	3203
877.418	3249
877.546	3317
877.674	3253
877.802	3260
877.93	3245
878.058	3161
878.185	3112
878.313	3203
878.441	3233
878.568	3097
878.696	3161
878.824	3268
878.951	3336
879.079	3454
879.206	3606
879.333	3492
879.461	3329
879.588	3389
879.715	3504
879.842	3618
879.97	3393
880.097	3180
880.224	3131
880.351	3249
880.478	3192
880.605	3184
880.732	3233
880.859	3492
880.986	3325
881.112	3332
881.239	3230
881.366	3081
881.493	2986
881.619	3024
881.746	3066
881.872	3108
881.999	3119
882.125	3169
882.252	3279
882.378	3275
882.505	3420
882.631	3302
882.757	3142
882.883	3184
883.01	3230
883.136	3176
883.262	3104
883.388	3157
883.514	3306
883.64	3374
883.766	3298
883.892	3241
884.018	3264
884.143	3412
884.269	3580
884.395	3195
884.52	3173
884.646	3226
884.772	3150
884.897	3112
885.023	3195
885.148	3367
885.274	3420
885.399	3428
885.524	3294
885.65	3264
885.775	3298
885.9	3306
886.025	3443
886.15	3367
886.275	3298
886.4	3264
886.525	3329
886.65	3272
886.775	3264
886.9	3526
887.025	3625
887.149	3439
887.274	3283
887.399	3230
887.523	3222
887.648	3184
887.773	3199
887.897	3401
888.021	3420
888.146	3302
888.27	3450
888.395	3530
888.519	3473
888.643	3466
888.767	3477
888.891	3306
889.015	3264
889.139	3321
889.263	3279
889.387	3340
889.511	3526
889.635	3473
889.759	3306
889.883	3306
890.006	3382
890.13	3542
890.254	3298
890.377	3340
890.501	3226
890.624	3195
890.748	3294
890.871	3199
890.995	3089
891.118	3055
891.241	3199
891.364	3218
891.488	3340
891.611	3192
891.734	3222
891.857	3321
891.98	3287
892.103	3329
892.226	3287
892.349	3188
892.471	3104
892.594	3233
892.717	3302
892.839	3268
892.962	3332
893.085	3374
893.207	3325
893.33	3150
893.452	3218
893.575	3359
893.697	3268
893.819	3477
893.941	3511
894.064	3454
894.186	3287
894.308	3287
894.43	3469
894.552	3538
894.674	3492
894.796	3241
894.918	3298
895.04	3306
895.161	3500
895.283	3382
895.405	3287
895.526	3363
895.648	3431
895.769	3428
895.891	3473
896.012	3519
896.134	3469
896.255	3416
896.376	3397
896.498	3348
896.619	3431
896.74	3351
896.861	3382
896.982	3698
897.103	3827
897.224	3618
897.345	3549
897.466	3454
897.587	3507
897.708	3644
897.828	3572
897.949	3412
898.07	3386
898.19	3420
898.311	3629
898.431	3424
898.552	3496
898.672	3618
898.792	3629
898.913	3538
899.033	3416
899.153	3355
899.273	3214
899.393	3294
899.513	3351
899.633	3317
899.753	3386
899.873	3359
899.993	3363
900.113	3355
900.232	3439
900.352	3355
900.472	3310
900.591	3226
900.711	3317
900.83	3275
900.95	3428
901.069	3519
901.189	3382
901.308	3154
901.427	3138
901.546	3218
901.665	3325
901.784	3336
901.904	3218
902.023	3135
902.141	3032
902.26	3017
902.379	3138
902.498	3097
902.617	3077
902.735	3203
902.854	3214
902.973	3211
903.091	3070
903.21	3062
903.328	3176
903.446	3142
903.565	3093
903.683	3211
903.801	3142
903.919	3291
904.038	3325
904.156	3165
904.274	3245
904.392	3245
904.51	3272
904.627	3321
904.745	3435
904.863	3477
904.981	3256
905.098	3176
905.216	3241
905.334	3351
905.451	3264
905.569	3302
905.686	3401
905.803	3462
905.921	3302
906.038	3431
906.155	3336
906.272	3283
906.389	3382
906.506	3237
906.623	3253
906.74	3306
906.857	3207
906.974	3233
907.091	3469
907.208	3580
907.324	3477
907.441	3393
907.557	3260
907.674	3260
907.79	3226
907.907	3287
908.023	3351
908.139	3370
908.256	3317
908.372	3386
908.488	3393
908.604	3272
908.72	3230
908.836	3275
908.952	3287
909.068	3351
909.184	3500
909.3	3382
909.415	3545
909.531	3473
909.647	3264
909.762	3291
909.878	3233
909.993	3351
910.108	3348
910.224	3329
910.339	3386
910.454	3325
910.57	3332
910.685	3218
910.8	3587
910.915	3526
911.03	3435
911.145	3268
911.259	3283
911.374	3340
911.489	3226
911.604	3195
911.718	3165
911.833	3157
911.947	3081
912.062	3036
912.176	3150
912.291	3192
912.405	3195
912.519	3462
912.633	3458
912.748	3367
912.862	3268
912.976	3188
913.09	3089
913.204	3112
913.318	3249
913.431	3370
913.545	3302
913.659	3405
913.772	3359
913.886	3249
914	3207
914.113	3370
914.226	3439
914.34	3340
914.453	3195
914.566	3439
914.68	3264
914.793	3321
914.906	3161
915.019	3142
915.132	3066
915.245	3146
915.358	3188
915.47	3218
915.583	3245
915.696	3283
915.809	3428
915.921	3416
916.034	3298
916.146	3237
916.259	3237
916.371	3382
916.483	3393
916.595	3283
916.708	3359
916.82	3359
916.932	3344
917.044	3355
917.156	3386
917.268	3245
917.38	3287
917.491	3317
917.603	3382
917.715	3458
917.826	3485
917.938	3382
918.049	3253
918.161	3462
918.272	3580
918.384	3584
918.495	3469
918.606	3351
918.717	3306
918.828	3363
918.939	3382
919.05	3321
919.161	3401
919.272	3195
919.383	3264
919.494	3515
919.604	3690
919.715	3488
919.826	3416
919.936	3473
920.047	3599
920.157	3572
920.267	3770
920.378	3606
920.488	3572
920.598	3770
920.708	3968
920.818	3831
920.928	3804
921.038	4017
921.148	3998
921.258	3713
921.368	3629
921.477	3606
921.587	3587
921.697	3443
921.806	3675
921.916	3526
922.025	3351
922.134	3405
922.244	3329
922.353	3439
922.462	3272
922.571	3222
922.68	3150
922.789	3077
922.898	3119
923.007	3077
923.116	3222
923.224	3180
923.333	3180
923.442	3077
923.55	3112
923.659	3157
923.767	3211
923.876	3135
923.984	3241
924.092	3146
924.201	3203
924.309	3226
924.417	3287
924.525	3184
924.633	3237
924.741	4192
924.849	3024
924.956	3317
925.064	3089
925.172	3032
925.279	3104
925.387	3195
925.494	3173
925.602	3336
925.709	3344
925.816	3176
925.924	3279
926.031	3359
926.138	3306
926.245	3351
926.352	3260
926.459	3374
926.566	3492
926.673	3317
926.779	3222
926.886	3230
926.993	3207
927.099	3093
927.206	3161
927.312	3093
927.419	3268
927.525	3218
927.631	3275
927.737	3135
927.843	3112
927.95	3036
928.056	3112
928.162	3180
928.267	3268
928.373	3861
928.479	3294
928.585	3097
928.69	3222
928.796	3253
928.901	3180
929.007	3081
929.112	3207
929.218	3192
929.323	3161
929.428	3180
929.533	3310
929.638	3138
929.743	3157
929.848	3256
929.953	3226
930.058	3135
930.163	3013
930.267	3039
930.372	3184
930.477	3028
930.581	3313
930.685	3165
930.79	3058
930.894	3123
930.998	3051
931.103	3302
931.207	2948
931.311	2948
931.415	2944
931.519	2800
931.623	2815
