Data from test_V78500241_9.txt Node
Date: Fri Mar 25 16:15:15 CST 2022
User: usil
Spectrometer: V785-0024
Trigger mode: 0
Integration Time (sec): 4.000000E-1
Scans to average: 1
Nonlinearity correction enabled: false
Boxcar width: 0
Storing dark spectrum: false
XAxis mode: Wavelengths
Number of Pixels in Spectrum: 1024
>>>>>Begin Spectral Data<<<<<
801.071	2948
801.214	3020
801.356	2944
801.499	2944
801.641	2941
801.783	2986
801.926	3093
802.068	3055
802.211	3051
802.353	3070
802.496	3009
802.638	3043
802.78	3104
802.923	3135
803.065	3051
803.208	2902
803.35	2937
803.492	2948
803.635	3001
803.777	2796
803.919	2883
804.061	3256
804.204	2994
804.346	2929
804.488	2902
804.63	3028
804.773	2918
804.915	2990
805.057	3161
805.199	2982
805.341	3013
805.483	3058
805.626	3024
805.768	2998
805.91	3089
806.052	3157
806.194	3093
806.336	3298
806.478	3108
806.62	2956
806.762	3020
806.904	3089
807.046	3192
807.188	3043
807.33	2952
807.472	3036
807.614	2952
807.756	3047
807.898	2979
808.04	2937
808.182	2986
808.324	2941
808.465	2941
808.607	2925
808.749	2819
808.891	2861
809.033	3024
809.174	3001
809.316	2967
809.458	2937
809.6	2849
809.741	2815
809.883	2826
810.025	2910
810.166	2876
810.308	2864
810.45	2887
810.591	2777
810.733	2819
810.875	2880
811.016	2819
811.158	2811
811.299	2880
811.441	2982
811.582	2944
811.724	2872
811.865	2876
812.007	2986
812.148	2910
812.29	2853
812.431	2925
812.573	2956
812.714	3017
812.855	3070
812.997	3074
813.138	3138
813.279	3055
813.421	3009
813.562	2994
813.703	2925
813.845	2883
813.986	2773
814.127	2788
814.268	2849
814.41	2842
814.551	2883
814.692	2941
814.833	2834
814.974	2960
815.115	2990
815.256	2880
815.397	2849
815.539	2918
815.68	2796
815.821	2838
815.962	2979
816.103	2975
816.244	2941
816.385	2906
816.526	2963
816.666	2960
816.807	2804
816.948	2941
817.089	2952
817.23	2891
817.371	2796
817.512	2823
817.653	2918
817.793	2910
817.934	2948
818.075	3024
818.216	3043
818.356	3116
818.497	2967
818.638	2800
818.778	2857
818.919	2857
819.06	2830
819.2	2937
819.341	2906
819.481	2880
819.622	2990
819.762	3203
819.903	3146
820.043	2986
820.184	3009
820.324	2956
820.465	3104
820.605	3062
820.746	3089
820.886	2998
821.026	3169
821.167	3237
821.307	3294
821.447	3363
821.588	3325
821.728	3268
821.868	3291
822.008	3184
822.149	3310
822.289	3306
822.429	3169
822.569	3146
822.709	3264
822.849	3100
822.99	3169
823.13	3241
823.27	3306
823.41	3211
823.55	3233
823.69	3230
823.83	3279
823.97	3222
824.11	3058
824.25	3081
824.389	3112
824.529	3199
824.669	3173
824.809	3298
824.949	3340
825.089	3325
825.228	3325
825.368	3100
825.508	3036
825.648	3055
825.787	3100
825.927	3100
826.067	3028
826.206	3028
826.346	3150
826.485	3161
826.625	3184
826.765	3370
826.904	3294
827.044	3062
827.183	3032
827.323	2937
827.462	3055
827.601	3013
827.741	3066
827.88	2994
828.02	2918
828.159	3104
828.298	3108
828.437	3180
828.577	3097
828.716	3340
828.855	3169
828.994	3028
829.134	2979
829.273	3001
829.412	2960
829.551	2933
829.69	2952
829.829	3081
829.968	3199
830.107	3142
830.246	3062
830.385	3017
830.524	2975
830.663	2899
830.802	2811
830.941	2724
831.08	2731
831.219	2864
831.357	2838
831.496	3032
831.635	2773
831.774	2705
831.913	2727
832.051	2590
832.19	2655
832.329	2781
832.467	2632
832.606	2537
832.744	2659
832.883	2636
833.022	2644
833.16	2743
833.299	2750
833.437	2769
833.576	2743
833.714	2800
833.852	2788
833.991	2815
834.129	2910
834.267	2914
834.406	2857
834.544	2929
834.682	2952
834.821	2937
834.959	3150
835.097	2998
835.235	3127
835.373	3108
835.511	3093
835.65	3081
835.788	3062
835.926	2880
836.064	2887
836.202	2918
836.34	3173
836.478	3249
836.615	3135
836.753	3245
836.891	3249
837.029	3226
837.167	3241
837.305	3165
837.443	3123
837.58	3066
837.718	3188
837.856	3142
837.993	3119
838.131	3214
838.269	3188
838.406	3184
838.544	3176
838.681	2960
838.819	3013
838.956	2902
839.094	2887
839.231	3001
839.369	3093
839.506	3443
839.643	3317
839.781	3066
839.918	3032
840.055	3142
840.193	3161
840.33	3146
840.467	3176
840.604	3199
840.742	3488
840.879	3108
841.016	3150
841.153	3222
841.29	3412
841.427	3359
841.564	3332
841.701	3363
841.838	3291
841.975	3272
842.112	3237
842.249	3138
842.385	3142
842.522	3344
842.659	3150
842.796	3150
842.933	3150
843.069	3146
843.206	3138
843.343	3253
843.479	3192
843.616	3233
843.752	2971
843.889	2944
844.025	3157
844.162	2994
844.298	3157
844.435	3036
844.571	2982
844.708	3100
844.844	3241
844.98	3344
845.117	3310
845.253	3112
845.389	3058
845.525	3188
845.661	3169
845.798	3089
845.934	3180
846.07	3142
846.206	3340
846.342	3397
846.478	3287
846.614	3165
846.75	3161
846.886	3112
847.022	3321
847.158	3226
847.294	3272
847.429	3321
847.565	3268
847.701	3584
847.837	3108
847.972	3074
848.108	3230
848.244	3218
848.379	3077
848.515	3009
848.65	3001
848.786	3074
848.921	3081
849.057	3203
849.192	3207
849.328	3150
849.463	3203
849.598	3119
849.734	3127
849.869	3051
850.004	2990
850.14	3055
850.275	3017
850.41	2902
850.545	2937
850.68	3043
850.815	3051
850.95	3047
851.085	3279
851.22	3192
851.355	3104
851.49	3028
851.625	3070
851.76	3074
851.895	2990
852.03	3028
852.165	3093
852.299	3211
852.434	3226
852.569	3203
852.703	3237
852.838	3313
852.973	3409
853.107	3454
853.242	3203
853.376	3157
853.511	3070
853.645	3097
853.78	3275
853.914	3211
854.048	3184
854.183	3173
854.317	3253
854.451	3382
854.585	3188
854.72	3157
854.854	3336
854.988	3127
855.122	3161
855.256	3100
855.39	3176
855.524	3275
855.658	3222
855.792	3253
855.926	3306
856.06	3268
856.194	3359
856.327	3214
856.461	3157
856.595	3150
856.729	3135
856.862	3298
856.996	3245
857.13	3260
857.263	3302
857.397	3359
857.53	3222
857.664	3291
857.797	3298
857.931	3344
858.064	3260
858.197	3294
858.331	3207
858.464	3184
858.597	3077
858.731	3192
858.864	3237
858.997	3173
859.13	3218
859.263	3230
859.396	3283
859.529	3150
859.662	3150
859.795	3123
859.928	3218
860.061	3348
860.194	3359
860.327	3188
860.46	3100
860.592	3313
860.725	3336
860.858	3340
860.99	3154
861.123	3131
861.256	3135
861.388	3222
861.521	3850
861.653	3085
861.786	3100
861.918	3089
862.05	3123
862.183	3154
862.315	3245
862.447	3268
862.58	3188
862.712	3017
862.844	2952
862.976	3036
863.108	3051
863.24	3515
863.372	2952
863.504	3005
863.636	3013
863.768	3108
863.9	3039
864.032	2982
864.164	2986
864.296	3100
864.428	3154
864.559	3176
864.691	3150
864.823	3116
864.954	3112
865.086	3108
865.217	3108
865.349	3020
865.48	3043
865.612	3100
865.743	3245
865.875	3055
866.006	2975
866.137	3020
866.269	3013
866.4	2990
866.531	3024
866.662	2960
866.793	2948
866.924	3013
867.055	3032
867.186	2990
867.317	2937
867.448	2910
867.579	2899
867.71	2925
867.841	2910
867.972	2975
868.103	2956
868.233	2937
868.364	2944
868.495	2967
868.625	3131
868.756	3203
868.886	3051
869.017	3081
869.147	3241
869.278	3226
869.408	3138
869.539	3112
869.669	3188
869.799	3150
869.929	3184
870.06	3173
870.19	3351
870.32	3359
870.45	3382
870.58	3443
870.71	3500
870.84	3534
870.97	3397
871.1	3325
871.23	3561
871.36	3542
871.489	3409
871.619	3485
871.749	3507
871.879	3504
872.008	3576
872.138	3428
872.267	3359
872.397	3230
872.526	3207
872.656	3089
872.785	3161
872.915	3298
873.044	3389
873.173	3325
873.303	3313
873.432	3313
873.561	3306
873.69	3245
873.819	3237
873.948	3260
874.077	3165
874.206	3165
874.335	3161
874.464	3291
874.593	3397
874.722	3340
874.851	3492
874.979	3420
875.108	3386
875.237	3294
875.365	3264
875.494	3245
875.623	3336
875.751	3184
875.88	3188
876.008	3249
876.136	3351
876.265	3481
876.393	3599
876.521	3485
876.65	3488
876.778	3409
876.906	3336
877.034	3245
877.162	3310
877.29	3199
877.418	3317
877.546	3313
877.674	3310
877.802	3264
877.93	3279
878.058	3237
878.185	3150
878.313	3291
878.441	3291
878.568	3154
878.696	3226
878.824	3313
878.951	3348
879.079	3485
879.206	3732
879.333	3530
879.461	3416
879.588	3488
879.715	3572
879.842	3656
879.97	3500
880.097	3249
880.224	3195
880.351	3291
880.478	3260
880.605	3237
880.732	3241
880.859	3557
880.986	3374
881.112	3439
881.239	3245
881.366	3176
881.493	3097
881.619	3051
881.746	3161
881.872	3169
881.999	3203
882.125	3233
882.252	3348
882.378	3348
882.505	3488
882.631	3359
882.757	3256
882.883	3260
883.01	3298
883.136	3214
883.262	3169
883.388	3169
883.514	3424
883.64	3382
883.766	3401
883.892	3214
884.018	3344
884.143	3523
884.269	3591
884.395	3306
884.52	3253
884.646	3253
884.772	3218
884.897	3165
885.023	3283
885.148	3420
885.274	3500
885.399	3462
885.524	3367
885.65	3340
885.775	3401
885.9	3374
886.025	3500
886.15	3450
886.275	3355
886.4	3344
886.525	3378
886.65	3355
886.775	3336
886.9	3584
887.025	3732
887.149	3485
887.274	3336
887.399	3214
887.523	3268
887.648	3245
887.773	3264
887.897	3412
888.021	3458
888.146	3382
888.27	3515
888.395	3606
888.519	3526
888.643	3526
888.767	3507
888.891	3397
889.015	3313
889.139	3363
889.263	3340
889.387	3458
889.511	3580
889.635	3538
889.759	3332
889.883	3382
890.006	3458
890.13	3599
890.254	3321
890.377	3435
890.501	3218
890.624	3256
890.748	3420
890.871	3272
890.995	3161
891.118	3123
891.241	3241
891.364	3306
891.488	3405
891.611	3233
891.734	3291
891.857	3363
891.98	3321
892.103	3397
892.226	3370
892.349	3268
892.471	3207
892.594	3268
892.717	3386
892.839	3336
892.962	3359
893.085	3439
893.207	3393
893.33	3241
893.452	3291
893.575	3389
893.697	3291
893.819	3542
893.941	3595
894.064	3519
894.186	3355
894.308	3348
894.43	3530
894.552	3606
894.674	3515
894.796	3317
894.918	3344
895.04	3348
895.161	3515
895.283	3458
895.405	3344
895.526	3439
895.648	3523
895.769	3504
895.891	3534
896.012	3580
896.134	3549
896.255	3492
896.376	3439
896.498	3431
896.619	3473
896.74	3447
896.861	3447
896.982	3736
897.103	3956
897.224	3663
897.345	3572
897.466	3526
897.587	3545
897.708	3701
897.828	3644
897.949	3511
898.07	3412
898.19	3504
898.311	3682
898.431	3496
898.552	3580
898.672	3667
898.792	3667
898.913	3580
899.033	3496
899.153	3344
899.273	3310
899.393	3329
899.513	3405
899.633	3393
899.753	3401
899.873	3382
899.993	3450
900.113	3378
900.232	3447
900.352	3401
900.472	3359
900.591	3275
900.711	3340
900.83	3310
900.95	3496
901.069	3599
901.189	3428
901.308	3272
901.427	3222
901.546	3264
901.665	3367
901.784	3416
901.904	3291
902.023	3211
902.141	3055
902.26	3032
902.379	3184
902.498	3138
902.617	3142
902.735	3256
902.854	3302
902.973	3241
903.091	3112
903.21	3108
903.328	3207
903.446	3146
903.565	3142
903.683	3264
903.801	3184
903.919	3329
904.038	3367
904.156	3211
904.274	3344
904.392	3348
904.51	3351
904.627	3416
904.745	3542
904.863	3523
904.981	3332
905.098	3230
905.216	3298
905.334	3321
905.451	3378
905.569	3359
905.686	3477
905.803	3507
905.921	3325
906.038	3469
906.155	3393
906.272	3291
906.389	3401
906.506	3275
906.623	3317
906.74	3359
906.857	3294
906.974	3359
907.091	3538
907.208	3622
907.324	3530
907.441	3481
907.557	3287
907.674	3260
907.79	3306
907.907	3317
908.023	3466
908.139	3431
908.256	3363
908.372	3428
908.488	3420
908.604	3336
908.72	3287
908.836	3317
908.952	3351
909.068	3431
909.184	3515
909.3	3462
909.415	3599
909.531	3542
909.647	3340
909.762	3317
909.878	3348
909.993	3424
910.108	3393
910.224	3416
910.339	3454
910.454	3378
910.57	3374
910.685	3313
910.8	3641
910.915	3637
911.03	3504
911.145	3355
911.259	3348
911.374	3420
911.489	3325
911.604	3272
911.718	3173
911.833	3211
911.947	3127
912.062	3039
912.176	3211
912.291	3287
912.405	3279
912.519	3496
912.633	3564
912.748	3416
912.862	3306
912.976	3222
913.09	3150
913.204	3199
913.318	3275
913.431	3439
913.545	3336
913.659	3462
913.772	3435
913.886	3256
914	3275
914.113	3431
914.226	3469
914.34	3443
914.453	3306
914.566	3462
914.68	3370
914.793	3420
914.906	3203
915.019	3138
915.132	3123
915.245	3226
915.358	3283
915.47	3272
915.583	3294
915.696	3386
915.809	3454
915.921	3488
916.034	3275
916.146	3298
916.259	3272
916.371	3450
916.483	3405
916.595	3321
916.708	3409
916.82	3405
916.932	3428
917.044	3348
917.156	3424
917.268	3317
917.38	3355
917.491	3355
917.603	3431
917.715	3549
917.826	3553
917.938	3428
918.049	3332
918.161	3492
918.272	3675
918.384	3671
918.495	3530
918.606	3393
918.717	3325
918.828	3435
918.939	3500
919.05	3370
919.161	3435
919.272	3226
919.383	3351
919.494	3538
919.604	3705
919.715	3545
919.826	3450
919.936	3549
920.047	3675
920.157	3618
920.267	3850
920.378	3679
920.488	3599
920.598	3880
920.708	4051
920.818	3915
920.928	3880
921.038	4082
921.148	4067
921.258	3785
921.368	3713
921.477	3637
921.587	3591
921.697	3526
921.806	3694
921.916	3618
922.025	3401
922.134	3409
922.244	3393
922.353	3488
922.462	3329
922.571	3260
922.68	3131
922.789	3150
922.898	3176
923.007	3127
923.116	3233
923.224	3230
923.333	3272
923.442	3157
923.55	3112
923.659	3230
923.767	3260
923.876	3173
923.984	3287
924.092	3123
924.201	3287
924.309	3283
924.417	3275
924.525	3218
924.633	3256
924.741	4219
924.849	3047
924.956	3325
925.064	3119
925.172	3100
925.279	3173
925.387	3287
925.494	3272
925.602	3405
925.709	3405
925.816	3272
925.924	3344
926.031	3450
926.138	3416
926.245	3401
926.352	3321
926.459	3500
926.566	3530
926.673	3317
926.779	3291
926.886	3302
926.993	3169
927.099	3180
927.206	3116
927.312	3180
927.419	3279
927.525	3237
927.631	3321
927.737	3218
927.843	3165
927.95	3062
928.056	3157
928.162	3245
928.267	3298
928.373	3816
928.479	3378
928.585	3100
928.69	3260
928.796	3363
928.901	3253
929.007	3081
929.112	3268
929.218	3188
929.323	3214
929.428	3199
929.533	3389
929.638	3188
929.743	3218
929.848	3317
929.953	3249
930.058	3214
930.163	3047
930.267	3085
930.372	3226
930.477	3104
930.581	3370
930.685	3226
930.79	3116
930.894	3146
930.998	3119
931.103	3317
931.207	3009
931.311	2975
931.415	2982
931.519	2830
931.623	2857
