Data from test_V78500241_1680.txt Node
Date: Fri Mar 25 16:26:50 CST 2022
User: usil
Spectrometer: V785-0024
Trigger mode: 0
Integration Time (sec): 4.000000E-1
Scans to average: 1
Nonlinearity correction enabled: false
Boxcar width: 0
Storing dark spectrum: false
XAxis mode: Wavelengths
Number of Pixels in Spectrum: 1024
>>>>>Begin Spectral Data<<<<<
801.071	2929
801.214	3001
801.356	2857
801.499	2929
801.641	2876
801.783	2948
801.926	3066
802.068	2990
802.211	3005
802.353	3017
802.496	2982
802.638	3013
802.78	3055
802.923	3074
803.065	3013
803.208	2861
803.35	2937
803.492	2979
803.635	2963
803.777	2773
803.919	2899
804.061	3199
804.204	2944
804.346	2937
804.488	2842
804.63	3009
804.773	2883
804.915	2944
805.057	3081
805.199	2948
805.341	3032
805.483	3062
805.626	3032
805.768	2944
805.91	3112
806.052	3154
806.194	3024
806.336	3241
806.478	3051
806.62	2975
806.762	3020
806.904	3043
807.046	3211
807.188	2963
807.33	2929
807.472	3005
807.614	2937
807.756	3005
807.898	2941
808.04	2906
808.182	2990
808.324	2952
808.465	2891
808.607	2880
808.749	2823
808.891	2868
809.033	3024
809.174	3013
809.316	2899
809.458	2902
809.6	2785
809.741	2811
809.883	2785
810.025	2887
810.166	2880
810.308	2834
810.45	2849
810.591	2845
810.733	2788
810.875	2819
811.016	2792
811.158	2762
811.299	2826
811.441	2925
811.582	2887
811.724	2845
811.865	2842
812.007	2918
812.148	2925
812.29	2899
812.431	2914
812.573	2963
812.714	2971
812.855	3070
812.997	3108
813.138	3081
813.279	3009
813.421	2979
813.562	2971
813.703	2891
813.845	2914
813.986	2796
814.127	2739
814.268	2849
814.41	2895
814.551	2834
814.692	2899
814.833	2819
814.974	2937
815.115	2990
815.256	2819
815.397	2842
815.539	2895
815.68	2788
815.821	2766
815.962	2929
816.103	2937
816.244	2876
816.385	2899
816.526	2956
816.666	2925
816.807	2785
816.948	2883
817.089	2922
817.23	2864
817.371	2792
817.512	2804
817.653	2826
817.793	2830
817.934	2876
818.075	3009
818.216	3036
818.356	3036
818.497	2845
818.638	2788
818.778	2819
818.919	2807
819.06	2788
819.2	2914
819.341	2849
819.481	2792
819.622	2960
819.762	3100
819.903	3020
820.043	2906
820.184	2906
820.324	2937
820.465	3039
820.605	3024
820.746	3039
820.886	2952
821.026	3081
821.167	3176
821.307	3272
821.447	3306
821.588	3253
821.728	3218
821.868	3184
822.008	3081
822.149	3184
822.289	3264
822.429	3093
822.569	3100
822.709	3188
822.849	3020
822.99	3074
823.13	3165
823.27	3192
823.41	3108
823.55	3112
823.69	3199
823.83	3157
823.97	3085
824.11	2994
824.25	3017
824.389	3047
824.529	3100
824.669	3017
824.809	3173
824.949	3279
825.089	3218
825.228	3180
825.368	3005
825.508	2982
825.648	2986
825.787	2994
825.927	3028
826.067	2956
826.206	2967
826.346	3070
826.485	3100
826.625	3154
826.765	3241
826.904	3214
827.044	3013
827.183	2941
827.323	2849
827.462	2960
827.601	2937
827.741	2944
827.88	2941
828.02	2861
828.159	2990
828.298	3036
828.437	3127
828.577	2998
828.716	3294
828.855	3081
828.994	2922
829.134	2918
829.273	2941
829.412	2857
829.551	2887
829.69	2868
829.829	3032
829.968	3135
830.107	3017
830.246	3024
830.385	2914
830.524	2883
830.663	2773
830.802	2731
830.941	2670
831.08	2629
831.219	2766
831.357	2762
831.496	2952
831.635	2701
831.774	2659
831.913	2693
832.051	2545
832.19	2590
832.329	2659
832.467	2556
832.606	2484
832.744	2587
832.883	2556
833.022	2594
833.16	2674
833.299	2663
833.437	2686
833.576	2697
833.714	2689
833.852	2720
833.991	2788
834.129	2834
834.267	2845
834.406	2800
834.544	2872
834.682	2880
834.821	2891
834.959	3081
835.097	2956
835.235	3097
835.373	2998
835.511	3017
835.65	2975
835.788	2986
835.926	2826
836.064	2834
836.202	2857
836.34	3097
836.478	3142
836.615	3039
836.753	3112
836.891	3207
837.029	3157
837.167	3104
837.305	3058
837.443	3043
837.58	2982
837.718	3138
837.856	3058
837.993	3036
838.131	3119
838.269	3123
838.406	3085
838.544	3116
838.681	2975
838.819	2944
838.956	2830
839.094	2815
839.231	2960
839.369	3017
839.506	3401
839.643	3222
839.781	3009
839.918	2956
840.055	3024
840.193	3043
840.33	3036
840.467	3100
840.604	3154
840.742	3420
840.879	3070
841.016	3043
841.153	3093
841.29	3321
841.427	3306
841.564	3272
841.701	3336
841.838	3249
841.975	3207
842.112	3245
842.249	3081
842.385	3081
842.522	3298
842.659	3074
842.796	3093
842.933	3112
843.069	3089
843.206	3047
843.343	3192
843.479	3108
843.616	3154
843.752	2864
843.889	2891
844.025	3081
844.162	2925
844.298	3077
844.435	2937
844.571	2906
844.708	3074
844.844	3180
844.98	3233
845.117	3203
845.253	3074
845.389	2990
845.525	3085
845.661	3108
845.798	3066
845.934	3127
846.07	3062
846.206	3260
846.342	3325
846.478	3226
846.614	3138
846.75	3062
846.886	2994
847.022	3207
847.158	3142
847.294	3176
847.429	3249
847.565	3192
847.701	3496
847.837	3024
847.972	3028
848.108	3146
848.244	3116
848.379	2990
848.515	2925
848.65	2956
848.786	2990
848.921	3020
849.057	3089
849.192	3154
849.328	3081
849.463	3138
849.598	3039
849.734	3058
849.869	2979
850.004	2910
850.14	2956
850.275	2906
850.41	2876
850.545	2861
850.68	2929
850.815	2925
850.95	2963
851.085	3195
851.22	3119
851.355	2998
851.49	2979
851.625	3001
851.76	3001
851.895	2944
852.03	2933
852.165	3013
852.299	3135
852.434	3199
852.569	3138
852.703	3169
852.838	3230
852.973	3367
853.107	3298
853.242	3150
853.376	3085
853.511	2990
853.645	3013
853.78	3211
853.914	3142
854.048	3100
854.183	3100
854.317	3135
854.451	3310
854.585	3131
854.72	3081
854.854	3226
854.988	3062
855.122	3074
855.256	3013
855.39	3074
855.524	3192
855.658	3165
855.792	3161
855.926	3203
856.06	3188
856.194	3279
856.327	3180
856.461	3074
856.595	3077
856.729	3077
856.862	3241
856.996	3176
857.13	3203
857.263	3218
857.397	3245
857.53	3093
857.664	3176
857.797	3256
857.931	3253
858.064	3135
858.197	3195
858.331	3100
858.464	3112
858.597	3020
858.731	3116
858.864	3138
858.997	3089
859.13	3188
859.263	3176
859.396	3211
859.529	3085
859.662	3062
859.795	3066
859.928	3138
860.061	3264
860.194	3287
860.327	3127
860.46	3081
860.592	3253
860.725	3226
860.858	3226
860.99	3066
861.123	3039
861.256	3066
861.388	3138
861.521	3846
861.653	3032
861.786	2982
861.918	3013
862.05	3066
862.183	3077
862.315	3169
862.447	3169
862.58	3085
862.712	2933
862.844	2887
862.976	3013
863.108	3005
863.24	3447
863.372	2918
863.504	2967
863.636	2975
863.768	3043
863.9	2979
864.032	2929
864.164	2937
864.296	3024
864.428	3085
864.559	3131
864.691	3108
864.823	3032
864.954	2994
865.086	3036
865.217	2975
865.349	2952
865.48	2967
865.612	3013
865.743	3135
865.875	2975
866.006	2948
866.137	2944
866.269	2922
866.4	2990
866.531	2883
866.662	2883
866.793	2853
866.924	2941
867.055	2990
867.186	2918
867.317	2910
867.448	2853
867.579	2864
867.71	2853
867.841	2834
867.972	2899
868.103	2880
868.233	2872
868.364	2872
868.495	2906
868.625	3097
868.756	3211
868.886	2994
869.017	3032
869.147	3146
869.278	3173
869.408	3051
869.539	3013
869.669	3062
869.799	3047
869.929	3138
870.06	3085
870.19	3344
870.32	3249
870.45	3317
870.58	3378
870.71	3462
870.84	3424
870.97	3272
871.1	3218
871.23	3511
871.36	3416
871.489	3359
871.619	3412
871.749	3405
871.879	3500
872.008	3447
872.138	3370
872.267	3313
872.397	3154
872.526	3097
872.656	2963
872.785	3097
872.915	3249
873.044	3325
873.173	3230
873.303	3272
873.432	3218
873.561	3230
873.69	3146
873.819	3180
873.948	3180
874.077	3093
874.206	3043
874.335	3116
874.464	3188
874.593	3363
874.722	3268
874.851	3405
874.979	3344
875.108	3336
875.237	3195
875.365	3142
875.494	3176
875.623	3249
875.751	3062
875.88	3112
876.008	3211
876.136	3249
876.265	3370
876.393	3507
876.521	3393
876.65	3424
876.778	3310
876.906	3264
877.034	3203
877.162	3226
877.29	3199
877.418	3214
877.546	3260
877.674	3256
877.802	3192
877.93	3211
878.058	3150
878.185	3112
878.313	3188
878.441	3199
878.568	3062
878.696	3146
878.824	3237
878.951	3287
879.079	3420
879.206	3625
879.333	3416
879.461	3370
879.588	3359
879.715	3496
879.842	3564
879.97	3340
880.097	3146
880.224	3142
880.351	3203
880.478	3222
880.605	3195
880.732	3188
880.859	3488
880.986	3344
881.112	3310
881.239	3184
881.366	3085
881.493	3070
881.619	3028
881.746	3074
881.872	3081
881.999	3116
882.125	3150
882.252	3241
882.378	3279
882.505	3435
882.631	3241
882.757	3131
882.883	3195
883.01	3207
883.136	3131
883.262	3077
883.388	3116
883.514	3310
883.64	3367
883.766	3348
883.892	3199
884.018	3237
884.143	3405
884.269	3538
884.395	3226
884.52	3131
884.646	3173
884.772	3085
884.897	3104
885.023	3184
885.148	3313
885.274	3409
885.399	3359
885.524	3256
885.65	3264
885.775	3313
885.9	3256
886.025	3409
886.15	3378
886.275	3283
886.4	3203
886.525	3302
886.65	3291
886.775	3306
886.9	3511
887.025	3599
887.149	3405
887.274	3249
887.399	3146
887.523	3184
887.648	3169
887.773	3230
887.897	3378
888.021	3386
888.146	3313
888.27	3412
888.395	3515
888.519	3393
888.643	3431
888.767	3439
888.891	3306
889.015	3230
889.139	3256
889.263	3226
889.387	3397
889.511	3523
889.635	3458
889.759	3294
889.883	3294
890.006	3397
890.13	3447
890.254	3260
890.377	3329
890.501	3203
890.624	3161
890.748	3310
890.871	3211
890.995	3089
891.118	3036
891.241	3199
891.364	3199
891.488	3279
891.611	3157
891.734	3203
891.857	3253
891.98	3180
892.103	3313
892.226	3294
892.349	3180
892.471	3100
892.594	3226
892.717	3321
892.839	3302
892.962	3268
893.085	3370
893.207	3294
893.33	3176
893.452	3207
893.575	3382
893.697	3241
893.819	3473
893.941	3481
894.064	3397
894.186	3214
894.308	3260
894.43	3454
894.552	3526
894.674	3416
894.796	3287
894.918	3291
895.04	3272
895.161	3458
895.283	3401
895.405	3298
895.526	3348
895.648	3431
895.769	3443
895.891	3458
896.012	3458
896.134	3469
896.255	3431
896.376	3397
896.498	3374
896.619	3454
896.74	3302
896.861	3412
896.982	3667
897.103	3774
897.224	3599
897.345	3504
897.466	3431
897.587	3477
897.708	3587
897.828	3523
897.949	3473
898.07	3351
898.19	3469
898.311	3572
898.431	3469
898.552	3488
898.672	3580
898.792	3564
898.913	3515
899.033	3374
899.153	3306
899.273	3214
899.393	3279
899.513	3317
899.633	3313
899.753	3348
899.873	3275
899.993	3359
900.113	3332
900.232	3412
900.352	3340
900.472	3272
900.591	3161
900.711	3287
900.83	3256
900.95	3405
901.069	3507
901.189	3317
901.308	3188
901.427	3176
901.546	3192
901.665	3291
901.784	3359
901.904	3188
902.023	3127
902.141	3036
902.26	3024
902.379	3093
902.498	3070
902.617	3055
902.735	3222
902.854	3207
902.973	3203
903.091	3070
903.21	3043
903.328	3108
903.446	3104
903.565	3093
903.683	3169
903.801	3154
903.919	3207
904.038	3260
904.156	3142
904.274	3291
904.392	3241
904.51	3287
904.627	3321
904.745	3447
904.863	3488
904.981	3260
905.098	3188
905.216	3226
905.334	3275
905.451	3317
905.569	3332
905.686	3389
905.803	3431
905.921	3279
906.038	3428
906.155	3329
906.272	3241
906.389	3359
906.506	3222
906.623	3275
906.74	3275
906.857	3203
906.974	3253
907.091	3416
907.208	3572
907.324	3439
907.441	3393
907.557	3237
907.674	3230
907.79	3195
907.907	3268
908.023	3405
908.139	3367
908.256	3325
908.372	3382
908.488	3325
908.604	3253
908.72	3211
908.836	3279
908.952	3249
909.068	3321
909.184	3496
909.3	3409
909.415	3504
909.531	3443
909.647	3260
909.762	3279
909.878	3230
909.993	3306
910.108	3370
910.224	3313
910.339	3447
910.454	3344
910.57	3287
910.685	3253
910.8	3622
910.915	3507
911.03	3409
911.145	3241
911.259	3249
911.374	3351
911.489	3245
911.604	3199
911.718	3104
911.833	3150
911.947	3005
912.062	3013
912.176	3154
912.291	3188
912.405	3165
912.519	3447
912.633	3496
912.748	3332
912.862	3264
912.976	3203
913.09	3047
913.204	3112
913.318	3214
913.431	3370
913.545	3313
913.659	3397
913.772	3313
913.886	3226
914	3218
914.113	3382
914.226	3424
914.34	3378
914.453	3218
914.566	3447
914.68	3313
914.793	3359
914.906	3154
915.019	3157
915.132	3100
915.245	3192
915.358	3176
915.47	3218
915.583	3233
915.696	3253
915.809	3397
915.921	3401
916.034	3237
916.146	3237
916.259	3249
916.371	3389
916.483	3405
916.595	3279
916.708	3325
916.82	3329
916.932	3355
917.044	3298
917.156	3367
917.268	3287
917.38	3291
917.491	3245
917.603	3382
917.715	3420
917.826	3439
917.938	3397
918.049	3275
918.161	3397
918.272	3587
918.384	3572
918.495	3466
918.606	3313
918.717	3287
918.828	3382
918.939	3420
919.05	3329
919.161	3382
919.272	3135
919.383	3287
919.494	3485
919.604	3675
919.715	3500
919.826	3386
919.936	3466
920.047	3599
920.157	3549
920.267	3724
920.378	3644
920.488	3568
920.598	3755
920.708	3975
920.818	3846
920.928	3854
921.038	4017
921.148	3994
921.258	3751
921.368	3644
921.477	3580
921.587	3557
921.697	3439
921.806	3641
921.916	3511
922.025	3344
922.134	3336
922.244	3275
922.353	3409
922.462	3253
922.571	3203
922.68	3123
922.789	3058
922.898	3150
923.007	3077
923.116	3218
923.224	3165
923.333	3157
923.442	3089
923.55	3093
923.659	3157
923.767	3211
923.876	3119
923.984	3249
924.092	3108
924.201	3176
924.309	3195
924.417	3264
924.525	3173
924.633	3283
924.741	4169
924.849	3013
924.956	3294
925.064	3077
925.172	3074
925.279	3119
925.387	3180
925.494	3214
925.602	3370
925.709	3317
925.816	3188
925.924	3294
926.031	3355
926.138	3336
926.245	3367
926.352	3310
926.459	3393
926.566	3466
926.673	3321
926.779	3253
926.886	3230
926.993	3161
927.099	3112
927.206	3081
927.312	3116
927.419	3199
927.525	3192
927.631	3253
927.737	3116
927.843	3138
927.95	2986
928.056	3150
928.162	3157
928.267	3253
928.373	3823
928.479	3340
928.585	3051
928.69	3245
928.796	3272
928.901	3195
929.007	3039
929.112	3218
929.218	3127
929.323	3150
929.428	3180
929.533	3310
929.638	3127
929.743	3173
929.848	3249
929.953	3188
930.058	3127
930.163	3005
930.267	3058
930.372	3199
930.477	3039
930.581	3340
930.685	3150
930.79	3055
930.894	3100
930.998	3077
931.103	3298
931.207	2963
931.311	2944
931.415	2918
931.519	2777
931.623	2815
