Data from test_V78500241_996.txt Node
Date: Fri Mar 25 16:22:06 CST 2022
User: usil
Spectrometer: V785-0024
Trigger mode: 0
Integration Time (sec): 4.000000E-1
Scans to average: 1
Nonlinearity correction enabled: false
Boxcar width: 0
Storing dark spectrum: false
XAxis mode: Wavelengths
Number of Pixels in Spectrum: 1024
>>>>>Begin Spectral Data<<<<<
801.071	2922
801.214	2944
801.356	2906
801.499	2914
801.641	2838
801.783	2914
801.926	3047
802.068	3005
802.211	2979
802.353	3028
802.496	2971
802.638	3043
802.78	3055
802.923	3085
803.065	2998
803.208	2918
803.35	2918
803.492	2929
803.635	2883
803.777	2727
803.919	2823
804.061	3192
804.204	2929
804.346	2895
804.488	2864
804.63	2990
804.773	2861
804.915	2868
805.057	3066
805.199	2914
805.341	3001
805.483	3028
805.626	2971
805.768	2948
805.91	3062
806.052	3123
806.194	3036
806.336	3222
806.478	3043
806.62	2944
806.762	2948
806.904	3051
807.046	3154
807.188	2967
807.33	2891
807.472	2971
807.614	2876
807.756	2956
807.898	2922
808.04	2845
808.182	2960
808.324	2937
808.465	2830
808.607	2872
808.749	2777
808.891	2830
809.033	2963
809.174	2975
809.316	2876
809.458	2922
809.6	2777
809.741	2788
809.883	2773
810.025	2838
810.166	2876
810.308	2834
810.45	2849
810.591	2777
810.733	2750
810.875	2864
811.016	2804
811.158	2766
811.299	2815
811.441	2925
811.582	2883
811.724	2842
811.865	2845
812.007	2937
812.148	2891
812.29	2864
812.431	2857
812.573	2933
812.714	2967
812.855	3036
812.997	3020
813.138	3104
813.279	3028
813.421	2990
813.562	2960
813.703	2864
813.845	2872
813.986	2785
814.127	2727
814.268	2800
814.41	2849
814.551	2785
814.692	2899
814.833	2811
814.974	2883
815.115	2941
815.256	2868
815.397	2811
815.539	2842
815.68	2792
815.821	2796
815.962	2944
816.103	2902
816.244	2872
816.385	2895
816.526	2944
816.666	2933
816.807	2735
816.948	2906
817.089	2918
817.23	2864
817.371	2754
817.512	2754
817.653	2842
817.793	2819
817.934	2883
818.075	2948
818.216	2990
818.356	3028
818.497	2902
818.638	2762
818.778	2800
818.919	2777
819.06	2701
819.2	2849
819.341	2785
819.481	2781
819.622	2906
819.762	3081
819.903	3039
820.043	2944
820.184	2925
820.324	2948
820.465	2979
820.605	3051
820.746	3043
820.886	2910
821.026	3100
821.167	3135
821.307	3230
821.447	3260
821.588	3207
821.728	3233
821.868	3180
822.008	3085
822.149	3150
822.289	3203
822.429	3097
822.569	3085
822.709	3169
822.849	3024
822.99	3036
823.13	3146
823.27	3245
823.41	3097
823.55	3157
823.69	3180
823.83	3157
823.97	3127
824.11	2994
824.25	3013
824.389	3036
824.529	3093
824.669	3074
824.809	3195
824.949	3226
825.089	3226
825.228	3131
825.368	3020
825.508	2956
825.648	2960
825.787	3017
825.927	3013
826.067	2960
826.206	2929
826.346	3039
826.485	3066
826.625	3097
826.765	3253
826.904	3173
827.044	2986
827.183	2914
827.323	2872
827.462	2971
827.601	2914
827.741	2933
827.88	2975
828.02	2849
828.159	2956
828.298	3028
828.437	3081
828.577	3032
828.716	3275
828.855	3097
828.994	2891
829.134	2868
829.273	2925
829.412	2838
829.551	2845
829.69	2876
829.829	2960
829.968	3119
830.107	3020
830.246	3009
830.385	2937
830.524	2906
830.663	2807
830.802	2716
830.941	2663
831.08	2655
831.219	2746
831.357	2758
831.496	2963
831.635	2735
831.774	2625
831.913	2648
832.051	2530
832.19	2587
832.329	2705
832.467	2537
832.606	2499
832.744	2568
832.883	2571
833.022	2613
833.16	2644
833.299	2686
833.437	2697
833.576	2693
833.714	2720
833.852	2720
833.991	2746
834.129	2804
834.267	2826
834.406	2762
834.544	2857
834.682	2891
834.821	2842
834.959	3058
835.097	2895
835.235	3070
835.373	2963
835.511	2982
835.65	2941
835.788	2910
835.926	2838
836.064	2796
836.202	2811
836.34	3104
836.478	3161
836.615	3062
836.753	3112
836.891	3165
837.029	3131
837.167	3100
837.305	3036
837.443	3055
837.58	2960
837.718	3131
837.856	3081
837.993	2998
838.131	3119
838.269	3100
838.406	3108
838.544	3070
838.681	2902
838.819	2952
838.956	2815
839.094	2815
839.231	2910
839.369	3028
839.506	3401
839.643	3218
839.781	3009
839.918	2948
840.055	3020
840.193	3074
840.33	3043
840.467	3097
840.604	3142
840.742	3386
840.879	3089
841.016	3032
841.153	3123
841.29	3325
841.427	3260
841.564	3279
841.701	3336
841.838	3195
841.975	3154
842.112	3188
842.249	3093
842.385	3020
842.522	3245
842.659	3085
842.796	3039
842.933	3093
843.069	3055
843.206	3039
843.343	3150
843.479	3077
843.616	3127
843.752	2872
843.889	2834
844.025	3066
844.162	2899
844.298	3104
844.435	2960
844.571	2922
844.708	3081
844.844	3203
844.98	3207
845.117	3157
845.253	3070
845.389	3020
845.525	3081
845.661	3062
845.798	3009
845.934	3123
846.07	3036
846.206	3233
846.342	3310
846.478	3222
846.614	3097
846.75	3062
846.886	3036
847.022	3218
847.158	3138
847.294	3165
847.429	3230
847.565	3199
847.701	3496
847.837	2990
847.972	2979
848.108	3138
848.244	3142
848.379	3009
848.515	2906
848.65	2902
848.786	2971
848.921	3051
849.057	3074
849.192	3127
849.328	3028
849.463	3100
849.598	3077
849.734	3001
849.869	3024
850.004	2887
850.14	2963
850.275	2902
850.41	2834
850.545	2899
850.68	2906
850.815	2948
850.95	2948
851.085	3176
851.22	3104
851.355	3062
851.49	2990
851.625	2998
851.76	2990
851.895	2902
852.03	2922
852.165	3047
852.299	3138
852.434	3157
852.569	3165
852.703	3173
852.838	3195
852.973	3313
853.107	3332
853.242	3157
853.376	3074
853.511	2937
853.645	3028
853.78	3237
853.914	3089
854.048	3085
854.183	3077
854.317	3119
854.451	3264
854.585	3123
854.72	3089
854.854	3184
854.988	3070
855.122	3108
855.256	2975
855.39	3089
855.524	3211
855.658	3192
855.792	3138
855.926	3173
856.06	3180
856.194	3298
856.327	3169
856.461	3055
856.595	3058
856.729	3081
856.862	3218
856.996	3142
857.13	3161
857.263	3222
857.397	3264
857.53	3093
857.664	3203
857.797	3226
857.931	3226
858.064	3165
858.197	3237
858.331	3131
858.464	3085
858.597	3024
858.731	3116
858.864	3108
858.997	3093
859.13	3157
859.263	3165
859.396	3161
859.529	3077
859.662	3070
859.795	3024
859.928	3085
860.061	3264
860.194	3272
860.327	3157
860.46	3077
860.592	3214
860.725	3256
860.858	3249
860.99	3127
861.123	3020
861.256	3055
861.388	3116
861.521	3762
861.653	3032
861.786	2956
861.918	2990
862.05	3051
862.183	3055
862.315	3150
862.447	3199
862.58	3081
862.712	2933
862.844	2864
862.976	3036
863.108	3001
863.24	3397
863.372	2891
863.504	2952
863.636	2895
863.768	3051
863.9	3009
864.032	2887
864.164	2925
864.296	2982
864.428	3058
864.559	3070
864.691	3070
864.823	3058
864.954	3009
865.086	3062
865.217	3005
865.349	2944
865.48	3013
865.612	3020
865.743	3127
865.875	3001
866.006	2918
866.137	2994
866.269	2929
866.4	2929
866.531	2891
866.662	2883
866.793	2887
866.924	2922
867.055	2948
867.186	2906
867.317	2876
867.448	2842
867.579	2819
867.71	2864
867.841	2845
867.972	2857
868.103	2918
868.233	2861
868.364	2849
868.495	2891
868.625	3104
868.756	3108
868.886	2982
869.017	3009
869.147	3180
869.278	3169
869.408	3047
869.539	3024
869.669	3074
869.799	3005
869.929	3142
870.06	3070
870.19	3313
870.32	3268
870.45	3302
870.58	3359
870.71	3450
870.84	3473
870.97	3291
871.1	3241
871.23	3485
871.36	3469
871.489	3351
871.619	3386
871.749	3401
871.879	3431
872.008	3485
872.138	3344
872.267	3283
872.397	3116
872.526	3066
872.656	3001
872.785	3097
872.915	3195
873.044	3298
873.173	3233
873.303	3230
873.432	3237
873.561	3260
873.69	3142
873.819	3157
873.948	3176
874.077	3089
874.206	3028
874.335	3085
874.464	3207
874.593	3310
874.722	3256
874.851	3370
874.979	3344
875.108	3340
875.237	3203
875.365	3127
875.494	3173
875.623	3245
875.751	3085
875.88	3089
876.008	3199
876.136	3237
876.265	3393
876.393	3519
876.521	3428
876.65	3355
876.778	3332
876.906	3226
877.034	3154
877.162	3230
877.29	3154
877.418	3272
877.546	3245
877.674	3218
877.802	3218
877.93	3241
878.058	3142
878.185	3097
878.313	3214
878.441	3188
878.568	3104
878.696	3123
878.824	3245
878.951	3275
879.079	3424
879.206	3606
879.333	3401
879.461	3363
879.588	3325
879.715	3458
879.842	3561
879.97	3393
880.097	3131
880.224	3127
880.351	3192
880.478	3211
880.605	3150
880.732	3169
880.859	3485
880.986	3374
881.112	3306
881.239	3211
881.366	3123
881.493	2990
881.619	3017
881.746	3104
881.872	3089
881.999	3089
882.125	3135
882.252	3283
882.378	3249
882.505	3401
882.631	3272
882.757	3154
882.883	3241
883.01	3218
883.136	3146
883.262	3062
883.388	3123
883.514	3310
883.64	3344
883.766	3294
883.892	3184
884.018	3233
884.143	3409
884.269	3511
884.395	3199
884.52	3199
884.646	3211
884.772	3112
884.897	3104
885.023	3214
885.148	3325
885.274	3389
885.399	3386
885.524	3287
885.65	3279
885.775	3287
885.9	3283
886.025	3405
886.15	3363
886.275	3306
886.4	3218
886.525	3332
886.65	3294
886.775	3260
886.9	3504
887.025	3610
887.149	3355
887.274	3245
887.399	3173
887.523	3199
887.648	3207
887.773	3188
887.897	3332
888.021	3393
888.146	3294
888.27	3443
888.395	3519
888.519	3389
888.643	3401
888.767	3424
888.891	3313
889.015	3222
889.139	3310
889.263	3291
889.387	3409
889.511	3519
889.635	3431
889.759	3291
889.883	3291
890.006	3389
890.13	3485
890.254	3291
890.377	3329
890.501	3214
890.624	3195
890.748	3294
890.871	3150
890.995	3097
891.118	3070
891.241	3203
891.364	3226
891.488	3306
891.611	3192
891.734	3222
891.857	3268
891.98	3214
892.103	3344
892.226	3249
892.349	3188
892.471	3104
892.594	3218
892.717	3268
892.839	3264
892.962	3298
893.085	3340
893.207	3275
893.33	3165
893.452	3207
893.575	3329
893.697	3264
893.819	3458
893.941	3462
894.064	3473
894.186	3253
894.308	3253
894.43	3412
894.552	3526
894.674	3458
894.796	3249
894.918	3294
895.04	3332
895.161	3397
895.283	3389
895.405	3283
895.526	3336
895.648	3405
895.769	3382
895.891	3443
896.012	3485
896.134	3428
896.255	3424
896.376	3374
896.498	3348
896.619	3443
896.74	3367
896.861	3405
896.982	3667
897.103	3838
897.224	3599
897.345	3504
897.466	3409
897.587	3500
897.708	3595
897.828	3580
897.949	3488
898.07	3370
898.19	3405
898.311	3595
898.431	3477
898.552	3538
898.672	3584
898.792	3587
898.913	3481
899.033	3416
899.153	3279
899.273	3218
899.393	3317
899.513	3321
899.633	3340
899.753	3317
899.873	3294
899.993	3389
900.113	3348
900.232	3405
900.352	3359
900.472	3321
900.591	3199
900.711	3298
900.83	3180
900.95	3405
901.069	3538
901.189	3363
901.308	3161
901.427	3150
901.546	3184
901.665	3272
901.784	3344
901.904	3233
902.023	3104
902.141	2990
902.26	2975
902.379	3077
902.498	3100
902.617	3047
902.735	3222
902.854	3226
902.973	3169
903.091	3043
903.21	3043
903.328	3123
903.446	3081
903.565	3112
903.683	3222
903.801	3135
903.919	3230
904.038	3291
904.156	3157
904.274	3317
904.392	3268
904.51	3291
904.627	3321
904.745	3424
904.863	3447
904.981	3214
905.098	3146
905.216	3233
905.334	3294
905.451	3283
905.569	3332
905.686	3405
905.803	3450
905.921	3260
906.038	3435
906.155	3336
906.272	3268
906.389	3351
906.506	3199
906.623	3256
906.74	3268
906.857	3165
906.974	3211
907.091	3439
907.208	3557
907.324	3515
907.441	3405
907.557	3218
907.674	3241
907.79	3214
907.907	3275
908.023	3355
908.139	3412
908.256	3321
908.372	3382
908.488	3363
908.604	3272
908.72	3256
908.836	3268
908.952	3264
909.068	3287
909.184	3450
909.3	3359
909.415	3485
909.531	3450
909.647	3268
909.762	3306
909.878	3253
909.993	3325
910.108	3340
910.224	3348
910.339	3428
910.454	3382
910.57	3264
910.685	3226
910.8	3580
910.915	3515
911.03	3416
911.145	3283
911.259	3203
911.374	3325
911.489	3241
911.604	3230
911.718	3104
911.833	3138
911.947	3036
912.062	2982
912.176	3138
912.291	3226
912.405	3173
912.519	3416
912.633	3466
912.748	3348
912.862	3283
912.976	3150
913.09	3055
913.204	3138
913.318	3184
913.431	3306
913.545	3332
913.659	3428
913.772	3329
913.886	3230
914	3211
914.113	3336
914.226	3412
914.34	3363
914.453	3180
914.566	3374
914.68	3325
914.793	3310
914.906	3146
915.019	3127
915.132	3047
915.245	3154
915.358	3253
915.47	3230
915.583	3249
915.696	3294
915.809	3374
915.921	3393
916.034	3249
916.146	3241
916.259	3195
916.371	3389
916.483	3363
916.595	3249
916.708	3325
916.82	3348
916.932	3325
917.044	3317
917.156	3325
917.268	3192
917.38	3325
917.491	3291
917.603	3348
917.715	3450
917.826	3473
917.938	3401
918.049	3253
918.161	3420
918.272	3572
918.384	3564
918.495	3477
918.606	3317
918.717	3245
918.828	3382
918.939	3401
919.05	3298
919.161	3374
919.272	3176
919.383	3264
919.494	3523
919.604	3667
919.715	3447
919.826	3363
919.936	3405
920.047	3610
920.157	3549
920.267	3800
920.378	3606
920.488	3534
920.598	3736
920.708	3945
920.818	3838
920.928	3861
921.038	4010
921.148	4006
921.258	3663
921.368	3584
921.477	3553
921.587	3526
921.697	3424
921.806	3591
921.916	3534
922.025	3340
922.134	3336
922.244	3302
922.353	3409
922.462	3256
922.571	3245
922.68	3127
922.789	3070
922.898	3093
923.007	3062
923.116	3203
923.224	3142
923.333	3188
923.442	3085
923.55	3116
923.659	3165
923.767	3214
923.876	3104
923.984	3233
924.092	3089
924.201	3176
924.309	3176
924.417	3260
924.525	3199
924.633	3195
924.741	4223
924.849	3058
924.956	3275
925.064	3100
925.172	3013
925.279	3089
925.387	3199
925.494	3192
925.602	3389
925.709	3325
925.816	3195
925.924	3260
926.031	3370
926.138	3302
926.245	3351
926.352	3249
926.459	3401
926.566	3481
926.673	3317
926.779	3237
926.886	3249
926.993	3138
927.099	3116
927.206	3089
927.312	3097
927.419	3241
927.525	3211
927.631	3245
927.737	3150
927.843	3100
927.95	3039
928.056	3131
928.162	3199
928.267	3249
928.373	3846
928.479	3329
928.585	3074
928.69	3230
928.796	3283
928.901	3150
929.007	3055
929.112	3176
929.218	3184
929.323	3135
929.428	3161
929.533	3306
929.638	3104
929.743	3150
929.848	3230
929.953	3207
930.058	3135
930.163	2998
930.267	3043
930.372	3188
930.477	3020
930.581	3313
930.685	3188
930.79	3039
930.894	3104
930.998	3077
931.103	3283
931.207	2944
931.311	2948
931.415	2937
931.519	2766
931.623	2823
