Data from test_V78500241_2060.txt Node
Date: Fri Mar 25 16:29:28 CST 2022
User: usil
Spectrometer: V785-0024
Trigger mode: 0
Integration Time (sec): 4.000000E-1
Scans to average: 1
Nonlinearity correction enabled: false
Boxcar width: 0
Storing dark spectrum: false
XAxis mode: Wavelengths
Number of Pixels in Spectrum: 1024
>>>>>Begin Spectral Data<<<<<
801.071	2914
801.214	2979
801.356	2876
801.499	2899
801.641	2876
801.783	2952
801.926	3020
802.068	2948
802.211	3001
802.353	3036
802.496	2933
802.638	2979
802.78	2990
802.923	3024
803.065	2975
803.208	2887
803.35	2925
803.492	2937
803.635	2922
803.777	2785
803.919	2861
804.061	3214
804.204	2918
804.346	2880
804.488	2842
804.63	2971
804.773	2849
804.915	2895
805.057	3085
805.199	2914
805.341	2937
805.483	3032
805.626	3001
805.768	2948
805.91	3097
806.052	3131
806.194	3028
806.336	3233
806.478	3028
806.62	2895
806.762	2986
806.904	3051
807.046	3192
807.188	3005
807.33	2902
807.472	2994
807.614	2880
807.756	2963
807.898	2937
808.04	2899
808.182	3009
808.324	2948
808.465	2910
808.607	2853
808.749	2807
808.891	2845
809.033	2971
809.174	2952
809.316	2864
809.458	2876
809.6	2792
809.741	2781
809.883	2758
810.025	2826
810.166	2853
810.308	2819
810.45	2838
810.591	2804
810.733	2739
810.875	2804
811.016	2754
811.158	2781
811.299	2811
811.441	2918
811.582	2883
811.724	2815
811.865	2785
812.007	2861
812.148	2883
812.29	2868
812.431	2861
812.573	2899
812.714	2963
812.855	3032
812.997	3039
813.138	3131
813.279	2998
813.421	2967
813.562	2960
813.703	2876
813.845	2891
813.986	2746
814.127	2686
814.268	2826
814.41	2815
814.551	2819
814.692	2842
814.833	2796
814.974	2933
815.115	2937
815.256	2864
815.397	2823
815.539	2849
815.68	2819
815.821	2800
815.962	2975
816.103	2895
816.244	2864
816.385	2880
816.526	2998
816.666	2906
816.807	2712
816.948	2899
817.089	2925
817.23	2845
817.371	2777
817.512	2834
817.653	2845
817.793	2849
817.934	2880
818.075	2941
818.216	2982
818.356	2998
818.497	2883
818.638	2819
818.778	2792
818.919	2811
819.06	2758
819.2	2883
819.341	2800
819.481	2766
819.622	2933
819.762	3123
819.903	3055
820.043	2979
820.184	2872
820.324	2922
820.465	3005
820.605	2982
820.746	3036
820.886	2914
821.026	3093
821.167	3192
821.307	3253
821.447	3272
821.588	3184
821.728	3169
821.868	3150
822.008	3036
822.149	3169
822.289	3249
822.429	3093
822.569	3085
822.709	3165
822.849	3005
822.99	3093
823.13	3150
823.27	3199
823.41	3104
823.55	3150
823.69	3150
823.83	3180
823.97	3051
824.11	2982
824.25	2994
824.389	3028
824.529	3112
824.669	3058
824.809	3211
824.949	3241
825.089	3195
825.228	3195
825.368	3047
825.508	2929
825.648	2982
825.787	3017
825.927	3017
826.067	2960
826.206	2933
826.346	3020
826.485	3055
826.625	3070
826.765	3279
826.904	3211
827.044	2986
827.183	2956
827.323	2830
827.462	2979
827.601	2902
827.741	2891
827.88	2971
828.02	2895
828.159	2960
828.298	3017
828.437	3123
828.577	3070
828.716	3214
828.855	3043
828.994	2899
829.134	2872
829.273	2937
829.412	2853
829.551	2823
829.69	2872
829.829	2979
829.968	3100
830.107	3028
830.246	3039
830.385	2922
830.524	2861
830.663	2872
830.802	2731
830.941	2648
831.08	2655
831.219	2762
831.357	2750
831.496	2929
831.635	2708
831.774	2648
831.913	2655
832.051	2556
832.19	2556
832.329	2689
832.467	2518
832.606	2480
832.744	2545
832.883	2602
833.022	2575
833.16	2655
833.299	2697
833.437	2682
833.576	2678
833.714	2697
833.852	2705
833.991	2773
834.129	2849
834.267	2811
834.406	2781
834.544	2887
834.682	2902
834.821	2842
834.959	3047
835.097	2883
835.235	3070
835.373	2948
835.511	3017
835.65	2925
835.788	2918
835.926	2807
836.064	2823
836.202	2849
836.34	3081
836.478	3077
836.615	3020
836.753	3116
836.891	3199
837.029	3138
837.167	3108
837.305	3081
837.443	3055
837.58	2956
837.718	3116
837.856	3070
837.993	3005
838.131	3100
838.269	3112
838.406	3081
838.544	3074
838.681	2941
838.819	2883
838.956	2811
839.094	2800
839.231	2910
839.369	3020
839.506	3340
839.643	3237
839.781	3020
839.918	2975
840.055	3051
840.193	3036
840.33	3051
840.467	3081
840.604	3138
840.742	3389
840.879	3024
841.016	3051
841.153	3108
841.29	3313
841.427	3291
841.564	3279
841.701	3279
841.838	3180
841.975	3127
842.112	3165
842.249	3047
842.385	3055
842.522	3241
842.659	3039
842.796	3066
842.933	3081
843.069	3047
843.206	3058
843.343	3180
843.479	3116
843.616	3165
843.752	2887
843.889	2842
844.025	3055
844.162	2925
844.298	3051
844.435	2925
844.571	2899
844.708	3058
844.844	3184
844.98	3222
845.117	3161
845.253	3013
845.389	3005
845.525	3081
845.661	3070
845.798	3024
845.934	3089
846.07	3013
846.206	3199
846.342	3298
846.478	3241
846.614	3085
846.75	3074
846.886	2975
847.022	3233
847.158	3131
847.294	3173
847.429	3226
847.565	3226
847.701	3481
847.837	3051
847.972	3017
848.108	3154
848.244	3116
848.379	3009
848.515	2944
848.65	2929
848.786	2960
848.921	2986
849.057	3112
849.192	3150
849.328	3074
849.463	3089
849.598	3043
849.734	3051
849.869	2937
850.004	2918
850.14	2960
850.275	2857
850.41	2842
850.545	2872
850.68	2971
850.815	2937
850.95	2971
851.085	3173
851.22	3108
851.355	3047
851.49	2960
851.625	2994
851.76	3020
851.895	2895
852.03	2902
852.165	3020
852.299	3093
852.434	3161
852.569	3119
852.703	3169
852.838	3222
852.973	3321
853.107	3298
853.242	3135
853.376	3093
853.511	2986
853.645	3055
853.78	3211
853.914	3055
854.048	3089
854.183	3058
854.317	3108
854.451	3313
854.585	3116
854.72	3131
854.854	3188
854.988	2994
855.122	3066
855.256	2960
855.39	3089
855.524	3211
855.658	3165
855.792	3180
855.926	3195
856.06	3214
856.194	3241
856.327	3146
856.461	3093
856.595	3047
856.729	3089
856.862	3192
856.996	3142
857.13	3214
857.263	3241
857.397	3249
857.53	3146
857.664	3180
857.797	3226
857.931	3256
858.064	3127
858.197	3192
858.331	3112
858.464	3112
858.597	2982
858.731	3119
858.864	3135
858.997	3074
859.13	3146
859.263	3123
859.396	3169
859.529	3070
859.662	3062
859.795	3024
859.928	3108
860.061	3268
860.194	3306
860.327	3154
860.46	3066
860.592	3245
860.725	3279
860.858	3218
860.99	3081
861.123	3047
861.256	3017
861.388	3116
861.521	3850
861.653	3017
861.786	2979
861.918	3009
862.05	3070
862.183	3108
862.315	3123
862.447	3169
862.58	3119
862.712	2982
862.844	2880
862.976	2994
863.108	3024
863.24	3302
863.372	2849
863.504	2990
863.636	2937
863.768	3066
863.9	2956
864.032	2914
864.164	2948
864.296	2990
864.428	3055
864.559	3081
864.691	3089
864.823	3043
864.954	3036
865.086	3055
865.217	2979
865.349	2952
865.48	2944
865.612	2963
865.743	3146
865.875	2990
866.006	2956
866.137	2956
866.269	2918
866.4	2929
866.531	2941
866.662	2891
866.793	2902
866.924	2902
867.055	2948
867.186	2883
867.317	2861
867.448	2800
867.579	2864
867.71	2857
867.841	2830
867.972	2887
868.103	2895
868.233	2864
868.364	2872
868.495	2887
868.625	3066
868.756	3154
868.886	2963
869.017	3001
869.147	3203
869.278	3176
869.408	3039
869.539	3036
869.669	3070
869.799	2990
869.929	3157
870.06	3085
870.19	3332
870.32	3287
870.45	3298
870.58	3359
870.71	3473
870.84	3424
870.97	3272
871.1	3203
871.23	3454
871.36	3496
871.489	3336
871.619	3405
871.749	3424
871.879	3389
872.008	3454
872.138	3332
872.267	3226
872.397	3112
872.526	3112
872.656	2971
872.785	3062
872.915	3237
873.044	3294
873.173	3233
873.303	3237
873.432	3218
873.561	3218
873.69	3100
873.819	3093
873.948	3131
874.077	3085
874.206	3032
874.335	3062
874.464	3199
874.593	3317
874.722	3268
874.851	3329
874.979	3325
875.108	3310
875.237	3218
875.365	3161
875.494	3135
875.623	3230
875.751	3055
875.88	3089
876.008	3135
876.136	3188
876.265	3386
876.393	3492
876.521	3416
876.65	3340
876.778	3317
876.906	3268
877.034	3203
877.162	3253
877.29	3173
877.418	3256
877.546	3230
877.674	3260
877.802	3253
877.93	3245
878.058	3138
878.185	3058
878.313	3195
878.441	3203
878.568	3074
878.696	3104
878.824	3222
878.951	3321
879.079	3412
879.206	3599
879.333	3428
879.461	3310
879.588	3351
879.715	3485
879.842	3557
879.97	3359
880.097	3150
880.224	3161
880.351	3157
880.478	3245
880.605	3211
880.732	3146
880.859	3526
880.986	3283
881.112	3336
881.239	3192
881.366	3066
881.493	3043
881.619	3009
881.746	3062
881.872	3047
881.999	3085
882.125	3112
882.252	3211
882.378	3306
882.505	3401
882.631	3294
882.757	3146
882.883	3233
883.01	3199
883.136	3150
883.262	3100
883.388	3146
883.514	3287
883.64	3386
883.766	3306
883.892	3169
884.018	3256
884.143	3401
884.269	3545
884.395	3214
884.52	3112
884.646	3180
884.772	3127
884.897	3085
885.023	3154
885.148	3332
885.274	3424
885.399	3367
885.524	3268
885.65	3264
885.775	3287
885.9	3291
886.025	3454
886.15	3382
886.275	3306
886.4	3230
886.525	3306
886.65	3283
886.775	3260
886.9	3504
887.025	3629
887.149	3431
887.274	3245
887.399	3195
887.523	3214
887.648	3184
887.773	3165
887.897	3370
888.021	3359
888.146	3272
888.27	3439
888.395	3511
888.519	3416
888.643	3466
888.767	3492
888.891	3310
889.015	3203
889.139	3275
889.263	3199
889.387	3409
889.511	3504
889.635	3431
889.759	3268
889.883	3256
890.006	3389
890.13	3515
890.254	3249
890.377	3325
890.501	3184
890.624	3188
890.748	3253
890.871	3165
890.995	3097
891.118	3039
891.241	3180
891.364	3203
891.488	3351
891.611	3169
891.734	3222
891.857	3245
891.98	3226
892.103	3332
892.226	3287
892.349	3241
892.471	3100
892.594	3214
892.717	3283
892.839	3226
892.962	3291
893.085	3317
893.207	3287
893.33	3135
893.452	3173
893.575	3325
893.697	3218
893.819	3469
893.941	3526
894.064	3469
894.186	3256
894.308	3249
894.43	3439
894.552	3500
894.674	3466
894.796	3237
894.918	3256
895.04	3268
895.161	3416
895.283	3439
895.405	3313
895.526	3336
895.648	3431
895.769	3412
895.891	3458
896.012	3462
896.134	3466
896.255	3405
896.376	3370
896.498	3359
896.619	3443
896.74	3340
896.861	3386
896.982	3694
897.103	3819
897.224	3564
897.345	3507
897.466	3431
897.587	3473
897.708	3622
897.828	3507
897.949	3424
898.07	3367
898.19	3409
898.311	3580
898.431	3431
898.552	3481
898.672	3576
898.792	3599
898.913	3564
899.033	3405
899.153	3306
899.273	3241
899.393	3264
899.513	3336
899.633	3310
899.753	3344
899.873	3298
899.993	3332
900.113	3336
900.232	3405
900.352	3340
900.472	3272
900.591	3226
900.711	3291
900.83	3256
900.95	3450
901.069	3447
901.189	3348
901.308	3184
901.427	3112
901.546	3207
901.665	3260
901.784	3298
901.904	3222
902.023	3123
902.141	3001
902.26	3024
902.379	3135
902.498	3047
902.617	3039
902.735	3184
902.854	3226
902.973	3192
903.091	3043
903.21	3055
903.328	3108
903.446	3097
903.565	3097
903.683	3173
903.801	3100
903.919	3237
904.038	3256
904.156	3157
904.274	3241
904.392	3241
904.51	3264
904.627	3325
904.745	3477
904.863	3511
904.981	3241
905.098	3150
905.216	3222
905.334	3245
905.451	3287
905.569	3287
905.686	3424
905.803	3412
905.921	3279
906.038	3401
906.155	3348
906.272	3260
906.389	3317
906.506	3211
906.623	3230
906.74	3260
906.857	3207
906.974	3226
907.091	3443
907.208	3595
907.324	3420
907.441	3355
907.557	3237
907.674	3230
907.79	3180
907.907	3291
908.023	3435
908.139	3363
908.256	3332
908.372	3378
908.488	3321
908.604	3233
908.72	3230
908.836	3272
908.952	3241
909.068	3306
909.184	3496
909.3	3401
909.415	3507
909.531	3435
909.647	3294
909.762	3272
909.878	3283
909.993	3317
910.108	3348
910.224	3329
910.339	3355
910.454	3340
910.57	3291
910.685	3207
910.8	3603
910.915	3561
911.03	3454
911.145	3287
911.259	3264
911.374	3329
911.489	3249
911.604	3222
911.718	3066
911.833	3127
911.947	3036
912.062	2990
912.176	3180
912.291	3195
912.405	3214
912.519	3450
912.633	3431
912.748	3344
912.862	3279
912.976	3195
913.09	3055
913.204	3135
913.318	3214
913.431	3355
913.545	3367
913.659	3389
913.772	3291
913.886	3207
914	3211
914.113	3370
914.226	3382
914.34	3344
914.453	3203
914.566	3386
914.68	3287
914.793	3287
914.906	3146
915.019	3108
915.132	3081
915.245	3146
915.358	3241
915.47	3218
915.583	3253
915.696	3279
915.809	3378
915.921	3351
916.034	3260
916.146	3245
916.259	3230
916.371	3382
916.483	3397
916.595	3241
916.708	3306
916.82	3340
916.932	3313
917.044	3348
917.156	3329
917.268	3253
917.38	3268
917.491	3294
917.603	3351
917.715	3447
917.826	3462
917.938	3348
918.049	3268
918.161	3405
918.272	3606
918.384	3557
918.495	3435
918.606	3313
918.717	3279
918.828	3363
918.939	3439
919.05	3298
919.161	3382
919.272	3173
919.383	3275
919.494	3477
919.604	3671
919.715	3477
919.826	3443
919.936	3420
920.047	3580
920.157	3561
920.267	3740
920.378	3591
920.488	3534
920.598	3751
920.708	3930
920.818	3793
920.928	3793
921.038	4006
921.148	3994
921.258	3713
921.368	3603
921.477	3572
921.587	3553
921.697	3405
921.806	3599
921.916	3500
922.025	3313
922.134	3313
922.244	3317
922.353	3355
922.462	3321
922.571	3214
922.68	3112
922.789	3051
922.898	3112
923.007	3119
923.116	3192
923.224	3135
923.333	3195
923.442	3119
923.55	3093
923.659	3123
923.767	3161
923.876	3074
923.984	3241
924.092	3077
924.201	3195
924.309	3188
924.417	3249
924.525	3173
924.633	3233
924.741	4162
924.849	3058
924.956	3226
925.064	3093
925.172	3039
925.279	3093
925.387	3184
925.494	3180
925.602	3348
925.709	3310
925.816	3161
925.924	3275
926.031	3386
926.138	3283
926.245	3386
926.352	3272
926.459	3378
926.566	3439
926.673	3310
926.779	3260
926.886	3218
926.993	3165
927.099	3127
927.206	3108
927.312	3104
927.419	3195
927.525	3176
927.631	3245
927.737	3146
927.843	3097
927.95	2990
928.056	3131
928.162	3123
928.267	3207
928.373	3854
928.479	3279
928.585	3058
928.69	3226
928.796	3241
928.901	3169
929.007	3077
929.112	3203
929.218	3199
929.323	3135
929.428	3119
929.533	3348
929.638	3104
929.743	3192
929.848	3230
929.953	3222
930.058	3131
930.163	3013
930.267	3058
930.372	3195
930.477	3062
930.581	3279
930.685	3173
930.79	3055
930.894	3112
930.998	3081
931.103	3245
931.207	2937
931.311	2937
931.415	2918
931.519	2777
931.623	2800
