Data from test_V78500241_1653.txt Node
Date: Fri Mar 25 16:26:39 CST 2022
User: usil
Spectrometer: V785-0024
Trigger mode: 0
Integration Time (sec): 4.000000E-1
Scans to average: 1
Nonlinearity correction enabled: false
Boxcar width: 0
Storing dark spectrum: false
XAxis mode: Wavelengths
Number of Pixels in Spectrum: 1024
>>>>>Begin Spectral Data<<<<<
801.071	2914
801.214	2937
801.356	2899
801.499	2880
801.641	2861
801.783	2906
801.926	3051
802.068	3001
802.211	2952
802.353	3013
802.496	2960
802.638	3039
802.78	3039
802.923	3123
803.065	2979
803.208	2868
803.35	2948
803.492	2941
803.635	2883
803.777	2727
803.919	2845
804.061	3207
804.204	2956
804.346	2899
804.488	2826
804.63	2979
804.773	2887
804.915	2899
805.057	3058
805.199	2910
805.341	2956
805.483	3032
805.626	3009
805.768	2967
805.91	3097
806.052	3127
806.194	3009
806.336	3233
806.478	3047
806.62	2929
806.762	2956
806.904	3074
807.046	3188
807.188	2979
807.33	2925
807.472	2967
807.614	2906
807.756	2979
807.898	2902
808.04	2880
808.182	2990
808.324	2979
808.465	2887
808.607	2891
808.749	2777
808.891	2849
809.033	2990
809.174	2971
809.316	2880
809.458	2891
809.6	2758
809.741	2754
809.883	2727
810.025	2857
810.166	2823
810.308	2845
810.45	2838
810.591	2773
810.733	2788
810.875	2811
811.016	2762
811.158	2754
811.299	2823
811.441	2941
811.582	2910
811.724	2819
811.865	2861
812.007	2902
812.148	2883
812.29	2857
812.431	2902
812.573	2918
812.714	2986
812.855	3028
812.997	3055
813.138	3112
813.279	3001
813.421	2956
813.562	2975
813.703	2872
813.845	2849
813.986	2766
814.127	2712
814.268	2815
814.41	2811
814.551	2819
814.692	2853
814.833	2807
814.974	2880
815.115	2944
815.256	2861
815.397	2785
815.539	2819
815.68	2773
815.821	2800
815.962	2902
816.103	2925
816.244	2861
816.385	2868
816.526	2929
816.666	2887
816.807	2762
816.948	2880
817.089	2944
817.23	2849
817.371	2792
817.512	2762
817.653	2864
817.793	2815
817.934	2853
818.075	2967
818.216	2998
818.356	3009
818.497	2895
818.638	2800
818.778	2811
818.919	2811
819.06	2785
819.2	2872
819.341	2785
819.481	2838
819.622	2925
819.762	3100
819.903	3062
820.043	2902
820.184	2922
820.324	2857
820.465	2994
820.605	2998
820.746	3013
820.886	2902
821.026	3100
821.167	3112
821.307	3211
821.447	3272
821.588	3226
821.728	3176
821.868	3211
822.008	3062
822.149	3154
822.289	3203
822.429	3070
822.569	3058
822.709	3211
822.849	2998
822.99	3089
823.13	3123
823.27	3195
823.41	3104
823.55	3104
823.69	3123
823.83	3157
823.97	3074
824.11	2986
824.25	3013
824.389	3058
824.529	3089
824.669	3036
824.809	3211
824.949	3233
825.089	3230
825.228	3154
825.368	2998
825.508	2948
825.648	2960
825.787	3013
825.927	3013
826.067	2982
826.206	2922
826.346	3055
826.485	3066
826.625	3135
826.765	3253
826.904	3211
827.044	2971
827.183	2941
827.323	2853
827.462	2994
827.601	2937
827.741	2910
827.88	2933
828.02	2861
828.159	2971
828.298	3032
828.437	3108
828.577	3039
828.716	3233
828.855	3062
828.994	2910
829.134	2868
829.273	2910
829.412	2857
829.551	2842
829.69	2891
829.829	2975
829.968	3066
830.107	3043
830.246	3024
830.385	2906
830.524	2830
830.663	2830
830.802	2754
830.941	2644
831.08	2648
831.219	2731
831.357	2746
831.496	2967
831.635	2720
831.774	2640
831.913	2636
832.051	2556
832.19	2552
832.329	2705
832.467	2533
832.606	2495
832.744	2598
832.883	2632
833.022	2583
833.16	2625
833.299	2655
833.437	2705
833.576	2716
833.714	2701
833.852	2750
833.991	2746
834.129	2811
834.267	2815
834.406	2777
834.544	2876
834.682	2895
834.821	2849
834.959	3089
835.097	2899
835.235	3081
835.373	2990
835.511	3009
835.65	2963
835.788	2941
835.926	2834
836.064	2819
836.202	2861
836.34	3093
836.478	3169
836.615	3001
836.753	3138
836.891	3192
837.029	3157
837.167	3146
837.305	3051
837.443	3020
837.58	2944
837.718	3146
837.856	3074
837.993	3055
838.131	3104
838.269	3116
838.406	3070
838.544	3093
838.681	2929
838.819	2914
838.956	2830
839.094	2807
839.231	2872
839.369	3009
839.506	3336
839.643	3180
839.781	3009
839.918	2948
840.055	3005
840.193	3028
840.33	3066
840.467	3116
840.604	3150
840.742	3393
840.879	3081
841.016	2998
841.153	3077
841.29	3344
841.427	3306
841.564	3272
841.701	3313
841.838	3203
841.975	3176
842.112	3199
842.249	3085
842.385	3039
842.522	3256
842.659	3085
842.796	3062
842.933	3085
843.069	3024
843.206	3032
843.343	3150
843.479	3112
843.616	3127
843.752	2910
843.889	2853
844.025	3066
844.162	2918
844.298	3077
844.435	2944
844.571	2918
844.708	3085
844.844	3176
844.98	3214
845.117	3192
845.253	3047
845.389	3013
845.525	3093
845.661	3093
845.798	3017
845.934	3108
846.07	3055
846.206	3222
846.342	3294
846.478	3222
846.614	3070
846.75	3058
846.886	3020
847.022	3203
847.158	3180
847.294	3184
847.429	3192
847.565	3226
847.701	3477
847.837	2982
847.972	2979
848.108	3180
848.244	3104
848.379	2975
848.515	2895
848.65	2906
848.786	2967
848.921	3020
849.057	3062
849.192	3142
849.328	3108
849.463	3119
849.598	3043
849.734	3047
849.869	2933
850.004	2902
850.14	2967
850.275	2895
850.41	2842
850.545	2929
850.68	2933
850.815	2914
850.95	2979
851.085	3184
851.22	3100
851.355	2986
851.49	3005
851.625	3005
851.76	3036
851.895	2925
852.03	2902
852.165	3036
852.299	3112
852.434	3176
852.569	3089
852.703	3161
852.838	3233
852.973	3355
853.107	3313
853.242	3173
853.376	3081
853.511	2948
853.645	3062
853.78	3192
853.914	3157
854.048	3085
854.183	3058
854.317	3146
854.451	3310
854.585	3100
854.72	3074
854.854	3176
854.988	3066
855.122	3131
855.256	2990
855.39	3093
855.524	3211
855.658	3173
855.792	3184
855.926	3173
856.06	3218
856.194	3237
856.327	3135
856.461	3047
856.595	3074
856.729	3108
856.862	3203
856.996	3161
857.13	3157
857.263	3195
857.397	3272
857.53	3112
857.664	3211
857.797	3256
857.931	3253
858.064	3142
858.197	3207
858.331	3047
858.464	3089
858.597	3024
858.731	3123
858.864	3104
858.997	3104
859.13	3157
859.263	3165
859.396	3214
859.529	3112
859.662	3043
859.795	3062
859.928	3157
860.061	3256
860.194	3283
860.327	3081
860.46	3112
860.592	3195
860.725	3214
860.858	3253
860.99	3119
861.123	3070
861.256	3039
861.388	3150
861.521	3903
861.653	2998
861.786	2982
861.918	3024
862.05	3085
862.183	3062
862.315	3180
862.447	3207
862.58	3100
862.712	2933
862.844	2880
862.976	2979
863.108	2990
863.24	3431
863.372	2845
863.504	2948
863.636	2944
863.768	3032
863.9	3001
864.032	2914
864.164	2933
864.296	3051
864.428	3085
864.559	3074
864.691	3112
864.823	3066
864.954	3001
865.086	3047
865.217	2990
865.349	2933
865.48	3005
865.612	3020
865.743	3150
865.875	2960
866.006	2906
866.137	2960
866.269	2948
866.4	2944
866.531	2880
866.662	2853
866.793	2857
866.924	2853
867.055	2963
867.186	2891
867.317	2899
867.448	2857
867.579	2857
867.71	2891
867.841	2796
867.972	2902
868.103	2861
868.233	2872
868.364	2887
868.495	2876
868.625	3070
868.756	3150
868.886	2975
869.017	3020
869.147	3123
869.278	3135
869.408	3051
869.539	2994
869.669	3070
869.799	3032
869.929	3100
870.06	3097
870.19	3321
870.32	3272
870.45	3298
870.58	3386
870.71	3454
870.84	3416
870.97	3264
871.1	3226
871.23	3466
871.36	3462
871.489	3348
871.619	3439
871.749	3428
871.879	3439
872.008	3469
872.138	3336
872.267	3256
872.397	3131
872.526	3081
872.656	3028
872.785	3108
872.915	3218
873.044	3294
873.173	3233
873.303	3230
873.432	3237
873.561	3226
873.69	3135
873.819	3154
873.948	3176
874.077	3119
874.206	3032
874.335	3108
874.464	3218
874.593	3367
874.722	3233
874.851	3389
874.979	3355
875.108	3317
875.237	3214
875.365	3176
875.494	3195
875.623	3192
875.751	3085
875.88	3097
876.008	3214
876.136	3237
876.265	3370
876.393	3511
876.521	3420
876.65	3393
876.778	3298
876.906	3222
877.034	3214
877.162	3214
877.29	3192
877.418	3260
877.546	3230
877.674	3264
877.802	3233
877.93	3218
878.058	3135
878.185	3081
878.313	3157
878.441	3226
878.568	3100
878.696	3142
878.824	3260
878.951	3264
879.079	3435
879.206	3595
879.333	3401
879.461	3359
879.588	3386
879.715	3466
879.842	3633
879.97	3374
880.097	3127
880.224	3146
880.351	3203
880.478	3211
880.605	3157
880.732	3207
880.859	3500
880.986	3279
881.112	3321
881.239	3176
881.366	3119
881.493	3047
881.619	3028
881.746	3074
881.872	3085
881.999	3055
882.125	3127
882.252	3199
882.378	3253
882.505	3431
882.631	3268
882.757	3104
882.883	3184
883.01	3203
883.136	3150
883.262	3104
883.388	3081
883.514	3302
883.64	3359
883.766	3317
883.892	3230
884.018	3214
884.143	3389
884.269	3504
884.395	3230
884.52	3138
884.646	3157
884.772	3089
884.897	3085
885.023	3207
885.148	3306
885.274	3420
885.399	3355
885.524	3260
885.65	3249
885.775	3294
885.9	3233
886.025	3405
886.15	3321
886.275	3264
886.4	3233
886.525	3302
886.65	3256
886.775	3226
886.9	3515
887.025	3580
887.149	3443
887.274	3245
887.399	3157
887.523	3218
887.648	3169
887.773	3188
887.897	3393
888.021	3378
888.146	3351
888.27	3439
888.395	3504
888.519	3405
888.643	3435
888.767	3473
888.891	3287
889.015	3264
889.139	3313
889.263	3260
889.387	3363
889.511	3515
889.635	3447
889.759	3329
889.883	3329
890.006	3401
890.13	3496
890.254	3317
890.377	3313
890.501	3226
890.624	3188
890.748	3329
890.871	3195
890.995	3100
891.118	3024
891.241	3195
891.364	3226
891.488	3298
891.611	3169
891.734	3222
891.857	3260
891.98	3230
892.103	3329
892.226	3253
892.349	3180
892.471	3074
892.594	3226
892.717	3256
892.839	3306
892.962	3256
893.085	3351
893.207	3287
893.33	3161
893.452	3192
893.575	3332
893.697	3256
893.819	3462
893.941	3500
894.064	3435
894.186	3279
894.308	3256
894.43	3454
894.552	3576
894.674	3473
894.796	3253
894.918	3340
895.04	3272
895.161	3420
895.283	3405
895.405	3294
895.526	3378
895.648	3393
895.769	3397
895.891	3435
896.012	3469
896.134	3458
896.255	3431
896.376	3378
896.498	3351
896.619	3443
896.74	3355
896.861	3420
896.982	3667
897.103	3804
897.224	3614
897.345	3507
897.466	3420
897.587	3469
897.708	3606
897.828	3469
897.949	3481
898.07	3321
898.19	3431
898.311	3618
898.431	3443
898.552	3492
898.672	3584
898.792	3603
898.913	3538
899.033	3439
899.153	3272
899.273	3214
899.393	3317
899.513	3306
899.633	3287
899.753	3313
899.873	3283
899.993	3378
900.113	3317
900.232	3382
900.352	3317
900.472	3260
900.591	3169
900.711	3310
900.83	3195
900.95	3435
901.069	3511
901.189	3359
901.308	3165
901.427	3116
901.546	3192
901.665	3287
901.784	3344
901.904	3176
902.023	3116
902.141	3017
902.26	2982
902.379	3077
902.498	3077
902.617	3047
902.735	3218
902.854	3233
902.973	3184
903.091	3017
903.21	3043
903.328	3135
903.446	3123
903.565	3097
903.683	3230
903.801	3127
903.919	3233
904.038	3287
904.156	3150
904.274	3302
904.392	3264
904.51	3237
904.627	3332
904.745	3458
904.863	3473
904.981	3272
905.098	3131
905.216	3233
905.334	3298
905.451	3302
905.569	3363
905.686	3450
905.803	3454
905.921	3268
906.038	3412
906.155	3351
906.272	3279
906.389	3325
906.506	3233
906.623	3241
906.74	3211
906.857	3207
906.974	3275
907.091	3492
907.208	3584
907.324	3462
907.441	3389
907.557	3192
907.674	3226
907.79	3199
907.907	3294
908.023	3389
908.139	3363
908.256	3332
908.372	3401
908.488	3340
908.604	3253
908.72	3237
908.836	3279
908.952	3249
909.068	3344
909.184	3481
909.3	3378
909.415	3519
909.531	3481
909.647	3275
909.762	3256
909.878	3279
909.993	3370
910.108	3306
910.224	3321
910.339	3447
910.454	3310
910.57	3344
910.685	3245
910.8	3587
910.915	3538
911.03	3401
911.145	3241
911.259	3268
911.374	3332
911.489	3226
911.604	3192
911.718	3127
911.833	3150
911.947	3020
912.062	3009
912.176	3184
912.291	3207
912.405	3241
912.519	3416
912.633	3466
912.748	3321
912.862	3253
912.976	3154
913.09	3039
913.204	3192
913.318	3226
913.431	3321
913.545	3321
913.659	3393
913.772	3363
913.886	3203
914	3237
914.113	3340
914.226	3409
914.34	3329
914.453	3180
914.566	3397
914.68	3302
914.793	3302
914.906	3146
915.019	3123
915.132	3093
915.245	3165
915.358	3203
915.47	3233
915.583	3241
915.696	3306
915.809	3409
915.921	3363
916.034	3233
916.146	3233
916.259	3214
916.371	3401
916.483	3351
916.595	3287
916.708	3317
916.82	3321
916.932	3340
917.044	3344
917.156	3336
917.268	3241
917.38	3275
917.491	3306
917.603	3378
917.715	3420
917.826	3450
917.938	3389
918.049	3253
918.161	3416
918.272	3610
918.384	3595
918.495	3496
918.606	3321
918.717	3260
918.828	3382
918.939	3405
919.05	3279
919.161	3405
919.272	3184
919.383	3283
919.494	3485
919.604	3663
919.715	3492
919.826	3401
919.936	3431
920.047	3561
920.157	3542
920.267	3717
920.378	3625
920.488	3584
920.598	3762
920.708	3941
920.818	3831
920.928	3819
921.038	4010
921.148	3956
921.258	3740
921.368	3671
921.477	3553
921.587	3515
921.697	3447
921.806	3629
921.916	3504
922.025	3344
922.134	3336
922.244	3294
922.353	3428
922.462	3249
922.571	3218
922.68	3085
922.789	3100
922.898	3127
923.007	3112
923.116	3188
923.224	3176
923.333	3165
923.442	3085
923.55	3089
923.659	3146
923.767	3207
923.876	3089
923.984	3211
924.092	3077
924.201	3195
924.309	3233
924.417	3253
924.525	3165
924.633	3237
924.741	4177
924.849	3070
924.956	3275
925.064	3077
925.172	3058
925.279	3062
925.387	3180
925.494	3207
925.602	3340
925.709	3363
925.816	3192
925.924	3294
926.031	3359
926.138	3287
926.245	3397
926.352	3241
926.459	3435
926.566	3439
926.673	3332
926.779	3260
926.886	3230
926.993	3176
927.099	3104
927.206	3127
927.312	3142
927.419	3192
927.525	3222
927.631	3256
927.737	3127
927.843	3154
927.95	2998
928.056	3116
928.162	3207
928.267	3253
928.373	3774
928.479	3283
928.585	3062
928.69	3207
928.796	3279
928.901	3150
929.007	3013
929.112	3218
929.218	3146
929.323	3123
929.428	3211
929.533	3336
929.638	3066
929.743	3161
929.848	3268
929.953	3199
930.058	3138
930.163	2986
930.267	3028
930.372	3165
930.477	3017
930.581	3313
930.685	3195
930.79	3100
930.894	3116
930.998	3039
931.103	3264
931.207	2941
931.311	2918
931.415	2963
931.519	2746
931.623	2792
