Data from test_V78500241_56.txt Node
Date: Fri Mar 25 16:15:35 CST 2022
User: usil
Spectrometer: V785-0024
Trigger mode: 0
Integration Time (sec): 4.000000E-1
Scans to average: 1
Nonlinearity correction enabled: false
Boxcar width: 0
Storing dark spectrum: false
XAxis mode: Wavelengths
Number of Pixels in Spectrum: 1024
>>>>>Begin Spectral Data<<<<<
801.071	2944
801.214	2982
801.356	2967
801.499	2941
801.641	2933
801.783	2982
801.926	3112
802.068	3017
802.211	3047
802.353	3085
802.496	2994
802.638	3119
802.78	3081
802.923	3131
803.065	3058
803.208	2971
803.35	2963
803.492	2963
803.635	2986
803.777	2807
803.919	2914
804.061	3222
804.204	3013
804.346	2937
804.488	2883
804.63	3062
804.773	2937
804.915	2971
805.057	3127
805.199	3013
805.341	3066
805.483	3055
805.626	3051
805.768	3020
805.91	3100
806.052	3169
806.194	3074
806.336	3237
806.478	3058
806.62	3017
806.762	3020
806.904	3104
807.046	3226
807.188	3043
807.33	3013
807.472	3028
807.614	2986
807.756	3055
807.898	2956
808.04	2914
808.182	3036
808.324	2990
808.465	2937
808.607	2895
808.749	2842
808.891	2918
809.033	2990
809.174	2982
809.316	2929
809.458	2910
809.6	2819
809.741	2766
809.883	2807
810.025	2899
810.166	2899
810.308	2880
810.45	2910
810.591	2811
810.733	2807
810.875	2845
811.016	2868
811.158	2777
811.299	2872
811.441	2960
811.582	2948
811.724	2914
811.865	2887
812.007	2982
812.148	2922
812.29	2872
812.431	2952
812.573	3005
812.714	3024
812.855	3104
812.997	3104
813.138	3176
813.279	3097
813.421	3036
813.562	2971
813.703	2876
813.845	2937
813.986	2826
814.127	2777
814.268	2826
814.41	2880
814.551	2872
814.692	2906
814.833	2838
814.974	2914
815.115	2975
815.256	2864
815.397	2838
815.539	2929
815.68	2834
815.821	2842
815.962	2944
816.103	2990
816.244	2922
816.385	2929
816.526	3001
816.666	2971
816.807	2807
816.948	2906
817.089	2937
817.23	2933
817.371	2861
817.512	2826
817.653	2906
817.793	2906
817.934	2937
818.075	3001
818.216	3043
818.356	3047
818.497	2899
818.638	2811
818.778	2861
818.919	2845
819.06	2785
819.2	2914
819.341	2864
819.481	2883
819.622	2971
819.762	3135
819.903	3097
820.043	2971
820.184	2967
820.324	2941
820.465	3043
820.605	3058
820.746	3081
820.886	2971
821.026	3150
821.167	3214
821.307	3279
821.447	3363
821.588	3272
821.728	3256
821.868	3256
822.008	3093
822.149	3218
822.289	3264
822.429	3131
822.569	3157
822.709	3184
822.849	3074
822.99	3116
823.13	3214
823.27	3233
823.41	3150
823.55	3195
823.69	3173
823.83	3237
823.97	3131
824.11	3039
824.25	3028
824.389	3062
824.529	3154
824.669	3146
824.809	3226
824.949	3325
825.089	3272
825.228	3211
825.368	3047
825.508	3020
825.648	3001
825.787	3070
825.927	3036
826.067	3013
826.206	2982
826.346	3055
826.485	3085
826.625	3142
826.765	3332
826.904	3233
827.044	3043
827.183	2986
827.323	2922
827.462	3032
827.601	2960
827.741	2960
827.88	2982
828.02	2895
828.159	3024
828.298	3131
828.437	3154
828.577	3097
828.716	3298
828.855	3104
828.994	2971
829.134	2933
829.273	2952
829.412	2918
829.551	2910
829.69	2944
829.829	3070
829.968	3150
830.107	3062
830.246	3055
830.385	2956
830.524	2918
830.663	2876
830.802	2762
830.941	2731
831.08	2686
831.219	2804
831.357	2796
831.496	3020
831.635	2746
831.774	2705
831.913	2659
832.051	2587
832.19	2598
832.329	2697
832.467	2579
832.606	2514
832.744	2606
832.883	2590
833.022	2617
833.16	2693
833.299	2716
833.437	2731
833.576	2743
833.714	2769
833.852	2735
833.991	2792
834.129	2906
834.267	2845
834.406	2811
834.544	2910
834.682	2914
834.821	2891
834.959	3108
835.097	2910
835.235	3085
835.373	3005
835.511	3062
835.65	2982
835.788	2944
835.926	2880
836.064	2868
836.202	2872
836.34	3169
836.478	3180
836.615	3062
836.753	3195
836.891	3195
837.029	3207
837.167	3127
837.305	3077
837.443	3097
837.58	3020
837.718	3150
837.856	3081
837.993	3066
838.131	3142
838.269	3119
838.406	3154
838.544	3116
838.681	2956
838.819	2956
838.956	2864
839.094	2876
839.231	2952
839.369	3062
839.506	3405
839.643	3253
839.781	3062
839.918	2990
840.055	3062
840.193	3104
840.33	3074
840.467	3131
840.604	3188
840.742	3428
840.879	3074
841.016	3062
841.153	3184
841.29	3363
841.427	3370
841.564	3336
841.701	3351
841.838	3226
841.975	3207
842.112	3237
842.249	3116
842.385	3074
842.522	3306
842.659	3142
842.796	3100
842.933	3173
843.069	3070
843.206	3070
843.343	3218
843.479	3138
843.616	3226
843.752	2914
843.889	2914
844.025	3116
844.162	2910
844.298	3112
844.435	2960
844.571	2941
844.708	3131
844.844	3253
844.98	3279
845.117	3226
845.253	3097
845.389	3066
845.525	3195
845.661	3154
845.798	3036
845.934	3180
846.07	3081
846.206	3272
846.342	3359
846.478	3226
846.614	3146
846.75	3119
846.886	3024
847.022	3294
847.158	3176
847.294	3230
847.429	3298
847.565	3287
847.701	3523
847.837	3062
847.972	3039
848.108	3195
848.244	3173
848.379	3028
848.515	2967
848.65	2998
848.786	3001
848.921	3036
849.057	3104
849.192	3188
849.328	3089
849.463	3150
849.598	3150
849.734	3112
849.869	3024
850.004	2944
850.14	3028
850.275	2925
850.41	2864
850.545	2944
850.68	2986
850.815	3001
850.95	2952
851.085	3226
851.22	3119
851.355	3062
851.49	3028
851.625	3028
851.76	3043
851.895	2998
852.03	2971
852.165	3055
852.299	3184
852.434	3207
852.569	3203
852.703	3203
852.838	3291
852.973	3348
853.107	3409
853.242	3192
853.376	3131
853.511	3036
853.645	3097
853.78	3256
853.914	3176
854.048	3135
854.183	3108
854.317	3150
854.451	3298
854.585	3161
854.72	3112
854.854	3256
854.988	3081
855.122	3131
855.256	3013
855.39	3154
855.524	3268
855.658	3203
855.792	3180
855.926	3237
856.06	3264
856.194	3363
856.327	3222
856.461	3100
856.595	3108
856.729	3131
856.862	3260
856.996	3230
857.13	3253
857.263	3256
857.397	3336
857.53	3135
857.664	3211
857.797	3245
857.931	3298
858.064	3214
858.197	3298
858.331	3165
858.464	3119
858.597	3074
858.731	3135
858.864	3180
858.997	3119
859.13	3161
859.263	3203
859.396	3260
859.529	3138
859.662	3142
859.795	3085
859.928	3195
860.061	3313
860.194	3321
860.327	3157
860.46	3123
860.592	3291
860.725	3317
860.858	3287
860.99	3146
861.123	3142
861.256	3104
861.388	3165
861.521	3911
861.653	3062
861.786	3020
861.918	3036
862.05	3093
862.183	3157
862.315	3207
862.447	3226
862.58	3131
862.712	2990
862.844	2914
862.976	3055
863.108	3070
863.24	3283
863.372	2914
863.504	3005
863.636	2990
863.768	3074
863.9	3013
864.032	2929
864.164	2971
864.296	3077
864.428	3123
864.559	3138
864.691	3081
864.823	3093
864.954	3024
865.086	3093
865.217	3039
865.349	3001
865.48	3013
865.612	3062
865.743	3173
865.875	3024
866.006	3017
866.137	2998
866.269	2998
866.4	2952
866.531	2960
866.662	2906
866.793	2956
866.924	2910
867.055	2998
867.186	2975
867.317	2891
867.448	2883
867.579	2876
867.71	2925
867.841	2838
867.972	2922
868.103	2929
868.233	2922
868.364	2880
868.495	2933
868.625	3097
868.756	3173
868.886	3024
869.017	3066
869.147	3211
869.278	3173
869.408	3097
869.539	3074
869.669	3100
869.799	3051
869.929	3192
870.06	3116
870.19	3363
870.32	3351
870.45	3325
870.58	3378
870.71	3477
870.84	3488
870.97	3344
871.1	3287
871.23	3526
871.36	3473
871.489	3397
871.619	3469
871.749	3378
871.879	3488
872.008	3530
872.138	3393
872.267	3310
872.397	3188
872.526	3165
872.656	3051
872.785	3142
872.915	3275
873.044	3340
873.173	3226
873.303	3283
873.432	3268
873.561	3283
873.69	3176
873.819	3195
873.948	3211
874.077	3142
874.206	3058
874.335	3127
874.464	3226
874.593	3409
874.722	3264
874.851	3424
874.979	3374
875.108	3340
875.237	3222
875.365	3203
875.494	3214
875.623	3310
875.751	3104
875.88	3192
876.008	3249
876.136	3253
876.265	3405
876.393	3534
876.521	3458
876.65	3458
876.778	3401
876.906	3275
877.034	3214
877.162	3268
877.29	3207
877.418	3294
877.546	3279
877.674	3283
877.802	3275
877.93	3279
878.058	3192
878.185	3146
878.313	3222
878.441	3249
878.568	3112
878.696	3192
878.824	3283
878.951	3302
879.079	3492
879.206	3656
879.333	3488
879.461	3355
879.588	3405
879.715	3504
879.842	3622
879.97	3393
880.097	3214
880.224	3165
880.351	3241
880.478	3237
880.605	3203
880.732	3218
880.859	3568
880.986	3294
881.112	3386
881.239	3279
881.366	3112
881.493	3112
881.619	3013
881.746	3108
881.872	3112
881.999	3100
882.125	3195
882.252	3302
882.378	3359
882.505	3462
882.631	3329
882.757	3184
882.883	3226
883.01	3249
883.136	3184
883.262	3104
883.388	3184
883.514	3351
883.64	3447
883.766	3329
883.892	3214
884.018	3264
884.143	3477
884.269	3595
884.395	3253
884.52	3226
884.646	3211
884.772	3154
884.897	3135
885.023	3245
885.148	3370
885.274	3462
885.399	3431
885.524	3313
885.65	3351
885.775	3355
885.9	3298
886.025	3519
886.15	3359
886.275	3363
886.4	3298
886.525	3321
886.65	3321
886.775	3321
886.9	3561
887.025	3675
887.149	3450
887.274	3294
887.399	3237
887.523	3222
887.648	3207
887.773	3222
887.897	3386
888.021	3469
888.146	3294
888.27	3473
888.395	3561
888.519	3488
888.643	3504
888.767	3526
888.891	3344
889.015	3291
889.139	3329
889.263	3321
889.387	3458
889.511	3587
889.635	3443
889.759	3325
889.883	3332
890.006	3397
890.13	3549
890.254	3294
890.377	3401
890.501	3245
890.624	3241
890.748	3351
890.871	3249
890.995	3165
891.118	3104
891.241	3272
891.364	3260
891.488	3359
891.611	3211
891.734	3272
891.857	3325
891.98	3260
892.103	3363
892.226	3268
892.349	3253
892.471	3104
892.594	3260
892.717	3332
892.839	3291
892.962	3351
893.085	3435
893.207	3336
893.33	3173
893.452	3211
893.575	3397
893.697	3313
893.819	3481
893.941	3545
894.064	3477
894.186	3294
894.308	3279
894.43	3496
894.552	3595
894.674	3534
894.796	3332
894.918	3367
895.04	3348
895.161	3469
895.283	3458
895.405	3329
895.526	3439
895.648	3462
895.769	3447
895.891	3473
896.012	3511
896.134	3534
896.255	3466
896.376	3386
896.498	3397
896.619	3443
896.74	3424
896.861	3466
896.982	3686
897.103	3907
897.224	3641
897.345	3561
897.466	3477
897.587	3549
897.708	3675
897.828	3610
897.949	3492
898.07	3374
898.19	3431
898.311	3660
898.431	3481
898.552	3618
898.672	3641
898.792	3671
898.913	3545
899.033	3473
899.153	3359
899.273	3272
899.393	3344
899.513	3313
899.633	3367
899.753	3386
899.873	3370
899.993	3405
900.113	3317
900.232	3409
900.352	3397
900.472	3336
900.591	3253
900.711	3340
900.83	3272
900.95	3435
901.069	3545
901.189	3393
901.308	3207
901.427	3138
901.546	3233
901.665	3348
901.784	3386
901.904	3249
902.023	3176
902.141	3009
902.26	3047
902.379	3203
902.498	3112
902.617	3081
902.735	3211
902.854	3233
902.973	3203
903.091	3070
903.21	3100
903.328	3157
903.446	3184
903.565	3119
903.683	3253
903.801	3188
903.919	3302
904.038	3310
904.156	3222
904.274	3344
904.392	3287
904.51	3329
904.627	3374
904.745	3485
904.863	3549
904.981	3302
905.098	3211
905.216	3226
905.334	3359
905.451	3294
905.569	3302
905.686	3466
905.803	3473
905.921	3325
906.038	3469
906.155	3359
906.272	3306
906.389	3363
906.506	3275
906.623	3275
906.74	3313
906.857	3180
906.974	3279
907.091	3511
907.208	3591
907.324	3469
907.441	3481
907.557	3256
907.674	3268
907.79	3272
907.907	3321
908.023	3420
908.139	3420
908.256	3359
908.372	3382
908.488	3389
908.604	3272
908.72	3332
908.836	3329
908.952	3367
909.068	3397
909.184	3492
909.3	3393
909.415	3564
909.531	3515
909.647	3302
909.762	3348
909.878	3294
909.993	3367
910.108	3412
910.224	3409
910.339	3431
910.454	3409
910.57	3344
910.685	3329
910.8	3637
910.915	3584
911.03	3458
911.145	3313
911.259	3329
911.374	3351
911.489	3245
911.604	3283
911.718	3146
911.833	3165
911.947	3070
912.062	3047
912.176	3203
912.291	3211
912.405	3294
912.519	3447
912.633	3553
912.748	3363
912.862	3317
912.976	3207
913.09	3074
913.204	3199
913.318	3245
913.431	3351
913.545	3370
913.659	3450
913.772	3389
913.886	3264
914	3230
914.113	3412
914.226	3435
914.34	3401
914.453	3283
914.566	3469
914.68	3317
914.793	3332
914.906	3226
915.019	3142
915.132	3135
915.245	3211
915.358	3230
915.47	3249
915.583	3313
915.696	3329
915.809	3450
915.921	3435
916.034	3329
916.146	3310
916.259	3256
916.371	3382
916.483	3389
916.595	3332
916.708	3363
916.82	3367
916.932	3397
917.044	3382
917.156	3348
917.268	3294
917.38	3329
917.491	3355
917.603	3397
917.715	3496
917.826	3477
917.938	3469
918.049	3344
918.161	3481
918.272	3614
918.384	3606
918.495	3568
918.606	3378
918.717	3302
918.828	3401
918.939	3481
919.05	3409
919.161	3401
919.272	3169
919.383	3321
919.494	3538
919.604	3743
919.715	3542
919.826	3454
919.936	3462
920.047	3614
920.157	3580
920.267	3846
920.378	3633
920.488	3618
920.598	3797
920.708	4002
920.818	3911
920.928	3854
921.038	4090
921.148	4013
921.258	3785
921.368	3667
921.477	3606
921.587	3576
921.697	3473
921.806	3667
921.916	3576
922.025	3374
922.134	3450
922.244	3439
922.353	3488
922.462	3260
922.571	3275
922.68	3173
922.789	3146
922.898	3135
923.007	3081
923.116	3264
923.224	3195
923.333	3226
923.442	3169
923.55	3131
923.659	3199
923.767	3298
923.876	3138
923.984	3275
924.092	3131
924.201	3245
924.309	3253
924.417	3260
924.525	3222
924.633	3283
924.741	4234
924.849	3089
924.956	3291
925.064	3116
925.172	3081
925.279	3165
925.387	3226
925.494	3249
925.602	3420
925.709	3370
925.816	3245
925.924	3291
926.031	3431
926.138	3386
926.245	3424
926.352	3344
926.459	3466
926.566	3523
926.673	3321
926.779	3283
926.886	3302
926.993	3165
927.099	3169
927.206	3180
927.312	3135
927.419	3279
927.525	3249
927.631	3325
927.737	3157
927.843	3161
927.95	3093
928.056	3169
928.162	3226
928.267	3268
928.373	3850
928.479	3348
928.585	3058
928.69	3245
928.796	3287
928.901	3222
929.007	3093
929.112	3249
929.218	3272
929.323	3169
929.428	3169
929.533	3367
929.638	3138
929.743	3207
929.848	3291
929.953	3260
930.058	3180
930.163	3028
930.267	3085
930.372	3253
930.477	3135
930.581	3348
930.685	3214
930.79	3097
930.894	3104
930.998	3157
931.103	3313
931.207	3009
931.311	2963
931.415	2956
931.519	2800
931.623	2857
