Data from test_V78500241_6.txt Node
Date: Fri Mar 25 16:15:14 CST 2022
User: usil
Spectrometer: V785-0024
Trigger mode: 0
Integration Time (sec): 4.000000E-1
Scans to average: 1
Nonlinearity correction enabled: false
Boxcar width: 0
Storing dark spectrum: false
XAxis mode: Wavelengths
Number of Pixels in Spectrum: 1024
>>>>>Begin Spectral Data<<<<<
801.071	3017
801.214	3047
801.356	2956
801.499	2982
801.641	2944
801.783	2998
801.926	3150
802.068	3036
802.211	3058
802.353	3127
802.496	3020
802.638	3062
802.78	3123
802.923	3135
803.065	3070
803.208	2960
803.35	2971
803.492	3005
803.635	3020
803.777	2815
803.919	2948
804.061	3302
804.204	3032
804.346	2975
804.488	2910
804.63	3047
804.773	2960
804.915	2967
805.057	3157
805.199	2979
805.341	3032
805.483	3108
805.626	3066
805.768	3051
805.91	3169
806.052	3184
806.194	3135
806.336	3298
806.478	3074
806.62	2998
806.762	3020
806.904	3154
807.046	3249
807.188	3074
807.33	2990
807.472	3039
807.614	2944
807.756	3055
807.898	3001
808.04	2937
808.182	3024
808.324	3013
808.465	2933
808.607	2922
808.749	2887
808.891	2914
809.033	3062
809.174	3009
809.316	3009
809.458	2937
809.6	2823
809.741	2853
809.883	2826
810.025	2922
810.166	2929
810.308	2906
810.45	2899
810.591	2861
810.733	2796
810.875	2906
811.016	2864
811.158	2804
811.299	2861
811.441	2998
811.582	2948
811.724	2891
811.865	2910
812.007	2979
812.148	2952
812.29	2918
812.431	2933
812.573	3005
812.714	3055
812.855	3108
812.997	3112
813.138	3173
813.279	3085
813.421	3066
813.562	3036
813.703	2941
813.845	2971
813.986	2845
814.127	2792
814.268	2906
814.41	2887
814.551	2883
814.692	2956
814.833	2925
814.974	2982
815.115	3024
815.256	2834
815.397	2868
815.539	2937
815.68	2842
815.821	2861
815.962	3020
816.103	3047
816.244	2948
816.385	2914
816.526	2990
816.666	2956
816.807	2811
816.948	2960
817.089	2986
817.23	2922
817.371	2830
817.512	2849
817.653	2876
817.793	2895
817.934	2944
818.075	3009
818.216	3089
818.356	3077
818.497	2963
818.638	2857
818.778	2868
818.919	2868
819.06	2796
819.2	2948
819.341	2880
819.481	2861
819.622	3013
819.762	3180
819.903	3135
820.043	2971
820.184	2963
820.324	2910
820.465	3058
820.605	3074
820.746	3081
820.886	3024
821.026	3165
821.167	3222
821.307	3348
821.447	3332
821.588	3283
821.728	3279
821.868	3291
822.008	3161
822.149	3253
822.289	3283
822.429	3157
822.569	3119
822.709	3275
822.849	3123
822.99	3150
823.13	3237
823.27	3294
823.41	3188
823.55	3245
823.69	3207
823.83	3241
823.97	3146
824.11	3051
824.25	3081
824.389	3116
824.529	3169
824.669	3112
824.809	3291
824.949	3317
825.089	3287
825.228	3230
825.368	3081
825.508	3047
825.648	3062
825.787	3058
825.927	3085
826.067	3043
826.206	3017
826.346	3112
826.485	3150
826.625	3222
826.765	3332
826.904	3283
827.044	3036
827.183	3005
827.323	2906
827.462	3081
827.601	3005
827.741	2982
827.88	2979
828.02	2902
828.159	3005
828.298	3108
828.437	3188
828.577	3089
828.716	3302
828.855	3150
828.994	2986
829.134	2960
829.273	2952
829.412	2902
829.551	2922
829.69	2956
829.829	3062
829.968	3195
830.107	3066
830.246	3100
830.385	2975
830.524	2883
830.663	2887
830.802	2754
830.941	2720
831.08	2724
831.219	2788
831.357	2815
831.496	3024
831.635	2766
831.774	2712
831.913	2739
832.051	2579
832.19	2610
832.329	2708
832.467	2625
832.606	2549
832.744	2667
832.883	2625
833.022	2644
833.16	2667
833.299	2758
833.437	2788
833.576	2762
833.714	2777
833.852	2792
833.991	2830
834.129	2902
834.267	2861
834.406	2826
834.544	2914
834.682	2914
834.821	2929
834.959	3127
835.097	2960
835.235	3165
835.373	3074
835.511	3062
835.65	2998
835.788	3020
835.926	2906
836.064	2891
836.202	2899
836.34	3176
836.478	3203
836.615	3085
836.753	3184
836.891	3275
837.029	3211
837.167	3165
837.305	3127
837.443	3100
837.58	3028
837.718	3184
837.856	3089
837.993	3089
838.131	3176
838.269	3165
838.406	3146
838.544	3154
838.681	2971
838.819	2952
838.956	2887
839.094	2853
839.231	2971
839.369	3074
839.506	3428
839.643	3275
839.781	3100
839.918	3020
840.055	3116
840.193	3127
840.33	3112
840.467	3169
840.604	3195
840.742	3481
840.879	3112
841.016	3104
841.153	3157
841.29	3409
841.427	3378
841.564	3355
841.701	3367
841.838	3294
841.975	3237
842.112	3245
842.249	3127
842.385	3104
842.522	3313
842.659	3142
842.796	3093
842.933	3154
843.069	3108
843.206	3074
843.343	3241
843.479	3180
843.616	3203
843.752	2971
843.889	2872
844.025	3131
844.162	2910
844.298	3161
844.435	3039
844.571	2952
844.708	3142
844.844	3298
844.98	3287
845.117	3294
845.253	3119
845.389	3058
845.525	3226
845.661	3169
845.798	3028
845.934	3195
846.07	3150
846.206	3287
846.342	3420
846.478	3275
846.614	3131
846.75	3104
846.886	3085
847.022	3310
847.158	3188
847.294	3245
847.429	3245
847.565	3245
847.701	3564
847.837	3066
847.972	3066
848.108	3230
848.244	3188
848.379	3028
848.515	2971
848.65	2986
848.786	3020
848.921	3047
849.057	3142
849.192	3195
849.328	3127
849.463	3173
849.598	3119
849.734	3093
849.869	3047
850.004	2982
850.14	3024
850.275	2982
850.41	2906
850.545	2971
850.68	2982
850.815	2982
850.95	3039
851.085	3249
851.22	3180
851.355	3108
851.49	3017
851.625	3017
851.76	3066
851.895	2998
852.03	2979
852.165	3116
852.299	3161
852.434	3218
852.569	3199
852.703	3241
852.838	3287
852.973	3412
853.107	3344
853.242	3211
853.376	3138
853.511	3028
853.645	3077
853.78	3306
853.914	3184
854.048	3184
854.183	3142
854.317	3203
854.451	3397
854.585	3176
854.72	3131
854.854	3264
854.988	3131
855.122	3131
855.256	3039
855.39	3188
855.524	3291
855.658	3241
855.792	3192
855.926	3253
856.06	3275
856.194	3287
856.327	3184
856.461	3131
856.595	3169
856.729	3169
856.862	3298
856.996	3176
857.13	3237
857.263	3298
857.397	3294
857.53	3199
857.664	3249
857.797	3302
857.931	3321
858.064	3222
858.197	3313
858.331	3150
858.464	3123
858.597	3055
858.731	3180
858.864	3195
858.997	3112
859.13	3207
859.263	3192
859.396	3233
859.529	3131
859.662	3135
859.795	3104
859.928	3211
860.061	3344
860.194	3340
860.327	3218
860.46	3142
860.592	3298
860.725	3287
860.858	3291
860.99	3161
861.123	3085
861.256	3104
861.388	3203
861.521	3759
861.653	3081
861.786	3047
861.918	3058
862.05	3066
862.183	3157
862.315	3180
862.447	3245
862.58	3154
862.712	3055
862.844	2922
862.976	3066
863.108	3047
863.24	3473
863.372	2937
863.504	3028
863.636	3009
863.768	3051
863.9	3017
864.032	2960
864.164	2975
864.296	3055
864.428	3127
864.559	3138
864.691	3123
864.823	3142
864.954	3055
865.086	3089
865.217	3043
865.349	3013
865.48	3017
865.612	3089
865.743	3218
865.875	3039
866.006	2982
866.137	3024
866.269	2994
866.4	3005
866.531	2975
866.662	2948
866.793	2963
866.924	2994
867.055	3028
867.186	2956
867.317	2937
867.448	2902
867.579	2876
867.71	2880
867.841	2880
867.972	2956
868.103	2922
868.233	2944
868.364	2906
868.495	2929
868.625	3116
868.756	3195
868.886	3017
869.017	3062
869.147	3230
869.278	3214
869.408	3112
869.539	3051
869.669	3165
869.799	3070
869.929	3218
870.06	3176
870.19	3321
870.32	3386
870.45	3370
870.58	3401
870.71	3481
870.84	3500
870.97	3359
871.1	3287
871.23	3557
871.36	3511
871.489	3405
871.619	3458
871.749	3481
871.879	3462
872.008	3515
872.138	3435
872.267	3340
872.397	3214
872.526	3142
872.656	3058
872.785	3169
872.915	3329
873.044	3382
873.173	3291
873.303	3310
873.432	3268
873.561	3283
873.69	3195
873.819	3161
873.948	3241
874.077	3138
874.206	3089
874.335	3161
874.464	3287
874.593	3405
874.722	3283
874.851	3443
874.979	3405
875.108	3397
875.237	3237
875.365	3214
875.494	3207
875.623	3348
875.751	3150
875.88	3169
876.008	3245
876.136	3233
876.265	3462
876.393	3591
876.521	3488
876.65	3447
876.778	3409
876.906	3321
877.034	3253
877.162	3241
877.29	3275
877.418	3325
877.546	3283
877.674	3306
877.802	3272
877.93	3272
878.058	3195
878.185	3123
878.313	3272
878.441	3306
878.568	3135
878.696	3241
878.824	3332
878.951	3374
879.079	3519
879.206	3679
879.333	3496
879.461	3393
879.588	3458
879.715	3568
879.842	3637
879.97	3454
880.097	3233
880.224	3157
880.351	3241
880.478	3279
880.605	3241
880.732	3253
880.859	3542
880.986	3367
881.112	3374
881.239	3241
881.366	3154
881.493	3081
881.619	3081
881.746	3146
881.872	3161
881.999	3146
882.125	3188
882.252	3302
882.378	3329
882.505	3504
882.631	3313
882.757	3211
882.883	3264
883.01	3336
883.136	3226
883.262	3127
883.388	3188
883.514	3401
883.64	3420
883.766	3340
883.892	3268
884.018	3317
884.143	3466
884.269	3599
884.395	3241
884.52	3222
884.646	3264
884.772	3188
884.897	3138
885.023	3272
885.148	3401
885.274	3481
885.399	3462
885.524	3332
885.65	3348
885.775	3401
885.9	3302
886.025	3485
886.15	3424
886.275	3363
886.4	3291
886.525	3321
886.65	3359
886.775	3329
886.9	3553
887.025	3755
887.149	3439
887.274	3279
887.399	3218
887.523	3237
887.648	3275
887.773	3260
887.897	3416
888.021	3473
888.146	3321
888.27	3485
888.395	3568
888.519	3511
888.643	3458
888.767	3538
888.891	3374
889.015	3306
889.139	3348
889.263	3317
889.387	3500
889.511	3553
889.635	3504
889.759	3340
889.883	3340
890.006	3462
890.13	3545
890.254	3332
890.377	3393
890.501	3283
890.624	3249
890.748	3367
890.871	3222
890.995	3195
891.118	3104
891.241	3245
891.364	3256
891.488	3393
891.611	3222
891.734	3279
891.857	3317
891.98	3279
892.103	3363
892.226	3355
892.349	3249
892.471	3176
892.594	3275
892.717	3340
892.839	3359
892.962	3355
893.085	3359
893.207	3367
893.33	3207
893.452	3256
893.575	3405
893.697	3306
893.819	3488
893.941	3561
894.064	3523
894.186	3329
894.308	3340
894.43	3511
894.552	3637
894.674	3587
894.796	3359
894.918	3412
895.04	3321
895.161	3469
895.283	3447
895.405	3355
895.526	3454
895.648	3473
895.769	3450
895.891	3500
896.012	3534
896.134	3538
896.255	3462
896.376	3450
896.498	3431
896.619	3492
896.74	3431
896.861	3420
896.982	3743
897.103	3915
897.224	3599
897.345	3606
897.466	3530
897.587	3606
897.708	3667
897.828	3606
897.949	3504
898.07	3397
898.19	3488
898.311	3690
898.431	3545
898.552	3595
898.672	3652
898.792	3663
898.913	3580
899.033	3477
899.153	3348
899.273	3306
899.393	3310
899.513	3325
899.633	3412
899.753	3393
899.873	3367
899.993	3420
900.113	3378
900.232	3473
900.352	3386
900.472	3386
900.591	3298
900.711	3367
900.83	3302
900.95	3458
901.069	3511
901.189	3435
901.308	3237
901.427	3207
901.546	3249
901.665	3302
901.784	3393
901.904	3237
902.023	3169
902.141	3055
902.26	3043
902.379	3222
902.498	3127
902.617	3100
902.735	3256
902.854	3279
902.973	3226
903.091	3093
903.21	3131
903.328	3188
903.446	3131
903.565	3142
903.683	3256
903.801	3161
903.919	3268
904.038	3325
904.156	3230
904.274	3348
904.392	3340
904.51	3340
904.627	3355
904.745	3507
904.863	3564
904.981	3306
905.098	3218
905.216	3264
905.334	3363
905.451	3370
905.569	3355
905.686	3462
905.803	3557
905.921	3367
906.038	3473
906.155	3340
906.272	3275
906.389	3363
906.506	3291
906.623	3340
906.74	3313
906.857	3264
906.974	3306
907.091	3488
907.208	3618
907.324	3580
907.441	3462
907.557	3253
907.674	3302
907.79	3287
907.907	3340
908.023	3431
908.139	3443
908.256	3374
908.372	3462
908.488	3405
908.604	3321
908.72	3313
908.836	3348
908.952	3329
909.068	3370
909.184	3564
909.3	3466
909.415	3530
909.531	3534
909.647	3317
909.762	3359
909.878	3332
909.993	3382
910.108	3389
910.224	3374
910.339	3481
910.454	3420
910.57	3378
910.685	3275
910.8	3656
910.915	3637
911.03	3523
911.145	3370
911.259	3313
911.374	3355
911.489	3287
911.604	3306
911.718	3135
911.833	3203
911.947	3100
912.062	3009
912.176	3207
912.291	3256
912.405	3230
912.519	3469
912.633	3515
912.748	3401
912.862	3272
912.976	3245
913.09	3085
913.204	3218
913.318	3287
913.431	3397
913.545	3348
913.659	3485
913.772	3367
913.886	3256
914	3279
914.113	3420
914.226	3481
914.34	3439
914.453	3268
914.566	3496
914.68	3317
914.793	3359
914.906	3211
915.019	3135
915.132	3142
915.245	3233
915.358	3264
915.47	3279
915.583	3348
915.696	3378
915.809	3496
915.921	3496
916.034	3332
916.146	3291
916.259	3310
916.371	3443
916.483	3424
916.595	3325
916.708	3424
916.82	3363
916.932	3397
917.044	3428
917.156	3435
917.268	3321
917.38	3359
917.491	3370
917.603	3435
917.715	3526
917.826	3504
917.938	3435
918.049	3325
918.161	3469
918.272	3667
918.384	3603
918.495	3568
918.606	3447
918.717	3317
918.828	3473
918.939	3473
919.05	3389
919.161	3401
919.272	3253
919.383	3325
919.494	3553
919.604	3747
919.715	3572
919.826	3492
919.936	3496
920.047	3633
920.157	3618
920.267	3819
920.378	3682
920.488	3625
920.598	3808
920.708	4074
920.818	3892
920.928	3934
921.038	4112
921.148	4093
921.258	3785
921.368	3679
921.477	3656
921.587	3587
921.697	3515
921.806	3755
921.916	3576
922.025	3424
922.134	3401
922.244	3397
922.353	3511
922.462	3336
922.571	3275
922.68	3135
922.789	3112
922.898	3184
923.007	3169
923.116	3264
923.224	3218
923.333	3245
923.442	3135
923.55	3138
923.659	3180
923.767	3249
923.876	3176
923.984	3291
924.092	3150
924.201	3272
924.309	3291
924.417	3340
924.525	3237
924.633	3256
924.741	4253
924.849	3123
924.956	3313
925.064	3142
925.172	3085
925.279	3146
925.387	3253
925.494	3226
925.602	3454
925.709	3363
925.816	3268
925.924	3348
926.031	3443
926.138	3389
926.245	3409
926.352	3306
926.459	3462
926.566	3500
926.673	3389
926.779	3336
926.886	3329
926.993	3195
927.099	3214
927.206	3169
927.312	3146
927.419	3283
927.525	3264
927.631	3344
927.737	3226
927.843	3165
927.95	3081
928.056	3214
928.162	3222
928.267	3302
928.373	3808
928.479	3348
928.585	3112
928.69	3256
928.796	3340
928.901	3237
929.007	3074
929.112	3253
929.218	3256
929.323	3169
929.428	3192
929.533	3374
929.638	3154
929.743	3233
929.848	3336
929.953	3264
930.058	3214
930.163	3055
930.267	3108
930.372	3275
930.477	3127
930.581	3355
930.685	3230
930.79	3089
930.894	3131
930.998	3176
931.103	3336
931.207	3017
931.311	2986
931.415	2956
931.519	2842
931.623	2872
