Data from test_V78500241_272.txt Node
Date: Fri Mar 25 16:17:05 CST 2022
User: usil
Spectrometer: V785-0024
Trigger mode: 0
Integration Time (sec): 4.000000E-1
Scans to average: 1
Nonlinearity correction enabled: false
Boxcar width: 0
Storing dark spectrum: false
XAxis mode: Wavelengths
Number of Pixels in Spectrum: 1024
>>>>>Begin Spectral Data<<<<<
801.071	2891
801.214	2963
801.356	2880
801.499	2937
801.641	2861
801.783	2910
801.926	3036
802.068	2986
802.211	2979
802.353	3039
802.496	2956
802.638	3001
802.78	3051
802.923	3051
803.065	3005
803.208	2902
803.35	2876
803.492	2925
803.635	2933
803.777	2762
803.919	2864
804.061	3211
804.204	2952
804.346	2876
804.488	2868
804.63	2998
804.773	2891
804.915	2925
805.057	3127
805.199	2948
805.341	2975
805.483	3043
805.626	3001
805.768	2929
805.91	3074
806.052	3100
806.194	3001
806.336	3230
806.478	3077
806.62	2918
806.762	2956
806.904	3032
807.046	3169
807.188	2967
807.33	2891
807.472	2960
807.614	2887
807.756	3039
807.898	2876
808.04	2906
808.182	2975
808.324	2929
808.465	2887
808.607	2899
808.749	2807
808.891	2826
809.033	2937
809.174	2979
809.316	2891
809.458	2861
809.6	2792
809.741	2769
809.883	2785
810.025	2830
810.166	2857
810.308	2849
810.45	2861
810.591	2769
810.733	2739
810.875	2823
811.016	2788
811.158	2758
811.299	2815
811.441	2929
811.582	2933
811.724	2872
811.865	2838
812.007	2925
812.148	2929
812.29	2830
812.431	2864
812.573	2944
812.714	2990
812.855	3020
812.997	3085
813.138	3112
813.279	3017
813.421	2982
813.562	2975
813.703	2895
813.845	2872
813.986	2750
814.127	2735
814.268	2842
814.41	2872
814.551	2777
814.692	2868
814.833	2834
814.974	2883
815.115	2956
815.256	2853
815.397	2792
815.539	2876
815.68	2754
815.821	2830
815.962	2960
816.103	2929
816.244	2902
816.385	2876
816.526	2937
816.666	2933
816.807	2739
816.948	2876
817.089	2918
817.23	2815
817.371	2773
817.512	2758
817.653	2823
817.793	2864
817.934	2868
818.075	2967
818.216	2998
818.356	3024
818.497	2918
818.638	2773
818.778	2842
818.919	2788
819.06	2796
819.2	2842
819.341	2804
819.481	2762
819.622	2914
819.762	3093
819.903	3066
820.043	2895
820.184	2918
820.324	2895
820.465	3024
820.605	3013
820.746	3070
820.886	2956
821.026	3116
821.167	3173
821.307	3275
821.447	3302
821.588	3237
821.728	3211
821.868	3245
822.008	3066
822.149	3138
822.289	3222
822.429	3085
822.569	3074
822.709	3180
822.849	2986
822.99	3066
823.13	3184
823.27	3218
823.41	3104
823.55	3142
823.69	3173
823.83	3188
823.97	3070
824.11	3028
824.25	2975
824.389	3036
824.529	3070
824.669	3058
824.809	3180
824.949	3287
825.089	3230
825.228	3150
825.368	3028
825.508	2975
825.648	3001
825.787	3062
825.927	3013
826.067	2986
826.206	2960
826.346	3066
826.485	3062
826.625	3123
826.765	3275
826.904	3195
827.044	2990
827.183	2960
827.323	2857
827.462	2963
827.601	2918
827.741	2929
827.88	2944
828.02	2849
828.159	2960
828.298	3039
828.437	3100
828.577	3017
828.716	3256
828.855	3127
828.994	2929
829.134	2872
829.273	2925
829.412	2838
829.551	2887
829.69	2887
829.829	3032
829.968	3142
830.107	3009
830.246	3013
830.385	2937
830.524	2872
830.663	2800
830.802	2739
830.941	2648
831.08	2636
831.219	2724
831.357	2735
831.496	2967
831.635	2693
831.774	2682
831.913	2670
832.051	2518
832.19	2579
832.329	2693
832.467	2556
832.606	2457
832.744	2602
832.883	2606
833.022	2533
833.16	2651
833.299	2689
833.437	2743
833.576	2678
833.714	2720
833.852	2716
833.991	2796
834.129	2845
834.267	2823
834.406	2781
834.544	2895
834.682	2864
834.821	2895
834.959	3039
835.097	2929
835.235	3081
835.373	3020
835.511	3028
835.65	2952
835.788	2960
835.926	2830
836.064	2807
836.202	2830
836.34	3100
836.478	3119
836.615	3058
836.753	3100
836.891	3195
837.029	3154
837.167	3093
837.305	3062
837.443	3051
837.58	2937
837.718	3131
837.856	3062
837.993	3047
838.131	3138
838.269	3119
838.406	3116
838.544	3085
838.681	2967
838.819	2925
838.956	2823
839.094	2815
839.231	2937
839.369	3024
839.506	3370
839.643	3211
839.781	3028
839.918	2944
840.055	3051
840.193	3024
840.33	3077
840.467	3081
840.604	3157
840.742	3409
840.879	3055
841.016	3039
841.153	3135
841.29	3344
841.427	3329
841.564	3256
841.701	3291
841.838	3226
841.975	3165
842.112	3233
842.249	3100
842.385	3058
842.522	3253
842.659	3104
842.796	3039
842.933	3112
843.069	3066
843.206	3013
843.343	3169
843.479	3077
843.616	3119
843.752	2906
843.889	2864
844.025	3074
844.162	2906
844.298	3077
844.435	2925
844.571	2899
844.708	3077
844.844	3203
844.98	3237
845.117	3180
845.253	3070
845.389	3013
845.525	3097
845.661	3089
845.798	3020
845.934	3108
846.07	3024
846.206	3218
846.342	3329
846.478	3241
846.614	3077
846.75	3028
846.886	3009
847.022	3241
847.158	3100
847.294	3165
847.429	3226
847.565	3207
847.701	3439
847.837	3020
847.972	3001
848.108	3176
848.244	3119
848.379	2963
848.515	2971
848.65	2929
848.786	2960
848.921	2994
849.057	3119
849.192	3146
849.328	3108
849.463	3127
849.598	3051
849.734	3017
849.869	3017
850.004	2944
850.14	2986
850.275	2925
850.41	2842
850.545	2899
850.68	2952
850.815	2971
850.95	3005
851.085	3214
851.22	3108
851.355	3055
851.49	2986
851.625	3009
851.76	2986
851.895	2971
852.03	2899
852.165	3058
852.299	3135
852.434	3157
852.569	3142
852.703	3150
852.838	3241
852.973	3321
853.107	3344
853.242	3131
853.376	3070
853.511	2979
853.645	3032
853.78	3245
853.914	3112
854.048	3097
854.183	3077
854.317	3112
854.451	3256
854.585	3169
854.72	3123
854.854	3207
854.988	3055
855.122	3119
855.256	2960
855.39	3097
855.524	3260
855.658	3199
855.792	3165
855.926	3169
856.06	3218
856.194	3253
856.327	3127
856.461	3097
856.595	3119
856.729	3051
856.862	3214
856.996	3135
857.13	3211
857.263	3230
857.397	3275
857.53	3127
857.664	3203
857.797	3237
857.931	3275
858.064	3150
858.197	3195
858.331	3127
858.464	3108
858.597	3017
858.731	3138
858.864	3146
858.997	3074
859.13	3161
859.263	3169
859.396	3249
859.529	3085
859.662	3062
859.795	3032
859.928	3119
860.061	3253
860.194	3298
860.327	3119
860.46	3104
860.592	3249
860.725	3230
860.858	3291
860.99	3150
861.123	3039
861.256	3036
861.388	3131
861.521	3865
861.653	3055
861.786	2918
861.918	3047
862.05	3058
862.183	3085
862.315	3173
862.447	3222
862.58	3135
862.712	2922
862.844	2880
862.976	3024
863.108	3005
863.24	3298
863.372	2906
863.504	2982
863.636	2971
863.768	3047
863.9	2986
864.032	2868
864.164	2960
864.296	2998
864.428	3074
864.559	3093
864.691	3077
864.823	3081
864.954	3020
865.086	3051
865.217	2994
865.349	2956
865.48	3017
865.612	3009
865.743	3104
865.875	2982
866.006	2971
866.137	2956
866.269	2975
866.4	2941
866.531	2925
866.662	2902
866.793	2872
866.924	2906
867.055	2967
867.186	2948
867.317	2902
867.448	2895
867.579	2838
867.71	2857
867.841	2830
867.972	2880
868.103	2899
868.233	2864
868.364	2902
868.495	2887
868.625	3077
868.756	3131
868.886	2979
869.017	3028
869.147	3173
869.278	3173
869.408	3032
869.539	3017
869.669	3112
869.799	3074
869.929	3157
870.06	3112
870.19	3351
870.32	3272
870.45	3306
870.58	3367
870.71	3450
870.84	3435
870.97	3283
871.1	3268
871.23	3485
871.36	3431
871.489	3355
871.619	3428
871.749	3382
871.879	3469
872.008	3500
872.138	3329
872.267	3332
872.397	3131
872.526	3089
872.656	3005
872.785	3093
872.915	3211
873.044	3298
873.173	3233
873.303	3207
873.432	3214
873.561	3233
873.69	3188
873.819	3138
873.948	3173
874.077	3077
874.206	3089
874.335	3066
874.464	3237
874.593	3340
874.722	3245
874.851	3397
874.979	3359
875.108	3313
875.237	3211
875.365	3188
875.494	3169
875.623	3226
875.751	3074
875.88	3135
876.008	3161
876.136	3245
876.265	3389
876.393	3534
876.521	3431
876.65	3397
876.778	3355
876.906	3264
877.034	3237
877.162	3207
877.29	3188
877.418	3230
877.546	3260
877.674	3218
877.802	3272
877.93	3256
878.058	3157
878.185	3116
878.313	3214
878.441	3195
878.568	3070
878.696	3131
878.824	3264
878.951	3302
879.079	3439
879.206	3663
879.333	3420
879.461	3329
879.588	3359
879.715	3469
879.842	3606
879.97	3409
880.097	3154
880.224	3108
880.351	3192
880.478	3230
880.605	3169
880.732	3188
880.859	3485
880.986	3329
881.112	3348
881.239	3195
881.366	3127
881.493	3070
881.619	3032
881.746	3119
881.872	3077
881.999	3119
882.125	3192
882.252	3245
882.378	3268
882.505	3439
882.631	3291
882.757	3169
882.883	3230
883.01	3188
883.136	3150
883.262	3116
883.388	3112
883.514	3344
883.64	3374
883.766	3275
883.892	3188
884.018	3230
884.143	3447
884.269	3587
884.395	3237
884.52	3154
884.646	3226
884.772	3108
884.897	3104
885.023	3203
885.148	3321
885.274	3409
885.399	3374
885.524	3260
885.65	3272
885.775	3321
885.9	3298
886.025	3397
886.15	3351
886.275	3260
886.4	3272
886.525	3325
886.65	3287
886.775	3241
886.9	3492
887.025	3595
887.149	3435
887.274	3275
887.399	3184
887.523	3192
887.648	3214
887.773	3199
887.897	3351
888.021	3393
888.146	3310
888.27	3431
888.395	3526
888.519	3439
888.643	3412
888.767	3462
888.891	3332
889.015	3233
889.139	3279
889.263	3256
889.387	3389
889.511	3492
889.635	3454
889.759	3279
889.883	3264
890.006	3393
890.13	3507
890.254	3249
890.377	3321
890.501	3230
890.624	3184
890.748	3245
890.871	3165
890.995	3131
891.118	3070
891.241	3195
891.364	3207
891.488	3332
891.611	3180
891.734	3230
891.857	3306
891.98	3230
892.103	3336
892.226	3287
892.349	3237
892.471	3123
892.594	3195
892.717	3302
892.839	3283
892.962	3287
893.085	3389
893.207	3279
893.33	3116
893.452	3195
893.575	3336
893.697	3249
893.819	3477
893.941	3492
894.064	3469
894.186	3268
894.308	3268
894.43	3443
894.552	3496
894.674	3485
894.796	3283
894.918	3321
895.04	3264
895.161	3386
895.283	3401
895.405	3275
895.526	3405
895.648	3416
895.769	3412
895.891	3488
896.012	3481
896.134	3450
896.255	3428
896.376	3397
896.498	3374
896.619	3450
896.74	3321
896.861	3386
896.982	3656
897.103	3831
897.224	3587
897.345	3500
897.466	3416
897.587	3488
897.708	3648
897.828	3564
897.949	3450
898.07	3351
898.19	3447
898.311	3625
898.431	3435
898.552	3481
898.672	3629
898.792	3568
898.913	3500
899.033	3412
899.153	3272
899.273	3241
899.393	3283
899.513	3298
899.633	3332
899.753	3344
899.873	3310
899.993	3386
900.113	3325
900.232	3363
900.352	3355
900.472	3272
900.591	3218
900.711	3294
900.83	3256
900.95	3405
901.069	3496
901.189	3344
901.308	3176
901.427	3138
901.546	3192
901.665	3291
901.784	3355
901.904	3207
902.023	3138
902.141	2998
902.26	2990
902.379	3135
902.498	3100
902.617	3039
902.735	3199
902.854	3233
902.973	3214
903.091	3047
903.21	3070
903.328	3150
903.446	3093
903.565	3119
903.683	3195
903.801	3169
903.919	3249
904.038	3268
904.156	3131
904.274	3306
904.392	3245
904.51	3298
904.627	3313
904.745	3485
904.863	3496
904.981	3253
905.098	3154
905.216	3203
905.334	3294
905.451	3291
905.569	3313
905.686	3428
905.803	3424
905.921	3279
906.038	3443
906.155	3310
906.272	3268
906.389	3359
906.506	3233
906.623	3249
906.74	3283
906.857	3192
906.974	3249
907.091	3462
907.208	3557
907.324	3466
907.441	3401
907.557	3249
907.674	3268
907.79	3176
907.907	3275
908.023	3393
908.139	3348
908.256	3336
908.372	3367
908.488	3389
908.604	3226
908.72	3233
908.836	3272
908.952	3275
909.068	3363
909.184	3488
909.3	3389
909.415	3481
909.531	3492
909.647	3313
909.762	3287
909.878	3287
909.993	3329
910.108	3355
910.224	3374
910.339	3435
910.454	3317
910.57	3279
910.685	3195
910.8	3610
910.915	3557
911.03	3435
911.145	3264
911.259	3272
911.374	3313
911.489	3233
911.604	3245
911.718	3097
911.833	3180
911.947	3036
912.062	2967
912.176	3188
912.291	3192
912.405	3211
912.519	3443
912.633	3485
912.748	3348
912.862	3310
912.976	3127
913.09	3058
913.204	3154
913.318	3199
913.431	3363
913.545	3359
913.659	3409
913.772	3363
913.886	3226
914	3222
914.113	3378
914.226	3397
914.34	3325
914.453	3245
914.566	3431
914.68	3298
914.793	3317
914.906	3150
915.019	3142
915.132	3081
915.245	3165
915.358	3169
915.47	3211
915.583	3279
915.696	3279
915.809	3462
915.921	3412
916.034	3283
916.146	3241
916.259	3199
916.371	3367
916.483	3378
916.595	3264
916.708	3332
916.82	3332
916.932	3348
917.044	3355
917.156	3412
917.268	3230
917.38	3279
917.491	3313
917.603	3348
917.715	3435
917.826	3477
917.938	3359
918.049	3283
918.161	3447
918.272	3564
918.384	3614
918.495	3496
918.606	3325
918.717	3298
918.828	3359
918.939	3386
919.05	3294
919.161	3378
919.272	3199
919.383	3279
919.494	3553
919.604	3641
919.715	3511
919.826	3389
919.936	3458
920.047	3599
920.157	3542
920.267	3781
920.378	3618
920.488	3564
920.598	3823
920.708	3991
920.818	3823
920.928	3854
921.038	4044
921.148	3960
921.258	3713
921.368	3656
921.477	3595
921.587	3553
921.697	3450
921.806	3580
921.916	3515
922.025	3355
922.134	3359
922.244	3336
922.353	3424
922.462	3317
922.571	3245
922.68	3112
922.789	3055
922.898	3131
923.007	3108
923.116	3184
923.224	3192
923.333	3222
923.442	3112
923.55	3085
923.659	3150
923.767	3207
923.876	3123
923.984	3207
924.092	3100
924.201	3173
924.309	3203
924.417	3241
924.525	3180
924.633	3237
924.741	4185
924.849	3058
924.956	3302
925.064	3119
925.172	3032
925.279	3119
925.387	3188
925.494	3203
925.602	3363
925.709	3355
925.816	3199
925.924	3325
926.031	3382
926.138	3329
926.245	3336
926.352	3245
926.459	3393
926.566	3439
926.673	3332
926.779	3272
926.886	3253
926.993	3157
927.099	3127
927.206	3138
927.312	3097
927.419	3222
927.525	3222
927.631	3298
927.737	3165
927.843	3119
927.95	3058
928.056	3123
928.162	3173
928.267	3253
928.373	3903
928.479	3336
928.585	3051
928.69	3214
928.796	3298
928.901	3176
929.007	3104
929.112	3214
929.218	3176
929.323	3161
929.428	3180
929.533	3310
929.638	3157
929.743	3173
929.848	3287
929.953	3207
930.058	3142
930.163	2998
930.267	3055
930.372	3199
930.477	3039
930.581	3355
930.685	3199
930.79	3062
930.894	3135
930.998	3135
931.103	3302
931.207	2971
931.311	2918
931.415	2910
931.519	2727
931.623	2796
