Data from test_V78500241_71.txt Node
Date: Fri Mar 25 16:15:41 CST 2022
User: usil
Spectrometer: V785-0024
Trigger mode: 0
Integration Time (sec): 4.000000E-1
Scans to average: 1
Nonlinearity correction enabled: false
Boxcar width: 0
Storing dark spectrum: false
XAxis mode: Wavelengths
Number of Pixels in Spectrum: 1024
>>>>>Begin Spectral Data<<<<<
801.071	2982
801.214	2979
801.356	2941
801.499	2944
801.641	2914
801.783	2944
801.926	3070
802.068	3017
802.211	3020
802.353	3119
802.496	3020
802.638	3070
802.78	3085
802.923	3127
803.065	3077
803.208	2902
803.35	2944
803.492	2952
803.635	2948
803.777	2800
803.919	2876
804.061	3241
804.204	3001
804.346	2967
804.488	2876
804.63	2963
804.773	2922
804.915	2960
805.057	3119
805.199	2971
805.341	3020
805.483	3070
805.626	3070
805.768	3017
805.91	3127
806.052	3146
806.194	3085
806.336	3260
806.478	3051
806.62	2952
806.762	3009
806.904	3039
807.046	3207
807.188	2990
807.33	2933
807.472	3039
807.614	2975
807.756	3020
807.898	2975
808.04	2941
808.182	3001
808.324	2994
808.465	2918
808.607	2922
808.749	2804
808.891	2872
809.033	3020
809.174	3017
809.316	2899
809.458	2925
809.6	2811
809.741	2823
809.883	2807
810.025	2864
810.166	2883
810.308	2899
810.45	2883
810.591	2826
810.733	2815
810.875	2876
811.016	2823
811.158	2819
811.299	2830
811.441	3005
811.582	2956
811.724	2853
811.865	2910
812.007	2960
812.148	2933
812.29	2880
812.431	2941
812.573	2990
812.714	2979
812.855	3097
812.997	3089
813.138	3097
813.279	3062
813.421	3005
813.562	2990
813.703	2914
813.845	2929
813.986	2785
814.127	2758
814.268	2838
814.41	2914
814.551	2880
814.692	2868
814.833	2849
814.974	2910
815.115	2952
815.256	2845
815.397	2861
815.539	2891
815.68	2807
815.821	2838
815.962	2960
816.103	2922
816.244	2883
816.385	2891
816.526	2994
816.666	2956
816.807	2807
816.948	2902
817.089	2929
817.23	2899
817.371	2796
817.512	2842
817.653	2842
817.793	2849
817.934	2929
818.075	2956
818.216	3009
818.356	3062
818.497	2880
818.638	2830
818.778	2834
818.919	2830
819.06	2762
819.2	2880
819.341	2842
819.481	2815
819.622	2948
819.762	3100
819.903	3081
820.043	2948
820.184	2933
820.324	2960
820.465	3043
820.605	3062
820.746	3066
820.886	2967
821.026	3154
821.167	3195
821.307	3294
821.447	3336
821.588	3298
821.728	3233
821.868	3241
822.008	3104
822.149	3230
822.289	3245
822.429	3138
822.569	3123
822.709	3253
822.849	3055
822.99	3127
823.13	3218
823.27	3237
823.41	3188
823.55	3176
823.69	3184
823.83	3245
823.97	3150
824.11	3020
824.25	3043
824.389	3089
824.529	3135
824.669	3112
824.809	3230
824.949	3245
825.089	3230
825.228	3203
825.368	3097
825.508	3039
825.648	3039
825.787	3028
825.927	3043
826.067	3017
826.206	3009
826.346	3066
826.485	3131
826.625	3161
826.765	3287
826.904	3279
827.044	3009
827.183	2967
827.323	2891
827.462	3009
827.601	2948
827.741	2986
827.88	2990
828.02	2906
828.159	2998
828.298	3062
828.437	3135
828.577	3062
828.716	3264
828.855	3131
828.994	2948
829.134	2906
829.273	2960
829.412	2914
829.551	2910
829.69	2952
829.829	3055
829.968	3131
830.107	3024
830.246	3051
830.385	2960
830.524	2902
830.663	2868
830.802	2750
830.941	2667
831.08	2678
831.219	2800
831.357	2781
831.496	3009
831.635	2735
831.774	2667
831.913	2689
832.051	2560
832.19	2606
832.329	2712
832.467	2579
832.606	2480
832.744	2575
832.883	2613
833.022	2549
833.16	2670
833.299	2746
833.437	2735
833.576	2735
833.714	2735
833.852	2785
833.991	2811
834.129	2872
834.267	2845
834.406	2819
834.544	2883
834.682	2876
834.821	2918
834.959	3097
835.097	2937
835.235	3081
835.373	3009
835.511	3058
835.65	2975
835.788	2967
835.926	2861
836.064	2811
836.202	2861
836.34	3135
836.478	3180
836.615	3047
836.753	3161
836.891	3207
837.029	3176
837.167	3176
837.305	3116
837.443	3074
837.58	2971
837.718	3176
837.856	3127
837.993	3104
838.131	3138
838.269	3131
838.406	3089
838.544	3081
838.681	2986
838.819	2960
838.956	2815
839.094	2830
839.231	2971
839.369	3036
839.506	3405
839.643	3237
839.781	3062
839.918	2937
840.055	3108
840.193	3055
840.33	3123
840.467	3154
840.604	3169
840.742	3439
840.879	3077
841.016	3062
841.153	3157
841.29	3374
841.427	3397
841.564	3279
841.701	3329
841.838	3199
841.975	3188
842.112	3241
842.249	3112
842.385	3077
842.522	3317
842.659	3127
842.796	3081
842.933	3138
843.069	3089
843.206	3039
843.343	3237
843.479	3112
843.616	3150
843.752	2937
843.889	2922
844.025	3104
844.162	2910
844.298	3142
844.435	3013
844.571	2941
844.708	3116
844.844	3230
844.98	3241
845.117	3256
845.253	3070
845.389	3039
845.525	3142
845.661	3169
845.798	3013
845.934	3138
846.07	3104
846.206	3245
846.342	3374
846.478	3310
846.614	3131
846.75	3097
846.886	3074
847.022	3256
847.158	3154
847.294	3245
847.429	3294
847.565	3222
847.701	3507
847.837	3039
847.972	3043
848.108	3211
848.244	3192
848.379	3020
848.515	2956
848.65	2941
848.786	3005
848.921	3009
849.057	3157
849.192	3192
849.328	3100
849.463	3154
849.598	3097
849.734	3070
849.869	3036
850.004	2956
850.14	3017
850.275	2918
850.41	2891
850.545	2922
850.68	2979
850.815	3020
850.95	3020
851.085	3256
851.22	3108
851.355	3055
851.49	3005
851.625	3058
851.76	3036
851.895	2944
852.03	2918
852.165	3043
852.299	3112
852.434	3211
852.569	3135
852.703	3214
852.838	3279
852.973	3340
853.107	3378
853.242	3237
853.376	3085
853.511	3043
853.645	3081
853.78	3226
853.914	3176
854.048	3142
854.183	3131
854.317	3188
854.451	3325
854.585	3146
854.72	3116
854.854	3256
854.988	3070
855.122	3138
855.256	2982
855.39	3123
855.524	3222
855.658	3230
855.792	3203
855.926	3218
856.06	3222
856.194	3272
856.327	3146
856.461	3093
856.595	3100
856.729	3116
856.862	3211
856.996	3230
857.13	3233
857.263	3241
857.397	3287
857.53	3138
857.664	3192
857.797	3256
857.931	3294
858.064	3214
858.197	3256
858.331	3199
858.464	3123
858.597	3043
858.731	3161
858.864	3199
858.997	3150
859.13	3176
859.263	3222
859.396	3245
859.529	3093
859.662	3085
859.795	3077
859.928	3195
860.061	3306
860.194	3336
860.327	3165
860.46	3077
860.592	3222
860.725	3298
860.858	3294
860.99	3112
861.123	3081
861.256	3058
861.388	3138
861.521	3835
861.653	3017
861.786	3028
861.918	3017
862.05	3112
862.183	3100
862.315	3173
862.447	3260
862.58	3150
862.712	2975
862.844	2914
862.976	3032
863.108	3032
863.24	3336
863.372	2883
863.504	2975
863.636	2956
863.768	3051
863.9	3036
864.032	2944
864.164	2975
864.296	3028
864.428	3142
864.559	3119
864.691	3108
864.823	3085
864.954	3028
865.086	3024
865.217	3020
865.349	2963
865.48	3009
865.612	3062
865.743	3207
865.875	3005
866.006	2982
866.137	2994
866.269	3001
866.4	2952
866.531	2929
866.662	2895
866.793	2929
866.924	2918
867.055	2979
867.186	2910
867.317	2902
867.448	2868
867.579	2864
867.71	2872
867.841	2845
867.972	2922
868.103	2933
868.233	2895
868.364	2887
868.495	2956
868.625	3138
868.756	3207
868.886	2986
869.017	3062
869.147	3165
869.278	3203
869.408	3085
869.539	3058
869.669	3157
869.799	3081
869.929	3157
870.06	3135
870.19	3348
870.32	3298
870.45	3321
870.58	3393
870.71	3507
870.84	3458
870.97	3336
871.1	3249
871.23	3488
871.36	3466
871.489	3401
871.619	3439
871.749	3416
871.879	3511
872.008	3507
872.138	3378
872.267	3329
872.397	3203
872.526	3112
872.656	3051
872.785	3108
872.915	3233
873.044	3348
873.173	3260
873.303	3287
873.432	3241
873.561	3249
873.69	3161
873.819	3169
873.948	3233
874.077	3154
874.206	3020
874.335	3142
874.464	3218
874.593	3367
874.722	3287
874.851	3481
874.979	3367
875.108	3359
875.237	3222
875.365	3230
875.494	3207
875.623	3283
875.751	3100
875.88	3150
876.008	3203
876.136	3253
876.265	3374
876.393	3542
876.521	3458
876.65	3485
876.778	3351
876.906	3272
877.034	3237
877.162	3237
877.29	3226
877.418	3283
877.546	3268
877.674	3287
877.802	3272
877.93	3272
878.058	3161
878.185	3169
878.313	3272
878.441	3241
878.568	3127
878.696	3180
878.824	3264
878.951	3306
879.079	3458
879.206	3637
879.333	3466
879.461	3355
879.588	3409
879.715	3526
879.842	3618
879.97	3458
880.097	3214
880.224	3180
880.351	3237
880.478	3253
880.605	3222
880.732	3211
880.859	3530
880.986	3351
881.112	3370
881.239	3245
881.366	3119
881.493	3047
881.619	3074
881.746	3062
881.872	3089
881.999	3119
882.125	3165
882.252	3332
882.378	3325
882.505	3462
882.631	3306
882.757	3203
882.883	3283
883.01	3287
883.136	3211
883.262	3150
883.388	3142
883.514	3325
883.64	3409
883.766	3359
883.892	3214
884.018	3249
884.143	3462
884.269	3584
884.395	3279
884.52	3237
884.646	3195
884.772	3154
884.897	3135
885.023	3245
885.148	3336
885.274	3458
885.399	3386
885.524	3325
885.65	3294
885.775	3363
885.9	3321
886.025	3462
886.15	3409
886.275	3302
886.4	3306
886.525	3325
886.65	3329
886.775	3351
886.9	3500
887.025	3682
887.149	3458
887.274	3294
887.399	3207
887.523	3203
887.648	3249
887.773	3245
887.897	3401
888.021	3450
888.146	3272
888.27	3485
888.395	3580
888.519	3477
888.643	3458
888.767	3481
888.891	3348
889.015	3279
889.139	3310
889.263	3241
889.387	3454
889.511	3519
889.635	3511
889.759	3336
889.883	3348
890.006	3409
890.13	3549
890.254	3260
890.377	3359
890.501	3237
890.624	3222
890.748	3367
890.871	3199
890.995	3142
891.118	3119
891.241	3249
891.364	3241
891.488	3344
891.611	3218
891.734	3245
891.857	3321
891.98	3268
892.103	3401
892.226	3317
892.349	3230
892.471	3157
892.594	3287
892.717	3351
892.839	3313
892.962	3306
893.085	3378
893.207	3325
893.33	3203
893.452	3256
893.575	3363
893.697	3275
893.819	3519
893.941	3564
894.064	3538
894.186	3317
894.308	3317
894.43	3454
894.552	3530
894.674	3515
894.796	3291
894.918	3321
895.04	3310
895.161	3424
895.283	3378
895.405	3374
895.526	3393
895.648	3481
895.769	3496
895.891	3481
896.012	3526
896.134	3519
896.255	3435
896.376	3424
896.498	3374
896.619	3477
896.74	3447
896.861	3405
896.982	3690
897.103	3850
897.224	3675
897.345	3545
897.466	3447
897.587	3534
897.708	3690
897.828	3591
897.949	3447
898.07	3367
898.19	3443
898.311	3679
898.431	3473
898.552	3553
898.672	3629
898.792	3622
898.913	3576
899.033	3416
899.153	3294
899.273	3237
899.393	3329
899.513	3359
899.633	3344
899.753	3348
899.873	3329
899.993	3431
900.113	3382
900.232	3439
900.352	3359
900.472	3306
900.591	3233
900.711	3336
900.83	3264
900.95	3439
901.069	3523
901.189	3386
901.308	3188
901.427	3192
901.546	3222
901.665	3340
901.784	3355
901.904	3237
902.023	3184
902.141	3070
902.26	3001
902.379	3169
902.498	3146
902.617	3104
902.735	3253
902.854	3241
902.973	3222
903.091	3066
903.21	3070
903.328	3173
903.446	3138
903.565	3154
903.683	3283
903.801	3127
903.919	3256
904.038	3348
904.156	3211
904.274	3321
904.392	3291
904.51	3344
904.627	3355
904.745	3469
904.863	3564
904.981	3317
905.098	3237
905.216	3302
905.334	3317
905.451	3359
905.569	3310
905.686	3450
905.803	3492
905.921	3302
906.038	3450
906.155	3374
906.272	3275
906.389	3359
906.506	3245
906.623	3294
906.74	3298
906.857	3233
906.974	3264
907.091	3477
907.208	3614
907.324	3519
907.441	3401
907.557	3249
907.674	3260
907.79	3249
907.907	3351
908.023	3424
908.139	3416
908.256	3405
908.372	3409
908.488	3405
908.604	3294
908.72	3272
908.836	3340
908.952	3325
909.068	3389
909.184	3485
909.3	3431
909.415	3538
909.531	3504
909.647	3306
909.762	3287
909.878	3275
909.993	3420
910.108	3363
910.224	3374
910.339	3454
910.454	3397
910.57	3348
910.685	3260
910.8	3629
910.915	3587
911.03	3523
911.145	3249
911.259	3313
911.374	3367
911.489	3275
911.604	3283
911.718	3135
911.833	3199
911.947	3062
912.062	3074
912.176	3176
912.291	3268
912.405	3233
912.519	3439
912.633	3485
912.748	3386
912.862	3336
912.976	3203
913.09	3089
913.204	3173
913.318	3279
913.431	3374
913.545	3397
913.659	3488
913.772	3363
913.886	3256
914	3218
914.113	3389
914.226	3424
914.34	3397
914.453	3230
914.566	3439
914.68	3348
914.793	3370
914.906	3188
915.019	3157
915.132	3097
915.245	3230
915.358	3245
915.47	3298
915.583	3294
915.696	3332
915.809	3412
915.921	3447
916.034	3310
916.146	3291
916.259	3264
916.371	3401
916.483	3363
916.595	3325
916.708	3386
916.82	3374
916.932	3386
917.044	3370
917.156	3412
917.268	3344
917.38	3317
917.491	3329
917.603	3397
917.715	3500
917.826	3496
917.938	3431
918.049	3325
918.161	3473
918.272	3614
918.384	3606
918.495	3507
918.606	3386
918.717	3264
918.828	3416
918.939	3416
919.05	3321
919.161	3454
919.272	3230
919.383	3348
919.494	3530
919.604	3698
919.715	3580
919.826	3462
919.936	3481
920.047	3637
920.157	3652
920.267	3770
920.378	3667
920.488	3595
920.598	3808
920.708	3987
920.818	3838
920.928	3884
921.038	4059
921.148	4048
921.258	3690
921.368	3675
921.477	3587
921.587	3610
921.697	3526
921.806	3694
921.916	3534
922.025	3389
922.134	3428
922.244	3367
922.353	3469
922.462	3298
922.571	3237
922.68	3135
922.789	3119
922.898	3192
923.007	3119
923.116	3256
923.224	3207
923.333	3214
923.442	3135
923.55	3146
923.659	3165
923.767	3249
923.876	3138
923.984	3253
924.092	3146
924.201	3272
924.309	3245
924.417	3321
924.525	3203
924.633	3226
924.741	4249
924.849	3104
924.956	3332
925.064	3165
925.172	3058
925.279	3127
925.387	3203
925.494	3260
925.602	3378
925.709	3321
925.816	3222
925.924	3325
926.031	3431
926.138	3359
926.245	3420
926.352	3279
926.459	3424
926.566	3477
926.673	3340
926.779	3268
926.886	3253
926.993	3207
927.099	3123
927.206	3150
927.312	3188
927.419	3268
927.525	3237
927.631	3310
927.737	3165
927.843	3207
927.95	3047
928.056	3165
928.162	3207
928.267	3302
928.373	3812
928.479	3332
928.585	3100
928.69	3275
928.796	3287
928.901	3214
929.007	3089
929.112	3241
929.218	3222
929.323	3146
929.428	3199
929.533	3363
929.638	3131
929.743	3184
929.848	3332
929.953	3272
930.058	3214
930.163	2998
930.267	3051
930.372	3218
930.477	3047
930.581	3370
930.685	3237
930.79	3085
930.894	3169
930.998	3100
931.103	3329
931.207	2986
931.311	2963
931.415	2937
931.519	2792
931.623	2845
