Data from test_V78500241_713.txt Node
Date: Fri Mar 25 16:20:08 CST 2022
User: usil
Spectrometer: V785-0024
Trigger mode: 0
Integration Time (sec): 4.000000E-1
Scans to average: 1
Nonlinearity correction enabled: false
Boxcar width: 0
Storing dark spectrum: false
XAxis mode: Wavelengths
Number of Pixels in Spectrum: 1024
>>>>>Begin Spectral Data<<<<<
801.071	2948
801.214	2963
801.356	2937
801.499	2925
801.641	2910
801.783	2902
801.926	3062
802.068	3028
802.211	3043
802.353	3039
802.496	2971
802.638	3032
802.78	3093
802.923	3062
803.065	3013
803.208	2929
803.35	2971
803.492	2944
803.635	2963
803.777	2800
803.919	2906
804.061	3214
804.204	2960
804.346	2937
804.488	2880
804.63	2986
804.773	2891
804.915	2925
805.057	3085
805.199	2975
805.341	3028
805.483	3055
805.626	3005
805.768	3005
805.91	3142
806.052	3146
806.194	3051
806.336	3256
806.478	3032
806.62	2963
806.762	2986
806.904	3081
807.046	3169
807.188	3005
807.33	2929
807.472	3020
807.614	2956
807.756	2998
807.898	2944
808.04	2918
808.182	2986
808.324	2975
808.465	2925
808.607	2918
808.749	2826
808.891	2876
809.033	2960
809.174	2990
809.316	2899
809.458	2899
809.6	2800
809.741	2807
809.883	2785
810.025	2883
810.166	2842
810.308	2823
810.45	2876
810.591	2796
810.733	2800
810.875	2834
811.016	2785
811.158	2788
811.299	2868
811.441	2963
811.582	2895
811.724	2826
811.865	2838
812.007	2929
812.148	2929
812.29	2849
812.431	2880
812.573	2933
812.714	2963
812.855	3055
812.997	3097
813.138	3157
813.279	2998
813.421	3005
813.562	2990
813.703	2899
813.845	2887
813.986	2781
814.127	2777
814.268	2830
814.41	2838
814.551	2830
814.692	2883
814.833	2826
814.974	2918
815.115	2960
815.256	2868
815.397	2811
815.539	2876
815.68	2830
815.821	2811
815.962	2967
816.103	2952
816.244	2902
816.385	2887
816.526	3001
816.666	2948
816.807	2777
816.948	2887
817.089	2914
817.23	2899
817.371	2815
817.512	2823
817.653	2872
817.793	2868
817.934	2914
818.075	2960
818.216	2982
818.356	3039
818.497	2891
818.638	2826
818.778	2838
818.919	2826
819.06	2754
819.2	2883
819.341	2838
819.481	2842
819.622	2952
819.762	3119
819.903	3062
820.043	2944
820.184	2929
820.324	2906
820.465	3036
820.605	3039
820.746	3066
820.886	2944
821.026	3077
821.167	3180
821.307	3241
821.447	3302
821.588	3268
821.728	3241
821.868	3214
822.008	3066
822.149	3214
822.289	3245
822.429	3081
822.569	3100
822.709	3188
822.849	3043
822.99	3043
823.13	3154
823.27	3245
823.41	3135
823.55	3192
823.69	3157
823.83	3176
823.97	3119
824.11	3020
824.25	3020
824.389	3081
824.529	3154
824.669	3074
824.809	3188
824.949	3253
825.089	3226
825.228	3157
825.368	2994
825.508	2967
825.648	2944
825.787	3017
825.927	3020
826.067	2979
826.206	2960
826.346	3062
826.485	3074
826.625	3108
826.765	3313
826.904	3222
827.044	3017
827.183	2933
827.323	2864
827.462	2956
827.601	2914
827.741	2960
827.88	2982
828.02	2842
828.159	2982
828.298	3058
828.437	3119
828.577	3051
828.716	3245
828.855	3100
828.994	2967
829.134	2887
829.273	2914
829.412	2880
829.551	2861
829.69	2902
829.829	2994
829.968	3131
830.107	3047
830.246	3028
830.385	2956
830.524	2910
830.663	2800
830.802	2739
830.941	2667
831.08	2670
831.219	2754
831.357	2769
831.496	2967
831.635	2735
831.774	2667
831.913	2663
832.051	2537
832.19	2629
832.329	2686
832.467	2556
832.606	2484
832.744	2602
832.883	2629
833.022	2594
833.16	2674
833.299	2697
833.437	2716
833.576	2663
833.714	2739
833.852	2773
833.991	2766
834.129	2864
834.267	2834
834.406	2804
834.544	2887
834.682	2899
834.821	2864
834.959	3058
835.097	2922
835.235	3047
835.373	3009
835.511	3024
835.65	2937
835.788	2960
835.926	2842
836.064	2823
836.202	2861
836.34	3123
836.478	3157
836.615	3066
836.753	3119
836.891	3203
837.029	3146
837.167	3085
837.305	3081
837.443	3093
837.58	2982
837.718	3142
837.856	3093
837.993	3043
838.131	3123
838.269	3093
838.406	3112
838.544	3112
838.681	2937
838.819	2929
838.956	2834
839.094	2834
839.231	2925
839.369	3043
839.506	3336
839.643	3199
839.781	3009
839.918	2925
840.055	3074
840.193	3028
840.33	3100
840.467	3097
840.604	3116
840.742	3393
840.879	3066
841.016	3058
841.153	3100
841.29	3340
841.427	3268
841.564	3283
841.701	3351
841.838	3203
841.975	3154
842.112	3207
842.249	3104
842.385	3081
842.522	3272
842.659	3119
842.796	3047
842.933	3142
843.069	3047
843.206	3043
843.343	3180
843.479	3138
843.616	3123
843.752	2872
843.889	2895
844.025	3055
844.162	2887
844.298	3112
844.435	2967
844.571	2956
844.708	3055
844.844	3173
844.98	3253
845.117	3230
845.253	3062
845.389	2994
845.525	3104
845.661	3119
845.798	2998
845.934	3142
846.07	3089
846.206	3218
846.342	3313
846.478	3230
846.614	3116
846.75	3047
846.886	3024
847.022	3268
847.158	3123
847.294	3199
847.429	3291
847.565	3230
847.701	3496
847.837	3043
847.972	3013
848.108	3157
848.244	3165
848.379	2967
848.515	2933
848.65	2944
848.786	2967
848.921	3036
849.057	3074
849.192	3146
849.328	3108
849.463	3070
849.598	3089
849.734	3013
849.869	2994
850.004	2933
850.14	2967
850.275	2906
850.41	2838
850.545	2910
850.68	2914
850.815	2937
850.95	2948
851.085	3176
851.22	3116
851.355	3051
851.49	2963
851.625	3005
851.76	3013
851.895	2902
852.03	2902
852.165	3039
852.299	3112
852.434	3165
852.569	3169
852.703	3211
852.838	3245
852.973	3336
853.107	3344
853.242	3135
853.376	3039
853.511	2971
853.645	3047
853.78	3233
853.914	3169
854.048	3097
854.183	3043
854.317	3123
854.451	3321
854.585	3135
854.72	3100
854.854	3222
854.988	3028
855.122	3119
855.256	2986
855.39	3142
855.524	3214
855.658	3173
855.792	3146
855.926	3211
856.06	3211
856.194	3230
856.327	3127
856.461	3036
856.595	3104
856.729	3077
856.862	3203
856.996	3138
857.13	3214
857.263	3237
857.397	3253
857.53	3104
857.664	3184
857.797	3211
857.931	3241
858.064	3165
858.197	3233
858.331	3119
858.464	3074
858.597	3036
858.731	3112
858.864	3131
858.997	3089
859.13	3138
859.263	3154
859.396	3253
859.529	3100
859.662	3074
859.795	2994
859.928	3176
860.061	3241
860.194	3268
860.327	3142
860.46	3100
860.592	3218
860.725	3275
860.858	3298
860.99	3093
861.123	3058
861.256	3058
861.388	3142
861.521	3915
861.653	3032
861.786	2994
861.918	2975
862.05	3066
862.183	3077
862.315	3176
862.447	3237
862.58	3066
862.712	2982
862.844	2857
862.976	3001
863.108	2986
863.24	3409
863.372	2887
863.504	2982
863.636	2960
863.768	3024
863.9	2963
864.032	2914
864.164	2891
864.296	3020
864.428	3047
864.559	3116
864.691	3097
864.823	3036
864.954	2967
865.086	3032
865.217	3028
865.349	2944
865.48	2982
865.612	3017
865.743	3150
865.875	2990
866.006	2948
866.137	2994
866.269	2937
866.4	2948
866.531	2937
866.662	2891
866.793	2899
866.924	2902
867.055	2967
867.186	2891
867.317	2891
867.448	2826
867.579	2864
867.71	2853
867.841	2842
867.972	2895
868.103	2933
868.233	2925
868.364	2864
868.495	2925
868.625	3066
868.756	3146
868.886	2956
869.017	3017
869.147	3180
869.278	3146
869.408	3043
869.539	3020
869.669	3119
869.799	2975
869.929	3131
870.06	3074
870.19	3332
870.32	3264
870.45	3298
870.58	3348
870.71	3420
870.84	3488
870.97	3268
871.1	3256
871.23	3519
871.36	3458
871.489	3348
871.619	3363
871.749	3329
871.879	3477
872.008	3450
872.138	3378
872.267	3245
872.397	3173
872.526	3089
872.656	3058
872.785	3104
872.915	3272
873.044	3287
873.173	3214
873.303	3226
873.432	3264
873.561	3230
873.69	3165
873.819	3123
873.948	3180
874.077	3131
874.206	3032
874.335	3058
874.464	3207
874.593	3370
874.722	3237
874.851	3420
874.979	3359
875.108	3313
875.237	3161
875.365	3127
875.494	3161
875.623	3222
875.751	3062
875.88	3097
876.008	3161
876.136	3203
876.265	3367
876.393	3473
876.521	3393
876.65	3405
876.778	3325
876.906	3222
877.034	3203
877.162	3241
877.29	3203
877.418	3222
877.546	3184
877.674	3253
877.802	3237
877.93	3214
878.058	3138
878.185	3112
878.313	3218
878.441	3233
878.568	3062
878.696	3154
878.824	3226
878.951	3317
879.079	3401
879.206	3595
879.333	3439
879.461	3332
879.588	3336
879.715	3473
879.842	3591
879.97	3370
880.097	3169
880.224	3100
880.351	3142
880.478	3184
880.605	3188
880.732	3192
880.859	3481
880.986	3313
881.112	3306
881.239	3199
881.366	3089
881.493	3047
881.619	3005
881.746	3074
881.872	3112
881.999	3123
882.125	3146
882.252	3260
882.378	3294
882.505	3435
882.631	3310
882.757	3165
882.883	3233
883.01	3214
883.136	3154
883.262	3138
883.388	3127
883.514	3325
883.64	3321
883.766	3283
883.892	3180
884.018	3226
884.143	3412
884.269	3538
884.395	3195
884.52	3180
884.646	3184
884.772	3123
884.897	3093
885.023	3195
885.148	3298
885.274	3428
885.399	3367
885.524	3241
885.65	3256
885.775	3283
885.9	3275
886.025	3397
886.15	3359
886.275	3287
886.4	3298
886.525	3317
886.65	3249
886.775	3294
886.9	3469
887.025	3644
887.149	3393
887.274	3272
887.399	3180
887.523	3195
887.648	3199
887.773	3184
887.897	3351
888.021	3409
888.146	3294
888.27	3450
888.395	3568
888.519	3450
888.643	3458
888.767	3466
888.891	3321
889.015	3218
889.139	3260
889.263	3272
889.387	3412
889.511	3515
889.635	3466
889.759	3294
889.883	3264
890.006	3401
890.13	3488
890.254	3237
890.377	3306
890.501	3188
890.624	3192
890.748	3283
890.871	3165
890.995	3135
891.118	3074
891.241	3173
891.364	3237
891.488	3313
891.611	3188
891.734	3207
891.857	3283
891.98	3272
892.103	3370
892.226	3275
892.349	3237
892.471	3055
892.594	3256
892.717	3313
892.839	3260
892.962	3298
893.085	3351
893.207	3310
893.33	3123
893.452	3203
893.575	3313
893.697	3253
893.819	3454
893.941	3564
894.064	3431
894.186	3260
894.308	3264
894.43	3428
894.552	3511
894.674	3473
894.796	3264
894.918	3321
895.04	3321
895.161	3401
895.283	3409
895.405	3294
895.526	3359
895.648	3389
895.769	3435
895.891	3450
896.012	3473
896.134	3458
896.255	3420
896.376	3374
896.498	3355
896.619	3405
896.74	3378
896.861	3370
896.982	3663
897.103	3793
897.224	3606
897.345	3492
897.466	3416
897.587	3504
897.708	3656
897.828	3545
897.949	3477
898.07	3363
898.19	3393
898.311	3584
898.431	3409
898.552	3458
898.672	3591
898.792	3587
898.913	3511
899.033	3401
899.153	3302
899.273	3222
899.393	3272
899.513	3310
899.633	3310
899.753	3306
899.873	3283
899.993	3374
900.113	3291
900.232	3393
900.352	3340
900.472	3294
900.591	3192
900.711	3264
900.83	3214
900.95	3382
901.069	3477
901.189	3336
901.308	3165
901.427	3154
901.546	3211
901.665	3249
901.784	3344
901.904	3199
902.023	3123
902.141	3001
902.26	2979
902.379	3203
902.498	3077
902.617	3058
902.735	3184
902.854	3245
902.973	3161
903.091	3047
903.21	3028
903.328	3146
903.446	3085
903.565	3077
903.683	3192
903.801	3089
903.919	3203
904.038	3283
904.156	3180
904.274	3230
904.392	3211
904.51	3241
904.627	3310
904.745	3431
904.863	3492
904.981	3302
905.098	3173
905.216	3226
905.334	3291
905.451	3268
905.569	3313
905.686	3416
905.803	3439
905.921	3275
906.038	3405
906.155	3367
906.272	3268
906.389	3363
906.506	3245
906.623	3260
906.74	3279
906.857	3184
906.974	3230
907.091	3481
907.208	3591
907.324	3443
907.441	3344
907.557	3207
907.674	3230
907.79	3195
907.907	3256
908.023	3370
908.139	3329
908.256	3351
908.372	3348
908.488	3348
908.604	3241
908.72	3214
908.836	3306
908.952	3264
909.068	3306
909.184	3473
909.3	3389
909.415	3504
909.531	3473
909.647	3313
909.762	3272
909.878	3245
909.993	3367
910.108	3329
910.224	3363
910.339	3428
910.454	3336
910.57	3275
910.685	3256
910.8	3591
910.915	3523
911.03	3412
911.145	3249
911.259	3268
911.374	3291
911.489	3275
911.604	3203
911.718	3123
911.833	3184
911.947	3039
912.062	3009
912.176	3184
912.291	3184
912.405	3195
912.519	3382
912.633	3473
912.748	3329
912.862	3298
912.976	3157
913.09	3077
913.204	3154
913.318	3207
913.431	3332
913.545	3321
913.659	3439
913.772	3367
913.886	3237
914	3222
914.113	3382
914.226	3374
914.34	3367
914.453	3245
914.566	3454
914.68	3287
914.793	3298
914.906	3142
915.019	3085
915.132	3070
915.245	3173
915.358	3245
915.47	3230
915.583	3302
915.696	3310
915.809	3351
915.921	3435
916.034	3226
916.146	3245
916.259	3207
916.371	3363
916.483	3370
916.595	3260
916.708	3351
916.82	3321
916.932	3348
917.044	3351
917.156	3378
917.268	3279
917.38	3294
917.491	3294
917.603	3367
917.715	3447
917.826	3462
917.938	3393
918.049	3272
918.161	3401
918.272	3591
918.384	3553
918.495	3458
918.606	3291
918.717	3275
918.828	3382
918.939	3412
919.05	3279
919.161	3348
919.272	3184
919.383	3272
919.494	3496
919.604	3644
919.715	3473
919.826	3450
919.936	3458
920.047	3595
920.157	3523
920.267	3751
920.378	3572
920.488	3595
920.598	3751
920.708	3945
920.818	3819
920.928	3831
921.038	4021
921.148	3926
921.258	3759
921.368	3637
921.477	3564
921.587	3504
921.697	3450
921.806	3599
921.916	3549
922.025	3325
922.134	3351
922.244	3321
922.353	3420
922.462	3268
922.571	3222
922.68	3077
922.789	3047
922.898	3100
923.007	3066
923.116	3211
923.224	3157
923.333	3207
923.442	3089
923.55	3074
923.659	3112
923.767	3226
923.876	3123
923.984	3222
924.092	3066
924.201	3214
924.309	3226
924.417	3245
924.525	3176
924.633	3249
924.741	4230
924.849	3028
924.956	3256
925.064	3138
925.172	2998
925.279	3123
925.387	3192
925.494	3195
925.602	3348
925.709	3351
925.816	3192
925.924	3310
926.031	3363
926.138	3344
926.245	3359
926.352	3237
926.459	3443
926.566	3466
926.673	3268
926.779	3222
926.886	3218
926.993	3131
927.099	3112
927.206	3097
927.312	3119
927.419	3222
927.525	3203
927.631	3245
927.737	3142
927.843	3150
927.95	3036
928.056	3135
928.162	3150
928.267	3230
928.373	3873
928.479	3291
928.585	3066
928.69	3241
928.796	3272
928.901	3142
929.007	3047
929.112	3203
929.218	3161
929.323	3165
929.428	3135
929.533	3317
929.638	3097
929.743	3184
929.848	3268
929.953	3203
930.058	3138
930.163	3009
930.267	3074
930.372	3203
930.477	3017
930.581	3306
930.685	3176
930.79	3047
930.894	3093
930.998	3100
931.103	3279
931.207	2979
931.311	2948
931.415	2899
931.519	2781
931.623	2788
