Data from test_V78500241_322.txt Node
Date: Fri Mar 25 16:17:26 CST 2022
User: usil
Spectrometer: V785-0024
Trigger mode: 0
Integration Time (sec): 4.000000E-1
Scans to average: 1
Nonlinearity correction enabled: false
Boxcar width: 0
Storing dark spectrum: false
XAxis mode: Wavelengths
Number of Pixels in Spectrum: 1024
>>>>>Begin Spectral Data<<<<<
801.071	2963
801.214	2990
801.356	2910
801.499	2918
801.641	2906
801.783	2956
801.926	3097
802.068	2990
802.211	3036
802.353	3051
802.496	2967
802.638	3043
802.78	3047
802.923	3104
803.065	3039
803.208	2960
803.35	2975
803.492	2944
803.635	2937
803.777	2781
803.919	2895
804.061	3226
804.204	2975
804.346	2944
804.488	2864
804.63	3013
804.773	2922
804.915	2941
805.057	3127
805.199	2918
805.341	3020
805.483	3074
805.626	3024
805.768	2963
805.91	3112
806.052	3108
806.194	3100
806.336	3256
806.478	3066
806.62	2990
806.762	2998
806.904	3093
807.046	3195
807.188	3020
807.33	2944
807.472	3020
807.614	2914
807.756	2990
807.898	2937
808.04	2933
808.182	2990
808.324	2986
808.465	2925
808.607	2933
808.749	2823
808.891	2895
809.033	3005
809.174	2979
809.316	2910
809.458	2933
809.6	2811
809.741	2815
809.883	2777
810.025	2819
810.166	2880
810.308	2864
810.45	2887
810.591	2781
810.733	2788
810.875	2838
811.016	2758
811.158	2758
811.299	2823
811.441	2960
811.582	2899
811.724	2864
811.865	2830
812.007	2925
812.148	2895
812.29	2902
812.431	2925
812.573	2956
812.714	2960
812.855	3032
812.997	3062
813.138	3097
813.279	3028
813.421	2975
813.562	3005
813.703	2902
813.845	2933
813.986	2777
814.127	2773
814.268	2880
814.41	2811
814.551	2804
814.692	2883
814.833	2857
814.974	2899
815.115	2956
815.256	2834
815.397	2769
815.539	2849
815.68	2743
815.821	2826
815.962	2906
816.103	2925
816.244	2895
816.385	2876
816.526	2994
816.666	2895
816.807	2773
816.948	2933
817.089	2948
817.23	2868
817.371	2777
817.512	2823
817.653	2830
817.793	2849
817.934	2872
818.075	2990
818.216	2986
818.356	3032
818.497	2902
818.638	2819
818.778	2792
818.919	2834
819.06	2769
819.2	2887
819.341	2845
819.481	2815
819.622	2918
819.762	3108
819.903	3085
820.043	2967
820.184	2914
820.324	2895
820.465	3028
820.605	3039
820.746	3039
820.886	2937
821.026	3119
821.167	3173
821.307	3283
821.447	3294
821.588	3237
821.728	3230
821.868	3226
822.008	3070
822.149	3169
822.289	3272
822.429	3097
822.569	3070
822.709	3195
822.849	3017
822.99	3081
823.13	3154
823.27	3184
823.41	3093
823.55	3154
823.69	3135
823.83	3192
823.97	3119
824.11	3017
824.25	3005
824.389	3058
824.529	3119
824.669	3062
824.809	3233
824.949	3241
825.089	3218
825.228	3188
825.368	3017
825.508	2960
825.648	3001
825.787	3032
825.927	3024
826.067	2986
826.206	2990
826.346	3085
826.485	3062
826.625	3093
826.765	3279
826.904	3199
827.044	2979
827.183	2994
827.323	2880
827.462	3047
827.601	2902
827.741	2944
827.88	2971
828.02	2861
828.159	2948
828.298	3097
828.437	3116
828.577	3017
828.716	3237
828.855	3112
828.994	2937
829.134	2891
829.273	2963
829.412	2864
829.551	2864
829.69	2933
829.829	3036
829.968	3127
830.107	3009
830.246	3043
830.385	2929
830.524	2899
830.663	2826
830.802	2739
830.941	2651
831.08	2640
831.219	2769
831.357	2712
831.496	2986
831.635	2773
831.774	2659
831.913	2663
832.051	2568
832.19	2568
832.329	2674
832.467	2556
832.606	2518
832.744	2571
832.883	2590
833.022	2571
833.16	2674
833.299	2697
833.437	2712
833.576	2735
833.714	2716
833.852	2769
833.991	2769
834.129	2861
834.267	2857
834.406	2773
834.544	2887
834.682	2902
834.821	2876
834.959	3085
835.097	2937
835.235	3066
835.373	3005
835.511	3005
835.65	2979
835.788	2990
835.926	2861
836.064	2804
836.202	2883
836.34	3112
836.478	3150
836.615	3077
836.753	3154
836.891	3176
837.029	3195
837.167	3138
837.305	3081
837.443	3043
837.58	2982
837.718	3146
837.856	3112
837.993	3051
838.131	3138
838.269	3123
838.406	3123
838.544	3119
838.681	2975
838.819	2922
838.956	2864
839.094	2853
839.231	2933
839.369	3013
839.506	3370
839.643	3199
839.781	3024
839.918	2994
840.055	3066
840.193	3020
840.33	3089
840.467	3077
840.604	3169
840.742	3412
840.879	3051
841.016	3089
841.153	3127
841.29	3359
841.427	3287
841.564	3268
841.701	3313
841.838	3268
841.975	3157
842.112	3203
842.249	3104
842.385	3039
842.522	3264
842.659	3085
842.796	3070
842.933	3077
843.069	3093
843.206	3047
843.343	3161
843.479	3127
843.616	3131
843.752	2952
843.889	2876
844.025	3093
844.162	2880
844.298	3104
844.435	2971
844.571	2914
844.708	3070
844.844	3188
844.98	3218
845.117	3233
845.253	3051
845.389	3047
845.525	3104
845.661	3135
845.798	3013
845.934	3104
846.07	3055
846.206	3256
846.342	3317
846.478	3203
846.614	3077
846.75	3043
846.886	3020
847.022	3241
847.158	3157
847.294	3176
847.429	3222
847.565	3207
847.701	3473
847.837	3005
847.972	2990
848.108	3180
848.244	3108
848.379	3005
848.515	2937
848.65	2944
848.786	3001
848.921	3036
849.057	3100
849.192	3203
849.328	3074
849.463	3108
849.598	3047
849.734	3055
849.869	2967
850.004	2937
850.14	2994
850.275	2914
850.41	2819
850.545	2899
850.68	2975
850.815	2967
850.95	2990
851.085	3218
851.22	3112
851.355	3017
851.49	3024
851.625	2967
851.76	3055
851.895	2937
852.03	2922
852.165	3028
852.299	3119
852.434	3195
852.569	3176
852.703	3176
852.838	3241
852.973	3336
853.107	3348
853.242	3146
853.376	3081
853.511	2952
853.645	3081
853.78	3260
853.914	3097
854.048	3104
854.183	3093
854.317	3104
854.451	3283
854.585	3138
854.72	3112
854.854	3195
854.988	3039
855.122	3089
855.256	2979
855.39	3138
855.524	3256
855.658	3199
855.792	3154
855.926	3176
856.06	3218
856.194	3287
856.327	3135
856.461	3077
856.595	3097
856.729	3097
856.862	3192
856.996	3188
857.13	3214
857.263	3180
857.397	3222
857.53	3138
857.664	3195
857.797	3249
857.931	3283
858.064	3184
858.197	3226
858.331	3135
858.464	3081
858.597	3017
858.731	3127
858.864	3138
858.997	3066
859.13	3150
859.263	3169
859.396	3222
859.529	3108
859.662	3097
859.795	3032
859.928	3138
860.061	3283
860.194	3310
860.327	3154
860.46	3108
860.592	3253
860.725	3256
860.858	3245
860.99	3123
861.123	3074
861.256	3058
861.388	3142
861.521	3899
861.653	3055
861.786	3020
861.918	2998
862.05	3081
862.183	3127
862.315	3173
862.447	3214
862.58	3093
862.712	2994
862.844	2861
862.976	3074
863.108	2994
863.24	3325
863.372	2899
863.504	2986
863.636	2975
863.768	2990
863.9	3017
864.032	2891
864.164	2944
864.296	3051
864.428	3062
864.559	3085
864.691	3051
864.823	3093
864.954	3028
865.086	3005
865.217	2998
865.349	2963
865.48	2990
865.612	3043
865.743	3127
865.875	2960
866.006	2887
866.137	2963
866.269	2941
866.4	2990
866.531	2918
866.662	2937
866.793	2883
866.924	2914
867.055	2979
867.186	2899
867.317	2910
867.448	2864
867.579	2845
867.71	2876
867.841	2853
867.972	2918
868.103	2902
868.233	2899
868.364	2887
868.495	2925
868.625	3112
868.756	3157
868.886	2982
869.017	3024
869.147	3188
869.278	3180
869.408	3077
869.539	3024
869.669	3138
869.799	3013
869.929	3119
870.06	3112
870.19	3348
870.32	3294
870.45	3336
870.58	3420
870.71	3458
870.84	3488
870.97	3283
871.1	3230
871.23	3466
871.36	3428
871.489	3348
871.619	3435
871.749	3435
871.879	3454
872.008	3439
872.138	3370
872.267	3298
872.397	3131
872.526	3093
872.656	3009
872.785	3116
872.915	3233
873.044	3302
873.173	3253
873.303	3230
873.432	3253
873.561	3268
873.69	3135
873.819	3150
873.948	3176
874.077	3081
874.206	3043
874.335	3119
874.464	3203
874.593	3344
874.722	3253
874.851	3389
874.979	3332
875.108	3287
875.237	3211
875.365	3146
875.494	3150
875.623	3245
875.751	3055
875.88	3127
876.008	3169
876.136	3241
876.265	3351
876.393	3500
876.521	3389
876.65	3370
876.778	3367
876.906	3279
877.034	3222
877.162	3287
877.29	3173
877.418	3237
877.546	3256
877.674	3253
877.802	3233
877.93	3226
878.058	3165
878.185	3116
878.313	3199
878.441	3199
878.568	3043
878.696	3135
878.824	3241
878.951	3264
879.079	3450
879.206	3610
879.333	3416
879.461	3351
879.588	3397
879.715	3492
879.842	3580
879.97	3416
880.097	3188
880.224	3169
880.351	3165
880.478	3214
880.605	3226
880.732	3184
880.859	3515
880.986	3279
881.112	3325
881.239	3199
881.366	3066
881.493	3066
881.619	2998
881.746	3020
881.872	3077
881.999	3108
882.125	3165
882.252	3249
882.378	3291
882.505	3443
882.631	3283
882.757	3165
882.883	3207
883.01	3241
883.136	3138
883.262	3104
883.388	3097
883.514	3325
883.64	3382
883.766	3351
883.892	3195
884.018	3260
884.143	3416
884.269	3542
884.395	3169
884.52	3180
884.646	3203
884.772	3123
884.897	3123
885.023	3214
885.148	3336
885.274	3420
885.399	3397
885.524	3272
885.65	3264
885.775	3306
885.9	3264
886.025	3424
886.15	3348
886.275	3294
886.4	3230
886.525	3313
886.65	3294
886.775	3298
886.9	3500
887.025	3599
887.149	3401
887.274	3233
887.399	3203
887.523	3184
887.648	3180
887.773	3176
887.897	3344
888.021	3382
888.146	3291
888.27	3409
888.395	3568
888.519	3462
888.643	3424
888.767	3431
888.891	3321
889.015	3260
889.139	3310
889.263	3211
889.387	3424
889.511	3477
889.635	3447
889.759	3306
889.883	3306
890.006	3401
890.13	3466
890.254	3302
890.377	3363
890.501	3241
890.624	3161
890.748	3283
890.871	3207
890.995	3119
891.118	3104
891.241	3195
891.364	3211
891.488	3298
891.611	3150
891.734	3226
891.857	3279
891.98	3275
892.103	3382
892.226	3226
892.349	3218
892.471	3093
892.594	3207
892.717	3317
892.839	3272
892.962	3275
893.085	3321
893.207	3313
893.33	3135
893.452	3192
893.575	3348
893.697	3294
893.819	3492
893.941	3523
894.064	3462
894.186	3268
894.308	3245
894.43	3443
894.552	3538
894.674	3462
894.796	3302
894.918	3332
895.04	3294
895.161	3450
895.283	3405
895.405	3302
895.526	3382
895.648	3386
895.769	3431
895.891	3496
896.012	3462
896.134	3492
896.255	3397
896.376	3409
896.498	3344
896.619	3424
896.74	3382
896.861	3424
896.982	3682
897.103	3797
897.224	3610
897.345	3523
897.466	3458
897.587	3530
897.708	3606
897.828	3564
897.949	3458
898.07	3351
898.19	3416
898.311	3557
898.431	3462
898.552	3492
898.672	3599
898.792	3564
898.913	3504
899.033	3412
899.153	3287
899.273	3188
899.393	3340
899.513	3336
899.633	3321
899.753	3344
899.873	3310
899.993	3443
900.113	3287
900.232	3386
900.352	3378
900.472	3313
900.591	3192
900.711	3294
900.83	3253
900.95	3416
901.069	3507
901.189	3344
901.308	3184
901.427	3154
901.546	3199
901.665	3321
901.784	3374
901.904	3195
902.023	3146
902.141	3024
902.26	2986
902.379	3142
902.498	3089
902.617	3055
902.735	3188
902.854	3245
902.973	3222
903.091	3017
903.21	3020
903.328	3165
903.446	3116
903.565	3081
903.683	3218
903.801	3100
903.919	3214
904.038	3256
904.156	3192
904.274	3260
904.392	3245
904.51	3306
904.627	3321
904.745	3485
904.863	3504
904.981	3268
905.098	3180
905.216	3211
905.334	3310
905.451	3317
905.569	3291
905.686	3428
905.803	3462
905.921	3298
906.038	3435
906.155	3359
906.272	3256
906.389	3351
906.506	3253
906.623	3275
906.74	3275
906.857	3157
906.974	3218
907.091	3424
907.208	3599
907.324	3519
907.441	3447
907.557	3249
907.674	3241
907.79	3207
907.907	3275
908.023	3401
908.139	3367
908.256	3313
908.372	3367
908.488	3336
908.604	3302
908.72	3264
908.836	3313
908.952	3253
909.068	3348
909.184	3458
909.3	3363
909.415	3526
909.531	3458
909.647	3256
909.762	3310
909.878	3279
909.993	3325
910.108	3329
910.224	3336
910.339	3412
910.454	3294
910.57	3306
910.685	3237
910.8	3595
910.915	3523
911.03	3443
911.145	3283
911.259	3283
911.374	3291
911.489	3218
911.604	3245
911.718	3119
911.833	3169
911.947	3066
912.062	2998
912.176	3195
912.291	3211
912.405	3207
912.519	3473
912.633	3462
912.748	3348
912.862	3294
912.976	3176
913.09	3077
913.204	3131
913.318	3222
913.431	3332
913.545	3329
913.659	3428
913.772	3302
913.886	3264
914	3203
914.113	3340
914.226	3424
914.34	3382
914.453	3203
914.566	3428
914.68	3291
914.793	3329
914.906	3127
915.019	3142
915.132	3024
915.245	3184
915.358	3218
915.47	3230
915.583	3245
915.696	3340
915.809	3416
915.921	3435
916.034	3268
916.146	3222
916.259	3241
916.371	3382
916.483	3351
916.595	3241
916.708	3351
916.82	3325
916.932	3355
917.044	3325
917.156	3332
917.268	3264
917.38	3298
917.491	3310
917.603	3340
917.715	3504
917.826	3504
917.938	3393
918.049	3291
918.161	3420
918.272	3606
918.384	3542
918.495	3462
918.606	3378
918.717	3260
918.828	3401
918.939	3416
919.05	3351
919.161	3370
919.272	3165
919.383	3260
919.494	3450
919.604	3675
919.715	3515
919.826	3412
919.936	3439
920.047	3591
920.157	3599
920.267	3751
920.378	3633
920.488	3576
920.598	3770
920.708	4006
920.818	3816
920.928	3816
921.038	4021
921.148	3994
921.258	3675
921.368	3622
921.477	3595
921.587	3515
921.697	3466
921.806	3564
921.916	3538
922.025	3329
922.134	3397
922.244	3306
922.353	3405
922.462	3249
922.571	3218
922.68	3131
922.789	3032
922.898	3093
923.007	3097
923.116	3211
923.224	3199
923.333	3180
923.442	3077
923.55	3062
923.659	3150
923.767	3188
923.876	3104
923.984	3218
924.092	3062
924.201	3169
924.309	3222
924.417	3203
924.525	3195
924.633	3249
924.741	4185
924.849	3077
924.956	3283
925.064	3100
925.172	3066
925.279	3100
925.387	3176
925.494	3222
925.602	3367
925.709	3344
925.816	3199
925.924	3279
926.031	3389
926.138	3359
926.245	3359
926.352	3264
926.459	3393
926.566	3488
926.673	3329
926.779	3256
926.886	3272
926.993	3176
927.099	3135
927.206	3138
927.312	3108
927.419	3245
927.525	3237
927.631	3283
927.737	3157
927.843	3112
927.95	3028
928.056	3180
928.162	3161
928.267	3275
928.373	3865
928.479	3332
928.585	3043
928.69	3245
928.796	3264
928.901	3161
929.007	3020
929.112	3211
929.218	3199
929.323	3138
929.428	3161
929.533	3298
929.638	3127
929.743	3131
929.848	3249
929.953	3218
930.058	3100
930.163	2986
930.267	3032
930.372	3199
930.477	3051
930.581	3306
930.685	3199
930.79	3089
930.894	3112
930.998	3100
931.103	3268
931.207	2956
931.311	2963
931.415	2937
931.519	2777
931.623	2811
