Data from test_V78500241_4.txt Node
Date: Fri Mar 25 16:15:13 CST 2022
User: usil
Spectrometer: V785-0024
Trigger mode: 0
Integration Time (sec): 4.000000E-1
Scans to average: 1
Nonlinearity correction enabled: false
Boxcar width: 0
Storing dark spectrum: false
XAxis mode: Wavelengths
Number of Pixels in Spectrum: 1024
>>>>>Begin Spectral Data<<<<<
801.071	2933
801.214	3005
801.356	2941
801.499	2941
801.641	2918
801.783	2975
801.926	3127
802.068	3062
802.211	3074
802.353	3077
802.496	3039
802.638	3055
802.78	3085
802.923	3150
803.065	3062
803.208	2963
803.35	2960
803.492	2998
803.635	3013
803.777	2807
803.919	2918
804.061	3272
804.204	3005
804.346	2948
804.488	2887
804.63	3036
804.773	2933
804.915	2975
805.057	3142
805.199	2971
805.341	3001
805.483	3089
805.626	3055
805.768	3017
805.91	3146
806.052	3165
806.194	3062
806.336	3298
806.478	3062
806.62	3013
806.762	3020
806.904	3116
807.046	3214
807.188	3013
807.33	2971
807.472	3028
807.614	2956
807.756	3036
807.898	2971
808.04	2948
808.182	3020
808.324	3017
808.465	2952
808.607	2910
808.749	2872
808.891	2899
809.033	3051
809.174	3017
809.316	2952
809.458	2967
809.6	2830
809.741	2823
809.883	2804
810.025	2872
810.166	2960
810.308	2853
810.45	2876
810.591	2800
810.733	2788
810.875	2872
811.016	2838
811.158	2777
811.299	2861
811.441	3009
811.582	2956
811.724	2853
811.865	2899
812.007	2975
812.148	2902
812.29	2872
812.431	2906
812.573	2982
812.714	3024
812.855	3077
812.997	3085
813.138	3165
813.279	3039
813.421	3032
813.562	2990
813.703	2902
813.845	2933
813.986	2826
814.127	2800
814.268	2899
814.41	2887
814.551	2861
814.692	2948
814.833	2883
814.974	2933
815.115	3036
815.256	2876
815.397	2811
815.539	2883
815.68	2849
815.821	2868
815.962	2971
816.103	2971
816.244	2929
816.385	2895
816.526	3051
816.666	2982
816.807	2758
816.948	2982
817.089	2975
817.23	2910
817.371	2819
817.512	2804
817.653	2883
817.793	2868
817.934	2975
818.075	3043
818.216	3085
818.356	3093
818.497	2948
818.638	2823
818.778	2849
818.919	2872
819.06	2792
819.2	2914
819.341	2830
819.481	2842
819.622	2979
819.762	3108
819.903	3108
820.043	2944
820.184	2963
820.324	3005
820.465	3039
820.605	3089
820.746	3089
820.886	2956
821.026	3131
821.167	3188
821.307	3321
821.447	3332
821.588	3279
821.728	3268
821.868	3241
822.008	3142
822.149	3199
822.289	3298
822.429	3150
822.569	3131
822.709	3203
822.849	3081
822.99	3127
823.13	3237
823.27	3268
823.41	3169
823.55	3214
823.69	3195
823.83	3237
823.97	3146
824.11	3062
824.25	3047
824.389	3100
824.529	3169
824.669	3131
824.809	3237
824.949	3329
825.089	3264
825.228	3222
825.368	3043
825.508	3028
825.648	2998
825.787	3043
825.927	3070
826.067	3009
826.206	3020
826.346	3085
826.485	3135
826.625	3157
826.765	3336
826.904	3237
827.044	3047
827.183	2967
827.323	2899
827.462	3020
827.601	2952
827.741	2952
827.88	2982
828.02	2895
828.159	3047
828.298	3062
828.437	3165
828.577	3081
828.716	3291
828.855	3127
828.994	2941
829.134	2914
829.273	2979
829.412	2952
829.551	2944
829.69	2925
829.829	3039
829.968	3176
830.107	3062
830.246	3127
830.385	2971
830.524	2902
830.663	2845
830.802	2777
830.941	2670
831.08	2651
831.219	2830
831.357	2815
831.496	2998
831.635	2750
831.774	2674
831.913	2693
832.051	2587
832.19	2610
832.329	2708
832.467	2587
832.606	2564
832.744	2621
832.883	2606
833.022	2648
833.16	2655
833.299	2705
833.437	2727
833.576	2739
833.714	2754
833.852	2777
833.991	2826
834.129	2857
834.267	2880
834.406	2804
834.544	2933
834.682	2922
834.821	2937
834.959	3100
835.097	2952
835.235	3104
835.373	3005
835.511	3051
835.65	3001
835.788	2967
835.926	2868
836.064	2849
836.202	2891
836.34	3131
836.478	3237
836.615	3089
836.753	3188
836.891	3218
837.029	3218
837.167	3161
837.305	3138
837.443	3093
837.58	3047
837.718	3195
837.856	3070
837.993	3074
838.131	3150
838.269	3169
838.406	3131
838.544	3116
838.681	2982
838.819	2975
838.956	2838
839.094	2899
839.231	2975
839.369	3043
839.506	3435
839.643	3260
839.781	3081
839.918	2960
840.055	3154
840.193	3108
840.33	3119
840.467	3169
840.604	3161
840.742	3447
840.879	3097
841.016	3127
841.153	3176
841.29	3359
841.427	3359
841.564	3348
841.701	3348
841.838	3264
841.975	3249
842.112	3253
842.249	3108
842.385	3058
842.522	3256
842.659	3138
842.796	3116
842.933	3138
843.069	3112
843.206	3077
843.343	3222
843.479	3169
843.616	3154
843.752	2944
843.889	2906
844.025	3108
844.162	2910
844.298	3123
844.435	2994
844.571	2941
844.708	3127
844.844	3237
844.98	3287
845.117	3241
845.253	3066
845.389	3058
845.525	3142
845.661	3154
845.798	3047
845.934	3180
846.07	3077
846.206	3253
846.342	3367
846.478	3291
846.614	3146
846.75	3074
846.886	3093
847.022	3317
847.158	3192
847.294	3245
847.429	3279
847.565	3279
847.701	3477
847.837	3077
847.972	3070
848.108	3211
848.244	3207
848.379	3043
848.515	2994
848.65	2982
848.786	3013
848.921	3062
849.057	3138
849.192	3199
849.328	3138
849.463	3161
849.598	3123
849.734	3058
849.869	3020
850.004	2986
850.14	3032
850.275	2986
850.41	2895
850.545	2902
850.68	2960
850.815	3024
850.95	3005
851.085	3260
851.22	3138
851.355	3070
851.49	3024
851.625	3017
851.76	3066
851.895	2960
852.03	2937
852.165	3070
852.299	3142
852.434	3222
852.569	3157
852.703	3214
852.838	3332
852.973	3405
853.107	3416
853.242	3199
853.376	3157
853.511	3032
853.645	3062
853.78	3253
853.914	3192
854.048	3150
854.183	3116
854.317	3192
854.451	3329
854.585	3207
854.72	3135
854.854	3245
854.988	3116
855.122	3173
855.256	3028
855.39	3138
855.524	3302
855.658	3203
855.792	3195
855.926	3222
856.06	3253
856.194	3306
856.327	3199
856.461	3116
856.595	3116
856.729	3154
856.862	3249
856.996	3241
857.13	3264
857.263	3241
857.397	3321
857.53	3127
857.664	3214
857.797	3298
857.931	3313
858.064	3199
858.197	3230
858.331	3199
858.464	3146
858.597	3017
858.731	3165
858.864	3207
858.997	3135
859.13	3169
859.263	3279
859.396	3245
859.529	3169
859.662	3100
859.795	3138
859.928	3165
860.061	3329
860.194	3370
860.327	3184
860.46	3184
860.592	3264
860.725	3310
860.858	3294
860.99	3173
861.123	3112
861.256	3119
861.388	3188
861.521	3728
861.653	3074
861.786	3047
861.918	3024
862.05	3093
862.183	3146
862.315	3199
862.447	3272
862.58	3138
862.712	3017
862.844	2910
862.976	3077
863.108	3074
863.24	3473
863.372	2929
863.504	3013
863.636	3009
863.768	3062
863.9	3039
864.032	2952
864.164	3017
864.296	3074
864.428	3123
864.559	3146
864.691	3131
864.823	3119
864.954	3081
865.086	3100
865.217	3036
865.349	2994
865.48	3058
865.612	3062
865.743	3184
865.875	3028
866.006	2975
866.137	2998
866.269	3005
866.4	2960
866.531	2941
866.662	2910
866.793	2960
866.924	2986
867.055	3055
867.186	2971
867.317	2952
867.448	2872
867.579	2910
867.71	2891
867.841	2887
867.972	2956
868.103	2963
868.233	2914
868.364	2902
868.495	2937
868.625	3142
868.756	3226
868.886	3005
869.017	3051
869.147	3195
869.278	3192
869.408	3089
869.539	3066
869.669	3127
869.799	3081
869.929	3211
870.06	3146
870.19	3348
870.32	3336
870.45	3348
870.58	3443
870.71	3553
870.84	3477
870.97	3355
871.1	3321
871.23	3599
871.36	3526
871.489	3397
871.619	3469
871.749	3469
871.879	3485
872.008	3584
872.138	3382
872.267	3310
872.397	3195
872.526	3161
872.656	3066
872.785	3127
872.915	3283
873.044	3382
873.173	3249
873.303	3291
873.432	3279
873.561	3253
873.69	3180
873.819	3180
873.948	3256
874.077	3135
874.206	3074
874.335	3127
874.464	3268
874.593	3412
874.722	3298
874.851	3405
874.979	3401
875.108	3378
875.237	3237
875.365	3233
875.494	3207
875.623	3264
875.751	3077
875.88	3203
876.008	3268
876.136	3253
876.265	3397
876.393	3549
876.521	3458
876.65	3443
876.778	3359
876.906	3279
877.034	3230
877.162	3226
877.29	3214
877.418	3336
877.546	3268
877.674	3294
877.802	3313
877.93	3268
878.058	3222
878.185	3142
878.313	3214
878.441	3230
878.568	3089
878.696	3173
878.824	3310
878.951	3355
879.079	3466
879.206	3663
879.333	3469
879.461	3382
879.588	3378
879.715	3538
879.842	3705
879.97	3416
880.097	3203
880.224	3154
880.351	3268
880.478	3264
880.605	3268
880.732	3264
880.859	3553
880.986	3355
881.112	3397
881.239	3279
881.366	3161
881.493	3104
881.619	3081
881.746	3108
881.872	3173
881.999	3195
882.125	3199
882.252	3313
882.378	3389
882.505	3511
882.631	3344
882.757	3233
882.883	3287
883.01	3298
883.136	3272
883.262	3203
883.388	3207
883.514	3409
883.64	3458
883.766	3416
883.892	3302
884.018	3336
884.143	3500
884.269	3629
884.395	3272
884.52	3226
884.646	3256
884.772	3218
884.897	3184
885.023	3298
885.148	3439
885.274	3515
885.399	3447
885.524	3355
885.65	3325
885.775	3420
885.9	3393
886.025	3530
886.15	3500
886.275	3382
886.4	3302
886.525	3447
886.65	3382
886.775	3424
886.9	3580
887.025	3732
887.149	3538
887.274	3351
887.399	3298
887.523	3306
887.648	3253
887.773	3329
887.897	3447
888.021	3526
888.146	3401
888.27	3545
888.395	3629
888.519	3519
888.643	3530
888.767	3576
888.891	3367
889.015	3363
889.139	3420
889.263	3382
889.387	3488
889.511	3622
889.635	3580
889.759	3397
889.883	3355
890.006	3473
890.13	3614
890.254	3401
890.377	3443
890.501	3298
890.624	3283
890.748	3389
890.871	3245
890.995	3207
891.118	3188
891.241	3283
891.364	3310
891.488	3409
891.611	3256
891.734	3287
891.857	3393
891.98	3302
892.103	3424
892.226	3397
892.349	3325
892.471	3211
892.594	3321
892.717	3351
892.839	3367
892.962	3409
893.085	3458
893.207	3428
893.33	3218
893.452	3298
893.575	3435
893.697	3374
893.819	3572
893.941	3614
894.064	3515
894.186	3332
894.308	3351
894.43	3542
894.552	3671
894.674	3553
894.796	3340
894.918	3397
895.04	3401
895.161	3534
895.283	3462
895.405	3393
895.526	3466
895.648	3523
895.769	3549
895.891	3561
896.012	3595
896.134	3496
896.255	3496
896.376	3477
896.498	3443
896.619	3538
896.74	3466
896.861	3507
896.982	3732
897.103	3972
897.224	3709
897.345	3599
897.466	3542
897.587	3603
897.708	3717
897.828	3652
897.949	3523
898.07	3439
898.19	3481
898.311	3667
898.431	3530
898.552	3595
898.672	3682
898.792	3698
898.913	3637
899.033	3507
899.153	3405
899.273	3313
899.393	3359
899.513	3401
899.633	3435
899.753	3420
899.873	3401
899.993	3458
900.113	3416
900.232	3511
900.352	3431
900.472	3351
900.591	3313
900.711	3397
900.83	3340
900.95	3534
901.069	3580
901.189	3466
901.308	3268
901.427	3207
901.546	3291
901.665	3420
901.784	3389
901.904	3272
902.023	3264
902.141	3119
902.26	3074
902.379	3241
902.498	3157
902.617	3138
902.735	3283
902.854	3340
902.973	3291
903.091	3157
903.21	3157
903.328	3214
903.446	3218
903.565	3230
903.683	3283
903.801	3188
903.919	3313
904.038	3393
904.156	3226
904.274	3359
904.392	3355
904.51	3397
904.627	3435
904.745	3507
904.863	3625
904.981	3348
905.098	3260
905.216	3351
905.334	3370
905.451	3412
905.569	3431
905.686	3526
905.803	3530
905.921	3405
906.038	3545
906.155	3454
906.272	3329
906.389	3420
906.506	3355
906.623	3355
906.74	3348
906.857	3268
906.974	3389
907.091	3549
907.208	3671
907.324	3553
907.441	3511
907.557	3370
907.674	3298
907.79	3313
907.907	3363
908.023	3507
908.139	3504
908.256	3416
908.372	3496
908.488	3450
908.604	3329
908.72	3279
908.836	3363
908.952	3397
909.068	3420
909.184	3599
909.3	3507
909.415	3606
909.531	3580
909.647	3386
909.762	3336
909.878	3359
909.993	3435
910.108	3435
910.224	3458
910.339	3507
910.454	3412
910.57	3389
910.685	3325
910.8	3743
910.915	3603
911.03	3542
911.145	3355
911.259	3374
911.374	3393
911.489	3332
911.604	3256
911.718	3241
911.833	3268
911.947	3077
912.062	3085
912.176	3230
912.291	3268
912.405	3306
912.519	3557
912.633	3599
912.748	3416
912.862	3397
912.976	3249
913.09	3207
913.204	3222
913.318	3329
913.431	3424
913.545	3424
913.659	3511
913.772	3439
913.886	3302
914	3329
914.113	3412
914.226	3538
914.34	3439
914.453	3302
914.566	3523
914.68	3416
914.793	3450
914.906	3230
915.019	3154
915.132	3173
915.245	3249
915.358	3275
915.47	3355
915.583	3325
915.696	3382
915.809	3504
915.921	3447
916.034	3367
916.146	3321
916.259	3317
916.371	3500
916.483	3488
916.595	3378
916.708	3386
916.82	3405
916.932	3416
917.044	3443
917.156	3420
917.268	3325
917.38	3351
917.491	3351
917.603	3477
917.715	3572
917.826	3534
917.938	3462
918.049	3367
918.161	3523
918.272	3656
918.384	3698
918.495	3545
918.606	3447
918.717	3374
918.828	3466
918.939	3492
919.05	3397
919.161	3431
919.272	3249
919.383	3401
919.494	3599
919.604	3793
919.715	3584
919.826	3530
919.936	3523
920.047	3671
920.157	3622
920.267	3892
920.378	3686
920.488	3667
920.598	3842
920.708	4097
920.818	3907
920.928	3949
921.038	4158
921.148	4074
921.258	3778
921.368	3743
921.477	3656
921.587	3633
921.697	3519
921.806	3728
921.916	3644
922.025	3473
922.134	3462
922.244	3412
922.353	3462
922.462	3367
922.571	3287
922.68	3188
922.789	3150
922.898	3211
923.007	3176
923.116	3260
923.224	3268
923.333	3260
923.442	3199
923.55	3176
923.659	3188
923.767	3313
923.876	3199
923.984	3321
924.092	3161
924.201	3291
924.309	3291
924.417	3336
924.525	3279
924.633	3313
924.741	4249
924.849	3146
924.956	3382
925.064	3188
925.172	3142
925.279	3203
925.387	3253
925.494	3275
925.602	3454
925.709	3416
925.816	3275
925.924	3344
926.031	3439
926.138	3409
926.245	3481
926.352	3348
926.459	3492
926.566	3561
926.673	3424
926.779	3344
926.886	3355
926.993	3211
927.099	3199
927.206	3184
927.312	3173
927.419	3329
927.525	3298
927.631	3367
927.737	3253
927.843	3188
927.95	3131
928.056	3222
928.162	3268
928.267	3355
928.373	3865
928.479	3363
928.585	3127
928.69	3268
928.796	3378
928.901	3260
929.007	3116
929.112	3279
929.218	3233
929.323	3214
929.428	3237
929.533	3393
929.638	3203
929.743	3253
929.848	3313
929.953	3279
930.058	3203
930.163	3066
930.267	3138
930.372	3268
930.477	3100
930.581	3351
930.685	3264
930.79	3138
930.894	3230
930.998	3184
931.103	3401
931.207	3032
931.311	3020
931.415	3017
931.519	2845
931.623	2864
