Data from test_V78500241_8.txt Node
Date: Fri Mar 25 16:15:15 CST 2022
User: usil
Spectrometer: V785-0024
Trigger mode: 0
Integration Time (sec): 4.000000E-1
Scans to average: 1
Nonlinearity correction enabled: false
Boxcar width: 0
Storing dark spectrum: false
XAxis mode: Wavelengths
Number of Pixels in Spectrum: 1024
>>>>>Begin Spectral Data<<<<<
801.071	2990
801.214	3005
801.356	2914
801.499	2979
801.641	2960
801.783	2994
801.926	3089
802.068	3039
802.211	3077
802.353	3131
802.496	3032
802.638	3097
802.78	3074
802.923	3131
803.065	3051
803.208	2979
803.35	2975
803.492	3020
803.635	3005
803.777	2815
803.919	2960
804.061	3291
804.204	3032
804.346	2963
804.488	2895
804.63	3097
804.773	2952
804.915	3013
805.057	3108
805.199	2971
805.341	3017
805.483	3100
805.626	3058
805.768	3043
805.91	3176
806.052	3150
806.194	3104
806.336	3230
806.478	3097
806.62	3009
806.762	3051
806.904	3119
807.046	3237
807.188	3024
807.33	2937
807.472	3043
807.614	2956
807.756	3024
807.898	2982
808.04	2986
808.182	3039
808.324	3047
808.465	2937
808.607	2933
808.749	2868
808.891	2910
809.033	3013
809.174	3032
809.316	2914
809.458	2906
809.6	2792
809.741	2842
809.883	2842
810.025	2910
810.166	2891
810.308	2876
810.45	2933
810.591	2849
810.733	2845
810.875	2864
811.016	2819
811.158	2830
811.299	2876
811.441	2975
811.582	2956
811.724	2910
811.865	2933
812.007	2944
812.148	2948
812.29	2914
812.431	2925
812.573	3001
812.714	3001
812.855	3108
812.997	3150
813.138	3199
813.279	3047
813.421	3013
813.562	3055
813.703	2948
813.845	2967
813.986	2804
814.127	2777
814.268	2845
814.41	2868
814.551	2876
814.692	2967
814.833	2823
814.974	2963
815.115	2990
815.256	2906
815.397	2838
815.539	2864
815.68	2857
815.821	2811
815.962	2990
816.103	3017
816.244	2902
816.385	2895
816.526	3047
816.666	2998
816.807	2823
816.948	2933
817.089	2960
817.23	2891
817.371	2857
817.512	2834
817.653	2868
817.793	2853
817.934	2933
818.075	3001
818.216	3024
818.356	3116
818.497	2883
818.638	2826
818.778	2910
818.919	2842
819.06	2838
819.2	2944
819.341	2895
819.481	2895
819.622	2979
819.762	3169
819.903	3108
820.043	2967
820.184	2960
820.324	2979
820.465	3024
820.605	3089
820.746	3051
820.886	3017
821.026	3180
821.167	3195
821.307	3325
821.447	3321
821.588	3272
821.728	3287
821.868	3253
822.008	3116
822.149	3268
822.289	3275
822.429	3108
822.569	3146
822.709	3241
822.849	3070
822.99	3127
823.13	3207
823.27	3249
823.41	3180
823.55	3222
823.69	3192
823.83	3260
823.97	3180
824.11	3043
824.25	3047
824.389	3116
824.529	3192
824.669	3138
824.809	3287
824.949	3348
825.089	3264
825.228	3222
825.368	3055
825.508	3039
825.648	3032
825.787	3085
825.927	3024
826.067	3036
826.206	3028
826.346	3093
826.485	3127
826.625	3165
826.765	3321
826.904	3287
827.044	2990
827.183	3001
827.323	2899
827.462	3036
827.601	2975
827.741	2994
827.88	3036
828.02	2960
828.159	2998
828.298	3085
828.437	3146
828.577	3100
828.716	3298
828.855	3123
828.994	2963
829.134	2929
829.273	2979
829.412	2922
829.551	2922
829.69	2948
829.829	3036
829.968	3161
830.107	3066
830.246	3074
830.385	2979
830.524	2929
830.663	2872
830.802	2758
830.941	2693
831.08	2693
831.219	2796
831.357	2800
831.496	2990
831.635	2743
831.774	2674
831.913	2693
832.051	2575
832.19	2610
832.329	2754
832.467	2587
832.606	2514
832.744	2621
832.883	2610
833.022	2636
833.16	2701
833.299	2750
833.437	2735
833.576	2693
833.714	2769
833.852	2762
833.991	2811
834.129	2868
834.267	2902
834.406	2819
834.544	2944
834.682	2944
834.821	2929
834.959	3142
835.097	2914
835.235	3093
835.373	3093
835.511	3058
835.65	3017
835.788	2982
835.926	2876
836.064	2807
836.202	2857
836.34	3104
836.478	3203
836.615	3108
836.753	3165
836.891	3264
837.029	3218
837.167	3195
837.305	3119
837.443	3112
837.58	2986
837.718	3195
837.856	3097
837.993	3066
838.131	3131
838.269	3161
838.406	3135
838.544	3108
838.681	2979
838.819	2952
838.956	2861
839.094	2895
839.231	2944
839.369	3081
839.506	3435
839.643	3298
839.781	3074
839.918	3009
840.055	3097
840.193	3070
840.33	3135
840.467	3150
840.604	3199
840.742	3431
840.879	3089
841.016	3116
841.153	3169
841.29	3431
841.427	3382
841.564	3317
841.701	3344
841.838	3256
841.975	3241
842.112	3306
842.249	3135
842.385	3089
842.522	3302
842.659	3127
842.796	3112
842.933	3150
843.069	3100
843.206	3089
843.343	3207
843.479	3138
843.616	3218
843.752	2918
843.889	2933
844.025	3138
844.162	2925
844.298	3154
844.435	2982
844.571	2944
844.708	3100
844.844	3249
844.98	3313
845.117	3233
845.253	3135
845.389	3043
845.525	3142
845.661	3123
845.798	3055
845.934	3180
846.07	3119
846.206	3245
846.342	3367
846.478	3260
846.614	3138
846.75	3085
846.886	3097
847.022	3306
847.158	3161
847.294	3256
847.429	3302
847.565	3272
847.701	3507
847.837	3066
847.972	3074
848.108	3226
848.244	3203
848.379	3020
848.515	3005
848.65	2967
848.786	3020
848.921	3074
849.057	3157
849.192	3199
849.328	3154
849.463	3161
849.598	3085
849.734	3077
849.869	3017
850.004	2960
850.14	3009
850.275	2922
850.41	2902
850.545	2948
850.68	2952
850.815	2979
850.95	3043
851.085	3237
851.22	3142
851.355	3066
851.49	3070
851.625	3093
851.76	3058
851.895	2967
852.03	2971
852.165	3100
852.299	3165
852.434	3264
852.569	3188
852.703	3233
852.838	3306
852.973	3412
853.107	3389
853.242	3192
853.376	3123
853.511	3020
853.645	3074
853.78	3321
853.914	3176
854.048	3146
854.183	3135
854.317	3157
854.451	3382
854.585	3169
854.72	3104
854.854	3241
854.988	3085
855.122	3176
855.256	3013
855.39	3222
855.524	3291
855.658	3260
855.792	3195
855.926	3237
856.06	3245
856.194	3336
856.327	3188
856.461	3142
856.595	3214
856.729	3123
856.862	3260
856.996	3195
857.13	3279
857.263	3321
857.397	3317
857.53	3169
857.664	3218
857.797	3287
857.931	3336
858.064	3207
858.197	3260
858.331	3230
858.464	3142
858.597	3051
858.731	3180
858.864	3199
858.997	3116
859.13	3188
859.263	3230
859.396	3294
859.529	3154
859.662	3108
859.795	3112
859.928	3203
860.061	3306
860.194	3336
860.327	3184
860.46	3169
860.592	3283
860.725	3306
860.858	3287
860.99	3146
861.123	3093
861.256	3112
861.388	3169
861.521	3732
861.653	3051
861.786	3051
861.918	3058
862.05	3127
862.183	3127
862.315	3214
862.447	3226
862.58	3146
862.712	3047
862.844	2944
862.976	3066
863.108	3055
863.24	3462
863.372	2941
863.504	2998
863.636	3009
863.768	3074
863.9	3032
864.032	2929
864.164	3001
864.296	3032
864.428	3085
864.559	3157
864.691	3157
864.823	3097
864.954	3089
865.086	3104
865.217	3039
865.349	3036
865.48	3036
865.612	3062
865.743	3211
865.875	3032
866.006	2986
866.137	3062
866.269	2982
866.4	2979
866.531	2975
866.662	2963
866.793	3001
866.924	2944
867.055	3024
867.186	2998
867.317	2891
867.448	2887
867.579	2906
867.71	2876
867.841	2861
867.972	2956
868.103	2933
868.233	2937
868.364	2918
868.495	2914
868.625	3154
868.756	3237
868.886	2994
869.017	3028
869.147	3237
869.278	3218
869.408	3108
869.539	3043
869.669	3146
869.799	3055
869.929	3165
870.06	3161
870.19	3382
870.32	3317
870.45	3332
870.58	3458
870.71	3500
870.84	3511
870.97	3378
871.1	3332
871.23	3553
871.36	3538
871.489	3435
871.619	3454
871.749	3511
871.879	3492
872.008	3549
872.138	3424
872.267	3367
872.397	3192
872.526	3161
872.656	3062
872.785	3135
872.915	3302
873.044	3351
873.173	3264
873.303	3279
873.432	3279
873.561	3275
873.69	3218
873.819	3184
873.948	3249
874.077	3135
874.206	3097
874.335	3135
874.464	3294
874.593	3382
874.722	3332
874.851	3435
874.979	3424
875.108	3332
875.237	3256
875.365	3233
875.494	3195
875.623	3306
875.751	3135
875.88	3188
876.008	3214
876.136	3302
876.265	3439
876.393	3603
876.521	3473
876.65	3428
876.778	3355
876.906	3321
877.034	3275
877.162	3283
877.29	3218
877.418	3313
877.546	3325
877.674	3291
877.802	3283
877.93	3268
878.058	3192
878.185	3138
878.313	3279
878.441	3256
878.568	3131
878.696	3207
878.824	3302
878.951	3359
879.079	3511
879.206	3720
879.333	3553
879.461	3378
879.588	3401
879.715	3557
879.842	3641
879.97	3458
880.097	3192
880.224	3180
880.351	3264
880.478	3287
880.605	3256
880.732	3245
880.859	3561
880.986	3378
881.112	3409
881.239	3260
881.366	3157
881.493	3104
881.619	3066
881.746	3119
881.872	3135
881.999	3169
882.125	3192
882.252	3325
882.378	3359
882.505	3477
882.631	3310
882.757	3203
882.883	3211
883.01	3313
883.136	3230
883.262	3127
883.388	3203
883.514	3374
883.64	3405
883.766	3409
883.892	3237
884.018	3275
884.143	3450
884.269	3610
884.395	3268
884.52	3184
884.646	3211
884.772	3161
884.897	3176
885.023	3264
885.148	3393
885.274	3504
885.399	3420
885.524	3325
885.65	3355
885.775	3401
885.9	3298
886.025	3511
886.15	3374
886.275	3359
886.4	3306
886.525	3351
886.65	3317
886.775	3325
886.9	3538
887.025	3713
887.149	3473
887.274	3306
887.399	3256
887.523	3233
887.648	3245
887.773	3253
887.897	3370
888.021	3466
888.146	3344
888.27	3466
888.395	3587
888.519	3519
888.643	3504
888.767	3538
888.891	3382
889.015	3287
889.139	3367
889.263	3279
889.387	3443
889.511	3599
889.635	3481
889.759	3348
889.883	3340
890.006	3428
890.13	3542
890.254	3382
890.377	3409
890.501	3260
890.624	3241
890.748	3351
890.871	3241
890.995	3146
891.118	3165
891.241	3237
891.364	3291
891.488	3389
891.611	3237
891.734	3253
891.857	3355
891.98	3313
892.103	3374
892.226	3336
892.349	3268
892.471	3138
892.594	3283
892.717	3351
892.839	3317
892.962	3348
893.085	3412
893.207	3302
893.33	3218
893.452	3298
893.575	3389
893.697	3310
893.819	3553
893.941	3549
894.064	3507
894.186	3340
894.308	3310
894.43	3466
894.552	3614
894.674	3523
894.796	3306
894.918	3344
895.04	3336
895.161	3492
895.283	3416
895.405	3348
895.526	3443
895.648	3462
895.769	3469
895.891	3530
896.012	3530
896.134	3526
896.255	3428
896.376	3469
896.498	3416
896.619	3488
896.74	3439
896.861	3473
896.982	3781
897.103	3903
897.224	3633
897.345	3564
897.466	3458
897.587	3542
897.708	3686
897.828	3580
897.949	3488
898.07	3386
898.19	3477
898.311	3656
898.431	3523
898.552	3557
898.672	3625
898.792	3675
898.913	3553
899.033	3420
899.153	3340
899.273	3237
899.393	3370
899.513	3351
899.633	3332
899.753	3405
899.873	3401
899.993	3435
900.113	3401
900.232	3428
900.352	3382
900.472	3313
900.591	3207
900.711	3348
900.83	3272
900.95	3443
901.069	3526
901.189	3393
901.308	3203
901.427	3154
901.546	3237
901.665	3351
901.784	3393
901.904	3294
902.023	3188
902.141	3081
902.26	3036
902.379	3161
902.498	3135
902.617	3112
902.735	3245
902.854	3302
902.973	3218
903.091	3104
903.21	3123
903.328	3173
903.446	3188
903.565	3131
903.683	3279
903.801	3169
903.919	3306
904.038	3294
904.156	3211
904.274	3336
904.392	3283
904.51	3359
904.627	3355
904.745	3519
904.863	3542
904.981	3306
905.098	3218
905.216	3283
905.334	3359
905.451	3363
905.569	3370
905.686	3504
905.803	3488
905.921	3363
906.038	3515
906.155	3428
906.272	3340
906.389	3386
906.506	3272
906.623	3298
906.74	3340
906.857	3256
906.974	3317
907.091	3507
907.208	3603
907.324	3519
907.441	3473
907.557	3291
907.674	3226
907.79	3279
907.907	3359
908.023	3428
908.139	3462
908.256	3367
908.372	3409
908.488	3428
908.604	3336
908.72	3283
908.836	3370
908.952	3313
909.068	3348
909.184	3534
909.3	3443
909.415	3553
909.531	3504
909.647	3351
909.762	3405
909.878	3306
909.993	3409
910.108	3386
910.224	3420
910.339	3435
910.454	3393
910.57	3370
910.685	3325
910.8	3637
910.915	3606
911.03	3469
911.145	3340
911.259	3313
911.374	3359
911.489	3275
911.604	3291
911.718	3184
911.833	3203
911.947	3058
912.062	3013
912.176	3241
912.291	3283
912.405	3294
912.519	3507
912.633	3538
912.748	3409
912.862	3348
912.976	3214
913.09	3131
913.204	3188
913.318	3253
913.431	3382
913.545	3393
913.659	3450
913.772	3378
913.886	3264
914	3272
914.113	3420
914.226	3488
914.34	3450
914.453	3283
914.566	3473
914.68	3355
914.793	3363
914.906	3230
915.019	3154
915.132	3119
915.245	3256
915.358	3279
915.47	3298
915.583	3313
915.696	3340
915.809	3439
915.921	3477
916.034	3256
916.146	3279
916.259	3268
916.371	3458
916.483	3439
916.595	3329
916.708	3348
916.82	3378
916.932	3420
917.044	3370
917.156	3405
917.268	3264
917.38	3351
917.491	3367
917.603	3405
917.715	3534
917.826	3538
917.938	3443
918.049	3351
918.161	3462
918.272	3698
918.384	3599
918.495	3538
918.606	3363
918.717	3386
918.828	3443
918.939	3447
919.05	3351
919.161	3439
919.272	3218
919.383	3340
919.494	3549
919.604	3743
919.715	3553
919.826	3473
919.936	3492
920.047	3641
920.157	3625
920.267	3873
920.378	3717
920.488	3671
920.598	3850
920.708	4059
920.818	3918
920.928	3884
921.038	4116
921.148	4055
921.258	3785
921.368	3663
921.477	3644
921.587	3576
921.697	3466
921.806	3698
921.916	3591
922.025	3397
922.134	3409
922.244	3359
922.353	3485
922.462	3344
922.571	3291
922.68	3146
922.789	3138
922.898	3192
923.007	3176
923.116	3279
923.224	3214
923.333	3264
923.442	3154
923.55	3176
923.659	3233
923.767	3283
923.876	3150
923.984	3253
924.092	3173
924.201	3230
924.309	3272
924.417	3294
924.525	3253
924.633	3291
924.741	4219
924.849	3104
924.956	3348
925.064	3142
925.172	3112
925.279	3119
925.387	3260
925.494	3249
925.602	3378
925.709	3370
925.816	3211
925.924	3329
926.031	3447
926.138	3370
926.245	3416
926.352	3268
926.459	3507
926.566	3557
926.673	3370
926.779	3313
926.886	3287
926.993	3207
927.099	3207
927.206	3188
927.312	3176
927.419	3294
927.525	3272
927.631	3321
927.737	3203
927.843	3150
927.95	3077
928.056	3188
928.162	3241
928.267	3321
928.373	3857
928.479	3363
928.585	3100
928.69	3272
928.796	3325
928.901	3249
929.007	3131
929.112	3230
929.218	3249
929.323	3173
929.428	3218
929.533	3378
929.638	3138
929.743	3214
929.848	3336
929.953	3291
930.058	3203
930.163	3093
930.267	3085
930.372	3294
930.477	3112
930.581	3363
930.685	3237
930.79	3108
930.894	3146
930.998	3154
931.103	3332
931.207	3039
931.311	2990
931.415	2986
931.519	2830
931.623	2800
