Data from test_V78500241_817.txt Node
Date: Fri Mar 25 16:20:51 CST 2022
User: usil
Spectrometer: V785-0024
Trigger mode: 0
Integration Time (sec): 4.000000E-1
Scans to average: 1
Nonlinearity correction enabled: false
Boxcar width: 0
Storing dark spectrum: false
XAxis mode: Wavelengths
Number of Pixels in Spectrum: 1024
>>>>>Begin Spectral Data<<<<<
801.071	2937
801.214	2967
801.356	2914
801.499	2910
801.641	2868
801.783	2948
801.926	3043
802.068	2971
802.211	3005
802.353	3074
802.496	2956
802.638	3058
802.78	3070
802.923	3089
803.065	3028
803.208	2922
803.35	2956
803.492	2944
803.635	2971
803.777	2746
803.919	2834
804.061	3188
804.204	2944
804.346	2979
804.488	2864
804.63	3009
804.773	2899
804.915	2906
805.057	3146
805.199	2944
805.341	2960
805.483	3062
805.626	3047
805.768	2956
805.91	3104
806.052	3161
806.194	3051
806.336	3230
806.478	3013
806.62	3001
806.762	2998
806.904	3062
807.046	3150
807.188	2960
807.33	2944
807.472	2963
807.614	2933
807.756	2990
807.898	2941
808.04	2887
808.182	2994
808.324	2975
808.465	2899
808.607	2868
808.749	2815
808.891	2868
809.033	3001
809.174	3001
809.316	2880
809.458	2902
809.6	2785
809.741	2731
809.883	2781
810.025	2857
810.166	2868
810.308	2853
810.45	2864
810.591	2773
810.733	2807
810.875	2815
811.016	2773
811.158	2731
811.299	2842
811.441	2929
811.582	2918
811.724	2842
811.865	2876
812.007	2929
812.148	2883
812.29	2834
812.431	2899
812.573	2922
812.714	2956
812.855	3047
812.997	3058
813.138	3108
813.279	3039
813.421	2990
813.562	2963
813.703	2902
813.845	2868
813.986	2807
814.127	2750
814.268	2876
814.41	2819
814.551	2857
814.692	2872
814.833	2826
814.974	2925
815.115	2971
815.256	2826
815.397	2800
815.539	2864
815.68	2800
815.821	2777
815.962	2944
816.103	2925
816.244	2895
816.385	2861
816.526	2956
816.666	2876
816.807	2743
816.948	2868
817.089	2918
817.23	2887
817.371	2777
817.512	2819
817.653	2887
817.793	2842
817.934	2864
818.075	2960
818.216	3013
818.356	3013
818.497	2891
818.638	2796
818.778	2811
818.919	2804
819.06	2724
819.2	2864
819.341	2807
819.481	2788
819.622	2922
819.762	3081
819.903	3070
820.043	2925
820.184	2864
820.324	2925
820.465	3036
820.605	3013
820.746	2998
820.886	2929
821.026	3089
821.167	3127
821.307	3249
821.447	3283
821.588	3245
821.728	3214
821.868	3176
822.008	3119
822.149	3157
822.289	3249
822.429	3074
822.569	3100
822.709	3192
822.849	3055
822.99	3085
823.13	3180
823.27	3199
823.41	3100
823.55	3142
823.69	3131
823.83	3176
823.97	3116
824.11	3020
824.25	2967
824.389	3089
824.529	3112
824.669	3043
824.809	3222
824.949	3275
825.089	3226
825.228	3150
825.368	2933
825.508	2963
825.648	2967
825.787	3001
825.927	3005
826.067	2963
826.206	2975
826.346	3043
826.485	3047
826.625	3116
826.765	3260
826.904	3218
827.044	3017
827.183	2914
827.323	2861
827.462	3017
827.601	2967
827.741	2960
827.88	2948
828.02	2849
828.159	2979
828.298	3066
828.437	3131
828.577	3055
828.716	3245
828.855	3108
828.994	2952
829.134	2902
829.273	2895
829.412	2891
829.551	2880
829.69	2948
829.829	3020
829.968	3135
830.107	3066
830.246	3070
830.385	2971
830.524	2952
830.663	2845
830.802	2758
830.941	2705
831.08	2727
831.219	2792
831.357	2800
831.496	2994
831.635	2792
831.774	2689
831.913	2686
832.051	2583
832.19	2602
832.329	2724
832.467	2606
832.606	2552
832.744	2625
832.883	2636
833.022	2659
833.16	2678
833.299	2766
833.437	2727
833.576	2766
833.714	2792
833.852	2811
833.991	2788
834.129	2883
834.267	2895
834.406	2823
834.544	2918
834.682	2914
834.821	2910
834.959	3081
835.097	2948
835.235	3138
835.373	3028
835.511	3085
835.65	3001
835.788	3009
835.926	2895
836.064	2838
836.202	2876
836.34	3135
836.478	3180
836.615	3093
836.753	3188
836.891	3256
837.029	3195
837.167	3146
837.305	3097
837.443	3070
837.58	2986
837.718	3173
837.856	3123
837.993	3055
838.131	3138
838.269	3081
838.406	3116
838.544	3116
838.681	2986
838.819	2971
838.956	2834
839.094	2883
839.231	2944
839.369	3039
839.506	3405
839.643	3226
839.781	3039
839.918	3005
840.055	3100
840.193	3077
840.33	3093
840.467	3150
840.604	3214
840.742	3409
840.879	3081
841.016	3039
841.153	3176
841.29	3382
841.427	3302
841.564	3279
841.701	3340
841.838	3249
841.975	3203
842.112	3226
842.249	3104
842.385	3085
842.522	3306
842.659	3131
842.796	3089
842.933	3097
843.069	3116
843.206	3077
843.343	3226
843.479	3154
843.616	3173
843.752	2937
843.889	2918
844.025	3074
844.162	2922
844.298	3112
844.435	3020
844.571	2941
844.708	3116
844.844	3195
844.98	3279
845.117	3214
845.253	3085
845.389	3005
845.525	3146
845.661	3127
845.798	3039
845.934	3176
846.07	3097
846.206	3230
846.342	3382
846.478	3260
846.614	3100
846.75	3066
846.886	3066
847.022	3275
847.158	3192
847.294	3249
847.429	3283
847.565	3241
847.701	3492
847.837	3066
847.972	3020
848.108	3184
848.244	3173
848.379	3005
848.515	2952
848.65	2922
848.786	2998
848.921	3081
849.057	3119
849.192	3184
849.328	3070
849.463	3135
849.598	3108
849.734	3070
849.869	3017
850.004	2944
850.14	2986
850.275	2944
850.41	2880
850.545	2902
850.68	2941
850.815	2952
850.95	2979
851.085	3218
851.22	3127
851.355	3043
851.49	2979
851.625	3020
851.76	2986
851.895	2963
852.03	2960
852.165	3089
852.299	3135
852.434	3203
852.569	3173
852.703	3169
852.838	3291
852.973	3416
853.107	3348
853.242	3157
853.376	3104
853.511	2982
853.645	3097
853.78	3241
853.914	3150
854.048	3123
854.183	3077
854.317	3176
854.451	3325
854.585	3176
854.72	3119
854.854	3260
854.988	3062
855.122	3131
855.256	3013
855.39	3104
855.524	3260
855.658	3245
855.792	3237
855.926	3237
856.06	3275
856.194	3294
856.327	3157
856.461	3100
856.595	3104
856.729	3119
856.862	3253
856.996	3176
857.13	3253
857.263	3283
857.397	3298
857.53	3203
857.664	3253
857.797	3268
857.931	3272
858.064	3195
858.197	3241
858.331	3169
858.464	3123
858.597	3051
858.731	3131
858.864	3150
858.997	3100
859.13	3207
859.263	3165
859.396	3237
859.529	3123
859.662	3161
859.795	3093
859.928	3154
860.061	3310
860.194	3264
860.327	3180
860.46	3089
860.592	3298
860.725	3275
860.858	3291
860.99	3150
861.123	3093
861.256	3070
861.388	3150
861.521	3945
861.653	3081
861.786	3039
861.918	2986
862.05	3081
862.183	3142
862.315	3173
862.447	3233
862.58	3104
862.712	3005
862.844	2895
862.976	3055
863.108	3058
863.24	3332
863.372	2876
863.504	2960
863.636	2998
863.768	3051
863.9	2990
864.032	2944
864.164	2967
864.296	3036
864.428	3127
864.559	3104
864.691	3108
864.823	3074
864.954	3036
865.086	3051
865.217	3032
865.349	2986
865.48	3024
865.612	3009
865.743	3192
865.875	2986
866.006	3005
866.137	3009
866.269	2971
866.4	2963
866.531	2975
866.662	2948
866.793	2929
866.924	2929
867.055	2979
867.186	2963
867.317	2922
867.448	2872
867.579	2880
867.71	2853
867.841	2811
867.972	2906
868.103	2925
868.233	2899
868.364	2899
868.495	2956
868.625	3085
868.756	3195
868.886	2998
869.017	3051
869.147	3211
869.278	3184
869.408	3085
869.539	3070
869.669	3127
869.799	3089
869.929	3199
870.06	3100
870.19	3306
870.32	3310
870.45	3325
870.58	3389
870.71	3500
870.84	3458
870.97	3321
871.1	3260
871.23	3462
871.36	3500
871.489	3405
871.619	3431
871.749	3454
871.879	3466
872.008	3519
872.138	3363
872.267	3291
872.397	3184
872.526	3089
872.656	3009
872.785	3100
872.915	3260
873.044	3325
873.173	3279
873.303	3306
873.432	3249
873.561	3222
873.69	3184
873.819	3154
873.948	3214
874.077	3097
874.206	3051
874.335	3108
874.464	3272
874.593	3382
874.722	3260
874.851	3401
874.979	3382
875.108	3298
875.237	3218
875.365	3188
875.494	3199
875.623	3268
875.751	3089
875.88	3165
876.008	3188
876.136	3222
876.265	3389
876.393	3568
876.521	3428
876.65	3428
876.778	3367
876.906	3291
877.034	3195
877.162	3226
877.29	3230
877.418	3272
877.546	3268
877.674	3260
877.802	3291
877.93	3260
878.058	3184
878.185	3127
878.313	3218
878.441	3241
878.568	3077
878.696	3161
878.824	3260
878.951	3283
879.079	3485
879.206	3648
879.333	3431
879.461	3336
879.588	3397
879.715	3519
879.842	3618
879.97	3412
880.097	3142
880.224	3116
880.351	3188
880.478	3180
880.605	3272
880.732	3214
880.859	3526
880.986	3340
881.112	3355
881.239	3211
881.366	3112
881.493	3051
881.619	3070
881.746	3108
881.872	3097
881.999	3116
882.125	3161
882.252	3294
882.378	3321
882.505	3431
882.631	3321
882.757	3180
882.883	3222
883.01	3222
883.136	3142
883.262	3138
883.388	3127
883.514	3367
883.64	3367
883.766	3332
883.892	3218
884.018	3275
884.143	3424
884.269	3542
884.395	3214
884.52	3203
884.646	3214
884.772	3146
884.897	3157
885.023	3237
885.148	3332
885.274	3431
885.399	3374
885.524	3313
885.65	3260
885.775	3321
885.9	3287
886.025	3454
886.15	3412
886.275	3321
886.4	3260
886.525	3310
886.65	3313
886.775	3348
886.9	3485
887.025	3671
887.149	3405
887.274	3298
887.399	3211
887.523	3218
887.648	3211
887.773	3237
887.897	3424
888.021	3378
888.146	3306
888.27	3485
888.395	3534
888.519	3447
888.643	3454
888.767	3485
888.891	3340
889.015	3272
889.139	3264
889.263	3253
889.387	3424
889.511	3519
889.635	3420
889.759	3306
889.883	3306
890.006	3420
890.13	3507
890.254	3302
890.377	3348
890.501	3195
890.624	3207
890.748	3294
890.871	3199
890.995	3112
891.118	3112
891.241	3203
891.364	3253
891.488	3313
891.611	3135
891.734	3233
891.857	3344
891.98	3226
892.103	3329
892.226	3260
892.349	3222
892.471	3135
892.594	3256
892.717	3336
892.839	3291
892.962	3317
893.085	3374
893.207	3317
893.33	3195
893.452	3249
893.575	3359
893.697	3279
893.819	3500
893.941	3534
894.064	3416
894.186	3253
894.308	3287
894.43	3469
894.552	3542
894.674	3496
894.796	3317
894.918	3329
895.04	3279
895.161	3450
895.283	3374
895.405	3310
895.526	3397
895.648	3424
895.769	3412
895.891	3477
896.012	3469
896.134	3492
896.255	3488
896.376	3405
896.498	3348
896.619	3534
896.74	3363
896.861	3393
896.982	3705
897.103	3857
897.224	3568
897.345	3466
897.466	3435
897.587	3488
897.708	3618
897.828	3515
897.949	3458
898.07	3325
898.19	3416
898.311	3610
898.431	3462
898.552	3519
898.672	3572
898.792	3557
898.913	3534
899.033	3405
899.153	3317
899.273	3218
899.393	3275
899.513	3344
899.633	3340
899.753	3382
899.873	3310
899.993	3378
900.113	3359
900.232	3374
900.352	3336
900.472	3241
900.591	3203
900.711	3313
900.83	3230
900.95	3435
901.069	3530
901.189	3389
901.308	3199
901.427	3123
901.546	3203
901.665	3321
901.784	3313
901.904	3256
902.023	3135
902.141	3024
902.26	3005
902.379	3146
902.498	3062
902.617	3055
902.735	3226
902.854	3222
902.973	3207
903.091	3055
903.21	3039
903.328	3192
903.446	3127
903.565	3081
903.683	3222
903.801	3150
903.919	3226
904.038	3279
904.156	3173
904.274	3283
904.392	3260
904.51	3302
904.627	3359
904.745	3431
904.863	3477
904.981	3256
905.098	3180
905.216	3245
905.334	3283
905.451	3287
905.569	3317
905.686	3416
905.803	3481
905.921	3321
906.038	3428
906.155	3374
906.272	3279
906.389	3344
906.506	3249
906.623	3260
906.74	3264
906.857	3165
906.974	3279
907.091	3469
907.208	3614
907.324	3469
907.441	3367
907.557	3237
907.674	3268
907.79	3233
907.907	3249
908.023	3382
908.139	3329
908.256	3317
908.372	3382
908.488	3382
908.604	3237
908.72	3218
908.836	3321
908.952	3298
909.068	3359
909.184	3496
909.3	3412
909.415	3454
909.531	3496
909.647	3272
909.762	3306
909.878	3283
909.993	3325
910.108	3336
910.224	3348
910.339	3458
910.454	3317
910.57	3298
910.685	3253
910.8	3610
910.915	3549
911.03	3397
911.145	3291
911.259	3245
911.374	3332
911.489	3222
911.604	3214
911.718	3150
911.833	3146
911.947	3062
912.062	3039
912.176	3146
912.291	3154
912.405	3233
912.519	3462
912.633	3477
912.748	3332
912.862	3279
912.976	3176
913.09	3028
913.204	3165
913.318	3233
913.431	3378
913.545	3340
913.659	3435
913.772	3329
913.886	3214
914	3203
914.113	3374
914.226	3405
914.34	3412
914.453	3199
914.566	3370
914.68	3287
914.793	3317
914.906	3180
915.019	3146
915.132	3104
915.245	3192
915.358	3211
915.47	3226
915.583	3279
915.696	3321
915.809	3424
915.921	3424
916.034	3260
916.146	3203
916.259	3222
916.371	3405
916.483	3359
916.595	3275
916.708	3363
916.82	3332
916.932	3306
917.044	3279
917.156	3363
917.268	3233
917.38	3310
917.491	3302
917.603	3363
917.715	3435
917.826	3469
917.938	3401
918.049	3306
918.161	3458
918.272	3595
918.384	3545
918.495	3534
918.606	3344
918.717	3275
918.828	3401
918.939	3458
919.05	3340
919.161	3363
919.272	3165
919.383	3275
919.494	3477
919.604	3694
919.715	3450
919.826	3431
919.936	3428
920.047	3564
920.157	3542
920.267	3755
920.378	3595
920.488	3576
920.598	3759
920.708	3964
920.818	3857
920.928	3854
921.038	4048
921.148	3964
921.258	3724
921.368	3576
921.477	3545
921.587	3572
921.697	3443
921.806	3641
921.916	3530
922.025	3344
922.134	3344
922.244	3279
922.353	3450
922.462	3272
922.571	3214
922.68	3104
922.789	3089
922.898	3123
923.007	3062
923.116	3199
923.224	3176
923.333	3146
923.442	3081
923.55	3131
923.659	3135
923.767	3218
923.876	3142
923.984	3241
924.092	3116
924.201	3214
924.309	3233
924.417	3249
924.525	3192
924.633	3226
924.741	4219
924.849	3081
924.956	3272
925.064	3127
925.172	3074
925.279	3119
925.387	3199
925.494	3195
925.602	3363
925.709	3313
925.816	3226
925.924	3302
926.031	3344
926.138	3351
926.245	3367
926.352	3294
926.459	3405
926.566	3458
926.673	3348
926.779	3279
926.886	3264
926.993	3127
927.099	3089
927.206	3123
927.312	3085
927.419	3237
927.525	3226
927.631	3306
927.737	3165
927.843	3127
927.95	3058
928.056	3123
928.162	3176
928.267	3241
928.373	3793
928.479	3306
928.585	3085
928.69	3195
928.796	3294
928.901	3188
929.007	3058
929.112	3214
929.218	3184
929.323	3142
929.428	3142
929.533	3294
929.638	3108
929.743	3199
929.848	3268
929.953	3226
930.058	3135
930.163	2952
930.267	3066
930.372	3203
930.477	3062
930.581	3317
930.685	3211
930.79	3017
930.894	3161
930.998	3127
931.103	3260
931.207	2979
931.311	2918
931.415	2910
931.519	2800
931.623	2838
