Data from test_V78500241_1750.txt Node
Date: Fri Mar 25 16:27:19 CST 2022
User: usil
Spectrometer: V785-0024
Trigger mode: 0
Integration Time (sec): 4.000000E-1
Scans to average: 1
Nonlinearity correction enabled: false
Boxcar width: 0
Storing dark spectrum: false
XAxis mode: Wavelengths
Number of Pixels in Spectrum: 1024
>>>>>Begin Spectral Data<<<<<
801.071	2895
801.214	2937
801.356	2895
801.499	2929
801.641	2891
801.783	2902
801.926	3055
802.068	2967
802.211	3009
802.353	3043
802.496	2967
802.638	3051
802.78	3093
802.923	3097
803.065	2990
803.208	2902
803.35	2910
803.492	2956
803.635	2944
803.777	2766
803.919	2887
804.061	3245
804.204	2982
804.346	2906
804.488	2891
804.63	3036
804.773	2887
804.915	2971
805.057	3100
805.199	2963
805.341	2986
805.483	3020
805.626	2998
805.768	2990
805.91	3085
806.052	3127
806.194	3024
806.336	3233
806.478	3013
806.62	2982
806.762	2986
806.904	3081
807.046	3173
807.188	3028
807.33	2944
807.472	3024
807.614	2918
807.756	2990
807.898	2925
808.04	2944
808.182	2998
808.324	2948
808.465	2914
808.607	2914
808.749	2823
808.891	2864
809.033	3013
809.174	2990
809.316	2902
809.458	2925
809.6	2792
809.741	2777
809.883	2777
810.025	2876
810.166	2887
810.308	2849
810.45	2853
810.591	2796
810.733	2800
810.875	2861
811.016	2804
811.158	2766
811.299	2807
811.441	2963
811.582	2891
811.724	2811
811.865	2868
812.007	2895
812.148	2845
812.29	2872
812.431	2914
812.573	2982
812.714	2952
812.855	3055
812.997	3070
813.138	3142
813.279	3020
813.421	3009
813.562	2982
813.703	2895
813.845	2902
813.986	2800
814.127	2754
814.268	2861
814.41	2891
814.551	2819
814.692	2887
814.833	2819
814.974	2925
815.115	2986
815.256	2826
815.397	2815
815.539	2876
815.68	2807
815.821	2823
815.962	2952
816.103	2956
816.244	2872
816.385	2895
816.526	2967
816.666	2918
816.807	2762
816.948	2895
817.089	2963
817.23	2876
817.371	2777
817.512	2823
817.653	2857
817.793	2834
817.934	2910
818.075	2963
818.216	2971
818.356	3013
818.497	2887
818.638	2796
818.778	2861
818.919	2830
819.06	2750
819.2	2899
819.341	2804
819.481	2804
819.622	2937
819.762	3123
819.903	3043
820.043	2918
820.184	2906
820.324	2929
820.465	3036
820.605	3020
820.746	3032
820.886	2960
821.026	3119
821.167	3127
821.307	3230
821.447	3306
821.588	3283
821.728	3222
821.868	3169
822.008	3089
822.149	3188
822.289	3245
822.429	3119
822.569	3066
822.709	3176
822.849	3036
822.99	3062
823.13	3165
823.27	3169
823.41	3112
823.55	3176
823.69	3146
823.83	3192
823.97	3131
824.11	3017
824.25	3001
824.389	3104
824.529	3157
824.669	3112
824.809	3192
824.949	3233
825.089	3188
825.228	3165
825.368	3024
825.508	2952
825.648	2982
825.787	3039
825.927	3024
826.067	3009
826.206	2998
826.346	3058
826.485	3058
826.625	3127
826.765	3279
826.904	3203
827.044	2998
827.183	2941
827.323	2849
827.462	2994
827.601	2902
827.741	2956
827.88	2948
828.02	2887
828.159	2986
828.298	3039
828.437	3157
828.577	3032
828.716	3275
828.855	3100
828.994	2941
829.134	2910
829.273	2929
829.412	2853
829.551	2834
829.69	2902
829.829	2982
829.968	3112
830.107	3013
830.246	3039
830.385	2918
830.524	2922
830.663	2830
830.802	2750
830.941	2663
831.08	2678
831.219	2769
831.357	2769
831.496	2967
831.635	2727
831.774	2632
831.913	2682
832.051	2568
832.19	2583
832.329	2663
832.467	2556
832.606	2480
832.744	2556
832.883	2606
833.022	2598
833.16	2674
833.299	2686
833.437	2705
833.576	2682
833.714	2686
833.852	2769
833.991	2800
834.129	2819
834.267	2876
834.406	2807
834.544	2861
834.682	2895
834.821	2887
834.959	3066
835.097	2922
835.235	3051
835.373	2994
835.511	3009
835.65	2952
835.788	2956
835.926	2849
836.064	2830
836.202	2849
836.34	3062
836.478	3180
836.615	3070
836.753	3142
836.891	3203
837.029	3165
837.167	3116
837.305	3081
837.443	3017
837.58	2960
837.718	3131
837.856	3047
837.993	3051
838.131	3116
838.269	3112
838.406	3135
838.544	3100
838.681	2956
838.819	2914
838.956	2800
839.094	2849
839.231	2891
839.369	3005
839.506	3348
839.643	3203
839.781	3017
839.918	3001
840.055	3058
840.193	3051
840.33	3017
840.467	3089
840.604	3123
840.742	3428
840.879	3077
841.016	3039
841.153	3066
841.29	3370
841.427	3275
841.564	3272
841.701	3291
841.838	3214
841.975	3233
842.112	3226
842.249	3100
842.385	3020
842.522	3279
842.659	3100
842.796	3070
842.933	3138
843.069	3055
843.206	3036
843.343	3214
843.479	3093
843.616	3131
843.752	2929
843.889	2883
844.025	3077
844.162	2887
844.298	3127
844.435	2967
844.571	2914
844.708	3062
844.844	3199
844.98	3268
845.117	3245
845.253	3085
845.389	3005
845.525	3116
845.661	3112
845.798	2986
845.934	3104
846.07	3070
846.206	3214
846.342	3317
846.478	3211
846.614	3123
846.75	3074
846.886	3036
847.022	3241
847.158	3142
847.294	3188
847.429	3260
847.565	3203
847.701	3496
847.837	3009
847.972	2986
848.108	3104
848.244	3138
848.379	2994
848.515	2925
848.65	2895
848.786	2956
848.921	3055
849.057	3089
849.192	3142
849.328	3066
849.463	3108
849.598	3036
849.734	3058
849.869	3001
850.004	2933
850.14	2933
850.275	2948
850.41	2853
850.545	2891
850.68	2922
850.815	3020
850.95	2998
851.085	3218
851.22	3108
851.355	3043
851.49	3001
851.625	2982
851.76	3005
851.895	2902
852.03	2895
852.165	3024
852.299	3100
852.434	3176
852.569	3135
852.703	3176
852.838	3195
852.973	3389
853.107	3355
853.242	3165
853.376	3104
853.511	2982
853.645	3028
853.78	3237
853.914	3131
854.048	3112
854.183	3077
854.317	3157
854.451	3291
854.585	3135
854.72	3100
854.854	3192
854.988	3020
855.122	3081
855.256	2990
855.39	3104
855.524	3211
855.658	3154
855.792	3154
855.926	3199
856.06	3199
856.194	3253
856.327	3138
856.461	3055
856.595	3077
856.729	3131
856.862	3237
856.996	3165
857.13	3188
857.263	3214
857.397	3272
857.53	3104
857.664	3180
857.797	3249
857.931	3294
858.064	3161
858.197	3233
858.331	3146
858.464	3085
858.597	3032
858.731	3142
858.864	3089
858.997	3077
859.13	3142
859.263	3150
859.396	3173
859.529	3093
859.662	3077
859.795	3058
859.928	3104
860.061	3272
860.194	3302
860.327	3138
860.46	3100
860.592	3230
860.725	3241
860.858	3222
860.99	3077
861.123	3108
861.256	3055
861.388	3127
861.521	3960
861.653	3055
861.786	2979
861.918	3001
862.05	3043
862.183	3100
862.315	3150
862.447	3180
862.58	3104
862.712	2933
862.844	2823
862.976	2994
863.108	2986
863.24	3317
863.372	2906
863.504	3009
863.636	3001
863.768	3051
863.9	2990
864.032	2906
864.164	2883
864.296	3013
864.428	3093
864.559	3081
864.691	3074
864.823	3024
864.954	3013
865.086	3036
865.217	3047
865.349	2937
865.48	2975
865.612	3005
865.743	3161
865.875	2986
866.006	2960
866.137	2975
866.269	2922
866.4	2918
866.531	2910
866.662	2922
866.793	2918
866.924	2906
867.055	3001
867.186	2910
867.317	2868
867.448	2830
867.579	2853
867.71	2864
867.841	2842
867.972	2868
868.103	2899
868.233	2872
868.364	2868
868.495	2891
868.625	3074
868.756	3131
868.886	2979
869.017	3017
869.147	3176
869.278	3127
869.408	3047
869.539	2994
869.669	3089
869.799	3005
869.929	3203
870.06	3142
870.19	3317
870.32	3275
870.45	3306
870.58	3340
870.71	3420
870.84	3393
870.97	3283
871.1	3260
871.23	3466
871.36	3431
871.489	3363
871.619	3386
871.749	3405
871.879	3416
872.008	3469
872.138	3351
872.267	3283
872.397	3138
872.526	3131
872.656	2986
872.785	3085
872.915	3207
873.044	3340
873.173	3226
873.303	3214
873.432	3211
873.561	3214
873.69	3165
873.819	3138
873.948	3192
874.077	3108
874.206	3009
874.335	3062
874.464	3203
874.593	3344
874.722	3264
874.851	3363
874.979	3374
875.108	3321
875.237	3184
875.365	3142
875.494	3138
875.623	3207
875.751	3081
875.88	3097
876.008	3180
876.136	3230
876.265	3351
876.393	3515
876.521	3397
876.65	3409
876.778	3306
876.906	3230
877.034	3211
877.162	3207
877.29	3214
877.418	3222
877.546	3245
877.674	3237
877.802	3218
877.93	3230
878.058	3188
878.185	3093
878.313	3211
878.441	3256
878.568	3062
878.696	3173
878.824	3226
878.951	3310
879.079	3450
879.206	3637
879.333	3431
879.461	3340
879.588	3370
879.715	3447
879.842	3591
879.97	3424
880.097	3180
880.224	3112
880.351	3214
880.478	3188
880.605	3214
880.732	3188
880.859	3485
880.986	3329
881.112	3317
881.239	3180
881.366	3085
881.493	3036
881.619	3024
881.746	3074
881.872	3089
881.999	3081
882.125	3146
882.252	3199
882.378	3317
882.505	3435
882.631	3279
882.757	3165
882.883	3211
883.01	3199
883.136	3165
883.262	3074
883.388	3112
883.514	3344
883.64	3405
883.766	3336
883.892	3199
884.018	3237
884.143	3428
884.269	3496
884.395	3184
884.52	3142
884.646	3176
884.772	3135
884.897	3112
885.023	3226
885.148	3336
885.274	3439
885.399	3348
885.524	3268
885.65	3298
885.775	3294
885.9	3287
886.025	3439
886.15	3382
886.275	3298
886.4	3230
886.525	3287
886.65	3245
886.775	3310
886.9	3492
887.025	3587
887.149	3412
887.274	3245
887.399	3169
887.523	3199
887.648	3207
887.773	3199
887.897	3355
888.021	3401
888.146	3287
888.27	3409
888.395	3519
888.519	3409
888.643	3431
888.767	3412
888.891	3283
889.015	3226
889.139	3283
889.263	3214
889.387	3393
889.511	3526
889.635	3405
889.759	3329
889.883	3313
890.006	3386
890.13	3481
890.254	3272
890.377	3321
890.501	3214
890.624	3169
890.748	3306
890.871	3154
890.995	3135
891.118	3077
891.241	3150
891.364	3230
891.488	3329
891.611	3173
891.734	3218
891.857	3332
891.98	3249
892.103	3291
892.226	3279
892.349	3195
892.471	3154
892.594	3268
892.717	3268
892.839	3230
892.962	3249
893.085	3389
893.207	3268
893.33	3165
893.452	3218
893.575	3344
893.697	3233
893.819	3443
893.941	3435
894.064	3481
894.186	3233
894.308	3294
894.43	3431
894.552	3561
894.674	3473
894.796	3241
894.918	3291
895.04	3287
895.161	3412
895.283	3412
895.405	3287
895.526	3348
895.648	3431
895.769	3435
895.891	3450
896.012	3447
896.134	3462
896.255	3378
896.376	3374
896.498	3348
896.619	3393
896.74	3355
896.861	3393
896.982	3667
897.103	3846
897.224	3599
897.345	3485
897.466	3386
897.587	3488
897.708	3606
897.828	3530
897.949	3424
898.07	3348
898.19	3405
898.311	3557
898.431	3466
898.552	3538
898.672	3606
898.792	3625
898.913	3504
899.033	3412
899.153	3253
899.273	3173
899.393	3268
899.513	3275
899.633	3344
899.753	3325
899.873	3279
899.993	3389
900.113	3329
900.232	3389
900.352	3336
900.472	3310
900.591	3173
900.711	3317
900.83	3230
900.95	3431
901.069	3485
901.189	3329
901.308	3188
901.427	3119
901.546	3173
901.665	3260
901.784	3313
901.904	3256
902.023	3135
902.141	3001
902.26	2956
902.379	3127
902.498	3074
902.617	3070
902.735	3211
902.854	3249
902.973	3199
903.091	3036
903.21	3108
903.328	3135
903.446	3112
903.565	3127
903.683	3207
903.801	3116
903.919	3226
904.038	3332
904.156	3195
904.274	3283
904.392	3256
904.51	3325
904.627	3302
904.745	3450
904.863	3458
904.981	3245
905.098	3176
905.216	3214
905.334	3302
905.451	3313
905.569	3310
905.686	3428
905.803	3431
905.921	3275
906.038	3435
906.155	3363
906.272	3260
906.389	3313
906.506	3253
906.623	3275
906.74	3268
906.857	3165
906.974	3207
907.091	3485
907.208	3530
907.324	3485
907.441	3397
907.557	3241
907.674	3237
907.79	3230
907.907	3298
908.023	3424
908.139	3374
908.256	3313
908.372	3405
908.488	3313
908.604	3249
908.72	3226
908.836	3306
908.952	3283
909.068	3302
909.184	3504
909.3	3389
909.415	3492
909.531	3481
909.647	3272
909.762	3306
909.878	3237
909.993	3310
910.108	3340
910.224	3374
910.339	3378
910.454	3332
910.57	3275
910.685	3268
910.8	3580
910.915	3542
911.03	3473
911.145	3275
911.259	3287
911.374	3332
911.489	3203
911.604	3272
911.718	3123
911.833	3146
911.947	3062
912.062	2971
912.176	3180
912.291	3195
912.405	3169
912.519	3412
912.633	3473
912.748	3344
912.862	3279
912.976	3138
913.09	3066
913.204	3176
913.318	3226
913.431	3306
913.545	3306
913.659	3370
913.772	3306
913.886	3237
914	3203
914.113	3348
914.226	3435
914.34	3363
914.453	3165
914.566	3420
914.68	3275
914.793	3310
914.906	3142
915.019	3112
915.132	3070
915.245	3161
915.358	3199
915.47	3256
915.583	3249
915.696	3302
915.809	3374
915.921	3435
916.034	3230
916.146	3237
916.259	3211
916.371	3340
916.483	3348
916.595	3279
916.708	3321
916.82	3313
916.932	3329
917.044	3348
917.156	3393
917.268	3310
917.38	3298
917.491	3310
917.603	3306
917.715	3439
917.826	3515
917.938	3374
918.049	3294
918.161	3409
918.272	3576
918.384	3580
918.495	3526
918.606	3310
918.717	3294
918.828	3389
918.939	3401
919.05	3302
919.161	3378
919.272	3138
919.383	3272
919.494	3515
919.604	3686
919.715	3473
919.826	3466
919.936	3424
920.047	3622
920.157	3538
920.267	3751
920.378	3625
920.488	3595
920.598	3804
920.708	3975
920.818	3789
920.928	3774
921.038	4017
921.148	3983
921.258	3686
921.368	3648
921.477	3587
921.587	3553
921.697	3466
921.806	3614
921.916	3530
922.025	3336
922.134	3370
922.244	3298
922.353	3393
922.462	3256
922.571	3233
922.68	3097
922.789	3039
922.898	3127
923.007	3127
923.116	3173
923.224	3154
923.333	3146
923.442	3097
923.55	3070
923.659	3146
923.767	3195
923.876	3055
923.984	3241
924.092	3116
924.201	3180
924.309	3222
924.417	3302
924.525	3161
924.633	3264
924.741	3964
924.849	3085
924.956	3275
925.064	3108
925.172	3013
925.279	3116
925.387	3184
925.494	3214
925.602	3363
925.709	3355
925.816	3230
925.924	3302
926.031	3382
926.138	3329
926.245	3310
926.352	3203
926.459	3439
926.566	3515
926.673	3283
926.779	3275
926.886	3249
926.993	3146
927.099	3138
927.206	3112
927.312	3123
927.419	3222
927.525	3157
927.631	3310
927.737	3173
927.843	3135
927.95	3047
928.056	3123
928.162	3188
928.267	3256
928.373	3842
928.479	3313
928.585	3051
928.69	3192
928.796	3268
928.901	3188
929.007	3020
929.112	3226
929.218	3180
929.323	3119
929.428	3169
929.533	3310
929.638	3116
929.743	3161
929.848	3260
929.953	3207
930.058	3100
930.163	2986
930.267	3043
930.372	3184
930.477	3047
930.581	3310
930.685	3146
930.79	3017
930.894	3127
930.998	3047
931.103	3279
931.207	2944
931.311	2986
931.415	2922
931.519	2766
931.623	2792
