Data from glass_V78500241_971.txt Node
Date: Wed Sep 01 19:21:13 CST 2021
User: usil
Spectrometer: V785-0024
Trigger mode: 0
Integration Time (sec): 4.000000E-1
Scans to average: 1
Nonlinearity correction enabled: false
Boxcar width: 0
Storing dark spectrum: false
XAxis mode: Wavelengths
Number of Pixels in Spectrum: 1024
>>>>>Begin Spectral Data<<<<<
801.071	3781
801.214	3732
801.356	3724
801.499	3762
801.641	3743
801.783	3789
801.926	3854
802.068	3842
802.211	3861
802.353	3907
802.496	3789
802.638	3865
802.78	3907
802.923	3960
803.065	3873
803.208	3850
803.35	3869
803.492	3922
803.635	3903
803.777	3831
803.919	3907
804.061	4173
804.204	3972
804.346	3964
804.488	3911
804.63	4055
804.773	3972
804.915	4025
805.057	4135
805.199	4029
805.341	4090
805.483	4166
805.626	4162
805.768	4173
805.91	4211
806.052	4227
806.194	4192
806.336	4424
806.478	4200
806.62	4204
806.762	4200
806.904	4291
807.046	4363
807.188	4253
807.33	4173
807.472	4272
807.614	4169
807.756	4272
807.898	4219
808.04	4246
808.182	4299
808.324	4344
808.465	4360
808.607	4500
808.749	4451
808.891	4497
809.033	4489
809.174	4413
809.316	4287
809.458	4280
809.6	4181
809.741	4188
809.883	4162
810.025	4207
810.166	4219
810.308	4219
810.45	4223
810.591	4265
810.733	4325
810.875	4538
811.016	4824
811.158	5117
811.299	5242
811.441	5277
811.582	5064
811.724	4691
811.865	4474
812.007	4432
812.148	4417
812.29	4466
812.431	4440
812.573	4402
812.714	4371
812.855	4383
812.997	4455
813.138	4527
813.279	4413
813.421	4428
813.562	4424
813.703	4341
813.845	4375
813.986	4280
814.127	4257
814.268	4291
814.41	4284
814.551	4303
814.692	4337
814.833	4299
814.974	4310
815.115	4333
815.256	4234
815.397	4238
815.539	4287
815.68	4211
815.821	4185
815.962	4310
816.103	4276
816.244	4322
816.385	4257
816.526	4268
816.666	4230
816.807	4131
816.948	4215
817.089	4166
817.23	4162
817.371	4051
817.512	4036
817.653	4078
817.793	4051
817.934	4074
818.075	4082
818.216	4040
818.356	4078
818.497	4006
818.638	3930
818.778	3960
818.919	3865
819.06	3907
819.2	3945
819.341	3850
819.481	3903
819.622	3918
819.762	4010
819.903	3915
820.043	3865
820.184	3800
820.324	3857
820.465	3903
820.605	3869
820.746	3888
820.886	3793
821.026	3949
821.167	3941
821.307	3994
821.447	3953
821.588	3937
821.728	3945
821.868	3972
822.008	3854
822.149	3892
822.289	3926
822.429	3774
822.569	3789
822.709	3781
822.849	3709
822.99	3701
823.13	3759
823.27	3789
823.41	3751
823.55	3740
823.69	3740
823.83	3774
823.97	3656
824.11	3625
824.25	3637
824.389	3690
824.529	3690
824.669	3622
824.809	3728
824.949	3755
825.089	3736
825.228	3728
825.368	3606
825.508	3564
825.648	3572
825.787	3667
825.927	3671
826.067	3663
826.206	3682
826.346	3781
826.485	3808
826.625	3873
826.765	3960
826.904	3876
827.044	3591
827.183	3511
827.323	3416
827.462	3496
827.601	3454
827.741	3435
827.88	3481
828.02	3431
828.159	3481
828.298	3488
828.437	3534
828.577	3534
828.716	3606
828.855	3466
828.994	3393
829.134	3378
829.273	3450
829.412	3386
829.551	3348
829.69	3378
829.829	3409
829.968	3488
830.107	3523
830.246	3477
830.385	3401
830.524	3374
830.663	3317
830.802	3249
830.941	3218
831.08	3218
831.219	3249
831.357	3256
831.496	3397
831.635	3233
831.774	3161
831.913	3188
832.051	3146
832.19	3135
832.329	3241
832.467	3116
832.606	3085
832.744	3161
832.883	3207
833.022	3203
833.16	3245
833.299	3264
833.437	3363
833.576	3393
833.714	3416
833.852	3458
833.991	3450
834.129	3458
834.267	3428
834.406	3393
834.544	3370
834.682	3416
834.821	3424
834.959	3606
835.097	3447
835.235	3549
835.373	3481
835.511	3500
835.65	3519
835.788	3466
835.926	3393
836.064	3367
836.202	3409
836.34	3549
836.478	3591
836.615	3553
836.753	3641
836.891	3633
837.029	3614
837.167	3587
837.305	3557
837.443	3549
837.58	3523
837.718	3584
837.856	3584
837.993	3530
838.131	3584
838.269	3610
838.406	3584
838.544	3549
838.681	3485
838.819	3458
838.956	3397
839.094	3420
839.231	3458
839.369	3511
839.506	3732
839.643	3622
839.781	3504
839.918	3488
840.055	3553
840.193	3545
840.33	3561
840.467	3580
840.604	3629
840.742	3819
840.879	3576
841.016	3572
841.153	3610
841.29	3789
841.427	3740
841.564	3717
841.701	3762
841.838	3736
841.975	3652
842.112	3717
842.249	3660
842.385	3667
842.522	3869
842.659	3698
842.796	3713
842.933	3701
843.069	3717
843.206	3755
843.343	3797
843.479	3812
843.616	3835
843.752	3682
843.889	3698
844.025	3873
844.162	3747
844.298	3880
844.435	3819
844.571	3785
844.708	3918
844.844	4017
844.98	3983
845.117	4013
845.253	3918
845.389	3937
845.525	4006
845.661	3975
845.798	3934
845.934	3960
846.07	3911
846.206	4128
846.342	4147
846.478	4086
846.614	3987
846.75	3975
846.886	3930
847.022	4017
847.158	4010
847.294	4059
847.429	4010
847.565	3998
847.701	4291
847.837	3915
847.972	3873
848.108	4029
848.244	3972
848.379	3835
848.515	3831
848.65	3819
848.786	3869
848.921	3835
849.057	3956
849.192	3975
849.328	3907
849.463	3915
849.598	3915
849.734	3842
849.869	3861
850.004	3842
850.14	3804
850.275	3800
850.41	3740
850.545	3740
850.68	3759
850.815	3789
850.95	3797
851.085	3930
851.22	3896
851.355	3850
851.49	3762
851.625	3808
851.76	3808
851.895	3720
852.03	3736
852.165	3804
852.299	3884
852.434	3934
852.569	3876
852.703	3896
852.838	3937
852.973	4036
853.107	4002
853.242	3941
853.376	3831
853.511	3774
853.645	3827
853.78	3956
853.914	3873
854.048	3907
854.183	3911
854.317	3937
854.451	4112
854.585	3937
854.72	3968
854.854	4090
854.988	3945
855.122	4021
855.256	3899
855.39	4048
855.524	4150
855.658	4116
855.792	4109
855.926	4128
856.06	4200
856.194	4204
856.327	4154
856.461	4177
856.595	4169
856.729	4143
856.862	4276
856.996	4234
857.13	4310
857.263	4341
857.397	4344
857.53	4318
857.664	4310
857.797	4417
857.931	4421
858.064	4424
858.197	4497
858.331	4402
858.464	4363
858.597	4325
858.731	4436
858.864	4443
858.997	4459
859.13	4523
859.263	4554
859.396	4626
859.529	4531
859.662	4504
859.795	4523
859.928	4584
860.061	4710
860.194	4748
860.327	4641
860.46	4672
860.592	4748
860.725	4786
860.858	4778
860.99	4729
861.123	4691
861.256	4664
861.388	4805
861.521	5501
861.653	4733
861.786	4714
861.918	4805
862.05	4809
862.183	4862
862.315	4862
862.447	4923
862.58	4870
862.712	4862
862.844	4771
862.976	4930
863.108	4885
863.24	5242
863.372	4824
863.504	4881
863.636	4892
863.768	4999
863.9	4976
864.032	4953
864.164	4984
864.296	5048
864.428	5098
864.559	5064
864.691	5136
864.823	5174
864.954	5155
865.086	5174
865.217	5109
865.349	5159
865.48	5155
865.612	5212
865.743	5273
865.875	5227
866.006	5277
866.137	5246
866.269	5288
866.4	5261
866.531	5250
866.662	5250
866.793	5345
866.924	5296
867.055	5307
867.186	5368
867.317	5395
867.448	5364
867.579	5391
867.71	5353
867.841	5398
867.972	5444
868.103	5478
868.233	5516
868.364	5558
868.495	5581
868.625	5676
868.756	5752
868.886	5699
869.017	5752
869.147	5893
869.278	5893
869.408	5779
869.539	5836
869.669	5866
869.799	5931
869.929	5908
870.06	6019
870.19	6205
870.32	6186
870.45	6323
870.58	6304
870.71	6429
870.84	6433
870.97	6456
871.1	6429
871.23	6631
871.36	6726
871.489	6700
871.619	6749
871.749	6837
871.879	6829
872.008	6966
872.138	7004
872.267	6935
872.397	7034
872.526	7050
872.656	7061
872.785	7183
872.915	7392
873.044	7537
873.173	7613
873.303	7674
873.432	7765
873.561	7860
873.69	7917
873.819	8046
873.948	8195
874.077	8256
874.206	8313
874.335	8465
874.464	8667
874.593	8868
874.722	8990
874.851	9123
874.979	9203
875.108	9374
875.237	9447
875.365	9466
875.494	9679
875.623	9937
875.751	9865
875.88	10055
876.008	10154
876.136	10348
876.265	10535
876.393	10645
876.521	10702
876.65	10672
876.778	10889
876.906	10930
877.034	10995
877.162	11102
877.29	11166
877.418	11326
877.546	11368
877.674	11497
877.802	11459
877.93	11566
878.058	11505
878.185	11547
878.313	11581
878.441	11760
878.568	11748
878.696	11828
878.824	11855
878.951	11878
879.079	12034
879.206	12140
879.333	12144
879.461	11973
879.588	12026
879.715	12060
879.842	12228
879.97	12068
880.097	11805
880.224	11756
880.351	11832
880.478	11961
880.605	11851
880.732	11722
880.859	11935
880.986	11882
881.112	11798
881.239	11748
881.366	11680
881.493	11684
881.619	11665
881.746	11608
881.872	11463
881.999	11516
882.125	11486
882.252	11630
882.378	11486
882.505	11604
882.631	11341
882.757	11337
882.883	11284
883.01	11189
883.136	11273
883.262	11117
883.388	11117
883.514	11181
883.64	11208
883.766	11071
883.892	11010
884.018	11006
884.143	11102
884.269	11174
884.395	10835
884.52	10771
884.646	10782
884.772	10672
884.897	10660
885.023	10675
885.148	10744
885.274	10774
885.399	10714
885.524	10733
885.65	10588
885.775	10550
885.9	10580
886.025	10664
886.15	10596
886.275	10447
886.4	10424
886.525	10405
886.65	10405
886.775	10371
886.9	10497
887.025	10615
887.149	10322
887.274	10261
887.399	10249
887.523	10192
887.648	10139
887.773	10135
887.897	10253
888.021	10268
888.146	10192
888.27	10265
888.395	10223
888.519	10173
888.643	10246
888.767	10112
888.891	10086
889.015	10006
889.139	10048
889.263	10071
889.387	10051
889.511	10082
889.635	10090
889.759	10002
889.883	10044
890.006	10051
890.13	10063
890.254	9861
890.377	9956
890.501	9854
890.624	9922
890.748	9983
890.871	9759
890.995	9785
891.118	9663
891.241	9827
891.364	9701
891.488	9827
891.611	9720
891.734	9732
891.857	9808
891.98	9694
892.103	9785
892.226	9747
892.349	9633
892.471	9587
892.594	9538
892.717	9610
892.839	9648
892.962	9553
893.085	9667
893.207	9534
893.33	9599
893.452	9523
893.575	9701
893.697	9519
893.819	9625
893.941	9652
894.064	9637
894.186	9450
894.308	9447
894.43	9523
894.552	9576
894.674	9599
894.796	9348
894.918	9428
895.04	9389
895.161	9397
895.283	9420
895.405	9272
895.526	9279
895.648	9253
895.769	9203
895.891	9279
896.012	9287
896.134	9195
896.255	9222
896.376	9127
896.498	9173
896.619	9154
896.74	9085
896.861	9131
896.982	9336
897.103	9291
897.224	9138
897.345	9108
897.466	9058
897.587	9051
897.708	9081
897.828	9097
897.949	8998
898.07	8891
898.19	8891
898.311	9009
898.431	8933
898.552	8967
898.672	8986
898.792	8963
898.913	8861
899.033	8788
899.153	8750
899.273	8651
899.393	8750
899.513	8773
899.633	8743
899.753	8800
899.873	8712
899.993	8754
900.113	8693
900.232	8697
900.352	8667
900.472	8579
900.591	8514
900.711	8575
900.83	8602
900.95	8754
901.069	8663
901.189	8522
901.308	8442
901.427	8400
901.546	8381
901.665	8469
901.784	8484
901.904	8343
902.023	8347
902.141	8214
902.26	8275
902.379	8339
902.498	8240
902.617	8244
902.735	8328
902.854	8233
902.973	8237
903.091	8134
903.21	8164
903.328	8176
903.446	8123
903.565	8092
903.683	8103
903.801	8073
903.919	8096
904.038	8092
904.156	8039
904.274	8119
904.392	8058
904.51	7993
904.627	8039
904.745	8050
904.863	8111
904.981	7928
905.098	7837
905.216	7909
905.334	7932
905.451	7932
905.569	7894
905.686	7982
905.803	7925
905.921	7788
906.038	7849
906.155	7803
906.272	7719
906.389	7670
906.506	7651
906.623	7601
906.74	7567
906.857	7559
906.974	7620
907.091	7719
907.208	7719
907.324	7647
907.441	7540
907.557	7449
907.674	7441
907.79	7400
907.907	7384
908.023	7487
908.139	7377
908.256	7422
908.372	7388
908.488	7293
908.604	7251
908.72	7217
908.836	7289
908.952	7266
909.068	7327
909.184	7354
909.3	7297
909.415	7331
909.531	7308
909.647	7118
909.762	7114
909.878	7080
909.993	7091
910.108	7084
910.224	7038
910.339	7091
910.454	6966
910.57	6989
910.685	6996
910.8	7171
910.915	7099
911.03	7069
911.145	6890
911.259	6909
911.374	6909
911.489	6852
911.604	6760
911.718	6711
911.833	6696
911.947	6677
912.062	6650
912.176	6719
912.291	6741
912.405	6730
912.519	6859
912.633	6859
912.748	6760
912.862	6692
912.976	6654
913.09	6525
913.204	6620
913.318	6642
913.431	6642
913.545	6631
913.659	6795
913.772	6665
913.886	6597
914	6559
914.113	6650
914.226	6635
914.34	6589
914.453	6509
914.566	6623
914.68	6555
914.793	6582
914.906	6471
915.019	6448
915.132	6372
915.245	6357
915.358	6464
915.47	6464
915.583	6391
915.696	6467
915.809	6502
915.921	6547
916.034	6429
916.146	6471
916.259	6452
916.371	6452
916.483	6433
916.595	6376
916.708	6433
916.82	6380
916.932	6384
917.044	6410
917.156	6388
917.268	6350
917.38	6342
917.491	6353
917.603	6334
917.715	6437
917.826	6403
917.938	6300
918.049	6262
918.161	6304
918.272	6445
918.384	6445
918.495	6311
918.606	6296
918.717	6201
918.828	6319
918.939	6247
919.05	6243
919.161	6315
919.272	6209
919.383	6194
919.494	6319
919.604	6460
919.715	6258
919.826	6247
919.936	6296
920.047	6296
920.157	6315
920.267	6464
920.378	6346
920.488	6277
920.598	6479
920.708	6578
920.818	6498
920.928	6445
921.038	6684
921.148	6574
921.258	6452
921.368	6369
921.477	6186
921.587	6175
921.697	6095
921.806	6232
921.916	6167
922.025	5954
922.134	5901
922.244	5866
922.353	6007
922.462	5893
922.571	5802
922.68	5745
922.789	5691
922.898	5767
923.007	5707
923.116	5714
923.224	5661
923.333	5672
923.442	5604
923.55	5592
923.659	5619
923.767	5653
923.876	5493
923.984	5623
924.092	5535
924.201	5543
924.309	5615
924.417	5551
924.525	5493
924.633	5501
924.741	6114
924.849	5353
924.956	5474
925.064	5349
925.172	5296
925.279	5299
925.387	5387
925.494	5299
925.602	5414
925.709	5353
925.816	5273
925.924	5330
926.031	5429
926.138	5284
926.245	5326
926.352	5265
926.459	5254
926.566	5318
926.673	5216
926.779	5143
926.886	5140
926.993	5048
927.099	4984
927.206	4976
927.312	4949
927.419	4980
927.525	4999
927.631	4968
927.737	4938
927.843	4896
927.95	4793
928.056	4820
928.162	4877
928.267	4885
928.373	5322
928.479	4850
928.585	4733
928.69	4805
928.796	4816
928.901	4694
929.007	4656
929.112	4672
929.218	4649
929.323	4649
929.428	4538
929.533	4717
929.638	4489
929.743	4523
929.848	4531
929.953	4554
930.058	4478
930.163	4310
930.267	4363
930.372	4512
930.477	4303
930.581	4470
930.685	4375
930.79	4268
930.894	4306
930.998	4268
931.103	4428
931.207	4154
931.311	4105
931.415	4101
931.519	3922
931.623	3960
