Data from glass_V78500241_850.txt Node
Date: Wed Sep 01 19:20:23 CST 2021
User: usil
Spectrometer: V785-0024
Trigger mode: 0
Integration Time (sec): 4.000000E-1
Scans to average: 1
Nonlinearity correction enabled: false
Boxcar width: 0
Storing dark spectrum: false
XAxis mode: Wavelengths
Number of Pixels in Spectrum: 1024
>>>>>Begin Spectral Data<<<<<
801.071	3759
801.214	3747
801.356	3736
801.499	3766
801.641	3732
801.783	3781
801.926	3850
802.068	3857
802.211	3884
802.353	3888
802.496	3861
802.638	3892
802.78	3918
802.923	3892
803.065	3876
803.208	3873
803.35	3842
803.492	3937
803.635	3930
803.777	3819
803.919	3907
804.061	4181
804.204	3994
804.346	3911
804.488	3934
804.63	4086
804.773	3991
804.915	4017
805.057	4158
805.199	4036
805.341	4120
805.483	4082
805.626	4109
805.768	4131
805.91	4227
806.052	4238
806.194	4219
806.336	4398
806.478	4234
806.62	4150
806.762	4227
806.904	4306
807.046	4322
807.188	4173
807.33	4154
807.472	4268
807.614	4204
807.756	4322
807.898	4268
808.04	4196
808.182	4284
808.324	4287
808.465	4322
808.607	4485
808.749	4474
808.891	4451
809.033	4527
809.174	4421
809.316	4284
809.458	4272
809.6	4192
809.741	4211
809.883	4150
810.025	4200
810.166	4211
810.308	4192
810.45	4253
810.591	4238
810.733	4280
810.875	4512
811.016	4790
811.158	5117
811.299	5307
811.441	5299
811.582	5086
811.724	4729
811.865	4455
812.007	4462
812.148	4409
812.29	4443
812.431	4462
812.573	4363
812.714	4356
812.855	4459
812.997	4440
813.138	4546
813.279	4421
813.421	4405
813.562	4375
813.703	4348
813.845	4348
813.986	4234
814.127	4257
814.268	4242
814.41	4276
814.551	4299
814.692	4341
814.833	4268
814.974	4306
815.115	4348
815.256	4280
815.397	4223
815.539	4272
815.68	4223
815.821	4230
815.962	4306
816.103	4280
816.244	4230
816.385	4230
816.526	4299
816.666	4227
816.807	4097
816.948	4162
817.089	4169
817.23	4112
817.371	4040
817.512	4086
817.653	4055
817.793	4044
817.934	4105
818.075	4112
818.216	4040
818.356	4120
818.497	4029
818.638	3941
818.778	3907
818.919	3892
819.06	3865
819.2	3899
819.341	3884
819.481	3819
819.622	3880
819.762	4051
819.903	3979
820.043	3884
820.184	3838
820.324	3873
820.465	3884
820.605	3896
820.746	3876
820.886	3823
821.026	3926
821.167	3926
821.307	4010
821.447	3945
821.588	3983
821.728	3979
821.868	3987
822.008	3884
822.149	3918
822.289	3941
822.429	3835
822.569	3785
822.709	3808
822.849	3701
822.99	3713
823.13	3766
823.27	3778
823.41	3720
823.55	3759
823.69	3736
823.83	3743
823.97	3736
824.11	3610
824.25	3614
824.389	3648
824.529	3705
824.669	3637
824.809	3713
824.949	3743
825.089	3743
825.228	3720
825.368	3622
825.508	3572
825.648	3618
825.787	3644
825.927	3656
826.067	3652
826.206	3675
826.346	3793
826.485	3854
826.625	3835
826.765	3941
826.904	3865
827.044	3610
827.183	3553
827.323	3424
827.462	3473
827.601	3454
827.741	3435
827.88	3458
828.02	3401
828.159	3431
828.298	3488
828.437	3561
828.577	3450
828.716	3614
828.855	3519
828.994	3386
829.134	3397
829.273	3412
829.412	3351
829.551	3359
829.69	3389
829.829	3409
829.968	3511
830.107	3428
830.246	3458
830.385	3382
830.524	3367
830.663	3302
830.802	3298
830.941	3214
831.08	3192
831.219	3275
831.357	3249
831.496	3420
831.635	3253
831.774	3180
831.913	3180
832.051	3161
832.19	3154
832.329	3207
832.467	3157
832.606	3104
832.744	3180
832.883	3211
833.022	3184
833.16	3283
833.299	3298
833.437	3313
833.576	3359
833.714	3401
833.852	3454
833.991	3435
834.129	3481
834.267	3454
834.406	3374
834.544	3466
834.682	3424
834.821	3424
834.959	3572
835.097	3409
835.235	3549
835.373	3526
835.511	3511
835.65	3485
835.788	3485
835.926	3348
836.064	3401
836.202	3424
836.34	3561
836.478	3629
836.615	3603
836.753	3606
836.891	3637
837.029	3572
837.167	3629
837.305	3584
837.443	3557
837.58	3526
837.718	3584
837.856	3587
837.993	3504
838.131	3629
838.269	3610
838.406	3576
838.544	3610
838.681	3447
838.819	3447
838.956	3348
839.094	3416
839.231	3458
839.369	3526
839.506	3781
839.643	3648
839.781	3496
839.918	3526
840.055	3511
840.193	3534
840.33	3542
840.467	3584
840.604	3603
840.742	3835
840.879	3519
841.016	3587
841.153	3618
841.29	3732
841.427	3755
841.564	3705
841.701	3759
841.838	3751
841.975	3663
842.112	3759
842.249	3648
842.385	3660
842.522	3827
842.659	3667
842.796	3713
842.933	3694
843.069	3671
843.206	3713
843.343	3831
843.479	3797
843.616	3816
843.752	3728
843.889	3679
844.025	3838
844.162	3701
844.298	3835
844.435	3797
844.571	3827
844.708	3911
844.844	3941
844.98	4051
845.117	4029
845.253	3968
845.389	3884
845.525	3953
845.661	3983
845.798	3892
845.934	3972
846.07	3953
846.206	4078
846.342	4154
846.478	4067
846.614	4029
846.75	3956
846.886	3903
847.022	4051
847.158	3998
847.294	4048
847.429	4010
847.565	3968
847.701	4268
847.837	3899
847.972	3865
848.108	4013
848.244	4032
848.379	3857
848.515	3823
848.65	3781
848.786	3842
848.921	3918
849.057	3964
849.192	3945
849.328	3896
849.463	3873
849.598	3865
849.734	3850
849.869	3842
850.004	3800
850.14	3823
850.275	3823
850.41	3743
850.545	3751
850.68	3808
850.815	3816
850.95	3789
851.085	3972
851.22	3896
851.355	3854
851.49	3793
851.625	3747
851.76	3854
851.895	3789
852.03	3762
852.165	3797
852.299	3869
852.434	3930
852.569	3854
852.703	3846
852.838	3922
852.973	4036
853.107	4002
853.242	3907
853.376	3838
853.511	3785
853.645	3861
853.78	3991
853.914	3907
854.048	3930
854.183	3937
854.317	3956
854.451	4086
854.585	3964
854.72	3968
854.854	4090
854.988	3949
855.122	4006
855.256	3998
855.39	4051
855.524	4128
855.658	4093
855.792	4112
855.926	4158
856.06	4169
856.194	4246
856.327	4120
856.461	4131
856.595	4173
856.729	4242
856.862	4284
856.996	4284
857.13	4287
857.263	4329
857.397	4356
857.53	4329
857.664	4379
857.797	4352
857.931	4478
858.064	4379
858.197	4493
858.331	4413
858.464	4424
858.597	4390
858.731	4485
858.864	4485
858.997	4481
859.13	4569
859.263	4554
859.396	4603
859.529	4531
859.662	4550
859.795	4558
859.928	4679
860.061	4740
860.194	4740
860.327	4672
860.46	4649
860.592	4717
860.725	4801
860.858	4740
860.99	4717
861.123	4660
861.256	4675
861.388	4778
861.521	5452
861.653	4740
861.786	4740
861.918	4790
862.05	4854
862.183	4839
862.315	4953
862.447	4965
862.58	4892
862.712	4828
862.844	4858
862.976	4862
863.108	4881
863.24	5277
863.372	4900
863.504	4896
863.636	4877
863.768	4987
863.9	5006
864.032	4968
864.164	4953
864.296	5041
864.428	5041
864.559	5124
864.691	5121
864.823	5109
864.954	5151
865.086	5174
865.217	5162
865.349	5102
865.48	5197
865.612	5155
865.743	5315
865.875	5231
866.006	5208
866.137	5216
866.269	5250
866.4	5261
866.531	5288
866.662	5223
866.793	5299
866.924	5284
867.055	5307
867.186	5360
867.317	5341
867.448	5311
867.579	5341
867.71	5379
867.841	5376
867.972	5444
868.103	5478
868.233	5516
868.364	5532
868.495	5543
868.625	5653
868.756	5821
868.886	5710
869.017	5741
869.147	5863
869.278	5855
869.408	5764
869.539	5847
869.669	5889
869.799	5870
869.929	6030
870.06	6026
870.19	6247
870.32	6190
870.45	6239
870.58	6380
870.71	6460
870.84	6452
870.97	6407
871.1	6445
871.23	6684
871.36	6715
871.489	6623
871.619	6772
871.749	6795
871.879	6871
872.008	7019
872.138	7034
872.267	7080
872.397	7099
872.526	7012
872.656	7103
872.785	7202
872.915	7388
873.044	7483
873.173	7582
873.303	7670
873.432	7719
873.561	7898
873.69	7875
873.819	8054
873.948	8119
874.077	8237
874.206	8309
874.335	8461
874.464	8670
874.593	8910
874.722	8975
874.851	9184
874.979	9245
875.108	9340
875.237	9439
875.365	9481
875.494	9618
875.623	9831
875.751	9861
875.88	10029
876.008	10162
876.136	10265
876.265	10546
876.393	10626
876.521	10767
876.65	10835
876.778	10839
876.906	10927
877.034	10991
877.162	11113
877.29	11277
877.418	11223
877.546	11421
877.674	11383
877.802	11490
877.93	11486
878.058	11627
878.185	11589
878.313	11684
878.441	11657
878.568	11703
878.696	11745
878.824	11802
878.951	11984
879.079	12015
879.206	12148
879.333	12022
879.461	11992
879.588	12019
879.715	12079
879.842	12190
879.97	12019
880.097	11878
880.224	11923
880.351	11931
880.478	11927
880.605	11805
880.732	11855
880.859	11939
880.986	11859
881.112	11885
881.239	11718
881.366	11741
881.493	11707
881.619	11558
881.746	11551
881.872	11539
881.999	11608
882.125	11547
882.252	11604
882.378	11478
882.505	11581
882.631	11463
882.757	11277
882.883	11379
883.01	11261
883.136	11288
883.262	11178
883.388	11151
883.514	11124
883.64	11197
883.766	11102
883.892	10995
884.018	10999
884.143	10991
884.269	11010
884.395	10831
884.52	10824
884.646	10831
884.772	10733
884.897	10771
885.023	10641
885.148	10675
885.274	10752
885.399	10694
885.524	10653
885.65	10649
885.775	10656
885.9	10546
886.025	10630
886.15	10519
886.275	10455
886.4	10390
886.525	10398
886.65	10352
886.775	10341
886.9	10481
887.025	10634
887.149	10436
887.274	10249
887.399	10242
887.523	10257
887.648	10158
887.773	10139
887.897	10257
888.021	10257
888.146	10143
888.27	10223
888.395	10215
888.519	10181
888.643	10200
888.767	10158
888.891	10124
889.015	10082
889.139	10116
889.263	10032
889.387	10078
889.511	10105
889.635	10169
889.759	10055
889.883	9926
890.006	10025
890.13	10101
890.254	9968
890.377	10017
890.501	9899
890.624	9857
890.748	9861
890.871	9793
890.995	9789
891.118	9652
891.241	9793
891.364	9724
891.488	9854
891.611	9713
891.734	9865
891.857	9747
891.98	9736
892.103	9846
892.226	9705
892.349	9713
892.471	9511
892.594	9633
892.717	9599
892.839	9599
892.962	9553
893.085	9698
893.207	9572
893.33	9488
893.452	9477
893.575	9648
893.697	9481
893.819	9641
893.941	9663
894.064	9667
894.186	9431
894.308	9348
894.43	9538
894.552	9595
894.674	9591
894.796	9370
894.918	9408
895.04	9386
895.161	9336
895.283	9325
895.405	9237
895.526	9287
895.648	9279
895.769	9237
895.891	9241
896.012	9268
896.134	9233
896.255	9253
896.376	9211
896.498	9169
896.619	9161
896.74	9070
896.861	9135
896.982	9253
897.103	9272
897.224	9165
897.345	9081
897.466	8990
897.587	8998
897.708	9047
897.828	9013
897.949	8899
898.07	8895
898.19	8975
898.311	9039
898.431	8857
898.552	8948
898.672	9020
898.792	8967
898.913	8929
899.033	8815
899.153	8705
899.273	8632
899.393	8712
899.513	8773
899.633	8708
899.753	8708
899.873	8697
899.993	8777
900.113	8708
900.232	8739
900.352	8670
900.472	8613
900.591	8575
900.711	8583
900.83	8526
900.95	8670
901.069	8682
901.189	8507
901.308	8488
901.427	8408
901.546	8415
901.665	8423
901.784	8480
901.904	8377
902.023	8347
902.141	8237
902.26	8233
902.379	8339
902.498	8191
902.617	8233
902.735	8259
902.854	8259
902.973	8313
903.091	8130
903.21	8088
903.328	8199
903.446	8115
903.565	8115
903.683	8039
903.801	8020
903.919	8187
904.038	8103
904.156	8050
904.274	8096
904.392	8084
904.51	8020
904.627	8046
904.745	8077
904.863	8088
904.981	7917
905.098	7864
905.216	7921
905.334	7875
905.451	7913
905.569	7852
905.686	7917
905.803	7997
905.921	7803
906.038	7944
906.155	7807
906.272	7670
906.389	7738
906.506	7696
906.623	7674
906.74	7628
906.857	7540
906.974	7601
907.091	7613
907.208	7734
907.324	7578
907.441	7624
907.557	7441
907.674	7483
907.79	7354
907.907	7449
908.023	7499
908.139	7464
908.256	7403
908.372	7339
908.488	7396
908.604	7335
908.72	7251
908.836	7308
908.952	7285
909.068	7266
909.184	7324
909.3	7301
909.415	7362
909.531	7297
909.647	7137
909.762	7137
909.878	7133
909.993	7149
910.108	7133
910.224	7027
910.339	7152
910.454	7019
910.57	7031
910.685	6947
910.8	7183
910.915	7160
911.03	7088
911.145	6943
911.259	6863
911.374	6867
911.489	6886
911.604	6875
911.718	6745
911.833	6722
911.947	6639
912.062	6635
912.176	6669
912.291	6673
912.405	6646
912.519	6871
912.633	6852
912.748	6722
912.862	6730
912.976	6608
913.09	6563
913.204	6631
913.318	6646
913.431	6715
913.545	6669
913.659	6738
913.772	6646
913.886	6627
914	6574
914.113	6608
914.226	6677
914.34	6639
914.453	6521
914.566	6574
914.68	6574
914.793	6555
914.906	6448
915.019	6467
915.132	6357
915.245	6429
915.358	6467
915.47	6456
915.583	6513
915.696	6509
915.809	6521
915.921	6490
916.034	6380
916.146	6391
916.259	6433
916.371	6460
916.483	6502
916.595	6437
916.708	6414
916.82	6361
916.932	6384
917.044	6365
917.156	6437
917.268	6304
917.38	6323
917.491	6407
917.603	6338
917.715	6365
917.826	6410
917.938	6289
918.049	6273
918.161	6353
918.272	6372
918.384	6388
918.495	6311
918.606	6277
918.717	6205
918.828	6315
918.939	6319
919.05	6232
919.161	6296
919.272	6159
919.383	6175
919.494	6319
919.604	6422
919.715	6220
919.826	6182
919.936	6357
920.047	6388
920.157	6331
920.267	6429
920.378	6369
920.488	6292
920.598	6460
920.708	6555
920.818	6475
920.928	6479
921.038	6574
921.148	6559
921.258	6380
921.368	6273
921.477	6277
921.587	6224
921.697	6110
921.806	6167
921.916	5992
922.025	5931
922.134	5882
922.244	5897
922.353	5980
922.462	5844
922.571	5840
922.68	5733
922.789	5691
922.898	5729
923.007	5661
923.116	5726
923.224	5630
923.333	5668
923.442	5615
923.55	5562
923.659	5543
923.767	5573
923.876	5524
923.984	5589
924.092	5562
924.201	5589
924.309	5604
924.417	5585
924.525	5501
924.633	5490
924.741	6175
924.849	5429
924.956	5486
925.064	5349
925.172	5311
925.279	5303
925.387	5334
925.494	5337
925.602	5417
925.709	5402
925.816	5296
925.924	5311
926.031	5387
926.138	5307
926.245	5360
926.352	5246
926.459	5288
926.566	5311
926.673	5216
926.779	5143
926.886	5193
926.993	5025
927.099	4991
927.206	5025
927.312	4991
927.419	4984
927.525	5014
927.631	5003
927.737	4881
927.843	4858
927.95	4790
928.056	4816
928.162	4809
928.267	4812
928.373	5395
928.479	4858
928.585	4656
928.69	4835
928.796	4812
928.901	4717
929.007	4618
929.112	4691
929.218	4653
929.323	4641
929.428	4569
929.533	4687
929.638	4546
929.743	4546
929.848	4527
929.953	4497
930.058	4478
930.163	4314
930.267	4360
930.372	4436
930.477	4322
930.581	4447
930.685	4451
930.79	4261
930.894	4299
930.998	4272
931.103	4386
931.207	4120
931.311	4097
931.415	4059
931.519	4013
931.623	3975
