Data from glass_V78500241_2532.txt Node
Date: Wed Sep 01 19:32:03 CST 2021
User: usil
Spectrometer: V785-0024
Trigger mode: 0
Integration Time (sec): 4.000000E-1
Scans to average: 1
Nonlinearity correction enabled: false
Boxcar width: 0
Storing dark spectrum: false
XAxis mode: Wavelengths
Number of Pixels in Spectrum: 1024
>>>>>Begin Spectral Data<<<<<
801.071	3724
801.214	3709
801.356	3709
801.499	3755
801.641	3762
801.783	3800
801.926	3854
802.068	3804
802.211	3861
802.353	3861
802.496	3850
802.638	3804
802.78	3873
802.923	3896
803.065	3899
803.208	3831
803.35	3865
803.492	3903
803.635	3861
803.777	3812
803.919	3884
804.061	4154
804.204	3983
804.346	3972
804.488	3915
804.63	4017
804.773	3956
804.915	4036
805.057	4097
805.199	4040
805.341	4063
805.483	4093
805.626	4071
805.768	4128
805.91	4181
806.052	4219
806.194	4158
806.336	4337
806.478	4211
806.62	4154
806.762	4204
806.904	4253
807.046	4306
807.188	4169
807.33	4166
807.472	4249
807.614	4207
807.756	4234
807.898	4169
808.04	4181
808.182	4246
808.324	4295
808.465	4356
808.607	4470
808.749	4424
808.891	4402
809.033	4500
809.174	4443
809.316	4192
809.458	4242
809.6	4131
809.741	4120
809.883	4116
810.025	4211
810.166	4177
810.308	4223
810.45	4280
810.591	4207
810.733	4268
810.875	4481
811.016	4847
811.158	5151
811.299	5280
811.441	5235
811.582	5037
811.724	4675
811.865	4424
812.007	4447
812.148	4436
812.29	4421
812.431	4398
812.573	4424
812.714	4371
812.855	4417
812.997	4375
813.138	4489
813.279	4375
813.421	4337
813.562	4352
813.703	4329
813.845	4329
813.986	4284
814.127	4181
814.268	4272
814.41	4261
814.551	4268
814.692	4303
814.833	4265
814.974	4284
815.115	4318
815.256	4280
815.397	4207
815.539	4249
815.68	4207
815.821	4196
815.962	4356
816.103	4272
816.244	4238
816.385	4200
816.526	4287
816.666	4188
816.807	4112
816.948	4230
817.089	4173
817.23	4109
817.371	4074
817.512	4067
817.653	4086
817.793	4002
817.934	3994
818.075	4086
818.216	4006
818.356	4128
818.497	3991
818.638	3903
818.778	3899
818.919	3869
819.06	3823
819.2	3964
819.341	3865
819.481	3846
819.622	3922
819.762	4029
819.903	3941
820.043	3861
820.184	3823
820.324	3819
820.465	3838
820.605	3846
820.746	3854
820.886	3770
821.026	3941
821.167	3922
821.307	3960
821.447	3975
821.588	3953
821.728	3949
821.868	3911
822.008	3884
822.149	3903
822.289	3934
822.429	3759
822.569	3743
822.709	3808
822.849	3694
822.99	3686
823.13	3740
823.27	3793
823.41	3713
823.55	3720
823.69	3736
823.83	3701
823.97	3641
824.11	3606
824.25	3568
824.389	3625
824.529	3663
824.669	3644
824.809	3736
824.949	3732
825.089	3747
825.228	3720
825.368	3568
825.508	3580
825.648	3542
825.787	3591
825.927	3629
826.067	3603
826.206	3656
826.346	3762
826.485	3797
826.625	3793
826.765	3934
826.904	3808
827.044	3618
827.183	3542
827.323	3439
827.462	3485
827.601	3435
827.741	3409
827.88	3416
828.02	3386
828.159	3428
828.298	3431
828.437	3538
828.577	3477
828.716	3637
828.855	3469
828.994	3363
829.134	3374
829.273	3378
829.412	3340
829.551	3294
829.69	3348
829.829	3416
829.968	3515
830.107	3424
830.246	3393
830.385	3382
830.524	3332
830.663	3230
830.802	3245
830.941	3184
831.08	3237
831.219	3218
831.357	3268
831.496	3420
831.635	3237
831.774	3184
831.913	3237
832.051	3131
832.19	3104
832.329	3226
832.467	3127
832.606	3108
832.744	3157
832.883	3184
833.022	3199
833.16	3245
833.299	3291
833.437	3313
833.576	3359
833.714	3370
833.852	3416
833.991	3454
834.129	3466
834.267	3420
834.406	3393
834.544	3389
834.682	3412
834.821	3393
834.959	3564
835.097	3393
835.235	3526
835.373	3466
835.511	3519
835.65	3447
835.788	3488
835.926	3389
836.064	3351
836.202	3340
836.34	3584
836.478	3610
836.615	3542
836.753	3595
836.891	3629
837.029	3564
837.167	3568
837.305	3568
837.443	3549
837.58	3519
837.718	3584
837.856	3553
837.993	3564
838.131	3606
838.269	3534
838.406	3572
838.544	3606
838.681	3466
838.819	3466
838.956	3306
839.094	3359
839.231	3382
839.369	3492
839.506	3717
839.643	3622
839.781	3450
839.918	3481
840.055	3530
840.193	3542
840.33	3504
840.467	3538
840.604	3576
840.742	3789
840.879	3515
841.016	3564
841.153	3625
841.29	3732
841.427	3698
841.564	3724
841.701	3736
841.838	3648
841.975	3667
842.112	3705
842.249	3606
842.385	3606
842.522	3835
842.659	3682
842.796	3648
842.933	3686
843.069	3679
843.206	3679
843.343	3766
843.479	3778
843.616	3797
843.752	3667
843.889	3732
844.025	3873
844.162	3720
844.298	3808
844.435	3751
844.571	3793
844.708	3876
844.844	3968
844.98	3960
845.117	3994
845.253	3926
845.389	3869
845.525	3953
845.661	3953
845.798	3884
845.934	4002
846.07	3960
846.206	4067
846.342	4112
846.478	4071
846.614	3960
846.75	3945
846.886	3903
847.022	4025
847.158	3998
847.294	4002
847.429	4021
847.565	3945
847.701	4223
847.837	3880
847.972	3838
848.108	3998
848.244	3983
848.379	3873
848.515	3816
848.65	3778
848.786	3819
848.921	3854
849.057	3918
849.192	3979
849.328	3888
849.463	3861
849.598	3857
849.734	3854
849.869	3835
850.004	3789
850.14	3800
850.275	3740
850.41	3709
850.545	3778
850.68	3770
850.815	3808
850.95	3804
851.085	3922
851.22	3880
851.355	3785
851.49	3789
851.625	3793
851.76	3766
851.895	3698
852.03	3717
852.165	3793
852.299	3854
852.434	3911
852.569	3846
852.703	3884
852.838	3884
852.973	3960
853.107	3968
853.242	3831
853.376	3880
853.511	3740
853.645	3831
853.78	3972
853.914	3888
854.048	3896
854.183	3846
854.317	3934
854.451	4044
854.585	3964
854.72	3926
854.854	4048
854.988	3968
855.122	4021
855.256	3922
855.39	3953
855.524	4063
855.658	4120
855.792	4124
855.926	4078
856.06	4147
856.194	4181
856.327	4139
856.461	4143
856.595	4166
856.729	4154
856.862	4287
856.996	4230
857.13	4287
857.263	4295
857.397	4428
857.53	4287
857.664	4291
857.797	4398
857.931	4409
858.064	4379
858.197	4466
858.331	4367
858.464	4344
858.597	4299
858.731	4428
858.864	4424
858.997	4451
859.13	4474
859.263	4519
859.396	4588
859.529	4546
859.662	4565
859.795	4558
859.928	4588
860.061	4725
860.194	4710
860.327	4630
860.46	4675
860.592	4733
860.725	4778
860.858	4759
860.99	4664
861.123	4634
861.256	4694
861.388	4774
861.521	5357
861.653	4683
861.786	4694
861.918	4763
862.05	4774
862.183	4771
862.315	4866
862.447	4976
862.58	4816
862.712	4847
862.844	4752
862.976	4866
863.108	4915
863.24	5140
863.372	4850
863.504	4900
863.636	4885
863.768	4938
863.9	4934
864.032	4942
864.164	4953
864.296	5010
864.428	5102
864.559	5079
864.691	5094
864.823	5147
864.954	5102
865.086	5155
865.217	5090
865.349	5067
865.48	5128
865.612	5151
865.743	5280
865.875	5170
866.006	5204
866.137	5277
866.269	5254
866.4	5193
866.531	5227
866.662	5185
866.793	5280
866.924	5201
867.055	5391
867.186	5299
867.317	5341
867.448	5288
867.579	5349
867.71	5379
867.841	5349
867.972	5406
868.103	5471
868.233	5512
868.364	5452
868.495	5535
868.625	5695
868.756	5741
868.886	5627
869.017	5756
869.147	5874
869.278	5882
869.408	5866
869.539	5855
869.669	5882
869.799	5885
869.929	5969
870.06	6041
870.19	6175
870.32	6239
870.45	6209
870.58	6308
870.71	6365
870.84	6475
870.97	6350
871.1	6414
871.23	6623
871.36	6703
871.489	6578
871.619	6684
871.749	6772
871.879	6863
872.008	6985
872.138	6939
872.267	6932
872.397	6993
872.526	7042
872.656	7038
872.785	7194
872.915	7327
873.044	7495
873.173	7514
873.303	7636
873.432	7746
873.561	7803
873.69	7864
873.819	8001
873.948	8164
874.077	8248
874.206	8400
874.335	8393
874.464	8693
874.593	8902
874.722	8921
874.851	9161
874.979	9214
875.108	9420
875.237	9386
875.365	9458
875.494	9576
875.623	9816
875.751	9873
875.88	9998
876.008	10116
876.136	10287
876.265	10500
876.393	10755
876.521	10656
876.65	10740
876.778	10850
876.906	10843
877.034	10976
877.162	11086
877.29	11140
877.418	11315
877.546	11395
877.674	11459
877.802	11516
877.93	11490
878.058	11520
878.185	11581
878.313	11676
878.441	11813
878.568	11665
878.696	11824
878.824	11828
878.951	11908
879.079	12011
879.206	12159
879.333	12194
879.461	11999
879.588	12091
879.715	12057
879.842	12216
879.97	11984
880.097	11866
880.224	11923
880.351	11840
880.478	11901
880.605	11836
880.732	11866
880.859	11984
880.986	11840
881.112	11832
881.239	11688
881.366	11630
881.493	11596
881.619	11425
881.746	11615
881.872	11543
881.999	11471
882.125	11486
882.252	11600
882.378	11486
882.505	11604
882.631	11383
882.757	11311
882.883	11356
883.01	11239
883.136	11159
883.262	11132
883.388	11056
883.514	11254
883.64	11174
883.766	11067
883.892	10919
884.018	10980
884.143	10953
884.269	11090
884.395	10847
884.52	10736
884.646	10820
884.772	10645
884.897	10634
885.023	10641
885.148	10687
885.274	10702
885.399	10653
885.524	10535
885.65	10588
885.775	10573
885.9	10569
886.025	10508
886.15	10554
886.275	10440
886.4	10375
886.525	10428
886.65	10325
886.775	10329
886.9	10379
887.025	10421
887.149	10344
887.274	10280
887.399	10166
887.523	10169
887.648	10181
887.773	10109
887.897	10272
888.021	10204
888.146	10097
888.27	10291
888.395	10169
888.519	10200
888.643	10143
888.767	10238
888.891	10071
889.015	10010
889.139	10051
889.263	10036
889.387	10063
889.511	10143
889.635	10082
889.759	9918
889.883	9979
890.006	10101
890.13	10109
890.254	9983
890.377	9956
890.501	9861
890.624	9842
890.748	9857
890.871	9789
890.995	9705
891.118	9690
891.241	9785
891.364	9686
891.488	9800
891.611	9720
891.734	9724
891.857	9766
891.98	9622
892.103	9736
892.226	9793
892.349	9732
892.471	9496
892.594	9603
892.717	9606
892.839	9610
892.962	9568
893.085	9629
893.207	9553
893.33	9462
893.452	9515
893.575	9580
893.697	9481
893.819	9637
893.941	9629
894.064	9606
894.186	9481
894.308	9283
894.43	9523
894.552	9584
894.674	9534
894.796	9302
894.918	9336
895.04	9291
895.161	9416
895.283	9348
895.405	9211
895.526	9298
895.648	9211
895.769	9253
895.891	9272
896.012	9275
896.134	9188
896.255	9119
896.376	9116
896.498	9127
896.619	9119
896.74	9077
896.861	9127
896.982	9237
897.103	9253
897.224	9074
897.345	9013
897.466	9043
897.587	9036
897.708	9085
897.828	8906
897.949	8910
898.07	8861
898.19	8918
898.311	9001
898.431	8857
898.552	8857
898.672	8960
898.792	8941
898.913	8887
899.033	8796
899.153	8750
899.273	8682
899.393	8682
899.513	8739
899.633	8739
899.753	8727
899.873	8686
899.993	8743
900.113	8731
900.232	8727
900.352	8579
900.472	8640
900.591	8541
900.711	8587
900.83	8526
900.95	8716
901.069	8693
901.189	8549
901.308	8415
901.427	8332
901.546	8381
901.665	8446
901.784	8514
901.904	8412
902.023	8412
902.141	8199
902.26	8199
902.379	8214
902.498	8259
902.617	8210
902.735	8298
902.854	8301
902.973	8240
903.091	8138
903.21	8115
903.328	8138
903.446	8069
903.565	8024
903.683	8035
903.801	7997
903.919	8149
904.038	8107
904.156	8005
904.274	8092
904.392	8031
904.51	8065
904.627	8062
904.745	8081
904.863	8077
904.981	7951
905.098	7890
905.216	7803
905.334	7902
905.451	7864
905.569	7875
905.686	7864
905.803	7852
905.921	7738
906.038	7890
906.155	7750
906.272	7712
906.389	7616
906.506	7689
906.623	7594
906.74	7601
906.857	7552
906.974	7537
907.091	7605
907.208	7719
907.324	7613
907.441	7563
907.557	7468
907.674	7441
907.79	7400
907.907	7430
908.023	7438
908.139	7453
908.256	7369
908.372	7339
908.488	7312
908.604	7289
908.72	7266
908.836	7282
908.952	7263
909.068	7232
909.184	7320
909.3	7228
909.415	7266
909.531	7251
909.647	7118
909.762	7099
909.878	7114
909.993	7095
910.108	7065
910.224	7126
910.339	7053
910.454	7023
910.57	7050
910.685	6989
910.8	7175
910.915	7084
911.03	7008
911.145	6928
911.259	6924
911.374	6913
911.489	6806
911.604	6810
911.718	6715
911.833	6726
911.947	6662
912.062	6616
912.176	6681
912.291	6665
912.405	6673
912.519	6772
912.633	6791
912.748	6730
912.862	6673
912.976	6604
913.09	6532
913.204	6544
913.318	6639
913.431	6646
913.545	6730
913.659	6662
913.772	6650
913.886	6578
914	6467
914.113	6532
914.226	6635
914.34	6593
914.453	6536
914.566	6547
914.68	6570
914.793	6566
914.906	6467
915.019	6365
915.132	6391
915.245	6414
915.358	6376
915.47	6426
915.583	6452
915.696	6437
915.809	6551
915.921	6551
916.034	6380
916.146	6384
916.259	6395
916.371	6433
916.483	6429
916.595	6414
916.708	6422
916.82	6418
916.932	6372
917.044	6433
917.156	6426
917.268	6308
917.38	6292
917.491	6304
917.603	6334
917.715	6353
917.826	6422
917.938	6277
918.049	6228
918.161	6380
918.272	6433
918.384	6456
918.495	6369
918.606	6262
918.717	6205
918.828	6220
918.939	6262
919.05	6239
919.161	6251
919.272	6114
919.383	6152
919.494	6243
919.604	6369
919.715	6292
919.826	6171
919.936	6235
920.047	6270
920.157	6266
920.267	6395
920.378	6331
920.488	6292
920.598	6426
920.708	6525
920.818	6422
920.928	6426
921.038	6604
921.148	6536
921.258	6319
921.368	6270
921.477	6224
921.587	6197
921.697	6110
921.806	6136
921.916	6022
922.025	5984
922.134	5916
922.244	5859
922.353	5889
922.462	5863
922.571	5779
922.68	5707
922.789	5691
922.898	5615
923.007	5661
923.116	5695
923.224	5722
923.333	5665
923.442	5547
923.55	5577
923.659	5558
923.767	5577
923.876	5528
923.984	5592
924.092	5478
924.201	5554
924.309	5547
924.417	5497
924.525	5490
924.633	5524
924.741	6258
924.849	5398
924.956	5490
925.064	5353
925.172	5311
925.279	5299
925.387	5379
925.494	5315
925.602	5436
925.709	5357
925.816	5227
925.924	5311
926.031	5360
926.138	5258
926.245	5254
926.352	5181
926.459	5341
926.566	5315
926.673	5204
926.779	5170
926.886	5128
926.993	4980
927.099	4991
927.206	4991
927.312	4991
927.419	5006
927.525	4949
927.631	4953
927.737	4949
927.843	4843
927.95	4793
928.056	4839
928.162	4854
928.267	4797
928.373	5239
928.479	4790
928.585	4672
928.69	4748
928.796	4763
928.901	4683
929.007	4561
929.112	4637
929.218	4599
929.323	4569
929.428	4584
929.533	4687
929.638	4535
929.743	4554
929.848	4535
929.953	4485
930.058	4421
930.163	4268
930.267	4337
930.372	4421
930.477	4306
930.581	4481
930.685	4356
930.79	4234
930.894	4230
930.998	4207
931.103	4329
931.207	4128
931.311	4074
931.415	4044
931.519	3915
931.623	3930
