Data from glass_V78500241_247.txt Node
Date: Wed Sep 01 19:16:12 CST 2021
User: usil
Spectrometer: V785-0024
Trigger mode: 0
Integration Time (sec): 4.000000E-1
Scans to average: 1
Nonlinearity correction enabled: false
Boxcar width: 0
Storing dark spectrum: false
XAxis mode: Wavelengths
Number of Pixels in Spectrum: 1024
>>>>>Begin Spectral Data<<<<<
801.071	3720
801.214	3736
801.356	3717
801.499	3736
801.641	3740
801.783	3823
801.926	3880
802.068	3831
802.211	3876
802.353	3896
802.496	3816
802.638	3888
802.78	3869
802.923	3937
803.065	3857
803.208	3869
803.35	3915
803.492	3918
803.635	3991
803.777	3812
803.919	3880
804.061	4177
804.204	3991
804.346	3956
804.488	3876
804.63	4032
804.773	3983
804.915	4029
805.057	4154
805.199	4051
805.341	4120
805.483	4162
805.626	4173
805.768	4112
805.91	4169
806.052	4230
806.194	4227
806.336	4352
806.478	4200
806.62	4185
806.762	4249
806.904	4249
807.046	4329
807.188	4227
807.33	4242
807.472	4230
807.614	4223
807.756	4318
807.898	4227
808.04	4249
808.182	4257
808.324	4329
808.465	4398
808.607	4466
808.749	4443
808.891	4519
809.033	4519
809.174	4489
809.316	4284
809.458	4280
809.6	4143
809.741	4177
809.883	4154
810.025	4238
810.166	4268
810.308	4242
810.45	4257
810.591	4257
810.733	4268
810.875	4558
811.016	4896
811.158	5159
811.299	5330
811.441	5303
811.582	5075
811.724	4714
811.865	4504
812.007	4485
812.148	4466
812.29	4443
812.431	4390
812.573	4421
812.714	4402
812.855	4409
812.997	4421
813.138	4455
813.279	4474
813.421	4398
813.562	4371
813.703	4402
813.845	4363
813.986	4257
814.127	4257
814.268	4299
814.41	4303
814.551	4253
814.692	4325
814.833	4303
814.974	4348
815.115	4413
815.256	4329
815.397	4227
815.539	4291
815.68	4257
815.821	4230
815.962	4318
816.103	4318
816.244	4291
816.385	4223
816.526	4265
816.666	4207
816.807	4120
816.948	4177
817.089	4154
817.23	4112
817.371	4013
817.512	4067
817.653	4074
817.793	4059
817.934	3987
818.075	4093
818.216	4063
818.356	4116
818.497	3968
818.638	3937
818.778	3918
818.919	3899
819.06	3865
819.2	3934
819.341	3857
819.481	3838
819.622	3934
819.762	4059
819.903	3956
820.043	3888
820.184	3842
820.324	3857
820.465	3884
820.605	3888
820.746	3892
820.886	3781
821.026	3964
821.167	3937
821.307	4013
821.447	3937
821.588	3934
821.728	4017
821.868	3972
822.008	3873
822.149	3960
822.289	3930
822.429	3789
822.569	3759
822.709	3831
822.849	3755
822.99	3717
823.13	3747
823.27	3785
823.41	3724
823.55	3762
823.69	3774
823.83	3759
823.97	3690
824.11	3644
824.25	3603
824.389	3648
824.529	3679
824.669	3644
824.809	3705
824.949	3781
825.089	3751
825.228	3740
825.368	3606
825.508	3622
825.648	3614
825.787	3603
825.927	3637
826.067	3652
826.206	3675
826.346	3789
826.485	3831
826.625	3876
826.765	3949
826.904	3831
827.044	3576
827.183	3603
827.323	3424
827.462	3545
827.601	3428
827.741	3443
827.88	3481
828.02	3348
828.159	3507
828.298	3496
828.437	3526
828.577	3466
828.716	3629
828.855	3523
828.994	3431
829.134	3393
829.273	3401
829.412	3370
829.551	3382
829.69	3378
829.829	3450
829.968	3549
830.107	3469
830.246	3447
830.385	3393
830.524	3359
830.663	3336
830.802	3317
830.941	3211
831.08	3180
831.219	3241
831.357	3260
831.496	3409
831.635	3237
831.774	3138
831.913	3253
832.051	3097
832.19	3169
832.329	3207
832.467	3123
832.606	3108
832.744	3180
832.883	3214
833.022	3226
833.16	3302
833.299	3340
833.437	3332
833.576	3367
833.714	3447
833.852	3428
833.991	3481
834.129	3488
834.267	3492
834.406	3458
834.544	3439
834.682	3416
834.821	3428
834.959	3625
835.097	3435
835.235	3542
835.373	3469
835.511	3496
835.65	3439
835.788	3523
835.926	3401
836.064	3401
836.202	3431
836.34	3599
836.478	3648
836.615	3576
836.753	3599
836.891	3660
837.029	3587
837.167	3603
837.305	3534
837.443	3572
837.58	3534
837.718	3625
837.856	3599
837.993	3538
838.131	3622
838.269	3595
838.406	3580
838.544	3606
838.681	3504
838.819	3481
838.956	3409
839.094	3397
839.231	3428
839.369	3504
839.506	3781
839.643	3686
839.781	3534
839.918	3458
840.055	3538
840.193	3526
840.33	3538
840.467	3557
840.604	3625
840.742	3869
840.879	3576
841.016	3580
841.153	3637
841.29	3778
841.427	3759
841.564	3720
841.701	3762
841.838	3755
841.975	3686
842.112	3732
842.249	3675
842.385	3671
842.522	3884
842.659	3724
842.796	3667
842.933	3740
843.069	3724
843.206	3724
843.343	3812
843.479	3774
843.616	3819
843.752	3682
843.889	3682
844.025	3819
844.162	3698
844.298	3838
844.435	3804
844.571	3781
844.708	3918
844.844	3991
844.98	4044
845.117	3991
845.253	3987
845.389	3915
845.525	4017
845.661	4006
845.798	3922
845.934	4090
846.07	3949
846.206	4074
846.342	4162
846.478	4120
846.614	3972
846.75	4002
846.886	3956
847.022	4002
847.158	3987
847.294	4017
847.429	4017
847.565	3968
847.701	4238
847.837	3876
847.972	3869
848.108	4013
848.244	3953
848.379	3899
848.515	3835
848.65	3835
848.786	3846
848.921	3854
849.057	3945
849.192	3941
849.328	3964
849.463	3930
849.598	3922
849.734	3907
849.869	3880
850.004	3827
850.14	3854
850.275	3804
850.41	3781
850.545	3785
850.68	3778
850.815	3819
850.95	3800
851.085	3937
851.22	3873
851.355	3873
851.49	3808
851.625	3755
851.76	3762
851.895	3755
852.03	3724
852.165	3778
852.299	3876
852.434	3907
852.569	3869
852.703	3907
852.838	3926
852.973	4032
853.107	4002
853.242	3941
853.376	3850
853.511	3793
853.645	3823
853.78	3949
853.914	3911
854.048	3857
854.183	3876
854.317	3956
854.451	4101
854.585	3960
854.72	3968
854.854	4067
854.988	3956
855.122	4017
855.256	3960
855.39	4017
855.524	4128
855.658	4116
855.792	4139
855.926	4109
856.06	4128
856.194	4230
856.327	4188
856.461	4124
856.595	4204
856.729	4207
856.862	4303
856.996	4261
857.13	4360
857.263	4333
857.397	4405
857.53	4291
857.664	4363
857.797	4363
857.931	4440
858.064	4436
858.197	4478
858.331	4421
858.464	4440
858.597	4337
858.731	4462
858.864	4512
858.997	4493
859.13	4558
859.263	4474
859.396	4622
859.529	4546
859.662	4538
859.795	4577
859.928	4634
860.061	4691
860.194	4740
860.327	4626
860.46	4641
860.592	4774
860.725	4714
860.858	4797
860.99	4710
861.123	4740
861.256	4683
861.388	4793
861.521	5414
861.653	4694
861.786	4702
861.918	4759
862.05	4805
862.183	4824
862.315	4892
862.447	4881
862.58	4870
862.712	4812
862.844	4793
862.976	4889
863.108	4889
863.24	5280
863.372	4805
863.504	4927
863.636	4885
863.768	4961
863.9	4972
864.032	4953
864.164	4904
864.296	5037
864.428	5132
864.559	5113
864.691	5128
864.823	5185
864.954	5105
865.086	5128
865.217	5151
865.349	5132
865.48	5166
865.612	5220
865.743	5315
865.875	5212
866.006	5162
866.137	5246
866.269	5292
866.4	5261
866.531	5235
866.662	5201
866.793	5296
866.924	5284
867.055	5368
867.186	5349
867.317	5357
867.448	5341
867.579	5395
867.71	5360
867.841	5429
867.972	5459
868.103	5478
868.233	5520
868.364	5482
868.495	5562
868.625	5707
868.756	5779
868.886	5649
869.017	5745
869.147	5851
869.278	5855
869.408	5840
869.539	5878
869.669	5897
869.799	5874
869.929	6026
870.06	6038
870.19	6235
870.32	6148
870.45	6308
870.58	6380
870.71	6433
870.84	6448
870.97	6426
871.1	6456
871.23	6646
871.36	6715
871.489	6681
871.619	6764
871.749	6814
871.879	6848
872.008	7023
872.138	6993
872.267	7012
872.397	7042
872.526	7118
872.656	7137
872.785	7247
872.915	7282
873.044	7510
873.173	7537
873.303	7704
873.432	7753
873.561	7902
873.69	7894
873.819	7970
873.948	8180
874.077	8233
874.206	8294
874.335	8450
874.464	8610
874.593	8830
874.722	8937
874.851	9123
874.979	9192
875.108	9412
875.237	9408
875.365	9447
875.494	9641
875.623	9873
875.751	9827
875.88	10006
876.008	10166
876.136	10261
876.265	10523
876.393	10714
876.521	10637
876.65	10862
876.778	10847
876.906	10953
877.034	10995
877.162	11140
877.29	11109
877.418	11258
877.546	11277
877.674	11482
877.802	11440
877.93	11547
878.058	11497
878.185	11638
878.313	11726
878.441	11707
878.568	11684
878.696	11847
878.824	11843
878.951	11939
879.079	12030
879.206	12136
879.333	12076
879.461	11927
879.588	12106
879.715	12095
879.842	12175
879.97	12087
880.097	11946
880.224	11866
880.351	11874
880.478	11897
880.605	11878
880.732	11878
880.859	11969
880.986	11817
881.112	11813
881.239	11707
881.366	11642
881.493	11627
881.619	11509
881.746	11608
881.872	11467
881.999	11547
882.125	11444
882.252	11520
882.378	11402
882.505	11661
882.631	11311
882.757	11280
882.883	11330
883.01	11322
883.136	11227
883.262	11090
883.388	11086
883.514	11261
883.64	11220
883.766	11181
883.892	11006
884.018	10968
884.143	11003
884.269	11083
884.395	10919
884.52	10835
884.646	10740
884.772	10778
884.897	10634
885.023	10637
885.148	10725
885.274	10721
885.399	10675
885.524	10611
885.65	10611
885.775	10569
885.9	10668
886.025	10577
886.15	10561
886.275	10455
886.4	10436
886.525	10417
886.65	10398
886.775	10440
886.9	10508
887.025	10615
887.149	10356
887.274	10185
887.399	10246
887.523	10204
887.648	10143
887.773	10131
887.897	10272
888.021	10219
888.146	10166
888.27	10322
888.395	10181
888.519	10181
888.643	10116
888.767	10253
888.891	10101
889.015	10063
889.139	10048
889.263	10032
889.387	10105
889.511	10177
889.635	10040
889.759	9956
889.883	9895
890.006	10002
890.13	10029
890.254	10021
890.377	10101
890.501	9869
890.624	9854
890.748	9857
890.871	9743
890.995	9797
891.118	9755
891.241	9812
891.364	9785
891.488	9789
891.611	9713
891.734	9785
891.857	9705
891.98	9747
892.103	9835
892.226	9728
892.349	9603
892.471	9572
892.594	9591
892.717	9644
892.839	9641
892.962	9644
893.085	9553
893.207	9587
893.33	9530
893.452	9625
893.575	9561
893.697	9507
893.819	9652
893.941	9751
894.064	9599
894.186	9485
894.308	9389
894.43	9576
894.552	9629
894.674	9542
894.796	9382
894.918	9367
895.04	9332
895.161	9374
895.283	9374
895.405	9249
895.526	9298
895.648	9287
895.769	9260
895.891	9260
896.012	9302
896.134	9256
896.255	9203
896.376	9180
896.498	9192
896.619	9195
896.74	9085
896.861	9119
896.982	9279
897.103	9336
897.224	9188
897.345	9127
897.466	9028
897.587	8986
897.708	9199
897.828	9070
897.949	8952
898.07	8937
898.19	8872
898.311	8986
898.431	8967
898.552	8864
898.672	8982
898.792	8975
898.913	8910
899.033	8804
899.153	8792
899.273	8720
899.393	8735
899.513	8788
899.633	8739
899.753	8792
899.873	8667
899.993	8758
900.113	8834
900.232	8716
900.352	8697
900.472	8590
900.591	8621
900.711	8640
900.83	8533
900.95	8659
901.069	8655
901.189	8549
901.308	8412
901.427	8446
901.546	8495
901.665	8507
901.784	8431
901.904	8419
902.023	8282
902.141	8279
902.26	8256
902.379	8237
902.498	8237
902.617	8256
902.735	8328
902.854	8313
902.973	8263
903.091	8180
903.21	8149
903.328	8199
903.446	8119
903.565	8024
903.683	8157
903.801	8103
903.919	8119
904.038	8107
904.156	8054
904.274	8103
904.392	8062
904.51	8008
904.627	8046
904.745	8103
904.863	8126
904.981	7947
905.098	7902
905.216	7894
905.334	7906
905.451	7833
905.569	7849
905.686	7871
905.803	7921
905.921	7746
906.038	7890
906.155	7818
906.272	7727
906.389	7723
906.506	7582
906.623	7670
906.74	7651
906.857	7559
906.974	7651
907.091	7715
907.208	7731
907.324	7628
907.441	7533
907.557	7457
907.674	7453
907.79	7411
907.907	7453
908.023	7388
908.139	7415
908.256	7411
908.372	7411
908.488	7331
908.604	7240
908.72	7240
908.836	7266
908.952	7244
909.068	7236
909.184	7346
909.3	7297
909.415	7308
909.531	7331
909.647	7156
909.762	7118
909.878	7103
909.993	7187
910.108	7133
910.224	7103
910.339	7118
910.454	7050
910.57	7046
910.685	6916
910.8	7175
910.915	7103
911.03	6977
911.145	6878
911.259	6958
911.374	6875
911.489	6840
911.604	6821
911.718	6700
911.833	6688
911.947	6597
912.062	6608
912.176	6665
912.291	6745
912.405	6696
912.519	6844
912.633	6859
912.748	6753
912.862	6711
912.976	6623
913.09	6551
913.204	6601
913.318	6559
913.431	6700
913.545	6627
913.659	6753
913.772	6658
913.886	6608
914	6593
914.113	6620
914.226	6620
914.34	6604
914.453	6502
914.566	6601
914.68	6509
914.793	6585
914.906	6433
915.019	6467
915.132	6410
915.245	6380
915.358	6441
915.47	6445
915.583	6452
915.696	6483
915.809	6555
915.921	6563
916.034	6429
916.146	6384
916.259	6429
916.371	6467
916.483	6464
916.595	6445
916.708	6437
916.82	6422
916.932	6407
917.044	6471
917.156	6414
917.268	6323
917.38	6361
917.491	6285
917.603	6357
917.715	6410
917.826	6456
917.938	6365
918.049	6270
918.161	6334
918.272	6490
918.384	6452
918.495	6365
918.606	6258
918.717	6232
918.828	6277
918.939	6258
919.05	6205
919.161	6289
919.272	6102
919.383	6205
919.494	6273
919.604	6517
919.715	6323
919.826	6228
919.936	6281
920.047	6395
920.157	6304
920.267	6486
920.378	6327
920.488	6346
920.598	6479
920.708	6578
920.818	6479
920.928	6483
921.038	6642
921.148	6582
921.258	6388
921.368	6270
921.477	6190
921.587	6197
921.697	6171
921.806	6194
921.916	6148
922.025	6019
922.134	5893
922.244	5893
922.353	5969
922.462	5844
922.571	5855
922.68	5722
922.789	5653
922.898	5726
923.007	5600
923.116	5733
923.224	5657
923.333	5668
923.442	5585
923.55	5604
923.659	5539
923.767	5672
923.876	5573
923.984	5657
924.092	5539
924.201	5539
924.309	5596
924.417	5547
924.525	5486
924.633	5524
924.741	6247
924.849	5357
924.956	5486
925.064	5368
925.172	5337
925.279	5311
925.387	5406
925.494	5299
925.602	5429
925.709	5406
925.816	5330
925.924	5402
926.031	5360
926.138	5334
926.245	5322
926.352	5235
926.459	5345
926.566	5357
926.673	5197
926.779	5143
926.886	5143
926.993	5048
927.099	4980
927.206	4987
927.312	4908
927.419	5052
927.525	4949
927.631	5048
927.737	4938
927.843	4862
927.95	4759
928.056	4820
928.162	4812
928.267	4850
928.373	5242
928.479	4850
928.585	4668
928.69	4816
928.796	4778
928.901	4702
929.007	4561
929.112	4656
929.218	4607
929.323	4634
929.428	4607
929.533	4653
929.638	4550
929.743	4546
929.848	4599
929.953	4531
930.058	4413
930.163	4386
930.267	4379
930.372	4394
930.477	4341
930.581	4462
930.685	4424
930.79	4291
930.894	4314
930.998	4291
931.103	4405
931.207	4128
931.311	4128
931.415	4082
931.519	3949
931.623	3934
