Data from glass_V78500241_790.txt Node
Date: Wed Sep 01 19:19:58 CST 2021
User: usil
Spectrometer: V785-0024
Trigger mode: 0
Integration Time (sec): 4.000000E-1
Scans to average: 1
Nonlinearity correction enabled: false
Boxcar width: 0
Storing dark spectrum: false
XAxis mode: Wavelengths
Number of Pixels in Spectrum: 1024
>>>>>Begin Spectral Data<<<<<
801.071	3732
801.214	3770
801.356	3717
801.499	3743
801.641	3682
801.783	3793
801.926	3857
802.068	3865
802.211	3846
802.353	3922
802.496	3861
802.638	3896
802.78	3896
802.923	3945
803.065	3937
803.208	3861
803.35	3903
803.492	3911
803.635	3896
803.777	3831
803.919	3945
804.061	4204
804.204	4017
804.346	3911
804.488	3968
804.63	4036
804.773	3991
804.915	4025
805.057	4173
805.199	4101
805.341	4109
805.483	4166
805.626	4158
805.768	4147
805.91	4246
806.052	4246
806.194	4200
806.336	4398
806.478	4204
806.62	4173
806.762	4257
806.904	4246
807.046	4280
807.188	4211
807.33	4227
807.472	4257
807.614	4181
807.756	4246
807.898	4204
808.04	4219
808.182	4272
808.324	4352
808.465	4417
808.607	4466
808.749	4462
808.891	4504
809.033	4500
809.174	4375
809.316	4253
809.458	4268
809.6	4177
809.741	4154
809.883	4169
810.025	4227
810.166	4257
810.308	4200
810.45	4265
810.591	4234
810.733	4333
810.875	4485
811.016	4854
811.158	5178
811.299	5307
811.441	5353
811.582	5060
811.724	4691
811.865	4428
812.007	4493
812.148	4436
812.29	4459
812.431	4413
812.573	4402
812.714	4329
812.855	4428
812.997	4436
813.138	4550
813.279	4424
813.421	4424
813.562	4371
813.703	4322
813.845	4398
813.986	4265
814.127	4230
814.268	4238
814.41	4325
814.551	4280
814.692	4344
814.833	4261
814.974	4325
815.115	4337
815.256	4280
815.397	4230
815.539	4280
815.68	4204
815.821	4181
815.962	4337
816.103	4257
816.244	4227
816.385	4287
816.526	4299
816.666	4265
816.807	4150
816.948	4211
817.089	4177
817.23	4124
817.371	4101
817.512	4021
817.653	4090
817.793	4036
817.934	4131
818.075	4101
818.216	4067
818.356	4128
818.497	4044
818.638	3918
818.778	3918
818.919	3907
819.06	3892
819.2	3953
819.341	3846
819.481	3880
819.622	3926
819.762	4010
819.903	3956
820.043	3884
820.184	3861
820.324	3827
820.465	3876
820.605	3888
820.746	3861
820.886	3838
821.026	3896
821.167	3975
821.307	4010
821.447	4025
821.588	3945
821.728	3937
821.868	3987
822.008	3869
822.149	3930
822.289	3915
822.429	3762
822.569	3770
822.709	3838
822.849	3724
822.99	3740
823.13	3785
823.27	3800
823.41	3736
823.55	3743
823.69	3736
823.83	3709
823.97	3667
824.11	3633
824.25	3637
824.389	3682
824.529	3675
824.669	3641
824.809	3709
824.949	3778
825.089	3713
825.228	3736
825.368	3610
825.508	3580
825.648	3595
825.787	3641
825.927	3682
826.067	3675
826.206	3656
826.346	3755
826.485	3846
826.625	3899
826.765	3987
826.904	3857
827.044	3584
827.183	3523
827.323	3473
827.462	3481
827.601	3473
827.741	3454
827.88	3447
828.02	3409
828.159	3454
828.298	3458
828.437	3564
828.577	3485
828.716	3625
828.855	3534
828.994	3382
829.134	3389
829.273	3416
829.412	3378
829.551	3344
829.69	3336
829.829	3424
829.968	3530
830.107	3466
830.246	3439
830.385	3397
830.524	3386
830.663	3298
830.802	3260
830.941	3222
831.08	3207
831.219	3283
831.357	3306
831.496	3378
831.635	3222
831.774	3211
831.913	3230
832.051	3157
832.19	3150
832.329	3222
832.467	3165
832.606	3131
832.744	3184
832.883	3169
833.022	3203
833.16	3256
833.299	3317
833.437	3355
833.576	3393
833.714	3431
833.852	3466
833.991	3447
834.129	3511
834.267	3469
834.406	3412
834.544	3447
834.682	3435
834.821	3401
834.959	3603
835.097	3435
835.235	3538
835.373	3488
835.511	3504
835.65	3447
835.788	3477
835.926	3397
836.064	3378
836.202	3424
836.34	3576
836.478	3625
836.615	3576
836.753	3618
836.891	3641
837.029	3622
837.167	3625
837.305	3553
837.443	3591
837.58	3526
837.718	3584
837.856	3591
837.993	3549
838.131	3618
838.269	3564
838.406	3610
838.544	3561
838.681	3466
838.819	3454
838.956	3401
839.094	3412
839.231	3431
839.369	3542
839.506	3762
839.643	3644
839.781	3504
839.918	3466
840.055	3530
840.193	3534
840.33	3523
840.467	3587
840.604	3618
840.742	3869
840.879	3561
841.016	3542
841.153	3614
841.29	3759
841.427	3705
841.564	3743
841.701	3747
841.838	3724
841.975	3682
842.112	3770
842.249	3682
842.385	3671
842.522	3884
842.659	3724
842.796	3717
842.933	3705
843.069	3747
843.206	3720
843.343	3835
843.479	3778
843.616	3861
843.752	3682
843.889	3705
844.025	3835
844.162	3679
844.298	3854
844.435	3823
844.571	3766
844.708	3911
844.844	4002
844.98	4044
845.117	4048
845.253	3956
845.389	3934
845.525	3983
845.661	3968
845.798	3949
845.934	4021
846.07	3987
846.206	4078
846.342	4131
846.478	3998
846.614	3960
846.75	3903
846.886	3896
847.022	4055
847.158	3941
847.294	4040
847.429	4051
847.565	4032
847.701	4253
847.837	3907
847.972	3922
848.108	3960
848.244	4002
848.379	3857
848.515	3819
848.65	3827
848.786	3861
848.921	3884
849.057	3915
849.192	3930
849.328	3911
849.463	3907
849.598	3888
849.734	3854
849.869	3884
850.004	3762
850.14	3804
850.275	3789
850.41	3720
850.545	3770
850.68	3778
850.815	3812
850.95	3759
851.085	3956
851.22	3907
851.355	3884
851.49	3778
851.625	3827
851.76	3842
851.895	3800
852.03	3713
852.165	3857
852.299	3888
852.434	3896
852.569	3831
852.703	3903
852.838	3956
852.973	3987
853.107	4002
853.242	3930
853.376	3835
853.511	3800
853.645	3873
853.78	3987
853.914	3926
854.048	3915
854.183	3922
854.317	3987
854.451	4055
854.585	3937
854.72	3972
854.854	4040
854.988	3949
855.122	3998
855.256	3926
855.39	4021
855.524	4143
855.658	4112
855.792	4086
855.926	4139
856.06	4177
856.194	4177
856.327	4192
856.461	4169
856.595	4131
856.729	4200
856.862	4249
856.996	4280
857.13	4284
857.263	4318
857.397	4325
857.53	4314
857.664	4375
857.797	4379
857.931	4402
858.064	4386
858.197	4474
858.331	4379
858.464	4394
858.597	4344
858.731	4485
858.864	4428
858.997	4489
859.13	4565
859.263	4550
859.396	4618
859.529	4527
859.662	4611
859.795	4607
859.928	4622
860.061	4748
860.194	4736
860.327	4694
860.46	4660
860.592	4748
860.725	4767
860.858	4778
860.99	4679
861.123	4679
861.256	4675
861.388	4736
861.521	5425
861.653	4759
861.786	4744
861.918	4748
862.05	4793
862.183	4847
862.315	4885
862.447	4946
862.58	4885
862.712	4797
862.844	4740
862.976	4839
863.108	4854
863.24	5261
863.372	4854
863.504	4877
863.636	4911
863.768	4995
863.9	4984
864.032	4908
864.164	4949
864.296	5064
864.428	5075
864.559	5098
864.691	5121
864.823	5124
864.954	5105
865.086	5155
865.217	5124
865.349	5159
865.48	5060
865.612	5204
865.743	5284
865.875	5193
866.006	5208
866.137	5204
866.269	5254
866.4	5174
866.531	5299
866.662	5216
866.793	5250
866.924	5315
867.055	5345
867.186	5307
867.317	5345
867.448	5315
867.579	5357
867.71	5368
867.841	5414
867.972	5444
868.103	5512
868.233	5448
868.364	5566
868.495	5551
868.625	5680
868.756	5771
868.886	5672
869.017	5699
869.147	5836
869.278	5832
869.408	5817
869.539	5821
869.669	5855
869.799	5958
869.929	6034
870.06	6019
870.19	6194
870.32	6163
870.45	6304
870.58	6334
870.71	6403
870.84	6525
870.97	6426
871.1	6475
871.23	6662
871.36	6700
871.489	6715
871.619	6734
871.749	6795
871.879	6856
872.008	6924
872.138	6973
872.267	7023
872.397	6996
872.526	7072
872.656	7080
872.785	7198
872.915	7365
873.044	7480
873.173	7480
873.303	7605
873.432	7742
873.561	7917
873.69	7944
873.819	7970
873.948	8138
874.077	8252
874.206	8412
874.335	8465
874.464	8766
874.593	8845
874.722	8952
874.851	9119
874.979	9256
875.108	9298
875.237	9435
875.365	9496
875.494	9625
875.623	9854
875.751	9778
875.88	10002
876.008	10128
876.136	10310
876.265	10481
876.393	10706
876.521	10721
876.65	10752
876.778	10847
876.906	10953
877.034	11041
877.162	11151
877.29	11174
877.418	11330
877.546	11376
877.674	11417
877.802	11410
877.93	11604
878.058	11539
878.185	11592
878.313	11653
878.441	11870
878.568	11733
878.696	11817
878.824	11836
878.951	11984
879.079	11992
879.206	12159
879.333	12106
879.461	12026
879.588	12144
879.715	12053
879.842	12243
879.97	12068
880.097	11946
880.224	11916
880.351	11866
880.478	11927
880.605	11832
880.732	11878
880.859	12049
880.986	11859
881.112	11813
881.239	11733
881.366	11684
881.493	11634
881.619	11543
881.746	11596
881.872	11493
881.999	11570
882.125	11543
882.252	11604
882.378	11551
882.505	11581
882.631	11360
882.757	11296
882.883	11273
883.01	11250
883.136	11212
883.262	11056
883.388	11105
883.514	11231
883.64	11204
883.766	11113
883.892	11060
884.018	10972
884.143	11045
884.269	11109
884.395	10889
884.52	10866
884.646	10763
884.772	10759
884.897	10622
885.023	10660
885.148	10714
885.274	10736
885.399	10702
885.524	10645
885.65	10630
885.775	10538
885.9	10588
886.025	10550
886.15	10554
886.275	10436
886.4	10394
886.525	10409
886.65	10440
886.775	10386
886.9	10466
887.025	10573
887.149	10333
887.274	10265
887.399	10215
887.523	10181
887.648	10128
887.773	10059
887.897	10196
888.021	10284
888.146	10135
888.27	10207
888.395	10257
888.519	10166
888.643	10185
888.767	10177
888.891	10147
889.015	10097
889.139	10048
889.263	10059
889.387	10131
889.511	10071
889.635	10078
889.759	9956
889.883	10029
890.006	10032
890.13	10143
890.254	9934
890.377	10006
890.501	9781
890.624	9812
890.748	9941
890.871	9724
890.995	9797
891.118	9728
891.241	9857
891.364	9781
891.488	9823
891.611	9694
891.734	9743
891.857	9743
891.98	9690
892.103	9774
892.226	9667
892.349	9667
892.471	9564
892.594	9595
892.717	9648
892.839	9618
892.962	9599
893.085	9599
893.207	9595
893.33	9549
893.452	9564
893.575	9625
893.697	9580
893.819	9618
893.941	9709
894.064	9606
894.186	9458
894.308	9393
894.43	9549
894.552	9526
894.674	9500
894.796	9412
894.918	9443
895.04	9332
895.161	9359
895.283	9325
895.405	9249
895.526	9253
895.648	9272
895.769	9321
895.891	9230
896.012	9302
896.134	9157
896.255	9150
896.376	9058
896.498	9165
896.619	9142
896.74	9119
896.861	9013
896.982	9317
897.103	9313
897.224	9169
897.345	9043
897.466	9077
897.587	9032
897.708	9138
897.828	9017
897.949	8937
898.07	8891
898.19	8902
898.311	9062
898.431	8895
898.552	8929
898.672	9005
898.792	8948
898.913	8933
899.033	8864
899.153	8724
899.273	8636
899.393	8724
899.513	8758
899.633	8781
899.753	8762
899.873	8693
899.993	8697
900.113	8659
900.232	8731
900.352	8648
900.472	8594
900.591	8594
900.711	8522
900.83	8610
900.95	8670
901.069	8629
901.189	8583
901.308	8385
901.427	8404
901.546	8450
901.665	8484
901.784	8473
901.904	8415
902.023	8305
902.141	8202
902.26	8142
902.379	8309
902.498	8183
902.617	8202
902.735	8221
902.854	8313
902.973	8221
903.091	8153
903.21	8145
903.328	8161
903.446	8111
903.565	8073
903.683	8103
903.801	8058
903.919	8161
904.038	8111
904.156	8077
904.274	8077
904.392	7997
904.51	8050
904.627	8046
904.745	8119
904.863	8096
904.981	7947
905.098	7845
905.216	7909
905.334	7913
905.451	7890
905.569	7906
905.686	7947
905.803	7932
905.921	7814
906.038	7921
906.155	7795
906.272	7742
906.389	7693
906.506	7674
906.623	7677
906.74	7620
906.857	7590
906.974	7601
907.091	7727
907.208	7731
907.324	7666
907.441	7537
907.557	7487
907.674	7476
907.79	7495
907.907	7411
908.023	7480
908.139	7403
908.256	7464
908.372	7331
908.488	7400
908.604	7320
908.72	7240
908.836	7247
908.952	7259
909.068	7270
909.184	7335
909.3	7285
909.415	7331
909.531	7274
909.647	7103
909.762	7168
909.878	7042
909.993	7228
910.108	7141
910.224	7095
910.339	7160
910.454	7038
910.57	7008
910.685	6996
910.8	7179
910.915	7091
911.03	7031
911.145	6897
911.259	6863
911.374	6947
911.489	6875
911.604	6814
911.718	6711
911.833	6745
911.947	6616
912.062	6601
912.176	6779
912.291	6688
912.405	6719
912.519	6829
912.633	6837
912.748	6726
912.862	6700
912.976	6673
913.09	6517
913.204	6566
913.318	6639
913.431	6703
913.545	6639
913.659	6745
913.772	6681
913.886	6570
914	6582
914.113	6662
914.226	6662
914.34	6642
914.453	6528
914.566	6612
914.68	6551
914.793	6559
914.906	6464
915.019	6365
915.132	6399
915.245	6426
915.358	6464
915.47	6506
915.583	6498
915.696	6494
915.809	6570
915.921	6563
916.034	6399
916.146	6403
916.259	6452
916.371	6456
916.483	6426
916.595	6448
916.708	6433
916.82	6407
916.932	6342
917.044	6422
917.156	6456
917.268	6331
917.38	6372
917.491	6342
917.603	6384
917.715	6422
917.826	6467
917.938	6304
918.049	6254
918.161	6346
918.272	6471
918.384	6456
918.495	6380
918.606	6270
918.717	6239
918.828	6232
918.939	6289
919.05	6213
919.161	6247
919.272	6079
919.383	6171
919.494	6311
919.604	6445
919.715	6277
919.826	6228
919.936	6300
920.047	6334
920.157	6296
920.267	6433
920.378	6289
920.488	6331
920.598	6464
920.708	6589
920.818	6456
920.928	6475
921.038	6608
921.148	6593
921.258	6395
921.368	6315
921.477	6224
921.587	6197
921.697	6106
921.806	6167
921.916	6064
922.025	5988
922.134	5897
922.244	5939
922.353	5969
922.462	5863
922.571	5794
922.68	5764
922.789	5676
922.898	5733
923.007	5699
923.116	5733
923.224	5714
923.333	5619
923.442	5577
923.55	5600
923.659	5596
923.767	5646
923.876	5570
923.984	5596
924.092	5524
924.201	5570
924.309	5532
924.417	5600
924.525	5474
924.633	5520
924.741	6106
924.849	5379
924.956	5467
925.064	5376
925.172	5341
925.279	5379
925.387	5387
925.494	5288
925.602	5402
925.709	5398
925.816	5307
925.924	5311
926.031	5406
926.138	5315
926.245	5311
926.352	5246
926.459	5341
926.566	5307
926.673	5181
926.779	5136
926.886	5121
926.993	5083
927.099	5037
927.206	5018
927.312	5003
927.419	5052
927.525	4949
927.631	4995
927.737	4949
927.843	4854
927.95	4805
928.056	4828
928.162	4870
928.267	4877
928.373	5360
928.479	4870
928.585	4710
928.69	4778
928.796	4752
928.901	4679
929.007	4592
929.112	4611
929.218	4668
929.323	4618
929.428	4550
929.533	4687
929.638	4527
929.743	4542
929.848	4554
929.953	4596
930.058	4424
930.163	4318
930.267	4344
930.372	4451
930.477	4295
930.581	4493
930.685	4367
930.79	4295
930.894	4318
930.998	4280
931.103	4405
931.207	4109
931.311	4135
931.415	4025
931.519	3888
931.623	3987
