Data from glass_V78500241_1664.txt Node
Date: Wed Sep 01 19:26:02 CST 2021
User: usil
Spectrometer: V785-0024
Trigger mode: 0
Integration Time (sec): 4.000000E-1
Scans to average: 1
Nonlinearity correction enabled: false
Boxcar width: 0
Storing dark spectrum: false
XAxis mode: Wavelengths
Number of Pixels in Spectrum: 1024
>>>>>Begin Spectral Data<<<<<
801.071	3736
801.214	3713
801.356	3675
801.499	3720
801.641	3728
801.783	3812
801.926	3819
802.068	3850
802.211	3857
802.353	3816
802.496	3835
802.638	3865
802.78	3873
802.923	3926
803.065	3880
803.208	3835
803.35	3880
803.492	3926
803.635	3930
803.777	3808
803.919	3903
804.061	4147
804.204	3915
804.346	3983
804.488	3896
804.63	4051
804.773	3930
804.915	4044
805.057	4116
805.199	4063
805.341	4097
805.483	4112
805.626	4177
805.768	4105
805.91	4207
806.052	4253
806.194	4185
806.336	4310
806.478	4253
806.62	4230
806.762	4166
806.904	4242
807.046	4344
807.188	4211
807.33	4181
807.472	4242
807.614	4169
807.756	4249
807.898	4196
808.04	4227
808.182	4276
808.324	4341
808.465	4344
808.607	4451
808.749	4489
808.891	4493
809.033	4504
809.174	4413
809.316	4242
809.458	4306
809.6	4166
809.741	4162
809.883	4120
810.025	4196
810.166	4211
810.308	4192
810.45	4234
810.591	4249
810.733	4303
810.875	4508
811.016	4809
811.158	5128
811.299	5269
811.441	5235
811.582	5102
811.724	4675
811.865	4455
812.007	4451
812.148	4409
812.29	4417
812.431	4413
812.573	4409
812.714	4428
812.855	4432
812.997	4398
813.138	4466
813.279	4379
813.421	4325
813.562	4394
813.703	4344
813.845	4318
813.986	4219
814.127	4192
814.268	4230
814.41	4295
814.551	4318
814.692	4329
814.833	4223
814.974	4310
815.115	4303
815.256	4257
815.397	4249
815.539	4265
815.68	4192
815.821	4158
815.962	4341
816.103	4219
816.244	4276
816.385	4215
816.526	4310
816.666	4207
816.807	4059
816.948	4166
817.089	4192
817.23	4143
817.371	4090
817.512	4082
817.653	4090
817.793	4025
817.934	4006
818.075	4074
818.216	4086
818.356	4082
818.497	3983
818.638	3949
818.778	3907
818.919	3888
819.06	3869
819.2	3926
819.341	3869
819.481	3857
819.622	3892
819.762	3994
819.903	3937
820.043	3903
820.184	3838
820.324	3808
820.465	3915
820.605	3896
820.746	3865
820.886	3800
821.026	3861
821.167	3899
821.307	4006
821.447	3979
821.588	3968
821.728	3953
821.868	3884
822.008	3857
822.149	3911
822.289	3888
822.429	3781
822.569	3755
822.709	3804
822.849	3724
822.99	3694
823.13	3774
823.27	3808
823.41	3671
823.55	3770
823.69	3720
823.83	3800
823.97	3690
824.11	3606
824.25	3584
824.389	3656
824.529	3686
824.669	3648
824.809	3701
824.949	3720
825.089	3705
825.228	3717
825.368	3557
825.508	3584
825.648	3564
825.787	3633
825.927	3618
826.067	3633
826.206	3633
826.346	3774
826.485	3865
826.625	3861
826.765	3926
826.904	3850
827.044	3572
827.183	3538
827.323	3424
827.462	3481
827.601	3439
827.741	3420
827.88	3485
828.02	3359
828.159	3431
828.298	3492
828.437	3523
828.577	3466
828.716	3568
828.855	3515
828.994	3393
829.134	3401
829.273	3401
829.412	3321
829.551	3317
829.69	3355
829.829	3386
829.968	3519
830.107	3431
830.246	3420
830.385	3329
830.524	3370
830.663	3329
830.802	3256
830.941	3214
831.08	3218
831.219	3260
831.357	3264
831.496	3393
831.635	3264
831.774	3199
831.913	3192
832.051	3142
832.19	3161
832.329	3203
832.467	3131
832.606	3077
832.744	3116
832.883	3188
833.022	3184
833.16	3207
833.299	3317
833.437	3340
833.576	3359
833.714	3409
833.852	3450
833.991	3420
834.129	3462
834.267	3412
834.406	3450
834.544	3405
834.682	3416
834.821	3409
834.959	3534
835.097	3439
835.235	3526
835.373	3492
835.511	3500
835.65	3469
835.788	3504
835.926	3397
836.064	3378
836.202	3393
836.34	3564
836.478	3595
836.615	3481
836.753	3599
836.891	3679
837.029	3641
837.167	3576
837.305	3549
837.443	3557
837.58	3477
837.718	3606
837.856	3576
837.993	3545
838.131	3587
838.269	3580
838.406	3576
838.544	3564
838.681	3511
838.819	3477
838.956	3393
839.094	3401
839.231	3443
839.369	3507
839.506	3709
839.643	3622
839.781	3526
839.918	3447
840.055	3549
840.193	3542
840.33	3538
840.467	3545
840.604	3561
840.742	3842
840.879	3538
841.016	3545
841.153	3591
841.29	3736
841.427	3732
841.564	3675
841.701	3743
841.838	3705
841.975	3660
842.112	3728
842.249	3641
842.385	3637
842.522	3838
842.659	3667
842.796	3682
842.933	3686
843.069	3686
843.206	3720
843.343	3778
843.479	3736
843.616	3823
843.752	3690
843.889	3660
844.025	3850
844.162	3705
844.298	3831
844.435	3774
844.571	3736
844.708	3915
844.844	3964
844.98	4044
845.117	3960
845.253	3934
845.389	3926
845.525	3934
845.661	3975
845.798	3930
845.934	3991
846.07	3975
846.206	4010
846.342	4109
846.478	4067
846.614	4006
846.75	3964
846.886	3892
847.022	4032
847.158	4032
847.294	3998
847.429	4025
847.565	4006
847.701	4238
847.837	3896
847.972	3835
848.108	3972
848.244	3960
848.379	3823
848.515	3797
848.65	3797
848.786	3888
848.921	3869
849.057	3926
849.192	3953
849.328	3918
849.463	3930
849.598	3899
849.734	3850
849.869	3835
850.004	3770
850.14	3823
850.275	3747
850.41	3732
850.545	3751
850.68	3778
850.815	3797
850.95	3816
851.085	3949
851.22	3865
851.355	3857
851.49	3793
851.625	3778
851.76	3827
851.895	3736
852.03	3755
852.165	3808
852.299	3865
852.434	3903
852.569	3892
852.703	3842
852.838	3930
852.973	4048
853.107	4002
853.242	3896
853.376	3850
853.511	3755
853.645	3797
853.78	3994
853.914	3880
854.048	3945
854.183	3884
854.317	3953
854.451	4071
854.585	3987
854.72	3945
854.854	4025
854.988	3911
855.122	4025
855.256	3903
855.39	3994
855.524	4173
855.658	4044
855.792	4059
855.926	4150
856.06	4154
856.194	4192
856.327	4154
856.461	4109
856.595	4162
856.729	4181
856.862	4253
856.996	4246
857.13	4303
857.263	4314
857.397	4329
857.53	4268
857.664	4337
857.797	4394
857.931	4405
858.064	4386
858.197	4462
858.331	4394
858.464	4363
858.597	4306
858.731	4413
858.864	4451
858.997	4363
859.13	4508
859.263	4573
859.396	4527
859.529	4527
859.662	4538
859.795	4485
859.928	4569
860.061	4710
860.194	4717
860.327	4656
860.46	4672
860.592	4748
860.725	4820
860.858	4736
860.99	4694
861.123	4691
861.256	4691
861.388	4759
861.521	5372
861.653	4694
861.786	4721
861.918	4733
862.05	4786
862.183	4854
862.315	4858
862.447	4923
862.58	4862
862.712	4828
862.844	4824
862.976	4850
863.108	4870
863.24	5250
863.372	4866
863.504	4908
863.636	4908
863.768	4927
863.9	4946
864.032	4930
864.164	4968
864.296	4961
864.428	5098
864.559	5086
864.691	5079
864.823	5071
864.954	5113
865.086	5132
865.217	5117
865.349	5132
865.48	5201
865.612	5181
865.743	5273
865.875	5193
866.006	5197
866.137	5189
866.269	5280
866.4	5288
866.531	5223
866.662	5227
866.793	5334
866.924	5242
867.055	5368
867.186	5379
867.317	5288
867.448	5337
867.579	5402
867.71	5353
867.841	5417
867.972	5455
868.103	5410
868.233	5433
868.364	5474
868.495	5562
868.625	5703
868.756	5832
868.886	5680
869.017	5767
869.147	5851
869.278	5870
869.408	5798
869.539	5847
869.669	5897
869.799	5866
869.929	5939
870.06	5980
870.19	6178
870.32	6205
870.45	6251
870.58	6380
870.71	6448
870.84	6426
870.97	6407
871.1	6490
871.23	6646
871.36	6677
871.489	6627
871.619	6707
871.749	6825
871.879	6837
872.008	6962
872.138	7027
872.267	7012
872.397	6977
872.526	6977
872.656	7069
872.785	7171
872.915	7407
873.044	7544
873.173	7563
873.303	7662
873.432	7708
873.561	7822
873.69	7951
873.819	7978
873.948	8244
874.077	8256
874.206	8305
874.335	8434
874.464	8686
874.593	8883
874.722	8910
874.851	9142
874.979	9146
875.108	9321
875.237	9397
875.365	9477
875.494	9698
875.623	9876
875.751	9827
875.88	9968
876.008	10150
876.136	10147
876.265	10584
876.393	10774
876.521	10660
876.65	10771
876.778	10892
876.906	10942
877.034	10930
877.162	11136
877.29	11140
877.418	11349
877.546	11334
877.674	11391
877.802	11482
877.93	11532
878.058	11627
878.185	11649
878.313	11634
878.441	11771
878.568	11634
878.696	11809
878.824	11805
878.951	11920
879.079	12041
879.206	12167
879.333	12060
879.461	11980
879.588	12095
879.715	12144
879.842	12209
879.97	12030
880.097	11851
880.224	11882
880.351	11832
880.478	11870
880.605	11813
880.732	11885
880.859	12045
880.986	11840
881.112	11912
881.239	11726
881.366	11657
881.493	11710
881.619	11600
881.746	11501
881.872	11535
881.999	11532
882.125	11452
882.252	11608
882.378	11512
882.505	11604
882.631	11368
882.757	11269
882.883	11334
883.01	11231
883.136	11166
883.262	11143
883.388	11029
883.514	11181
883.64	11094
883.766	11105
883.892	11033
884.018	10976
884.143	11025
884.269	11083
884.395	10801
884.52	10816
884.646	10790
884.772	10809
884.897	10630
885.023	10698
885.148	10755
885.274	10717
885.399	10577
885.524	10653
885.65	10523
885.775	10611
885.9	10531
886.025	10694
886.15	10565
886.275	10489
886.4	10318
886.525	10375
886.65	10409
886.775	10382
886.9	10546
887.025	10489
887.149	10379
887.274	10280
887.399	10173
887.523	10173
887.648	10188
887.773	10166
887.897	10257
888.021	10204
888.146	10150
888.27	10192
888.395	10242
888.519	10177
888.643	10223
888.767	10177
888.891	10055
889.015	10059
889.139	10029
889.263	10006
889.387	9998
889.511	10078
889.635	10036
889.759	10044
889.883	10006
890.006	10036
890.13	10097
890.254	9979
890.377	10006
890.501	9899
890.624	9842
890.748	9861
890.871	9698
890.995	9694
891.118	9740
891.241	9732
891.364	9728
891.488	9793
891.611	9755
891.734	9785
891.857	9728
891.98	9740
892.103	9751
892.226	9686
892.349	9736
892.471	9549
892.594	9580
892.717	9656
892.839	9584
892.962	9648
893.085	9622
893.207	9610
893.33	9564
893.452	9637
893.575	9622
893.697	9572
893.819	9675
893.941	9652
894.064	9606
894.186	9462
894.308	9401
894.43	9542
894.552	9580
894.674	9507
894.796	9355
894.918	9408
895.04	9351
895.161	9340
895.283	9428
895.405	9237
895.526	9245
895.648	9211
895.769	9298
895.891	9275
896.012	9294
896.134	9184
896.255	9173
896.376	9165
896.498	9100
896.619	9157
896.74	9085
896.861	9077
896.982	9279
897.103	9351
897.224	9127
897.345	9043
897.466	8960
897.587	9009
897.708	9104
897.828	9055
897.949	8952
898.07	8891
898.19	8933
898.311	9028
898.431	8838
898.552	8921
898.672	8979
898.792	8963
898.913	8899
899.033	8826
899.153	8720
899.273	8705
899.393	8674
899.513	8739
899.633	8766
899.753	8705
899.873	8682
899.993	8667
900.113	8697
900.232	8693
900.352	8670
900.472	8549
900.591	8610
900.711	8621
900.83	8526
900.95	8739
901.069	8716
901.189	8613
901.308	8469
901.427	8473
901.546	8412
901.665	8442
901.784	8473
901.904	8393
902.023	8320
902.141	8305
902.26	8172
902.379	8282
902.498	8187
902.617	8214
902.735	8374
902.854	8313
902.973	8240
903.091	8107
903.21	8221
903.328	8199
903.446	8107
903.565	8073
903.683	8062
903.801	8054
903.919	8157
904.038	8130
904.156	8088
904.274	8119
904.392	8046
904.51	7959
904.627	8088
904.745	8043
904.863	8069
904.981	7936
905.098	7902
905.216	7898
905.334	7883
905.451	7883
905.569	7909
905.686	7951
905.803	7898
905.921	7757
906.038	7890
906.155	7799
906.272	7681
906.389	7719
906.506	7605
906.623	7666
906.74	7613
906.857	7514
906.974	7613
907.091	7666
907.208	7719
907.324	7628
907.441	7556
907.557	7460
907.674	7445
907.79	7411
907.907	7449
908.023	7476
908.139	7434
908.256	7381
908.372	7415
908.488	7362
908.604	7259
908.72	7236
908.836	7217
908.952	7179
909.068	7270
909.184	7297
909.3	7293
909.415	7240
909.531	7274
909.647	7149
909.762	7088
909.878	7046
909.993	7091
910.108	7088
910.224	7042
910.339	7107
910.454	7084
910.57	6943
910.685	6943
910.8	7187
910.915	7175
911.03	7015
911.145	6947
911.259	6890
911.374	6916
911.489	6837
911.604	6837
911.718	6719
911.833	6711
911.947	6673
912.062	6585
912.176	6681
912.291	6738
912.405	6696
912.519	6871
912.633	6867
912.748	6738
912.862	6696
912.976	6639
913.09	6490
913.204	6623
913.318	6604
913.431	6677
913.545	6616
913.659	6791
913.772	6665
913.886	6601
914	6544
914.113	6597
914.226	6612
914.34	6593
914.453	6532
914.566	6639
914.68	6513
914.793	6517
914.906	6426
915.019	6361
915.132	6399
915.245	6369
915.358	6395
915.47	6448
915.583	6422
915.696	6456
915.809	6623
915.921	6517
916.034	6418
916.146	6372
916.259	6338
916.371	6456
916.483	6448
916.595	6388
916.708	6353
916.82	6399
916.932	6376
917.044	6380
917.156	6429
917.268	6353
917.38	6292
917.491	6289
917.603	6342
917.715	6384
917.826	6433
917.938	6353
918.049	6258
918.161	6342
918.272	6414
918.384	6414
918.495	6350
918.606	6216
918.717	6216
918.828	6285
918.939	6289
919.05	6148
919.161	6232
919.272	6106
919.383	6144
919.494	6300
919.604	6445
919.715	6258
919.826	6182
919.936	6190
920.047	6292
920.157	6254
920.267	6452
920.378	6289
920.488	6311
920.598	6490
920.708	6574
920.818	6448
920.928	6471
921.038	6623
921.148	6532
921.258	6350
921.368	6346
921.477	6235
921.587	6209
921.697	6076
921.806	6136
921.916	6091
922.025	5946
922.134	5847
922.244	5889
922.353	5984
922.462	5821
922.571	5775
922.68	5714
922.789	5691
922.898	5752
923.007	5615
923.116	5748
923.224	5672
923.333	5623
923.442	5585
923.55	5604
923.659	5600
923.767	5604
923.876	5573
923.984	5615
924.092	5501
924.201	5520
924.309	5585
924.417	5547
924.525	5486
924.633	5490
924.741	6277
924.849	5398
924.956	5516
925.064	5349
925.172	5296
925.279	5368
925.387	5398
925.494	5315
925.602	5448
925.709	5398
925.816	5288
925.924	5334
926.031	5326
926.138	5277
926.245	5322
926.352	5189
926.459	5296
926.566	5277
926.673	5208
926.779	5155
926.886	5064
926.993	5033
927.099	5041
927.206	4999
927.312	4953
927.419	5029
927.525	4953
927.631	4987
927.737	4923
927.843	4835
927.95	4809
928.056	4778
928.162	4847
928.267	4866
928.373	5334
928.479	4850
928.585	4694
928.69	4771
928.796	4702
928.901	4683
929.007	4565
929.112	4672
929.218	4649
929.323	4599
929.428	4550
929.533	4675
929.638	4519
929.743	4550
929.848	4542
929.953	4516
930.058	4497
930.163	4348
930.267	4379
930.372	4455
930.477	4303
930.581	4470
930.685	4379
930.79	4268
930.894	4291
930.998	4200
931.103	4436
931.207	4143
931.311	4090
931.415	4032
931.519	3987
931.623	3926
