Data from test_V78500241_575.txt Node
Date: Fri Mar 25 16:52:59 CST 2022
User: usil
Spectrometer: V785-0024
Trigger mode: 0
Integration Time (sec): 4.000000E-1
Scans to average: 1
Nonlinearity correction enabled: false
Boxcar width: 0
Storing dark spectrum: false
XAxis mode: Wavelengths
Number of Pixels in Spectrum: 1024
>>>>>Begin Spectral Data<<<<<
801.071	8031
801.214	8050
801.356	7856
801.499	7868
801.641	7788
801.783	7822
801.926	7967
802.068	7925
802.211	8031
802.353	7978
802.496	7868
802.638	7974
802.78	7902
802.923	7875
803.065	7814
803.208	7818
803.35	7947
803.492	8027
803.635	8077
803.777	7967
803.919	8111
804.061	8393
804.204	8164
804.346	8035
804.488	7967
804.63	8062
804.773	8084
804.915	7986
805.057	8263
805.199	8130
805.341	8248
805.483	8328
805.626	8191
805.768	8103
805.91	8180
806.052	8267
806.194	8069
806.336	8244
806.478	8096
806.62	8073
806.762	8149
806.904	8286
807.046	8434
807.188	8355
807.33	8275
807.472	8248
807.614	8164
807.756	8107
807.898	7944
808.04	7830
808.182	7932
808.324	7932
808.465	7913
808.607	8005
808.749	8123
808.891	8195
809.033	8309
809.174	8153
809.316	8065
809.458	8088
809.6	8031
809.741	8012
809.883	8005
810.025	8126
810.166	7989
810.308	7974
810.45	7974
810.591	7868
810.733	7746
810.875	7685
811.016	7514
811.158	7441
811.299	7605
811.441	7731
811.582	7670
811.724	7575
811.865	7559
812.007	7639
812.148	7605
812.29	7624
812.431	7658
812.573	7898
812.714	7989
812.855	8149
812.997	8301
813.138	8374
813.279	8290
813.421	8187
813.562	8046
813.703	7871
813.845	7841
813.986	7491
814.127	7297
814.268	7278
814.41	7217
814.551	7088
814.692	7164
814.833	7061
814.974	7057
815.115	7129
815.256	6985
815.397	6973
815.539	6924
815.68	6867
815.821	6859
815.962	6882
816.103	6852
816.244	6688
816.385	6654
816.526	6616
816.666	6460
816.807	6285
816.948	6426
817.089	6513
817.23	6399
817.371	6315
817.512	6388
817.653	6445
817.793	6388
817.934	6445
818.075	6452
818.216	6403
818.356	6422
818.497	6228
818.638	6110
818.778	6091
818.919	6106
819.06	6186
819.2	6300
819.341	6266
819.481	6346
819.622	6544
819.762	6768
819.903	6738
820.043	6566
820.184	6544
820.324	6574
820.465	6642
820.605	6608
820.746	6551
820.886	6555
821.026	6635
821.167	6749
821.307	6772
821.447	6757
821.588	6627
821.728	6532
821.868	6483
822.008	6266
822.149	6361
822.289	6315
822.429	6110
822.569	6045
822.709	6117
822.849	5931
822.99	5866
823.13	5904
823.27	5961
823.41	5775
823.55	5809
823.69	5767
823.83	5752
823.97	5661
824.11	5497
824.25	5490
824.389	5501
824.529	5558
824.669	5520
824.809	5630
824.949	5672
825.089	5638
825.228	5562
825.368	5383
825.508	5341
825.648	5345
825.787	5360
825.927	5410
826.067	5269
826.206	5284
826.346	5372
826.485	5425
826.625	5436
826.765	5543
826.904	5440
827.044	5292
827.183	5216
827.323	5151
827.462	5261
827.601	5185
827.741	5178
827.88	5159
828.02	5155
828.159	5231
828.298	5288
828.437	5299
828.577	5311
828.716	5425
828.855	5311
828.994	5178
829.134	5117
829.273	5136
829.412	5147
829.551	5124
829.69	5143
829.829	5220
829.968	5349
830.107	5265
830.246	5280
830.385	5189
830.524	5132
830.663	5048
830.802	4972
830.941	4904
831.08	4805
831.219	4946
831.357	4984
831.496	5136
831.635	4885
831.774	4900
831.913	4858
832.051	4733
832.19	4786
832.329	4839
832.467	4721
832.606	4675
832.744	4675
832.883	4721
833.022	4691
833.16	4752
833.299	4809
833.437	4786
833.576	4824
833.714	4839
833.852	4850
833.991	4881
834.129	4946
834.267	4946
834.406	4889
834.544	4965
834.682	4957
834.821	4946
834.959	5159
835.097	5010
835.235	5162
835.373	5083
835.511	5075
835.65	5022
835.788	5052
835.926	4908
836.064	4870
836.202	4957
836.34	5178
836.478	5220
836.615	5143
836.753	5208
836.891	5235
837.029	5246
837.167	5235
837.305	5162
837.443	5181
837.58	5102
837.718	5250
837.856	5140
837.993	5132
838.131	5212
838.269	5231
838.406	5208
838.544	5178
838.681	5037
838.819	4953
838.956	4930
839.094	4896
839.231	5014
839.369	5083
839.506	5417
839.643	5265
839.781	5048
839.918	5037
840.055	5098
840.193	5056
840.33	5086
840.467	5121
840.604	5159
840.742	5398
840.879	5064
841.016	5143
841.153	5121
841.29	5406
841.427	5303
841.564	5315
841.701	5330
841.838	5242
841.975	5239
842.112	5269
842.249	5170
842.385	5147
842.522	5315
842.659	5174
842.796	5185
842.933	5185
843.069	5136
843.206	5174
843.343	5265
843.479	5261
843.616	5208
843.752	4972
843.889	5029
844.025	5170
844.162	5056
844.298	5197
844.435	5067
844.571	5071
844.708	5220
844.844	5330
844.98	5341
845.117	5250
845.253	5117
845.389	5083
845.525	5140
845.661	5162
845.798	5022
845.934	5113
846.07	4995
846.206	5174
846.342	5330
846.478	5155
846.614	5003
846.75	4980
846.886	4957
847.022	5128
847.158	5033
847.294	5014
847.429	5083
847.565	5018
847.701	5311
847.837	4866
847.972	4786
848.108	4968
848.244	4961
848.379	4759
848.515	4721
848.65	4706
848.786	4721
848.921	4786
849.057	4911
849.192	4908
849.328	4820
849.463	4847
849.598	4771
849.734	4736
849.869	4714
850.004	4637
850.14	4607
850.275	4611
850.41	4485
850.545	4580
850.68	4603
850.815	4645
850.95	4645
851.085	4889
851.22	4748
851.355	4660
851.49	4580
851.625	4611
851.76	4668
851.895	4523
852.03	4565
852.165	4592
852.299	4725
852.434	4733
852.569	4721
852.703	4729
852.838	4850
852.973	4881
853.107	4915
853.242	4748
853.376	4679
853.511	4535
853.645	4630
853.78	4820
853.914	4752
854.048	4634
854.183	4683
854.317	4698
854.451	4858
854.585	4694
854.72	4618
854.854	4759
854.988	4645
855.122	4584
855.256	4531
855.39	4668
855.524	4752
855.658	4729
855.792	4679
855.926	4714
856.06	4714
856.194	4828
856.327	4679
856.461	4641
856.595	4599
856.729	4634
856.862	4729
856.996	4694
857.13	4702
857.263	4725
857.397	4812
857.53	4660
857.664	4717
857.797	4717
857.931	4797
858.064	4668
858.197	4740
858.331	4637
858.464	4603
858.597	4481
858.731	4637
858.864	4668
858.997	4592
859.13	4626
859.263	4672
859.396	4706
859.529	4561
859.662	4538
859.795	4489
859.928	4634
860.061	4771
860.194	4763
860.327	4577
860.46	4565
860.592	4710
860.725	4660
860.858	4717
860.99	4584
861.123	4413
861.256	4500
861.388	4630
861.521	5486
861.653	4485
861.786	4413
861.918	4447
862.05	4508
862.183	4489
862.315	4554
862.447	4637
862.58	4516
862.712	4367
862.844	4325
862.976	4424
863.108	4466
863.24	4824
863.372	4344
863.504	4409
863.636	4386
863.768	4466
863.9	4402
864.032	4383
864.164	4405
864.296	4508
864.428	4561
864.559	4497
864.691	4523
864.823	4588
864.954	4455
865.086	4516
865.217	4432
865.349	4443
865.48	4481
865.612	4451
865.743	4679
865.875	4481
866.006	4470
866.137	4428
866.269	4481
866.4	4451
866.531	4394
866.662	4417
866.793	4375
866.924	4428
867.055	4481
867.186	4470
867.317	4405
867.448	4344
867.579	4424
867.71	4386
867.841	4318
867.972	4447
868.103	4470
868.233	4474
868.364	4436
868.495	4500
868.625	4634
868.756	4771
868.886	4577
869.017	4615
869.147	4755
869.278	4790
869.408	4691
869.539	4645
869.669	4748
869.799	4656
869.929	4763
870.06	4710
870.19	4972
870.32	4915
870.45	4908
870.58	4995
870.71	5109
870.84	5109
870.97	4949
871.1	4908
871.23	5140
871.36	5166
871.489	5033
871.619	5105
871.749	5102
871.879	5124
872.008	5204
872.138	4999
872.267	4942
872.397	4862
872.526	4797
872.656	4721
872.785	4782
872.915	4961
873.044	5003
873.173	4976
873.303	5003
873.432	4984
873.561	4930
873.69	4847
873.819	4873
873.948	4946
874.077	4816
874.206	4816
874.335	4809
874.464	4946
874.593	5090
874.722	4934
874.851	5140
874.979	5075
875.108	5010
875.237	4930
875.365	4858
875.494	4911
875.623	4968
875.751	4850
875.88	4873
876.008	4930
876.136	5018
876.265	5162
876.393	5357
876.521	5242
876.65	5220
876.778	5098
876.906	5098
877.034	5041
877.162	5056
877.29	4965
877.418	5064
877.546	5056
877.674	5048
877.802	5010
877.93	4999
878.058	4938
878.185	4835
878.313	4961
878.441	4938
878.568	4831
878.696	4915
878.824	4946
878.951	4965
879.079	5117
879.206	5284
879.333	5102
879.461	4976
879.588	5018
879.715	5075
879.842	5250
879.97	4980
880.097	4755
880.224	4740
880.351	4812
880.478	4782
880.605	4820
880.732	4733
880.859	5094
880.986	4892
881.112	4908
881.239	4812
881.366	4706
881.493	4622
881.619	4584
881.746	4630
881.872	4691
881.999	4630
882.125	4706
882.252	4790
882.378	4793
882.505	4908
882.631	4774
882.757	4733
882.883	4672
883.01	4721
883.136	4656
883.262	4573
883.388	4622
883.514	4778
883.64	4862
883.766	4778
883.892	4645
884.018	4714
884.143	4889
884.269	4987
884.395	4683
884.52	4615
884.646	4660
884.772	4599
884.897	4538
885.023	4653
885.148	4824
885.274	4801
885.399	4793
885.524	4706
885.65	4683
885.775	4721
885.9	4675
886.025	4870
886.15	4793
886.275	4736
886.4	4660
886.525	4729
886.65	4683
886.775	4702
886.9	4831
887.025	5060
887.149	4824
887.274	4637
887.399	4596
887.523	4588
887.648	4584
887.773	4611
887.897	4771
888.021	4820
888.146	4736
888.27	4839
888.395	4911
888.519	4793
888.643	4858
888.767	4786
888.891	4694
889.015	4615
889.139	4656
889.263	4622
889.387	4812
889.511	4850
889.635	4816
889.759	4603
889.883	4645
890.006	4691
890.13	4797
890.254	4580
890.377	4698
890.501	4550
890.624	4538
890.748	4596
890.871	4527
890.995	4443
891.118	4402
891.241	4531
891.364	4531
891.488	4618
891.611	4527
891.734	4546
891.857	4577
891.98	4538
892.103	4687
892.226	4622
892.349	4531
892.471	4466
892.594	4538
892.717	4611
892.839	4588
892.962	4615
893.085	4634
893.207	4607
893.33	4478
893.452	4497
893.575	4668
893.697	4599
893.819	4805
893.941	4805
894.064	4744
894.186	4565
894.308	4565
894.43	4714
894.552	4782
894.674	4793
894.796	4497
894.918	4622
895.04	4634
895.161	4691
895.283	4656
895.405	4603
895.526	4630
895.648	4675
895.769	4687
895.891	4706
896.012	4717
896.134	4702
896.255	4679
896.376	4637
896.498	4596
896.619	4622
896.74	4599
896.861	4664
896.982	4900
897.103	5079
897.224	4839
897.345	4736
897.466	4656
897.587	4717
897.708	4824
897.828	4774
897.949	4691
898.07	4611
898.19	4656
898.311	4771
898.431	4706
898.552	4714
898.672	4824
898.792	4778
898.913	4721
899.033	4645
899.153	4508
899.273	4489
899.393	4512
899.513	4512
899.633	4561
899.753	4485
899.873	4516
899.993	4565
900.113	4489
900.232	4603
900.352	4558
900.472	4523
900.591	4371
900.711	4474
900.83	4428
900.95	4580
901.069	4694
901.189	4569
901.308	4394
901.427	4348
901.546	4428
901.665	4470
901.784	4478
901.904	4402
902.023	4257
902.141	4196
902.26	4139
902.379	4314
902.498	4287
902.617	4249
902.735	4363
902.854	4375
902.973	4348
903.091	4192
903.21	4276
903.328	4295
903.446	4249
903.565	4261
903.683	4322
903.801	4291
903.919	4398
904.038	4390
904.156	4352
904.274	4432
904.392	4379
904.51	4436
904.627	4470
904.745	4538
904.863	4653
904.981	4421
905.098	4238
905.216	4344
905.334	4443
905.451	4432
905.569	4413
905.686	4558
905.803	4607
905.921	4398
906.038	4538
906.155	4512
906.272	4421
906.389	4428
906.506	4333
906.623	4337
906.74	4417
906.857	4337
906.974	4390
907.091	4592
907.208	4702
907.324	4573
907.441	4443
907.557	4356
907.674	4329
907.79	4295
907.907	4398
908.023	4455
908.139	4421
908.256	4409
908.372	4474
908.488	4466
908.604	4390
908.72	4276
908.836	4367
908.952	4363
909.068	4478
909.184	4588
909.3	4485
909.415	4599
909.531	4546
909.647	4306
909.762	4306
909.878	4341
909.993	4417
910.108	4421
910.224	4398
910.339	4512
910.454	4424
910.57	4352
910.685	4314
910.8	4599
910.915	4588
911.03	4470
911.145	4341
911.259	4314
911.374	4348
911.489	4318
911.604	4268
911.718	4177
911.833	4192
911.947	4131
912.062	4051
912.176	4268
912.291	4246
912.405	4249
912.519	4497
912.633	4516
912.748	4379
912.862	4310
912.976	4234
913.09	4086
913.204	4154
913.318	4215
913.431	4375
913.545	4367
913.659	4474
913.772	4356
913.886	4265
914	4249
914.113	4337
914.226	4443
914.34	4390
914.453	4227
914.566	4451
914.68	4295
914.793	4299
914.906	4207
915.019	4128
915.132	4097
915.245	4162
915.358	4242
915.47	4230
915.583	4291
915.696	4303
915.809	4417
915.921	4428
916.034	4276
916.146	4261
916.259	4242
916.371	4356
916.483	4379
916.595	4219
916.708	4280
916.82	4287
916.932	4310
917.044	4348
917.156	4284
917.268	4257
917.38	4257
917.491	4287
917.603	4306
917.715	4386
917.826	4405
917.938	4344
918.049	4249
918.161	4371
918.272	4569
918.384	4546
918.495	4455
918.606	4303
918.717	4227
918.828	4341
918.939	4360
919.05	4238
919.161	4356
919.272	4128
919.383	4238
919.494	4424
919.604	4607
919.715	4436
919.826	4310
919.936	4424
920.047	4516
920.157	4527
920.267	4702
920.378	4542
920.488	4527
920.598	4725
920.708	4881
920.818	4797
920.928	4668
921.038	4934
921.148	4911
921.258	4622
921.368	4542
921.477	4470
921.587	4432
921.697	4394
921.806	4508
921.916	4421
922.025	4234
922.134	4280
922.244	4227
922.353	4337
922.462	4188
922.571	4139
922.68	4017
922.789	4025
922.898	3979
923.007	3934
923.116	4074
923.224	4059
923.333	4139
923.442	4017
923.55	3964
923.659	4036
923.767	4101
923.876	4013
923.984	4196
924.092	3983
924.201	4101
924.309	4063
924.417	4124
924.525	4059
924.633	4120
924.741	5117
924.849	3915
924.956	4116
925.064	3934
925.172	3884
925.279	3979
925.387	4032
925.494	4071
925.602	4234
925.709	4196
925.816	4048
925.924	4158
926.031	4261
926.138	4124
926.245	4227
926.352	4086
926.459	4295
926.566	4318
926.673	4135
926.779	4112
926.886	4090
926.993	3972
927.099	3987
927.206	3934
927.312	3903
927.419	4013
927.525	4006
927.631	4143
927.737	3987
927.843	3964
927.95	3911
928.056	3926
928.162	3941
928.267	4086
928.373	4649
928.479	4131
928.585	3857
928.69	4029
928.796	4074
928.901	3922
929.007	3846
929.112	4021
929.218	3983
929.323	3941
929.428	3979
929.533	4097
929.638	3941
929.743	3972
929.848	4071
929.953	3975
930.058	3899
930.163	3785
930.267	3842
930.372	3964
930.477	3751
930.581	4090
930.685	3953
930.79	3846
930.894	3903
930.998	3861
931.103	4025
931.207	3717
931.311	3709
931.415	3656
931.519	3515
931.623	3523
