Data from test_V78500241_1022.txt Node
Date: Fri Mar 25 16:56:06 CST 2022
User: usil
Spectrometer: V785-0024
Trigger mode: 0
Integration Time (sec): 4.000000E-1
Scans to average: 1
Nonlinearity correction enabled: false
Boxcar width: 0
Storing dark spectrum: false
XAxis mode: Wavelengths
Number of Pixels in Spectrum: 1024
>>>>>Begin Spectral Data<<<<<
801.071	7997
801.214	8054
801.356	7868
801.499	7833
801.641	7780
801.783	7780
801.926	7871
802.068	7940
802.211	7959
802.353	7940
802.496	7811
802.638	7826
802.78	7887
802.923	7917
803.065	7822
803.208	7826
803.35	7944
803.492	8103
803.635	8183
803.777	8054
803.919	8069
804.061	8423
804.204	8164
804.346	8046
804.488	8016
804.63	8096
804.773	7970
804.915	8062
805.057	8328
805.199	8073
805.341	8248
805.483	8221
805.626	8130
805.768	8069
805.91	8142
806.052	8149
806.194	7997
806.336	8305
806.478	8149
806.62	7959
806.762	8092
806.904	8271
807.046	8450
807.188	8332
807.33	8290
807.472	8282
807.614	8100
807.756	8157
807.898	7982
808.04	7871
808.182	7841
808.324	7879
808.465	7883
808.607	8100
808.749	8054
808.891	8157
809.033	8320
809.174	8202
809.316	8096
809.458	8065
809.6	7959
809.741	8020
809.883	7982
810.025	8043
810.166	8020
810.308	7978
810.45	7993
810.591	7856
810.733	7734
810.875	7632
811.016	7537
811.158	7400
811.299	7605
811.441	7647
811.582	7628
811.724	7616
811.865	7491
812.007	7616
812.148	7643
812.29	7636
812.431	7742
812.573	7852
812.714	8001
812.855	8214
812.997	8195
813.138	8248
813.279	8145
813.421	8065
813.562	8012
813.703	7837
813.845	7795
813.986	7392
814.127	7236
814.268	7213
814.41	7168
814.551	7114
814.692	7164
814.833	7057
814.974	7072
815.115	7091
815.256	6916
815.397	6951
815.539	6951
815.68	6791
815.821	6783
815.962	6871
816.103	6875
816.244	6738
816.385	6631
816.526	6642
816.666	6513
816.807	6277
816.948	6376
817.089	6475
817.23	6498
817.371	6422
817.512	6448
817.653	6395
817.793	6429
817.934	6395
818.075	6426
818.216	6433
818.356	6429
818.497	6178
818.638	6114
818.778	6133
818.919	6129
819.06	6159
819.2	6304
819.341	6323
819.481	6338
819.622	6509
819.762	6707
819.903	6681
820.043	6547
820.184	6547
820.324	6494
820.465	6646
820.605	6642
820.746	6608
820.886	6471
821.026	6654
821.167	6700
821.307	6779
821.447	6753
821.588	6623
821.728	6589
821.868	6494
822.008	6334
822.149	6350
822.289	6292
822.429	6121
822.569	6053
822.709	6049
822.849	5927
822.99	5931
823.13	5916
823.27	5882
823.41	5767
823.55	5779
823.69	5726
823.83	5752
823.97	5649
824.11	5532
824.25	5520
824.389	5543
824.529	5585
824.669	5524
824.809	5589
824.949	5611
825.089	5611
825.228	5516
825.368	5398
825.508	5330
825.648	5353
825.787	5417
825.927	5406
826.067	5284
826.206	5330
826.346	5368
826.485	5410
826.625	5372
826.765	5547
826.904	5421
827.044	5288
827.183	5162
827.323	5098
827.462	5235
827.601	5140
827.741	5227
827.88	5254
828.02	5155
828.159	5220
828.298	5303
828.437	5326
828.577	5288
828.716	5520
828.855	5315
828.994	5166
829.134	5121
829.273	5170
829.412	5124
829.551	5121
829.69	5147
829.829	5254
829.968	5372
830.107	5273
830.246	5273
830.385	5155
830.524	5140
830.663	5109
830.802	5083
830.941	4866
831.08	4923
831.219	5010
831.357	4999
831.496	5189
831.635	4953
831.774	4862
831.913	4949
832.051	4774
832.19	4812
832.329	4835
832.467	4736
832.606	4706
832.744	4748
832.883	4771
833.022	4759
833.16	4812
833.299	4835
833.437	4866
833.576	4835
833.714	4904
833.852	4889
833.991	4923
834.129	4980
834.267	4968
834.406	4896
834.544	5003
834.682	5003
834.821	4953
834.959	5185
835.097	5014
835.235	5140
835.373	5117
835.511	5151
835.65	5067
835.788	5075
835.926	4930
836.064	4946
836.202	4965
836.34	5151
836.478	5254
836.615	5159
836.753	5258
836.891	5296
837.029	5296
837.167	5201
837.305	5204
837.443	5265
837.58	5117
837.718	5277
837.856	5265
837.993	5185
838.131	5269
838.269	5208
838.406	5261
838.544	5166
838.681	5022
838.819	5071
838.956	4942
839.094	4961
839.231	4957
839.369	5121
839.506	5421
839.643	5330
839.781	5113
839.918	5090
840.055	5121
840.193	5170
840.33	5098
840.467	5155
840.604	5273
840.742	5497
840.879	5136
841.016	5121
841.153	5166
841.29	5376
841.427	5341
841.564	5421
841.701	5425
841.838	5280
841.975	5254
842.112	5307
842.249	5197
842.385	5109
842.522	5391
842.659	5174
842.796	5220
842.933	5204
843.069	5204
843.206	5147
843.343	5334
843.479	5235
843.616	5318
843.752	5056
843.889	5010
844.025	5239
844.162	5071
844.298	5178
844.435	5121
844.571	5098
844.708	5231
844.844	5311
844.98	5322
845.117	5334
845.253	5128
845.389	5090
845.525	5178
845.661	5159
845.798	5041
845.934	5113
846.07	5041
846.206	5216
846.342	5299
846.478	5162
846.614	5003
846.75	4976
846.886	4999
847.022	5155
847.158	5090
847.294	5094
847.429	5117
847.565	5109
847.701	5322
847.837	4919
847.972	4843
848.108	5022
848.244	4980
848.379	4778
848.515	4744
848.65	4729
848.786	4744
848.921	4812
849.057	4889
849.192	4930
849.328	4858
849.463	4866
849.598	4816
849.734	4771
849.869	4706
850.004	4668
850.14	4687
850.275	4675
850.41	4615
850.545	4622
850.68	4634
850.815	4660
850.95	4660
851.085	4854
851.22	4805
851.355	4668
851.49	4630
851.625	4649
851.76	4683
851.895	4569
852.03	4569
852.165	4664
852.299	4721
852.434	4835
852.569	4717
852.703	4778
852.838	4915
852.973	4946
853.107	4934
853.242	4774
853.376	4687
853.511	4573
853.645	4634
853.78	4797
853.914	4714
854.048	4656
854.183	4672
854.317	4721
854.451	4877
854.585	4660
854.72	4679
854.854	4797
854.988	4592
855.122	4675
855.256	4550
855.39	4649
855.524	4786
855.658	4740
855.792	4740
855.926	4771
856.06	4797
856.194	4824
856.327	4694
856.461	4668
856.595	4649
856.729	4679
856.862	4812
856.996	4698
857.13	4752
857.263	4793
857.397	4797
857.53	4683
857.664	4733
857.797	4805
857.931	4786
858.064	4755
858.197	4790
858.331	4660
858.464	4656
858.597	4554
858.731	4630
858.864	4668
858.997	4641
859.13	4725
859.263	4683
859.396	4744
859.529	4592
859.662	4607
859.795	4542
859.928	4660
860.061	4736
860.194	4812
860.327	4656
860.46	4603
860.592	4710
860.725	4782
860.858	4729
860.99	4615
861.123	4508
861.256	4569
861.388	4626
861.521	5337
861.653	4519
861.786	4470
861.918	4478
862.05	4550
862.183	4573
862.315	4634
862.447	4664
862.58	4569
862.712	4428
862.844	4375
862.976	4493
863.108	4466
863.24	4854
863.372	4386
863.504	4375
863.636	4462
863.768	4516
863.9	4436
864.032	4375
864.164	4386
864.296	4493
864.428	4550
864.559	4668
864.691	4519
864.823	4554
864.954	4523
865.086	4550
865.217	4493
865.349	4432
865.48	4546
865.612	4455
865.743	4626
865.875	4497
866.006	4436
866.137	4455
866.269	4424
866.4	4451
866.531	4428
866.662	4428
866.793	4390
866.924	4459
867.055	4493
867.186	4417
867.317	4470
867.448	4402
867.579	4402
867.71	4390
867.841	4375
867.972	4455
868.103	4512
868.233	4447
868.364	4428
868.495	4535
868.625	4664
868.756	4755
868.886	4634
869.017	4675
869.147	4778
869.278	4805
869.408	4649
869.539	4653
869.669	4748
869.799	4679
869.929	4752
870.06	4736
870.19	4915
870.32	4934
870.45	4957
870.58	5041
870.71	5136
870.84	5143
870.97	4976
871.1	4957
871.23	5189
871.36	5113
871.489	4987
871.619	5098
871.749	5105
871.879	5159
872.008	5185
872.138	5098
872.267	4957
872.397	4885
872.526	4824
872.656	4740
872.785	4824
872.915	4984
873.044	5060
873.173	4965
873.303	4972
873.432	4946
873.561	4953
873.69	4892
873.819	4862
873.948	4915
874.077	4831
874.206	4759
874.335	4816
874.464	4946
874.593	5086
874.722	4968
874.851	5117
874.979	5060
875.108	5090
875.237	4923
875.365	4870
875.494	4858
875.623	4946
875.751	4854
875.88	4847
876.008	4976
876.136	5056
876.265	5208
876.393	5353
876.521	5261
876.65	5189
876.778	5170
876.906	5083
877.034	4987
877.162	5067
877.29	5006
877.418	5045
877.546	5006
877.674	5048
877.802	5014
877.93	5033
878.058	4896
878.185	4915
878.313	4946
878.441	4946
878.568	4797
878.696	4915
878.824	4946
878.951	5018
879.079	5136
879.206	5292
879.333	5075
879.461	4984
879.588	4980
879.715	5189
879.842	5204
879.97	5010
880.097	4771
880.224	4797
880.351	4790
880.478	4797
880.605	4809
880.732	4740
880.859	5090
880.986	4858
881.112	4946
881.239	4820
881.366	4675
881.493	4679
881.619	4649
881.746	4622
881.872	4622
881.999	4660
882.125	4702
882.252	4793
882.378	4843
882.505	4942
882.631	4820
882.757	4679
882.883	4740
883.01	4702
883.136	4656
883.262	4599
883.388	4615
883.514	4850
883.64	4881
883.766	4790
883.892	4706
884.018	4733
884.143	4866
884.269	5033
884.395	4675
884.52	4694
884.646	4603
884.772	4596
884.897	4592
885.023	4660
885.148	4752
885.274	4843
885.399	4828
885.524	4714
885.65	4721
885.775	4733
885.9	4710
886.025	4862
886.15	4824
886.275	4706
886.4	4645
886.525	4744
886.65	4653
886.775	4710
886.9	4946
887.025	5048
887.149	4854
887.274	4656
887.399	4588
887.523	4626
887.648	4577
887.773	4596
887.897	4774
888.021	4763
888.146	4653
888.27	4801
888.395	4968
888.519	4850
888.643	4816
888.767	4793
888.891	4634
889.015	4630
889.139	4622
889.263	4691
889.387	4763
889.511	4866
889.635	4809
889.759	4672
889.883	4653
890.006	4771
890.13	4843
890.254	4622
890.377	4641
890.501	4558
890.624	4554
890.748	4683
890.871	4504
890.995	4455
891.118	4398
891.241	4542
891.364	4611
891.488	4607
891.611	4519
891.734	4577
891.857	4634
891.98	4588
892.103	4637
892.226	4622
892.349	4481
892.471	4440
892.594	4519
892.717	4656
892.839	4577
892.962	4599
893.085	4729
893.207	4580
893.33	4447
893.452	4554
893.575	4683
893.697	4554
893.819	4763
893.941	4862
894.064	4782
894.186	4618
894.308	4558
894.43	4710
894.552	4812
894.674	4759
894.796	4569
894.918	4615
895.04	4580
895.161	4721
895.283	4679
895.405	4607
895.526	4634
895.648	4714
895.769	4729
895.891	4710
896.012	4721
896.134	4706
896.255	4664
896.376	4615
896.498	4592
896.619	4664
896.74	4588
896.861	4653
896.982	4949
897.103	5060
897.224	4835
897.345	4717
897.466	4683
897.587	4721
897.708	4828
897.828	4793
897.949	4660
898.07	4596
898.19	4645
898.311	4839
898.431	4702
898.552	4698
898.672	4782
898.792	4816
898.913	4744
899.033	4656
899.153	4497
899.273	4447
899.393	4504
899.513	4512
899.633	4558
899.753	4485
899.873	4489
899.993	4561
900.113	4500
900.232	4599
900.352	4508
900.472	4451
900.591	4386
900.711	4485
900.83	4447
900.95	4672
901.069	4729
901.189	4542
901.308	4371
901.427	4352
901.546	4367
901.665	4512
901.784	4523
901.904	4405
902.023	4333
902.141	4204
902.26	4196
902.379	4261
902.498	4223
902.617	4246
902.735	4344
902.854	4417
902.973	4341
903.091	4230
903.21	4238
903.328	4280
903.446	4242
903.565	4268
903.683	4344
903.801	4299
903.919	4402
904.038	4462
904.156	4325
904.274	4466
904.392	4428
904.51	4405
904.627	4516
904.745	4603
904.863	4630
904.981	4383
905.098	4314
905.216	4436
905.334	4341
905.451	4470
905.569	4466
905.686	4565
905.803	4565
905.921	4455
906.038	4592
906.155	4466
906.272	4379
906.389	4440
906.506	4333
906.623	4348
906.74	4375
906.857	4268
906.974	4409
907.091	4550
907.208	4672
907.324	4584
907.441	4504
907.557	4322
907.674	4386
907.79	4295
907.907	4402
908.023	4470
908.139	4519
908.256	4424
908.372	4451
908.488	4402
908.604	4348
908.72	4325
908.836	4371
908.952	4348
909.068	4451
909.184	4569
909.3	4405
909.415	4558
909.531	4596
909.647	4375
909.762	4405
909.878	4394
909.993	4443
910.108	4405
910.224	4424
910.339	4504
910.454	4367
910.57	4386
910.685	4329
910.8	4615
910.915	4641
911.03	4493
911.145	4383
911.259	4367
911.374	4360
911.489	4268
911.604	4284
911.718	4147
911.833	4261
911.947	4097
912.062	4032
912.176	4230
912.291	4295
912.405	4257
912.519	4440
912.633	4493
912.748	4398
912.862	4333
912.976	4211
913.09	4090
913.204	4173
913.318	4276
913.431	4390
913.545	4314
913.659	4436
913.772	4398
913.886	4238
914	4207
914.113	4394
914.226	4432
914.34	4360
914.453	4234
914.566	4424
914.68	4303
914.793	4318
914.906	4150
915.019	4150
915.132	4067
915.245	4150
915.358	4211
915.47	4188
915.583	4268
915.696	4341
915.809	4421
915.921	4409
916.034	4295
916.146	4215
916.259	4230
916.371	4356
916.483	4352
916.595	4276
916.708	4314
916.82	4325
916.932	4303
917.044	4337
917.156	4379
917.268	4310
917.38	4257
917.491	4249
917.603	4352
917.715	4466
917.826	4379
917.938	4360
918.049	4268
918.161	4375
918.272	4538
918.384	4561
918.495	4447
918.606	4303
918.717	4242
918.828	4325
918.939	4375
919.05	4192
919.161	4310
919.272	4120
919.383	4173
919.494	4470
919.604	4641
919.715	4398
919.826	4348
919.936	4390
920.047	4489
920.157	4409
920.267	4687
920.378	4554
920.488	4459
920.598	4702
920.708	4873
920.818	4725
920.928	4725
921.038	4923
921.148	4915
921.258	4577
921.368	4535
921.477	4493
921.587	4443
921.697	4341
921.806	4588
921.916	4379
922.025	4318
922.134	4249
922.244	4204
922.353	4333
922.462	4158
922.571	4120
922.68	4059
922.789	3983
922.898	4032
923.007	3991
923.116	4109
923.224	4109
923.333	4067
923.442	4013
923.55	3994
923.659	4013
923.767	4135
923.876	3987
923.984	4097
924.092	3960
924.201	4124
924.309	4093
924.417	4128
924.525	4078
924.633	4105
924.741	5090
924.849	3903
924.956	4169
925.064	3983
925.172	3880
925.279	3968
925.387	4071
925.494	4059
925.602	4181
925.709	4143
925.816	4040
925.924	4131
926.031	4204
926.138	4158
926.245	4211
926.352	4067
926.459	4211
926.566	4284
926.673	4188
926.779	4082
926.886	4063
926.993	3998
927.099	3972
927.206	3960
927.312	3941
927.419	4021
927.525	4006
927.631	4131
927.737	3972
927.843	3915
927.95	3888
928.056	3960
928.162	3968
928.267	4090
928.373	4691
928.479	4101
928.585	3861
928.69	4036
928.796	4048
928.901	3953
929.007	3850
929.112	3975
929.218	4021
929.323	3903
929.428	3945
929.533	4150
929.638	3922
929.743	3972
929.848	4078
929.953	3983
930.058	3888
930.163	3800
930.267	3789
930.372	3937
930.477	3781
930.581	4097
930.685	3949
930.79	3865
930.894	3857
930.998	3808
931.103	4032
931.207	3705
931.311	3717
931.415	3667
931.519	3515
931.623	3572
