Data from test_V78500241_2396.txt Node
Date: Fri Mar 25 17:05:39 CST 2022
User: usil
Spectrometer: V785-0024
Trigger mode: 0
Integration Time (sec): 4.000000E-1
Scans to average: 1
Nonlinearity correction enabled: false
Boxcar width: 0
Storing dark spectrum: false
XAxis mode: Wavelengths
Number of Pixels in Spectrum: 1024
>>>>>Begin Spectral Data<<<<<
801.071	8069
801.214	8069
801.356	7928
801.499	7906
801.641	7841
801.783	7849
801.926	7970
802.068	7959
802.211	7967
802.353	8046
802.496	7909
802.638	7909
802.78	7864
802.923	8024
803.065	7944
803.208	7909
803.35	8024
803.492	8103
803.635	8142
803.777	8073
803.919	8252
804.061	8511
804.204	8229
804.346	8111
804.488	7925
804.63	8081
804.773	8088
804.915	8134
805.057	8377
805.199	8218
805.341	8206
805.483	8225
805.626	8256
805.768	8172
805.91	8259
806.052	8244
806.194	8092
806.336	8305
806.478	8111
806.62	8058
806.762	8145
806.904	8294
807.046	8423
807.188	8415
807.33	8320
807.472	8370
807.614	8199
807.756	8157
807.898	7970
808.04	7906
808.182	7913
808.324	7879
808.465	7959
808.607	8065
808.749	8103
808.891	8290
809.033	8320
809.174	8263
809.316	8130
809.458	8069
809.6	8008
809.741	8012
809.883	8020
810.025	8107
810.166	8214
810.308	8008
810.45	7997
810.591	7890
810.733	7822
810.875	7681
811.016	7453
811.158	7563
811.299	7575
811.441	7746
811.582	7696
811.724	7616
811.865	7533
812.007	7537
812.148	7616
812.29	7609
812.431	7807
812.573	7845
812.714	7986
812.855	8172
812.997	8206
813.138	8309
813.279	8145
813.421	8031
813.562	8016
813.703	7940
813.845	7757
813.986	7392
814.127	7282
814.268	7244
814.41	7217
814.551	7209
814.692	7251
814.833	7152
814.974	7118
815.115	7152
815.256	7015
815.397	6985
815.539	6943
815.68	6795
815.821	6852
815.962	6867
816.103	6867
816.244	6700
816.385	6627
816.526	6612
816.666	6582
816.807	6338
816.948	6437
817.089	6513
817.23	6502
817.371	6426
817.512	6403
817.653	6410
817.793	6380
817.934	6486
818.075	6513
818.216	6502
818.356	6388
818.497	6251
818.638	6178
818.778	6155
818.919	6152
819.06	6178
819.2	6384
819.341	6399
819.481	6384
819.622	6528
819.762	6722
819.903	6719
820.043	6665
820.184	6616
820.324	6623
820.465	6741
820.605	6665
820.746	6696
820.886	6555
821.026	6673
821.167	6719
821.307	6878
821.447	6806
821.588	6753
821.728	6631
821.868	6513
822.008	6331
822.149	6410
822.289	6350
822.429	6201
822.569	6167
822.709	6152
822.849	5916
822.99	5950
823.13	5996
823.27	5958
823.41	5828
823.55	5737
823.69	5813
823.83	5851
823.97	5646
824.11	5551
824.25	5566
824.389	5596
824.529	5649
824.669	5512
824.809	5615
824.949	5695
825.089	5668
825.228	5573
825.368	5425
825.508	5391
825.648	5376
825.787	5406
825.927	5376
826.067	5337
826.206	5318
826.346	5376
826.485	5376
826.625	5417
826.765	5627
826.904	5455
827.044	5284
827.183	5227
827.323	5159
827.462	5299
827.601	5197
827.741	5197
827.88	5216
828.02	5113
828.159	5220
828.298	5334
828.437	5372
828.577	5273
828.716	5448
828.855	5337
828.994	5193
829.134	5170
829.273	5159
829.412	5185
829.551	5220
829.69	5147
829.829	5258
829.968	5417
830.107	5265
830.246	5284
830.385	5223
830.524	5170
830.663	5102
830.802	4968
830.941	4923
831.08	4858
831.219	5022
831.357	5010
831.496	5151
831.635	4949
831.774	4854
831.913	4889
832.051	4759
832.19	4767
832.329	4896
832.467	4702
832.606	4634
832.744	4763
832.883	4694
833.022	4729
833.16	4805
833.299	4820
833.437	4820
833.576	4843
833.714	4900
833.852	4877
833.991	4885
834.129	4953
834.267	4984
834.406	4957
834.544	5006
834.682	4938
834.821	4972
834.959	5128
835.097	5010
835.235	5178
835.373	5102
835.511	5121
835.65	5041
835.788	5018
835.926	4938
836.064	4923
836.202	4877
836.34	5155
836.478	5227
836.615	5151
836.753	5250
836.891	5296
837.029	5288
837.167	5185
837.305	5121
837.443	5128
837.58	5086
837.718	5280
837.856	5246
837.993	5090
838.131	5265
838.269	5193
838.406	5227
838.544	5189
838.681	5025
838.819	5018
838.956	4900
839.094	4885
839.231	4984
839.369	5090
839.506	5433
839.643	5273
839.781	5079
839.918	4991
840.055	5155
840.193	5075
840.33	5121
840.467	5136
840.604	5201
840.742	5406
840.879	5140
841.016	5067
841.153	5159
841.29	5357
841.427	5322
841.564	5307
841.701	5349
841.838	5318
841.975	5269
842.112	5284
842.249	5174
842.385	5098
842.522	5379
842.659	5227
842.796	5174
842.933	5178
843.069	5151
843.206	5151
843.343	5334
843.479	5201
843.616	5273
843.752	5037
843.889	4980
844.025	5242
844.162	5041
844.298	5201
844.435	5098
844.571	5048
844.708	5193
844.844	5315
844.98	5345
845.117	5288
845.253	5162
845.389	5079
845.525	5117
845.661	5159
845.798	5045
845.934	5132
846.07	5109
846.206	5239
846.342	5326
846.478	5178
846.614	4999
846.75	5006
846.886	4915
847.022	5147
847.158	5086
847.294	5128
847.429	5128
847.565	5113
847.701	5337
847.837	4862
847.972	4782
848.108	5018
848.244	4915
848.379	4831
848.515	4748
848.65	4717
848.786	4729
848.921	4786
849.057	4854
849.192	4908
849.328	4870
849.463	4847
849.598	4748
849.734	4790
849.869	4736
850.004	4645
850.14	4653
850.275	4596
850.41	4516
850.545	4558
850.68	4656
850.815	4641
850.95	4630
851.085	4862
851.22	4725
851.355	4702
851.49	4558
851.625	4634
851.76	4618
851.895	4596
852.03	4580
852.165	4683
852.299	4725
852.434	4824
852.569	4744
852.703	4774
852.838	4877
852.973	4957
853.107	4904
853.242	4721
853.376	4698
853.511	4527
853.645	4630
853.78	4790
853.914	4675
854.048	4634
854.183	4698
854.317	4683
854.451	4839
854.585	4725
854.72	4618
854.854	4767
854.988	4672
855.122	4645
855.256	4523
855.39	4710
855.524	4805
855.658	4717
855.792	4729
855.926	4752
856.06	4782
856.194	4847
856.327	4694
856.461	4634
856.595	4584
856.729	4645
856.862	4771
856.996	4763
857.13	4744
857.263	4717
857.397	4809
857.53	4668
857.664	4706
857.797	4740
857.931	4763
858.064	4675
858.197	4790
858.331	4656
858.464	4603
858.597	4538
858.731	4683
858.864	4634
858.997	4611
859.13	4679
859.263	4668
859.396	4714
859.529	4611
859.662	4607
859.795	4527
859.928	4660
860.061	4828
860.194	4721
860.327	4611
860.46	4569
860.592	4706
860.725	4706
860.858	4725
860.99	4592
861.123	4542
861.256	4538
861.388	4630
861.521	5307
861.653	4478
861.786	4459
861.918	4443
862.05	4546
862.183	4573
862.315	4596
862.447	4668
862.58	4577
862.712	4432
862.844	4356
862.976	4481
863.108	4421
863.24	4801
863.372	4344
863.504	4398
863.636	4394
863.768	4462
863.9	4447
864.032	4360
864.164	4455
864.296	4478
864.428	4554
864.559	4577
864.691	4523
864.823	4508
864.954	4523
865.086	4512
865.217	4489
865.349	4455
865.48	4466
865.612	4527
865.743	4588
865.875	4451
866.006	4478
866.137	4504
866.269	4459
866.4	4474
866.531	4443
866.662	4379
866.793	4405
866.924	4386
867.055	4459
867.186	4443
867.317	4390
867.448	4375
867.579	4409
867.71	4390
867.841	4344
867.972	4493
868.103	4466
868.233	4424
868.364	4462
868.495	4470
868.625	4694
868.756	4729
868.886	4535
869.017	4603
869.147	4782
869.278	4793
869.408	4668
869.539	4668
869.669	4710
869.799	4664
869.929	4733
870.06	4782
870.19	4908
870.32	4930
870.45	4930
870.58	5025
870.71	5090
870.84	5140
870.97	4953
871.1	4949
871.23	5162
871.36	5147
871.489	5006
871.619	5086
871.749	5086
871.879	5117
872.008	5155
872.138	5010
872.267	4980
872.397	4862
872.526	4820
872.656	4706
872.785	4793
872.915	4934
873.044	5014
873.173	4908
873.303	4991
873.432	4911
873.561	4927
873.69	4900
873.819	4835
873.948	4911
874.077	4805
874.206	4771
874.335	4835
874.464	4976
874.593	5067
874.722	4976
874.851	5109
874.979	5037
875.108	5006
875.237	4930
875.365	4908
875.494	4919
875.623	4984
875.751	4866
875.88	4915
876.008	4987
876.136	5018
876.265	5189
876.393	5349
876.521	5254
876.65	5258
876.778	5143
876.906	5098
877.034	5033
877.162	5064
877.29	4995
877.418	5067
877.546	5014
877.674	5029
877.802	5045
877.93	5075
878.058	4927
878.185	4824
878.313	4987
878.441	4968
878.568	4839
878.696	4809
878.824	4923
878.951	5045
879.079	5151
879.206	5284
879.333	5109
879.461	4953
879.588	4930
879.715	5045
879.842	5231
879.97	4934
880.097	4828
880.224	4774
880.351	4812
880.478	4839
880.605	4790
880.732	4809
880.859	5083
880.986	4911
881.112	4911
881.239	4729
881.366	4702
881.493	4626
881.619	4561
881.746	4603
881.872	4656
881.999	4592
882.125	4691
882.252	4805
882.378	4805
882.505	4968
882.631	4782
882.757	4664
882.883	4714
883.01	4733
883.136	4694
883.262	4599
883.388	4603
883.514	4809
883.64	4877
883.766	4740
883.892	4683
884.018	4729
884.143	4889
884.269	4942
884.395	4675
884.52	4641
884.646	4596
884.772	4603
884.897	4569
885.023	4721
885.148	4790
885.274	4862
885.399	4820
885.524	4664
885.65	4675
885.775	4763
885.9	4641
886.025	4850
886.15	4786
886.275	4710
886.4	4634
886.525	4744
886.65	4668
886.775	4637
886.9	4915
887.025	5003
887.149	4824
887.274	4683
887.399	4573
887.523	4596
887.648	4577
887.773	4592
887.897	4740
888.021	4824
888.146	4679
888.27	4805
888.395	4896
888.519	4812
888.643	4790
888.767	4729
888.891	4653
889.015	4588
889.139	4653
889.263	4630
889.387	4744
889.511	4835
889.635	4835
889.759	4618
889.883	4603
890.006	4748
890.13	4831
890.254	4626
890.377	4710
890.501	4577
890.624	4497
890.748	4634
890.871	4531
890.995	4409
891.118	4432
891.241	4516
891.364	4485
891.488	4634
891.611	4497
891.734	4565
891.857	4622
891.98	4561
892.103	4611
892.226	4573
892.349	4531
892.471	4424
892.594	4546
892.717	4615
892.839	4561
892.962	4584
893.085	4656
893.207	4588
893.33	4466
893.452	4523
893.575	4637
893.697	4573
893.819	4828
893.941	4824
894.064	4759
894.186	4565
894.308	4611
894.43	4748
894.552	4866
894.674	4729
894.796	4546
894.918	4580
895.04	4592
895.161	4706
895.283	4668
895.405	4580
895.526	4641
895.648	4679
895.769	4691
895.891	4778
896.012	4816
896.134	4702
896.255	4672
896.376	4626
896.498	4615
896.619	4694
896.74	4630
896.861	4645
896.982	4923
897.103	5098
897.224	4812
897.345	4725
897.466	4706
897.587	4767
897.708	4797
897.828	4752
897.949	4641
898.07	4508
898.19	4611
898.311	4805
898.431	4698
898.552	4721
898.672	4786
898.792	4801
898.913	4763
899.033	4649
899.153	4531
899.273	4432
899.393	4497
899.513	4516
899.633	4519
899.753	4542
899.873	4481
899.993	4622
900.113	4489
900.232	4558
900.352	4573
900.472	4466
900.591	4390
900.711	4478
900.83	4417
900.95	4592
901.069	4679
901.189	4523
901.308	4405
901.427	4291
901.546	4386
901.665	4485
901.784	4527
901.904	4363
902.023	4295
902.141	4185
902.26	4128
902.379	4303
902.498	4295
902.617	4230
902.735	4348
902.854	4371
902.973	4333
903.091	4211
903.21	4230
903.328	4379
903.446	4341
903.565	4257
903.683	4329
903.801	4306
903.919	4405
904.038	4421
904.156	4333
904.274	4440
904.392	4383
904.51	4432
904.627	4478
904.745	4531
904.863	4687
904.981	4432
905.098	4295
905.216	4341
905.334	4432
905.451	4432
905.569	4436
905.686	4584
905.803	4519
905.921	4379
906.038	4546
906.155	4455
906.272	4402
906.389	4428
906.506	4363
906.623	4352
906.74	4398
906.857	4306
906.974	4325
907.091	4519
907.208	4687
907.324	4550
907.441	4485
907.557	4303
907.674	4375
907.79	4322
907.907	4379
908.023	4497
908.139	4481
908.256	4466
908.372	4440
908.488	4478
908.604	4310
908.72	4325
908.836	4363
908.952	4348
909.068	4405
909.184	4603
909.3	4466
909.415	4584
909.531	4577
909.647	4337
909.762	4367
909.878	4352
909.993	4424
910.108	4402
910.224	4443
910.339	4489
910.454	4421
910.57	4348
910.685	4314
910.8	4656
910.915	4592
911.03	4523
911.145	4287
911.259	4360
911.374	4417
911.489	4272
911.604	4280
911.718	4177
911.833	4188
911.947	4093
912.062	4010
912.176	4181
912.291	4268
912.405	4246
912.519	4432
912.633	4493
912.748	4367
912.862	4306
912.976	4219
913.09	4112
913.204	4181
913.318	4249
913.431	4363
913.545	4394
913.659	4421
913.772	4405
913.886	4265
914	4230
914.113	4360
914.226	4447
914.34	4436
914.453	4253
914.566	4432
914.68	4299
914.793	4352
914.906	4131
915.019	4078
915.132	4040
915.245	4177
915.358	4223
915.47	4238
915.583	4242
915.696	4318
915.809	4459
915.921	4443
916.034	4249
916.146	4234
916.259	4287
916.371	4413
916.483	4352
916.595	4284
916.708	4322
916.82	4291
916.932	4291
917.044	4344
917.156	4341
917.268	4261
917.38	4284
917.491	4261
917.603	4379
917.715	4424
917.826	4447
917.938	4329
918.049	4272
918.161	4440
918.272	4546
918.384	4516
918.495	4489
918.606	4314
918.717	4246
918.828	4352
918.939	4363
919.05	4227
919.161	4291
919.272	4166
919.383	4257
919.494	4470
919.604	4645
919.715	4405
919.826	4333
919.936	4398
920.047	4474
920.157	4504
920.267	4698
920.378	4565
920.488	4489
920.598	4694
920.708	4889
920.818	4744
920.928	4786
921.038	4942
921.148	4923
921.258	4622
921.368	4538
921.477	4497
921.587	4462
921.697	4348
921.806	4565
921.916	4443
922.025	4291
922.134	4268
922.244	4242
922.353	4295
922.462	4169
922.571	4124
922.68	4025
922.789	3949
922.898	4048
923.007	3968
923.116	4120
923.224	4082
923.333	4139
923.442	3975
923.55	3964
923.659	4006
923.767	4048
923.876	4002
923.984	4074
924.092	4010
924.201	4074
924.309	4086
924.417	4109
924.525	4063
924.633	4128
924.741	5086
924.849	3949
924.956	4124
925.064	3972
925.172	3911
925.279	3937
925.387	4036
925.494	4040
925.602	4177
925.709	4147
925.816	4010
925.924	4097
926.031	4200
926.138	4181
926.245	4162
926.352	4101
926.459	4227
926.566	4295
926.673	4158
926.779	4029
926.886	4051
926.993	4010
927.099	3972
927.206	3937
927.312	3934
927.419	4067
927.525	4059
927.631	4074
927.737	3956
927.843	3964
927.95	3816
928.056	4013
928.162	3960
928.267	4112
928.373	4660
928.479	4147
928.585	3896
928.69	4059
928.796	4051
928.901	3987
929.007	3896
929.112	4006
929.218	3987
929.323	3918
929.428	3937
929.533	4086
929.638	3880
929.743	3937
929.848	4021
929.953	3987
930.058	3949
930.163	3793
930.267	3800
930.372	3960
930.477	3819
930.581	4120
930.685	3945
930.79	3831
930.894	3861
930.998	3873
931.103	4067
931.207	3709
931.311	3717
931.415	3675
931.519	3500
931.623	3530
