Data from test_V78500241_1768.txt Node
Date: Fri Mar 25 17:01:17 CST 2022
User: usil
Spectrometer: V785-0024
Trigger mode: 0
Integration Time (sec): 4.000000E-1
Scans to average: 1
Nonlinearity correction enabled: false
Boxcar width: 0
Storing dark spectrum: false
XAxis mode: Wavelengths
Number of Pixels in Spectrum: 1024
>>>>>Begin Spectral Data<<<<<
801.071	7993
801.214	7928
801.356	7875
801.499	7784
801.641	7776
801.783	7826
801.926	7932
802.068	7989
802.211	7974
802.353	7970
802.496	7818
802.638	7814
802.78	7890
802.923	7879
803.065	7864
803.208	7841
803.35	7932
803.492	8111
803.635	8134
803.777	8035
803.919	8084
804.061	8393
804.204	8187
804.346	8020
804.488	7928
804.63	8126
804.773	8031
804.915	8088
805.057	8317
805.199	8202
805.341	8180
805.483	8225
805.626	8187
805.768	8073
805.91	8263
806.052	8187
806.194	8119
806.336	8347
806.478	8043
806.62	7993
806.762	8092
806.904	8320
807.046	8461
807.188	8377
807.33	8252
807.472	8358
807.614	8161
807.756	8111
807.898	8020
808.04	7871
808.182	7894
808.324	7799
808.465	7898
808.607	7997
808.749	8164
808.891	8195
809.033	8286
809.174	8248
809.316	8065
809.458	8031
809.6	7989
809.741	8035
809.883	7993
810.025	8046
810.166	8088
810.308	8020
810.45	8050
810.591	7826
810.733	7719
810.875	7670
811.016	7464
811.158	7514
811.299	7567
811.441	7662
811.582	7674
811.724	7544
811.865	7540
812.007	7567
812.148	7601
812.29	7613
812.431	7753
812.573	7879
812.714	7944
812.855	8142
812.997	8187
813.138	8180
813.279	8168
813.421	8100
813.562	7986
813.703	7830
813.845	7738
813.986	7419
814.127	7221
814.268	7126
814.41	7187
814.551	7236
814.692	7251
814.833	7103
814.974	7118
815.115	7152
815.256	6962
815.397	6943
815.539	6913
815.68	6779
815.821	6772
815.962	6840
816.103	6806
816.244	6715
816.385	6608
816.526	6540
816.666	6475
816.807	6365
816.948	6422
817.089	6414
817.23	6429
817.371	6353
817.512	6410
817.653	6353
817.793	6304
817.934	6403
818.075	6426
818.216	6426
818.356	6403
818.497	6175
818.638	6106
818.778	6163
818.919	6171
819.06	6182
819.2	6239
819.341	6270
819.481	6380
819.622	6509
819.762	6696
819.903	6719
820.043	6540
820.184	6517
820.324	6532
820.465	6646
820.605	6585
820.746	6620
820.886	6540
821.026	6658
821.167	6684
821.307	6776
821.447	6749
821.588	6612
821.728	6494
821.868	6498
822.008	6369
822.149	6357
822.289	6334
822.429	6194
822.569	6060
822.709	6083
822.849	5912
822.99	5893
823.13	5912
823.27	5882
823.41	5798
823.55	5786
823.69	5726
823.83	5741
823.97	5676
824.11	5554
824.25	5558
824.389	5562
824.529	5581
824.669	5516
824.809	5653
824.949	5661
825.089	5657
825.228	5516
825.368	5417
825.508	5315
825.648	5353
825.787	5421
825.927	5414
826.067	5322
826.206	5284
826.346	5364
826.485	5455
826.625	5463
826.765	5539
826.904	5524
827.044	5292
827.183	5197
827.323	5140
827.462	5265
827.601	5201
827.741	5193
827.88	5292
828.02	5136
828.159	5258
828.298	5360
828.437	5417
828.577	5296
828.716	5516
828.855	5379
828.994	5223
829.134	5212
829.273	5235
829.412	5181
829.551	5220
829.69	5197
829.829	5261
829.968	5436
830.107	5269
830.246	5299
830.385	5204
830.524	5140
830.663	5056
830.802	5083
830.941	4927
831.08	4896
831.219	4972
831.357	4999
831.496	5216
831.635	4957
831.774	4877
831.913	4870
832.051	4755
832.19	4755
832.329	4873
832.467	4698
832.606	4672
832.744	4755
832.883	4755
833.022	4725
833.16	4805
833.299	4812
833.437	4858
833.576	4881
833.714	4870
833.852	4892
833.991	4908
834.129	5003
834.267	4991
834.406	4915
834.544	4984
834.682	5003
834.821	5048
834.959	5170
835.097	5052
835.235	5220
835.373	5086
835.511	5166
835.65	5056
835.788	5067
835.926	4911
836.064	4919
836.202	4991
836.34	5193
836.478	5254
836.615	5178
836.753	5284
836.891	5318
837.029	5280
837.167	5223
837.305	5181
837.443	5181
837.58	5109
837.718	5315
837.856	5170
837.993	5189
838.131	5265
838.269	5250
838.406	5216
838.544	5250
838.681	5086
838.819	5052
838.956	4915
839.094	4942
839.231	4976
839.369	5136
839.506	5471
839.643	5246
839.781	5067
839.918	5045
840.055	5102
840.193	5041
840.33	5140
840.467	5140
840.604	5201
840.742	5444
840.879	5098
841.016	5098
841.153	5166
841.29	5379
841.427	5337
841.564	5311
841.701	5326
841.838	5261
841.975	5269
842.112	5296
842.249	5128
842.385	5117
842.522	5391
842.659	5185
842.796	5143
842.933	5223
843.069	5220
843.206	5170
843.343	5345
843.479	5303
843.616	5307
843.752	5083
843.889	5041
844.025	5311
844.162	5064
844.298	5246
844.435	5136
844.571	5086
844.708	5223
844.844	5357
844.98	5349
845.117	5322
845.253	5181
845.389	5124
845.525	5208
845.661	5159
845.798	5025
845.934	5166
846.07	5071
846.206	5258
846.342	5337
846.478	5193
846.614	5064
846.75	4957
846.886	4995
847.022	5185
847.158	5033
847.294	5018
847.429	5132
847.565	5098
847.701	5292
847.837	4877
847.972	4805
848.108	4995
848.244	4949
848.379	4805
848.515	4767
848.65	4782
848.786	4774
848.921	4850
849.057	4858
849.192	4946
849.328	4843
849.463	4900
849.598	4843
849.734	4778
849.869	4740
850.004	4653
850.14	4694
850.275	4683
850.41	4542
850.545	4615
850.68	4596
850.815	4660
850.95	4641
851.085	4892
851.22	4740
851.355	4656
851.49	4630
851.625	4656
851.76	4645
851.895	4561
852.03	4569
852.165	4691
852.299	4721
852.434	4805
852.569	4763
852.703	4771
852.838	4885
852.973	4953
853.107	4896
853.242	4759
853.376	4675
853.511	4611
853.645	4637
853.78	4774
853.914	4733
854.048	4710
854.183	4679
854.317	4668
854.451	4873
854.585	4714
854.72	4679
854.854	4797
854.988	4607
855.122	4653
855.256	4504
855.39	4691
855.524	4824
855.658	4733
855.792	4740
855.926	4744
856.06	4790
856.194	4831
856.327	4752
856.461	4622
856.595	4618
856.729	4649
856.862	4767
856.996	4710
857.13	4767
857.263	4744
857.397	4809
857.53	4664
857.664	4721
857.797	4771
857.931	4824
858.064	4691
858.197	4786
858.331	4649
858.464	4611
858.597	4516
858.731	4626
858.864	4714
858.997	4607
859.13	4694
859.263	4675
859.396	4702
859.529	4618
859.662	4603
859.795	4584
859.928	4630
860.061	4759
860.194	4805
860.327	4634
860.46	4618
860.592	4729
860.725	4755
860.858	4740
860.99	4630
861.123	4565
861.256	4527
861.388	4592
861.521	5296
861.653	4500
861.786	4481
861.918	4512
862.05	4599
862.183	4565
862.315	4618
862.447	4706
862.58	4607
862.712	4459
862.844	4402
862.976	4459
863.108	4474
863.24	4911
863.372	4390
863.504	4421
863.636	4413
863.768	4466
863.9	4447
864.032	4325
864.164	4409
864.296	4485
864.428	4603
864.559	4630
864.691	4558
864.823	4497
864.954	4542
865.086	4535
865.217	4485
865.349	4455
865.48	4497
865.612	4485
865.743	4645
865.875	4470
866.006	4474
866.137	4470
866.269	4474
866.4	4436
866.531	4424
866.662	4470
866.793	4436
866.924	4436
867.055	4485
867.186	4451
867.317	4432
867.448	4371
867.579	4417
867.71	4421
867.841	4405
867.972	4489
868.103	4497
868.233	4470
868.364	4481
868.495	4531
868.625	4675
868.756	4744
868.886	4592
869.017	4675
869.147	4835
869.278	4824
869.408	4694
869.539	4672
869.669	4721
869.799	4702
869.929	4752
870.06	4729
870.19	4927
870.32	4889
870.45	4984
870.58	5018
870.71	5083
870.84	5143
870.97	4976
871.1	4930
871.23	5181
871.36	5067
871.489	5014
871.619	5090
871.749	5113
871.879	5128
872.008	5170
872.138	5056
872.267	5006
872.397	4870
872.526	4862
872.656	4759
872.785	4854
872.915	5018
873.044	5045
873.173	4976
873.303	5037
873.432	4949
873.561	4965
873.69	4946
873.819	4911
873.948	4923
874.077	4858
874.206	4778
874.335	4850
874.464	4900
874.593	5090
874.722	4946
874.851	5075
874.979	5117
875.108	5048
875.237	4900
875.365	4930
875.494	4881
875.623	5018
875.751	4854
875.88	4881
876.008	5037
876.136	5041
876.265	5193
876.393	5299
876.521	5235
876.65	5239
876.778	5174
876.906	5098
877.034	5098
877.162	5037
877.29	5037
877.418	5094
877.546	5060
877.674	5064
877.802	5048
877.93	5018
878.058	4995
878.185	4896
878.313	4968
878.441	4965
878.568	4835
878.696	4889
878.824	4987
878.951	5018
879.079	5143
879.206	5345
879.333	5140
879.461	4984
879.588	5022
879.715	5174
879.842	5254
879.97	5014
880.097	4812
880.224	4740
880.351	4820
880.478	4866
880.605	4831
880.732	4816
880.859	5109
880.986	4885
881.112	4904
881.239	4782
881.366	4736
881.493	4592
881.619	4607
881.746	4668
881.872	4649
881.999	4626
882.125	4683
882.252	4793
882.378	4824
882.505	4949
882.631	4812
882.757	4668
882.883	4733
883.01	4763
883.136	4698
883.262	4596
883.388	4634
883.514	4786
883.64	4873
883.766	4828
883.892	4706
884.018	4717
884.143	4892
884.269	5029
884.395	4698
884.52	4611
884.646	4675
884.772	4615
884.897	4573
885.023	4626
885.148	4816
885.274	4843
885.399	4831
885.524	4733
885.65	4694
885.775	4790
885.9	4767
886.025	4843
886.15	4820
886.275	4694
886.4	4668
886.525	4755
886.65	4748
886.775	4698
886.9	4908
887.025	4984
887.149	4797
887.274	4679
887.399	4577
887.523	4634
887.648	4592
887.773	4588
887.897	4759
888.021	4771
888.146	4698
888.27	4854
888.395	4957
888.519	4828
888.643	4828
888.767	4809
888.891	4736
889.015	4611
889.139	4649
889.263	4626
889.387	4786
889.511	4873
889.635	4805
889.759	4714
889.883	4668
890.006	4733
890.13	4843
890.254	4618
890.377	4668
890.501	4561
890.624	4538
890.748	4706
890.871	4535
890.995	4443
891.118	4371
891.241	4497
891.364	4554
891.488	4664
891.611	4470
891.734	4542
891.857	4630
891.98	4580
892.103	4626
892.226	4565
892.349	4554
892.471	4462
892.594	4561
892.717	4626
892.839	4588
892.962	4580
893.085	4664
893.207	4550
893.33	4481
893.452	4554
893.575	4717
893.697	4542
893.819	4774
893.941	4862
894.064	4778
894.186	4599
894.308	4573
894.43	4733
894.552	4854
894.674	4778
894.796	4569
894.918	4550
895.04	4573
895.161	4733
895.283	4618
895.405	4542
895.526	4611
895.648	4698
895.769	4748
895.891	4790
896.012	4736
896.134	4759
896.255	4660
896.376	4630
896.498	4656
896.619	4691
896.74	4637
896.861	4683
896.982	4896
897.103	5086
897.224	4809
897.345	4812
897.466	4706
897.587	4744
897.708	4885
897.828	4790
897.949	4675
898.07	4577
898.19	4622
898.311	4820
898.431	4694
898.552	4771
898.672	4801
898.792	4786
898.913	4752
899.033	4637
899.153	4497
899.273	4481
899.393	4497
899.513	4516
899.633	4554
899.753	4569
899.873	4508
899.993	4550
900.113	4485
900.232	4660
900.352	4554
900.472	4462
900.591	4447
900.711	4474
900.83	4459
900.95	4630
901.069	4740
901.189	4546
901.308	4375
901.427	4322
901.546	4356
901.665	4527
901.784	4512
901.904	4356
902.023	4348
902.141	4230
902.26	4188
902.379	4287
902.498	4200
902.617	4253
902.735	4390
902.854	4363
902.973	4356
903.091	4238
903.21	4207
903.328	4257
903.446	4310
903.565	4257
903.683	4344
903.801	4333
903.919	4379
904.038	4459
904.156	4295
904.274	4432
904.392	4383
904.51	4409
904.627	4455
904.745	4550
904.863	4622
904.981	4386
905.098	4318
905.216	4375
905.334	4405
905.451	4466
905.569	4443
905.686	4538
905.803	4512
905.921	4363
906.038	4577
906.155	4447
906.272	4413
906.389	4478
906.506	4314
906.623	4421
906.74	4371
906.857	4360
906.974	4356
907.091	4561
907.208	4687
907.324	4592
907.441	4512
907.557	4375
907.674	4348
907.79	4344
907.907	4413
908.023	4455
908.139	4443
908.256	4417
908.372	4493
908.488	4432
908.604	4386
908.72	4329
908.836	4291
908.952	4341
909.068	4417
909.184	4558
909.3	4519
909.415	4535
909.531	4611
909.647	4352
909.762	4371
909.878	4348
909.993	4451
910.108	4470
910.224	4421
910.339	4447
910.454	4352
910.57	4356
910.685	4329
910.8	4626
910.915	4569
911.03	4519
911.145	4333
911.259	4375
911.374	4360
911.489	4341
911.604	4261
911.718	4139
911.833	4272
911.947	4090
912.062	4044
912.176	4181
912.291	4219
912.405	4227
912.519	4489
912.633	4516
912.748	4375
912.862	4265
912.976	4204
913.09	4086
913.204	4169
913.318	4272
913.431	4409
913.545	4375
913.659	4390
913.772	4356
913.886	4242
914	4192
914.113	4352
914.226	4405
914.34	4394
914.453	4265
914.566	4421
914.68	4318
914.793	4314
914.906	4154
915.019	4067
915.132	4101
915.245	4120
915.358	4200
915.47	4257
915.583	4310
915.696	4253
915.809	4428
915.921	4417
916.034	4284
916.146	4265
916.259	4215
916.371	4367
916.483	4344
916.595	4249
916.708	4303
916.82	4280
916.932	4360
917.044	4306
917.156	4363
917.268	4257
917.38	4223
917.491	4295
917.603	4337
917.715	4421
917.826	4459
917.938	4371
918.049	4287
918.161	4367
918.272	4550
918.384	4519
918.495	4447
918.606	4257
918.717	4223
918.828	4325
918.939	4421
919.05	4261
919.161	4280
919.272	4124
919.383	4242
919.494	4421
919.604	4637
919.715	4440
919.826	4375
919.936	4421
920.047	4519
920.157	4508
920.267	4687
920.378	4535
920.488	4500
920.598	4733
920.708	4870
920.818	4767
920.928	4767
921.038	4984
921.148	4908
921.258	4596
921.368	4516
921.477	4500
921.587	4466
921.697	4352
921.806	4516
921.916	4451
922.025	4303
922.134	4227
922.244	4223
922.353	4322
922.462	4169
922.571	4097
922.68	4017
922.789	3956
922.898	4025
923.007	4036
923.116	4078
923.224	4055
923.333	4082
923.442	3949
923.55	3968
923.659	4029
923.767	4105
923.876	3960
923.984	4169
924.092	3968
924.201	4059
924.309	4063
924.417	4097
924.525	4025
924.633	4116
924.741	5052
924.849	3896
924.956	4135
925.064	3945
925.172	3899
925.279	4002
925.387	4071
925.494	4078
925.602	4249
925.709	4169
925.816	4017
925.924	4135
926.031	4215
926.138	4166
926.245	4211
926.352	4082
926.459	4211
926.566	4299
926.673	4162
926.779	4086
926.886	4025
926.993	3972
927.099	3930
927.206	3930
927.312	3953
927.419	4040
927.525	4036
927.631	4090
927.737	3922
927.843	3930
927.95	3823
928.056	3915
928.162	4002
928.267	4006
928.373	4584
928.479	4109
928.585	3846
928.69	4006
928.796	4082
928.901	3960
929.007	3835
929.112	4006
929.218	3975
929.323	3937
929.428	3926
929.533	4067
929.638	3888
929.743	3945
929.848	3991
929.953	3979
930.058	3918
930.163	3755
930.267	3831
930.372	3968
930.477	3793
930.581	4048
930.685	3941
930.79	3774
930.894	3892
930.998	3819
931.103	3975
931.207	3720
931.311	3698
931.415	3682
931.519	3549
931.623	3542
