Data from test_V78500241_2513.txt Node
Date: Fri Mar 25 17:06:28 CST 2022
User: usil
Spectrometer: V785-0024
Trigger mode: 0
Integration Time (sec): 4.000000E-1
Scans to average: 1
Nonlinearity correction enabled: false
Boxcar width: 0
Storing dark spectrum: false
XAxis mode: Wavelengths
Number of Pixels in Spectrum: 1024
>>>>>Begin Spectral Data<<<<<
801.071	8020
801.214	8020
801.356	7852
801.499	7856
801.641	7830
801.783	7803
801.926	8012
802.068	7940
802.211	7993
802.353	8027
802.496	7807
802.638	7849
802.78	7944
802.923	7928
803.065	7875
803.208	7921
803.35	7940
803.492	8081
803.635	8191
803.777	8043
803.919	8096
804.061	8400
804.204	8183
804.346	8081
804.488	7989
804.63	8107
804.773	7993
804.915	8123
805.057	8351
805.199	8301
805.341	8221
805.483	8298
805.626	8187
805.768	8153
805.91	8267
806.052	8244
806.194	8115
806.336	8279
806.478	8130
806.62	8100
806.762	8119
806.904	8309
807.046	8408
807.188	8374
807.33	8294
807.472	8301
807.614	8126
807.756	8123
807.898	8001
808.04	7883
808.182	7871
808.324	7860
808.465	7928
808.607	8088
808.749	8111
808.891	8286
809.033	8336
809.174	8256
809.316	8115
809.458	8027
809.6	8084
809.741	8062
809.883	7974
810.025	8100
810.166	8035
810.308	8073
810.45	7967
810.591	7845
810.733	7769
810.875	7674
811.016	7518
811.158	7586
811.299	7548
811.441	7780
811.582	7704
811.724	7548
811.865	7559
812.007	7632
812.148	7693
812.29	7639
812.431	7757
812.573	7879
812.714	7974
812.855	8142
812.997	8267
813.138	8374
813.279	8237
813.421	8107
813.562	7967
813.703	7921
813.845	7738
813.986	7472
814.127	7308
814.268	7206
814.41	7160
814.551	7152
814.692	7194
814.833	7061
814.974	7110
815.115	7099
815.256	6977
815.397	6981
815.539	6958
815.68	6848
815.821	6852
815.962	6913
816.103	6829
816.244	6734
816.385	6673
816.526	6700
816.666	6490
816.807	6273
816.948	6445
817.089	6509
817.23	6437
817.371	6403
817.512	6384
817.653	6376
817.793	6380
817.934	6445
818.075	6471
818.216	6464
818.356	6391
818.497	6270
818.638	6152
818.778	6129
818.919	6197
819.06	6209
819.2	6331
819.341	6395
819.481	6437
819.622	6601
819.762	6757
819.903	6700
820.043	6620
820.184	6551
820.324	6631
820.465	6707
820.605	6700
820.746	6662
820.886	6551
821.026	6707
821.167	6719
821.307	6791
821.447	6821
821.588	6749
821.728	6608
821.868	6555
822.008	6331
822.149	6361
822.289	6399
822.429	6167
822.569	6148
822.709	6133
822.849	5931
822.99	5935
823.13	5950
823.27	5988
823.41	5783
823.55	5813
823.69	5813
823.83	5767
823.97	5653
824.11	5577
824.25	5528
824.389	5558
824.529	5611
824.669	5520
824.809	5608
824.949	5668
825.089	5581
825.228	5520
825.368	5379
825.508	5391
825.648	5330
825.787	5398
825.927	5406
826.067	5269
826.206	5288
826.346	5379
826.485	5417
826.625	5425
826.765	5589
826.904	5532
827.044	5277
827.183	5242
827.323	5159
827.462	5277
827.601	5208
827.741	5265
827.88	5227
828.02	5159
828.159	5258
828.298	5322
828.437	5402
828.577	5326
828.716	5421
828.855	5372
828.994	5178
829.134	5166
829.273	5239
829.412	5128
829.551	5121
829.69	5181
829.829	5239
829.968	5391
830.107	5322
830.246	5307
830.385	5174
830.524	5185
830.663	4999
830.802	4972
830.941	4911
831.08	4889
831.219	4987
831.357	4999
831.496	5124
831.635	4946
831.774	4866
831.913	4873
832.051	4771
832.19	4740
832.329	4835
832.467	4710
832.606	4656
832.744	4790
832.883	4736
833.022	4744
833.16	4831
833.299	4850
833.437	4835
833.576	4801
833.714	4858
833.852	4870
833.991	4889
834.129	4942
834.267	4987
834.406	4942
834.544	4972
834.682	4968
834.821	4980
834.959	5178
835.097	4980
835.235	5159
835.373	5102
835.511	5124
835.65	5025
835.788	5060
835.926	4949
836.064	4915
836.202	4942
836.34	5162
836.478	5273
836.615	5109
836.753	5265
836.891	5299
837.029	5220
837.167	5178
837.305	5178
837.443	5140
837.58	5094
837.718	5292
837.856	5178
837.993	5181
838.131	5246
838.269	5235
838.406	5227
838.544	5204
838.681	5025
838.819	4987
838.956	4900
839.094	4946
839.231	4995
839.369	5113
839.506	5455
839.643	5322
839.781	5109
839.918	4999
840.055	5132
840.193	5079
840.33	5067
840.467	5143
840.604	5170
840.742	5433
840.879	5159
841.016	5124
841.153	5181
841.29	5353
841.427	5330
841.564	5315
841.701	5360
841.838	5284
841.975	5204
842.112	5246
842.249	5181
842.385	5151
842.522	5284
842.659	5189
842.796	5155
842.933	5197
843.069	5143
843.206	5151
843.343	5303
843.479	5299
843.616	5277
843.752	5041
843.889	5029
844.025	5181
844.162	5003
844.298	5212
844.435	5102
844.571	5033
844.708	5201
844.844	5349
844.98	5311
845.117	5299
845.253	5105
845.389	5098
845.525	5197
845.661	5117
845.798	5071
845.934	5159
846.07	5102
846.206	5265
846.342	5204
846.478	5170
846.614	5033
846.75	4987
846.886	4961
847.022	5147
847.158	5045
847.294	5090
847.429	5105
847.565	5083
847.701	5391
847.837	4854
847.972	4866
848.108	4915
848.244	4930
848.379	4797
848.515	4729
848.65	4694
848.786	4755
848.921	4797
849.057	4881
849.192	4862
849.328	4839
849.463	4820
849.598	4790
849.734	4733
849.869	4687
850.004	4634
850.14	4649
850.275	4611
850.41	4538
850.545	4603
850.68	4622
850.815	4630
850.95	4584
851.085	4797
851.22	4714
851.355	4698
851.49	4656
851.625	4634
851.76	4641
851.895	4523
852.03	4519
852.165	4672
852.299	4717
852.434	4839
852.569	4767
852.703	4782
852.838	4839
852.973	4927
853.107	4896
853.242	4698
853.376	4683
853.511	4554
853.645	4706
853.78	4790
853.914	4664
854.048	4698
854.183	4637
854.317	4729
854.451	4793
854.585	4664
854.72	4672
854.854	4733
854.988	4626
855.122	4668
855.256	4497
855.39	4630
855.524	4778
855.658	4725
855.792	4721
855.926	4721
856.06	4736
856.194	4797
856.327	4687
856.461	4603
856.595	4596
856.729	4630
856.862	4793
856.996	4683
857.13	4744
857.263	4748
857.397	4809
857.53	4668
857.664	4702
857.797	4809
857.931	4797
858.064	4698
858.197	4736
858.331	4634
858.464	4634
858.597	4508
858.731	4653
858.864	4694
858.997	4634
859.13	4687
859.263	4664
859.396	4721
859.529	4577
859.662	4584
859.795	4542
859.928	4630
860.061	4771
860.194	4763
860.327	4622
860.46	4588
860.592	4706
860.725	4664
860.858	4733
860.99	4607
861.123	4508
861.256	4554
861.388	4634
861.521	5246
861.653	4500
861.786	4440
861.918	4451
862.05	4542
862.183	4519
862.315	4584
862.447	4641
862.58	4512
862.712	4417
862.844	4314
862.976	4493
863.108	4462
863.24	4870
863.372	4337
863.504	4417
863.636	4409
863.768	4451
863.9	4447
864.032	4409
864.164	4421
864.296	4493
864.428	4542
864.559	4561
864.691	4573
864.823	4508
864.954	4527
865.086	4500
865.217	4443
865.349	4402
865.48	4459
865.612	4470
865.743	4634
865.875	4478
866.006	4500
866.137	4462
866.269	4447
866.4	4447
866.531	4421
866.662	4394
866.793	4394
866.924	4421
867.055	4512
867.186	4428
867.317	4436
867.448	4432
867.579	4390
867.71	4424
867.841	4360
867.972	4432
868.103	4512
868.233	4447
868.364	4413
868.495	4478
868.625	4710
868.756	4790
868.886	4615
869.017	4626
869.147	4759
869.278	4774
869.408	4691
869.539	4607
869.669	4744
869.799	4656
869.929	4736
870.06	4702
870.19	4999
870.32	4927
870.45	4957
870.58	5071
870.71	5124
870.84	5094
870.97	4934
871.1	4885
871.23	5124
871.36	5113
871.489	5067
871.619	5041
871.749	5105
871.879	5132
872.008	5178
872.138	4999
872.267	4991
872.397	4866
872.526	4774
872.656	4729
872.785	4786
872.915	4930
873.044	5052
873.173	4930
873.303	4961
873.432	5037
873.561	4923
873.69	4904
873.819	4858
873.948	4892
874.077	4812
874.206	4729
874.335	4805
874.464	4915
874.593	5105
874.722	4980
874.851	5060
874.979	5037
875.108	5064
875.237	4946
875.365	4873
875.494	4839
875.623	4965
875.751	4797
875.88	4873
876.008	4961
876.136	5003
876.265	5166
876.393	5322
876.521	5269
876.65	5212
876.778	5178
876.906	5064
877.034	4995
877.162	5052
877.29	5037
877.418	5052
877.546	5018
877.674	5064
877.802	5052
877.93	4965
878.058	4976
878.185	4915
878.313	4953
878.441	4976
878.568	4831
878.696	4835
878.824	4949
878.951	5010
879.079	5113
879.206	5311
879.333	5147
879.461	4995
879.588	5037
879.715	5136
879.842	5185
879.97	4999
880.097	4805
880.224	4755
880.351	4774
880.478	4809
880.605	4786
880.732	4793
880.859	5083
880.986	4885
881.112	4915
881.239	4755
881.366	4668
881.493	4626
881.619	4584
881.746	4649
881.872	4641
881.999	4687
882.125	4675
882.252	4782
882.378	4839
882.505	4946
882.631	4801
882.757	4656
882.883	4736
883.01	4748
883.136	4649
883.262	4588
883.388	4615
883.514	4801
883.64	4900
883.766	4748
883.892	4679
884.018	4702
884.143	4904
884.269	4976
884.395	4710
884.52	4561
884.646	4599
884.772	4584
884.897	4527
885.023	4691
885.148	4786
885.274	4816
885.399	4797
885.524	4706
885.65	4752
885.775	4698
885.9	4698
886.025	4866
886.15	4793
886.275	4744
886.4	4637
886.525	4679
886.65	4687
886.775	4683
886.9	4889
887.025	5029
887.149	4805
887.274	4637
887.399	4615
887.523	4588
887.648	4588
887.773	4577
887.897	4790
888.021	4782
888.146	4694
888.27	4774
888.395	4892
888.519	4797
888.643	4839
888.767	4843
888.891	4664
889.015	4615
889.139	4618
889.263	4596
889.387	4725
889.511	4854
889.635	4797
889.759	4603
889.883	4637
890.006	4759
890.13	4831
890.254	4634
890.377	4706
890.501	4592
890.624	4504
890.748	4645
890.871	4546
890.995	4398
891.118	4379
891.241	4538
891.364	4565
891.488	4611
891.611	4478
891.734	4512
891.857	4603
891.98	4573
892.103	4618
892.226	4596
892.349	4504
892.471	4394
892.594	4535
892.717	4603
892.839	4519
892.962	4599
893.085	4694
893.207	4603
893.33	4466
893.452	4481
893.575	4668
893.697	4531
893.819	4797
893.941	4805
894.064	4706
894.186	4565
894.308	4550
894.43	4752
894.552	4831
894.674	4744
894.796	4554
894.918	4615
895.04	4538
895.161	4710
895.283	4637
895.405	4565
895.526	4626
895.648	4653
895.769	4706
895.891	4744
896.012	4755
896.134	4767
896.255	4653
896.376	4668
896.498	4573
896.619	4721
896.74	4603
896.861	4664
896.982	4896
897.103	5052
897.224	4843
897.345	4694
897.466	4679
897.587	4752
897.708	4843
897.828	4786
897.949	4706
898.07	4550
898.19	4588
898.311	4812
898.431	4687
898.552	4717
898.672	4774
898.792	4771
898.913	4736
899.033	4592
899.153	4481
899.273	4421
899.393	4542
899.513	4516
899.633	4512
899.753	4569
899.873	4519
899.993	4580
900.113	4535
900.232	4584
900.352	4527
900.472	4459
900.591	4318
900.711	4478
900.83	4424
900.95	4649
901.069	4675
901.189	4512
901.308	4360
901.427	4310
901.546	4402
901.665	4478
901.784	4447
901.904	4371
902.023	4318
902.141	4150
902.26	4162
902.379	4272
902.498	4238
902.617	4215
902.735	4337
902.854	4428
902.973	4356
903.091	4177
903.21	4246
903.328	4333
903.446	4253
903.565	4303
903.683	4360
903.801	4318
903.919	4398
904.038	4466
904.156	4329
904.274	4443
904.392	4390
904.51	4459
904.627	4451
904.745	4565
904.863	4573
904.981	4375
905.098	4299
905.216	4344
905.334	4417
905.451	4405
905.569	4436
905.686	4546
905.803	4565
905.921	4451
906.038	4535
906.155	4440
906.272	4413
906.389	4470
906.506	4344
906.623	4394
906.74	4383
906.857	4295
906.974	4363
907.091	4531
907.208	4702
907.324	4580
907.441	4512
907.557	4356
907.674	4333
907.79	4348
907.907	4409
908.023	4512
908.139	4481
908.256	4451
908.372	4436
908.488	4455
908.604	4325
908.72	4344
908.836	4417
908.952	4390
909.068	4383
909.184	4569
909.3	4500
909.415	4592
909.531	4481
909.647	4337
909.762	4356
909.878	4356
909.993	4386
910.108	4379
910.224	4432
910.339	4462
910.454	4402
910.57	4329
910.685	4306
910.8	4687
910.915	4607
911.03	4474
911.145	4337
911.259	4287
911.374	4367
911.489	4299
911.604	4303
911.718	4211
911.833	4192
911.947	4101
912.062	4006
912.176	4223
912.291	4242
912.405	4261
912.519	4500
912.633	4500
912.748	4383
912.862	4333
912.976	4230
913.09	4093
913.204	4150
913.318	4234
913.431	4367
913.545	4337
913.659	4428
913.772	4390
913.886	4299
914	4223
914.113	4390
914.226	4459
914.34	4379
914.453	4276
914.566	4455
914.68	4257
914.793	4303
914.906	4185
915.019	4131
915.132	4071
915.245	4200
915.358	4196
915.47	4272
915.583	4261
915.696	4253
915.809	4405
915.921	4421
916.034	4287
916.146	4276
916.259	4261
916.371	4402
916.483	4371
916.595	4272
916.708	4344
916.82	4352
916.932	4303
917.044	4314
917.156	4379
917.268	4238
917.38	4227
917.491	4268
917.603	4303
917.715	4386
917.826	4508
917.938	4363
918.049	4261
918.161	4421
918.272	4538
918.384	4497
918.495	4417
918.606	4276
918.717	4242
918.828	4352
918.939	4363
919.05	4257
919.161	4356
919.272	4154
919.383	4227
919.494	4409
919.604	4607
919.715	4424
919.826	4379
919.936	4386
920.047	4531
920.157	4474
920.267	4675
920.378	4550
920.488	4474
920.598	4691
920.708	4873
920.818	4721
920.928	4752
921.038	4934
921.148	4946
921.258	4615
921.368	4573
921.477	4497
921.587	4481
921.697	4417
921.806	4542
921.916	4421
922.025	4230
922.134	4306
922.244	4234
922.353	4329
922.462	4150
922.571	4150
922.68	3983
922.789	3960
922.898	4036
923.007	3972
923.116	4097
923.224	4048
923.333	4074
923.442	3991
923.55	3991
923.659	4017
923.767	4101
923.876	4002
923.984	4078
924.092	3983
924.201	4059
924.309	4101
924.417	4105
924.525	4029
924.633	4131
924.741	5006
924.849	3934
924.956	4135
925.064	3998
925.172	3903
925.279	4006
925.387	4063
925.494	4063
925.602	4227
925.709	4200
925.816	4067
925.924	4185
926.031	4257
926.138	4173
926.245	4196
926.352	4112
926.459	4310
926.566	4287
926.673	4158
926.779	4109
926.886	4078
926.993	3975
927.099	3975
927.206	3968
927.312	3949
927.419	4029
927.525	4021
927.631	4093
927.737	3972
927.843	3915
927.95	3819
928.056	3907
928.162	4006
928.267	4067
928.373	4588
928.479	4128
928.585	3873
928.69	3998
928.796	4086
928.901	3968
929.007	3838
929.112	4013
929.218	3953
929.323	3915
929.428	3926
929.533	4131
929.638	3884
929.743	3934
929.848	4067
929.953	3972
930.058	3926
930.163	3732
930.267	3857
930.372	3987
930.477	3804
930.581	4078
930.685	3937
930.79	3846
930.894	3873
930.998	3831
931.103	4055
931.207	3709
931.311	3766
931.415	3660
931.519	3477
931.623	3568
