Data from test_V78500241_1182.txt Node
Date: Fri Mar 25 16:57:13 CST 2022
User: usil
Spectrometer: V785-0024
Trigger mode: 0
Integration Time (sec): 4.000000E-1
Scans to average: 1
Nonlinearity correction enabled: false
Boxcar width: 0
Storing dark spectrum: false
XAxis mode: Wavelengths
Number of Pixels in Spectrum: 1024
>>>>>Begin Spectral Data<<<<<
801.071	8054
801.214	8073
801.356	7978
801.499	7875
801.641	7833
801.783	7875
801.926	7997
802.068	7967
802.211	7974
802.353	7986
802.496	7826
802.638	7978
802.78	7906
802.923	7959
803.065	7917
803.208	7864
803.35	7993
803.492	8126
803.635	8199
803.777	8001
803.919	8081
804.061	8465
804.204	8172
804.346	8130
804.488	8031
804.63	8100
804.773	8020
804.915	8126
805.057	8275
805.199	8176
805.341	8252
805.483	8343
805.626	8263
805.768	8157
805.91	8191
806.052	8183
806.194	8206
806.336	8259
806.478	7970
806.62	8081
806.762	8199
806.904	8290
807.046	8480
807.188	8362
807.33	8317
807.472	8389
807.614	8199
807.756	8035
807.898	8050
808.04	7875
808.182	7898
808.324	7928
808.465	7944
808.607	8130
808.749	8123
808.891	8237
809.033	8202
809.174	8161
809.316	8039
809.458	8100
809.6	7989
809.741	8016
809.883	7993
810.025	8058
810.166	7993
810.308	8027
810.45	8001
810.591	7944
810.733	7757
810.875	7586
811.016	7556
811.158	7502
811.299	7647
811.441	7681
811.582	7719
811.724	7590
811.865	7578
812.007	7571
812.148	7594
812.29	7639
812.431	7738
812.573	7879
812.714	7928
812.855	8123
812.997	8259
813.138	8271
813.279	8244
813.421	8138
813.562	8008
813.703	7898
813.845	7803
813.986	7434
814.127	7236
814.268	7270
814.41	7164
814.551	7126
814.692	7156
814.833	7107
814.974	7110
815.115	7088
815.256	6909
815.397	6981
815.539	6935
815.68	6954
815.821	6795
815.962	6837
816.103	6810
816.244	6745
816.385	6658
816.526	6642
816.666	6566
816.807	6311
816.948	6448
817.089	6479
817.23	6498
817.371	6422
817.512	6414
817.653	6395
817.793	6380
817.934	6426
818.075	6445
818.216	6403
818.356	6426
818.497	6258
818.638	6144
818.778	6190
818.919	6171
819.06	6136
819.2	6304
819.341	6319
819.481	6410
819.622	6528
819.762	6711
819.903	6745
820.043	6574
820.184	6555
820.324	6582
820.465	6681
820.605	6722
820.746	6646
820.886	6525
821.026	6654
821.167	6696
821.307	6734
821.447	6741
821.588	6620
821.728	6570
821.868	6502
822.008	6323
822.149	6384
822.289	6304
822.429	6102
822.569	6095
822.709	6076
822.849	5920
822.99	5950
823.13	5897
823.27	5980
823.41	5851
823.55	5783
823.69	5798
823.83	5764
823.97	5688
824.11	5524
824.25	5520
824.389	5528
824.529	5581
824.669	5482
824.809	5653
824.949	5665
825.089	5608
825.228	5532
825.368	5406
825.508	5326
825.648	5357
825.787	5395
825.927	5421
826.067	5349
826.206	5277
826.346	5406
826.485	5417
826.625	5463
826.765	5570
826.904	5497
827.044	5223
827.183	5147
827.323	5140
827.462	5250
827.601	5189
827.741	5204
827.88	5254
828.02	5136
828.159	5296
828.298	5284
828.437	5357
828.577	5265
828.716	5505
828.855	5246
828.994	5117
829.134	5204
829.273	5197
829.412	5132
829.551	5174
829.69	5143
829.829	5250
829.968	5398
830.107	5315
830.246	5280
830.385	5208
830.524	5140
830.663	5064
830.802	4938
830.941	4881
831.08	4889
831.219	4980
831.357	4961
831.496	5121
831.635	4904
831.774	4854
831.913	4816
832.051	4736
832.19	4717
832.329	4881
832.467	4710
832.606	4592
832.744	4767
832.883	4725
833.022	4759
833.16	4809
833.299	4854
833.437	4862
833.576	4850
833.714	4877
833.852	4847
833.991	4896
834.129	4953
834.267	4999
834.406	4934
834.544	4984
834.682	5003
834.821	4976
834.959	5143
835.097	5014
835.235	5090
835.373	5075
835.511	5056
835.65	5037
835.788	5006
835.926	4862
836.064	4854
836.202	4923
836.34	5216
836.478	5166
836.615	5102
836.753	5185
836.891	5296
837.029	5284
837.167	5162
837.305	5155
837.443	5151
837.58	5037
837.718	5261
837.856	5189
837.993	5124
838.131	5216
838.269	5223
838.406	5231
838.544	5208
838.681	5033
838.819	4961
838.956	4938
839.094	4908
839.231	4991
839.369	5075
839.506	5357
839.643	5254
839.781	4995
839.918	5041
840.055	5132
840.193	5079
840.33	5102
840.467	5113
840.604	5193
840.742	5425
840.879	5025
841.016	5083
841.153	5178
841.29	5372
841.427	5353
841.564	5303
841.701	5341
841.838	5246
841.975	5155
842.112	5231
842.249	5128
842.385	5083
842.522	5353
842.659	5181
842.796	5162
842.933	5159
843.069	5136
843.206	5143
843.343	5296
843.479	5227
843.616	5246
843.752	5048
843.889	4995
844.025	5189
844.162	5018
844.298	5189
844.435	5083
844.571	5006
844.708	5170
844.844	5269
844.98	5357
845.117	5307
845.253	5151
845.389	5067
845.525	5124
845.661	5132
845.798	5045
845.934	5121
846.07	5105
846.206	5170
846.342	5284
846.478	5151
846.614	4953
846.75	4957
846.886	4972
847.022	5075
847.158	5025
847.294	5060
847.429	5140
847.565	5075
847.701	5318
847.837	4839
847.972	4774
848.108	4953
848.244	4915
848.379	4740
848.515	4752
848.65	4702
848.786	4752
848.921	4763
849.057	4873
849.192	4854
849.328	4778
849.463	4835
849.598	4782
849.734	4710
849.869	4687
850.004	4607
850.14	4615
850.275	4580
850.41	4542
850.545	4592
850.68	4630
850.815	4645
850.95	4592
851.085	4820
851.22	4710
851.355	4679
851.49	4615
851.625	4599
851.76	4664
851.895	4489
852.03	4611
852.165	4645
852.299	4778
852.434	4763
852.569	4706
852.703	4736
852.838	4850
852.973	4934
853.107	4919
853.242	4714
853.376	4668
853.511	4569
853.645	4603
853.78	4740
853.914	4675
854.048	4687
854.183	4580
854.317	4721
854.451	4858
854.585	4645
854.72	4656
854.854	4767
854.988	4607
855.122	4630
855.256	4508
855.39	4634
855.524	4797
855.658	4725
855.792	4687
855.926	4721
856.06	4717
856.194	4752
856.327	4668
856.461	4626
856.595	4584
856.729	4622
856.862	4729
856.996	4668
857.13	4706
857.263	4725
857.397	4797
857.53	4664
857.664	4706
857.797	4744
857.931	4755
858.064	4717
858.197	4759
858.331	4645
858.464	4577
858.597	4462
858.731	4634
858.864	4653
858.997	4599
859.13	4660
859.263	4630
859.396	4729
859.529	4580
859.662	4577
859.795	4504
859.928	4622
860.061	4744
860.194	4767
860.327	4611
860.46	4599
860.592	4717
860.725	4714
860.858	4706
860.99	4599
861.123	4558
861.256	4523
861.388	4626
861.521	5231
861.653	4481
861.786	4421
861.918	4462
862.05	4569
862.183	4550
862.315	4584
862.447	4645
862.58	4584
862.712	4360
862.844	4299
862.976	4512
863.108	4478
863.24	4839
863.372	4310
863.504	4390
863.636	4417
863.768	4481
863.9	4440
864.032	4375
864.164	4405
864.296	4440
864.428	4538
864.559	4558
864.691	4535
864.823	4527
864.954	4481
865.086	4485
865.217	4398
865.349	4436
865.48	4470
865.612	4500
865.743	4645
865.875	4493
866.006	4481
866.137	4409
866.269	4421
866.4	4402
866.531	4432
866.662	4409
866.793	4386
866.924	4409
867.055	4523
867.186	4455
867.317	4413
867.448	4379
867.579	4363
867.71	4394
867.841	4360
867.972	4440
868.103	4443
868.233	4455
868.364	4428
868.495	4485
868.625	4603
868.756	4755
868.886	4565
869.017	4634
869.147	4797
869.278	4786
869.408	4687
869.539	4603
869.669	4683
869.799	4672
869.929	4786
870.06	4736
870.19	4919
870.32	4835
870.45	4927
870.58	5014
870.71	5079
870.84	5128
870.97	4911
871.1	4904
871.23	5098
871.36	5086
871.489	5037
871.619	5067
871.749	5090
871.879	5105
872.008	5174
872.138	5048
872.267	4946
872.397	4824
872.526	4771
872.656	4698
872.785	4786
872.915	4946
873.044	5048
873.173	4953
873.303	4923
873.432	5003
873.561	4889
873.69	4908
873.819	4873
873.948	4904
874.077	4767
874.206	4759
874.335	4820
874.464	4908
874.593	5014
874.722	4930
874.851	5102
874.979	5045
875.108	4976
875.237	4892
875.365	4881
875.494	4873
875.623	4972
875.751	4835
875.88	4847
876.008	4987
876.136	5045
876.265	5189
876.393	5311
876.521	5201
876.65	5208
876.778	5117
876.906	5052
877.034	5041
877.162	5105
877.29	4961
877.418	5037
877.546	5045
877.674	5052
877.802	5060
877.93	5003
878.058	4934
878.185	4889
878.313	4957
878.441	4919
878.568	4797
878.696	4881
878.824	4904
878.951	4991
879.079	5166
879.206	5330
879.333	5075
879.461	4930
879.588	5006
879.715	5105
879.842	5204
879.97	4965
880.097	4790
880.224	4778
880.351	4774
880.478	4786
880.605	4824
880.732	4782
880.859	5079
880.986	4885
881.112	4873
881.239	4782
881.366	4683
881.493	4584
881.619	4603
881.746	4580
881.872	4618
881.999	4615
882.125	4672
882.252	4782
882.378	4801
882.505	4946
882.631	4771
882.757	4660
882.883	4714
883.01	4683
883.136	4664
883.262	4592
883.388	4573
883.514	4786
883.64	4885
883.766	4774
883.892	4698
884.018	4725
884.143	4877
884.269	5003
884.395	4717
884.52	4634
884.646	4634
884.772	4531
884.897	4542
885.023	4649
885.148	4793
885.274	4839
885.399	4767
885.524	4694
885.65	4698
885.775	4725
885.9	4710
886.025	4854
886.15	4786
886.275	4782
886.4	4679
886.525	4687
886.65	4675
886.775	4683
886.9	4892
887.025	5029
887.149	4793
887.274	4683
887.399	4615
887.523	4607
887.648	4611
887.773	4538
887.897	4691
888.021	4752
888.146	4710
888.27	4755
888.395	4797
888.519	4824
888.643	4831
888.767	4809
888.891	4668
889.015	4634
889.139	4649
889.263	4577
889.387	4759
889.511	4839
889.635	4763
889.759	4584
889.883	4626
890.006	4702
890.13	4782
890.254	4641
890.377	4710
890.501	4542
890.624	4474
890.748	4630
890.871	4493
890.995	4432
891.118	4405
891.241	4535
891.364	4546
891.488	4603
891.611	4531
891.734	4481
891.857	4615
891.98	4577
892.103	4653
892.226	4626
892.349	4447
892.471	4386
892.594	4523
892.717	4573
892.839	4523
892.962	4618
893.085	4645
893.207	4573
893.33	4443
893.452	4508
893.575	4656
893.697	4546
893.819	4774
893.941	4805
894.064	4729
894.186	4584
894.308	4550
894.43	4752
894.552	4763
894.674	4748
894.796	4558
894.918	4599
895.04	4531
895.161	4656
895.283	4672
895.405	4573
895.526	4637
895.648	4675
895.769	4656
895.891	4729
896.012	4691
896.134	4672
896.255	4683
896.376	4637
896.498	4622
896.619	4672
896.74	4630
896.861	4672
896.982	4908
897.103	5033
897.224	4809
897.345	4748
897.466	4656
897.587	4729
897.708	4858
897.828	4759
897.949	4641
898.07	4561
898.19	4611
898.311	4793
898.431	4694
898.552	4694
898.672	4797
898.792	4759
898.913	4755
899.033	4622
899.153	4489
899.273	4455
899.393	4519
899.513	4512
899.633	4538
899.753	4497
899.873	4508
899.993	4584
900.113	4516
900.232	4577
900.352	4554
900.472	4485
900.591	4375
900.711	4519
900.83	4432
900.95	4592
901.069	4603
901.189	4527
901.308	4337
901.427	4318
901.546	4367
901.665	4440
901.784	4493
901.904	4360
902.023	4287
902.141	4162
902.26	4150
902.379	4287
902.498	4284
902.617	4192
902.735	4383
902.854	4402
902.973	4299
903.091	4207
903.21	4230
903.328	4287
903.446	4242
903.565	4238
903.683	4276
903.801	4280
903.919	4375
904.038	4424
904.156	4314
904.274	4409
904.392	4348
904.51	4421
904.627	4421
904.745	4607
904.863	4634
904.981	4413
905.098	4295
905.216	4348
905.334	4470
905.451	4424
905.569	4436
905.686	4573
905.803	4645
905.921	4421
906.038	4569
906.155	4447
906.272	4367
906.389	4462
906.506	4367
906.623	4375
906.74	4348
906.857	4322
906.974	4356
907.091	4500
907.208	4706
907.324	4607
907.441	4455
907.557	4352
907.674	4314
907.79	4371
907.907	4356
908.023	4459
908.139	4462
908.256	4394
908.372	4447
908.488	4466
908.604	4352
908.72	4284
908.836	4325
908.952	4341
909.068	4398
909.184	4508
909.3	4443
909.415	4607
909.531	4558
909.647	4352
909.762	4356
909.878	4348
909.993	4398
910.108	4428
910.224	4409
910.339	4500
910.454	4390
910.57	4322
910.685	4303
910.8	4634
910.915	4519
911.03	4478
911.145	4352
911.259	4322
911.374	4341
911.489	4329
911.604	4249
911.718	4188
911.833	4227
911.947	4063
912.062	4036
912.176	4211
912.291	4265
912.405	4253
912.519	4424
912.633	4489
912.748	4375
912.862	4337
912.976	4207
913.09	4090
913.204	4147
913.318	4265
913.431	4375
913.545	4367
913.659	4413
913.772	4348
913.886	4219
914	4196
914.113	4363
914.226	4440
914.34	4360
914.453	4177
914.566	4402
914.68	4310
914.793	4333
914.906	4097
915.019	4082
915.132	4067
915.245	4192
915.358	4185
915.47	4242
915.583	4253
915.696	4314
915.809	4405
915.921	4436
916.034	4234
916.146	4223
916.259	4200
916.371	4371
916.483	4386
916.595	4265
916.708	4295
916.82	4280
916.932	4280
917.044	4310
917.156	4295
917.268	4219
917.38	4276
917.491	4276
917.603	4299
917.715	4440
917.826	4466
917.938	4291
918.049	4268
918.161	4379
918.272	4573
918.384	4504
918.495	4409
918.606	4295
918.717	4211
918.828	4333
918.939	4344
919.05	4318
919.161	4325
919.272	4143
919.383	4227
919.494	4379
919.604	4588
919.715	4440
919.826	4341
919.936	4428
920.047	4516
920.157	4497
920.267	4744
920.378	4523
920.488	4512
920.598	4759
920.708	4854
920.818	4733
920.928	4790
921.038	4976
921.148	4889
921.258	4588
921.368	4599
921.477	4538
921.587	4447
921.697	4383
921.806	4558
921.916	4413
922.025	4257
922.134	4249
922.244	4192
922.353	4341
922.462	4177
922.571	4143
922.68	3983
922.789	3991
922.898	3998
923.007	3979
923.116	4071
923.224	4044
923.333	4029
923.442	3960
923.55	3983
923.659	4051
923.767	4078
923.876	4006
923.984	4131
924.092	3983
924.201	4071
924.309	4067
924.417	4162
924.525	4055
924.633	4105
924.741	5113
924.849	3926
924.956	4093
925.064	3979
925.172	3945
925.279	3937
925.387	4010
925.494	4044
925.602	4204
925.709	4185
925.816	4002
925.924	4120
926.031	4204
926.138	4162
926.245	4181
926.352	4036
926.459	4276
926.566	4314
926.673	4128
926.779	4090
926.886	4082
926.993	3994
927.099	3949
927.206	3941
927.312	3956
927.419	4055
927.525	4002
927.631	4071
927.737	3930
927.843	3975
927.95	3850
928.056	3953
928.162	3941
928.267	4086
928.373	4672
928.479	4051
928.585	3899
928.69	4044
928.796	4025
928.901	3979
929.007	3884
929.112	4010
929.218	3956
929.323	3975
929.428	3991
929.533	4116
929.638	3915
929.743	3956
929.848	4055
929.953	3994
930.058	3945
930.163	3781
930.267	3846
930.372	3991
930.477	3854
930.581	4086
930.685	3911
930.79	3808
930.894	3903
930.998	3846
931.103	4048
931.207	3686
931.311	3686
931.415	3717
931.519	3545
931.623	3553
