Data from test_V78500241_174.txt Node
Date: Fri Mar 25 16:50:12 CST 2022
User: usil
Spectrometer: V785-0024
Trigger mode: 0
Integration Time (sec): 4.000000E-1
Scans to average: 1
Nonlinearity correction enabled: false
Boxcar width: 0
Storing dark spectrum: false
XAxis mode: Wavelengths
Number of Pixels in Spectrum: 1024
>>>>>Begin Spectral Data<<<<<
801.071	7959
801.214	7978
801.356	7864
801.499	7871
801.641	7795
801.783	7833
801.926	7982
802.068	8020
802.211	8008
802.353	8001
802.496	7879
802.638	7936
802.78	7936
802.923	7909
803.065	7788
803.208	7856
803.35	7997
803.492	8069
803.635	8172
803.777	7959
803.919	8024
804.061	8343
804.204	8149
804.346	8138
804.488	7947
804.63	8077
804.773	7986
804.915	8077
805.057	8252
805.199	8134
805.341	8195
805.483	8237
805.626	8138
805.768	8142
805.91	8142
806.052	8183
806.194	8134
806.336	8244
806.478	8149
806.62	8054
806.762	8050
806.904	8282
807.046	8457
807.188	8313
807.33	8263
807.472	8290
807.614	8069
807.756	8123
807.898	8001
808.04	7921
808.182	7936
808.324	7845
808.465	7917
808.607	8035
808.749	8046
808.891	8206
809.033	8355
809.174	8218
809.316	8024
809.458	8069
809.6	7936
809.741	8039
809.883	8031
810.025	8103
810.166	8027
810.308	7997
810.45	7928
810.591	7906
810.733	7761
810.875	7731
811.016	7518
811.158	7472
811.299	7597
811.441	7715
811.582	7727
811.724	7556
811.865	7586
812.007	7620
812.148	7636
812.29	7636
812.431	7822
812.573	7883
812.714	7963
812.855	8263
812.997	8294
813.138	8317
813.279	8138
813.421	8142
813.562	8031
813.703	7925
813.845	7746
813.986	7483
814.127	7263
814.268	7213
814.41	7244
814.551	7171
814.692	7171
814.833	7129
814.974	7190
815.115	7141
815.256	7034
815.397	6920
815.539	6981
815.68	6821
815.821	6821
815.962	6825
816.103	6768
816.244	6688
816.385	6658
816.526	6658
816.666	6460
816.807	6331
816.948	6380
817.089	6467
817.23	6429
817.371	6422
817.512	6422
817.653	6429
817.793	6399
817.934	6418
818.075	6467
818.216	6407
818.356	6418
818.497	6235
818.638	6144
818.778	6114
818.919	6175
819.06	6121
819.2	6353
819.341	6311
819.481	6388
819.622	6540
819.762	6719
819.903	6719
820.043	6555
820.184	6608
820.324	6616
820.465	6677
820.605	6658
820.746	6635
820.886	6509
821.026	6692
821.167	6707
821.307	6768
821.447	6745
821.588	6673
821.728	6570
821.868	6460
822.008	6311
822.149	6403
822.289	6357
822.429	6136
822.569	6057
822.709	6110
822.849	5904
822.99	5912
823.13	5977
823.27	5904
823.41	5775
823.55	5809
823.69	5752
823.83	5824
823.97	5691
824.11	5573
824.25	5497
824.389	5547
824.529	5566
824.669	5539
824.809	5672
824.949	5615
825.089	5573
825.228	5596
825.368	5357
825.508	5296
825.648	5277
825.787	5421
825.927	5402
826.067	5349
826.206	5292
826.346	5368
826.485	5360
826.625	5387
826.765	5589
826.904	5417
827.044	5315
827.183	5246
827.323	5170
827.462	5250
827.601	5181
827.741	5197
827.88	5216
828.02	5128
828.159	5193
828.298	5307
828.437	5357
828.577	5280
828.716	5505
828.855	5345
828.994	5178
829.134	5151
829.273	5242
829.412	5140
829.551	5102
829.69	5140
829.829	5265
829.968	5421
830.107	5303
830.246	5299
830.385	5155
830.524	5124
830.663	5067
830.802	4957
830.941	4896
831.08	4847
831.219	5003
831.357	4980
831.496	5121
831.635	4911
831.774	4866
831.913	4889
832.051	4733
832.19	4771
832.329	4801
832.467	4694
832.606	4611
832.744	4687
832.883	4729
833.022	4668
833.16	4805
833.299	4790
833.437	4850
833.576	4839
833.714	4809
833.852	4839
833.991	4892
834.129	4930
834.267	4915
834.406	4900
834.544	4965
834.682	4938
834.821	4984
834.959	5090
835.097	4953
835.235	5143
835.373	5121
835.511	5162
835.65	5037
835.788	5064
835.926	4919
836.064	4889
836.202	4881
836.34	5208
836.478	5250
836.615	5121
836.753	5174
836.891	5322
837.029	5216
837.167	5204
837.305	5143
837.443	5105
837.58	5067
837.718	5277
837.856	5143
837.993	5155
838.131	5254
838.269	5204
838.406	5170
838.544	5220
838.681	5014
838.819	5003
838.956	4889
839.094	4885
839.231	4995
839.369	5086
839.506	5452
839.643	5269
839.781	5083
839.918	5033
840.055	5136
840.193	5094
840.33	5098
840.467	5155
840.604	5159
840.742	5410
840.879	5083
841.016	5067
841.153	5124
841.29	5357
841.427	5311
841.564	5299
841.701	5318
841.838	5208
841.975	5246
842.112	5242
842.249	5121
842.385	5064
842.522	5277
842.659	5147
842.796	5185
842.933	5181
843.069	5174
843.206	5155
843.343	5303
843.479	5265
843.616	5292
843.752	5006
843.889	4995
844.025	5201
844.162	5041
844.298	5227
844.435	5048
844.571	5048
844.708	5246
844.844	5318
844.98	5334
845.117	5307
845.253	5159
845.389	5075
845.525	5178
845.661	5170
845.798	5010
845.934	5113
846.07	5010
846.206	5151
846.342	5208
846.478	5178
846.614	5006
846.75	5010
846.886	4968
847.022	5193
847.158	4980
847.294	5105
847.429	5113
847.565	5037
847.701	5288
847.837	4839
847.972	4816
848.108	4968
848.244	4942
848.379	4767
848.515	4733
848.65	4736
848.786	4736
848.921	4782
849.057	4873
849.192	4877
849.328	4843
849.463	4881
849.598	4793
849.734	4755
849.869	4714
850.004	4634
850.14	4675
850.275	4588
850.41	4535
850.545	4538
850.68	4641
850.815	4630
850.95	4645
851.085	4870
851.22	4748
851.355	4691
851.49	4630
851.625	4603
851.76	4668
851.895	4558
852.03	4523
852.165	4603
852.299	4748
852.434	4797
852.569	4763
852.703	4744
852.838	4828
852.973	4961
853.107	4953
853.242	4717
853.376	4645
853.511	4538
853.645	4611
853.78	4771
853.914	4626
854.048	4645
854.183	4626
854.317	4694
854.451	4839
854.585	4702
854.72	4645
854.854	4809
854.988	4599
855.122	4641
855.256	4512
855.39	4603
855.524	4778
855.658	4725
855.792	4717
855.926	4748
856.06	4778
856.194	4812
856.327	4672
856.461	4664
856.595	4630
856.729	4649
856.862	4729
856.996	4679
857.13	4778
857.263	4763
857.397	4828
857.53	4641
857.664	4702
857.797	4790
857.931	4774
858.064	4706
858.197	4778
858.331	4736
858.464	4592
858.597	4565
858.731	4660
858.864	4637
858.997	4588
859.13	4672
859.263	4729
859.396	4755
859.529	4573
859.662	4596
859.795	4546
859.928	4634
860.061	4752
860.194	4782
860.327	4615
860.46	4611
860.592	4714
860.725	4782
860.858	4835
860.99	4641
861.123	4550
861.256	4599
861.388	4653
861.521	5452
861.653	4497
861.786	4443
861.918	4481
862.05	4561
862.183	4603
862.315	4626
862.447	4698
862.58	4588
862.712	4451
862.844	4383
862.976	4512
863.108	4489
863.24	4927
863.372	4375
863.504	4504
863.636	4428
863.768	4573
863.9	4485
864.032	4459
864.164	4474
864.296	4497
864.428	4580
864.559	4611
864.691	4580
864.823	4599
864.954	4550
865.086	4569
865.217	4500
865.349	4497
865.48	4440
865.612	4523
865.743	4714
865.875	4542
866.006	4485
866.137	4508
866.269	4504
866.4	4481
866.531	4493
866.662	4432
866.793	4489
866.924	4443
867.055	4542
867.186	4489
867.317	4481
867.448	4428
867.579	4474
867.71	4386
867.841	4436
867.972	4512
868.103	4531
868.233	4504
868.364	4519
868.495	4573
868.625	4656
868.756	4831
868.886	4622
869.017	4672
869.147	4805
869.278	4816
869.408	4721
869.539	4691
869.669	4755
869.799	4755
869.929	4809
870.06	4816
870.19	4999
870.32	5033
870.45	4972
870.58	5006
870.71	5083
870.84	5132
870.97	4999
871.1	4953
871.23	5155
871.36	5204
871.489	5086
871.619	5140
871.749	5162
871.879	5143
872.008	5235
872.138	5159
872.267	5018
872.397	4885
872.526	4828
872.656	4774
872.785	4793
872.915	4980
873.044	5124
873.173	5060
873.303	4987
873.432	4991
873.561	4991
873.69	4961
873.819	4923
873.948	4915
874.077	4885
874.206	4805
874.335	4847
874.464	4965
874.593	5136
874.722	5014
874.851	5151
874.979	5102
875.108	5086
875.237	4934
875.365	4911
875.494	4938
875.623	5018
875.751	4881
875.88	4911
876.008	4991
876.136	5090
876.265	5189
876.393	5387
876.521	5357
876.65	5307
876.778	5193
876.906	5140
877.034	5056
877.162	5048
877.29	5048
877.418	5105
877.546	5124
877.674	5124
877.802	5056
877.93	5098
878.058	5010
878.185	4847
878.313	5003
878.441	4987
878.568	4870
878.696	4877
878.824	5003
878.951	5037
879.079	5159
879.206	5337
879.333	5178
879.461	5060
879.588	5071
879.715	5143
879.842	5292
879.97	5052
880.097	4797
880.224	4759
880.351	4850
880.478	4873
880.605	4835
880.732	4911
880.859	5079
880.986	4915
881.112	4965
881.239	4812
881.366	4733
881.493	4656
881.619	4649
881.746	4672
881.872	4679
881.999	4714
882.125	4729
882.252	4790
882.378	4858
882.505	4991
882.631	4843
882.757	4736
882.883	4828
883.01	4782
883.136	4683
883.262	4679
883.388	4729
883.514	4862
883.64	4873
883.766	4839
883.892	4736
884.018	4740
884.143	4938
884.269	5037
884.395	4763
884.52	4706
884.646	4710
884.772	4622
884.897	4596
885.023	4717
885.148	4809
885.274	4938
885.399	4870
885.524	4797
885.65	4774
885.775	4801
885.9	4801
886.025	4915
886.15	4828
886.275	4710
886.4	4702
886.525	4714
886.65	4763
886.775	4740
886.9	5003
887.025	5105
887.149	4885
887.274	4675
887.399	4607
887.523	4584
887.648	4599
887.773	4641
887.897	4793
888.021	4820
888.146	4748
888.27	4801
888.395	4927
888.519	4847
888.643	4843
888.767	4873
888.891	4755
889.015	4675
889.139	4721
889.263	4660
889.387	4790
889.511	4965
889.635	4831
889.759	4668
889.883	4698
890.006	4771
890.13	4858
890.254	4679
890.377	4752
890.501	4607
890.624	4580
890.748	4664
890.871	4603
890.995	4462
891.118	4466
891.241	4546
891.364	4565
891.488	4675
891.611	4538
891.734	4603
891.857	4656
891.98	4641
892.103	4706
892.226	4675
892.349	4538
892.471	4432
892.594	4592
892.717	4618
892.839	4596
892.962	4668
893.085	4725
893.207	4649
893.33	4489
893.452	4535
893.575	4691
893.697	4626
893.819	4809
893.941	4870
894.064	4839
894.186	4634
894.308	4634
894.43	4782
894.552	4828
894.674	4767
894.796	4565
894.918	4653
895.04	4653
895.161	4763
895.283	4721
895.405	4630
895.526	4668
895.648	4736
895.769	4645
895.891	4771
896.012	4782
896.134	4767
896.255	4683
896.376	4687
896.498	4622
896.619	4740
896.74	4645
896.861	4698
896.982	4987
897.103	5098
897.224	4835
897.345	4816
897.466	4664
897.587	4740
897.708	4927
897.828	4790
897.949	4698
898.07	4649
898.19	4656
898.311	4900
898.431	4660
898.552	4778
898.672	4873
898.792	4854
898.913	4824
899.033	4675
899.153	4542
899.273	4462
899.393	4573
899.513	4641
899.633	4546
899.753	4565
899.873	4573
899.993	4618
900.113	4546
900.232	4584
900.352	4554
900.472	4516
900.591	4462
900.711	4535
900.83	4493
900.95	4645
901.069	4736
901.189	4592
901.308	4405
901.427	4409
901.546	4402
901.665	4504
901.784	4550
901.904	4375
902.023	4375
902.141	4238
902.26	4131
902.379	4337
902.498	4287
902.617	4287
902.735	4424
902.854	4386
902.973	4402
903.091	4249
903.21	4242
903.328	4341
903.446	4280
903.565	4284
903.683	4383
903.801	4306
903.919	4440
904.038	4489
904.156	4363
904.274	4470
904.392	4413
904.51	4485
904.627	4516
904.745	4668
904.863	4668
904.981	4440
905.098	4322
905.216	4386
905.334	4481
905.451	4451
905.569	4432
905.686	4577
905.803	4573
905.921	4455
906.038	4558
906.155	4527
906.272	4474
906.389	4497
906.506	4367
906.623	4443
906.74	4409
906.857	4344
906.974	4379
907.091	4656
907.208	4717
907.324	4611
907.441	4577
907.557	4383
907.674	4379
907.79	4405
907.907	4440
908.023	4527
908.139	4497
908.256	4424
908.372	4527
908.488	4459
908.604	4489
908.72	4352
908.836	4428
908.952	4421
909.068	4474
909.184	4596
909.3	4481
909.415	4611
909.531	4538
909.647	4432
909.762	4390
909.878	4428
909.993	4447
910.108	4398
910.224	4462
910.339	4512
910.454	4424
910.57	4436
910.685	4280
910.8	4698
910.915	4645
911.03	4508
911.145	4337
911.259	4375
911.374	4417
911.489	4318
911.604	4295
911.718	4249
911.833	4249
911.947	4135
912.062	4097
912.176	4242
912.291	4253
912.405	4299
912.519	4500
912.633	4478
912.748	4383
912.862	4379
912.976	4215
913.09	4128
913.204	4185
913.318	4246
913.431	4390
913.545	4421
913.659	4500
913.772	4367
913.886	4261
914	4265
914.113	4428
914.226	4451
914.34	4440
914.453	4287
914.566	4455
914.68	4299
914.793	4360
914.906	4181
915.019	4162
915.132	4093
915.245	4192
915.358	4272
915.47	4234
915.583	4337
915.696	4318
915.809	4455
915.921	4478
916.034	4238
916.146	4318
916.259	4253
916.371	4417
916.483	4405
916.595	4341
916.708	4352
916.82	4341
916.932	4333
917.044	4333
917.156	4333
917.268	4303
917.38	4352
917.491	4318
917.603	4383
917.715	4417
917.826	4447
917.938	4371
918.049	4306
918.161	4451
918.272	4538
918.384	4538
918.495	4451
918.606	4299
918.717	4318
918.828	4371
918.939	4413
919.05	4322
919.161	4325
919.272	4158
919.383	4257
919.494	4436
919.604	4656
919.715	4504
919.826	4363
919.936	4409
920.047	4558
920.157	4493
920.267	4748
920.378	4546
920.488	4546
920.598	4748
920.708	4938
920.818	4763
920.928	4790
921.038	4999
921.148	4930
921.258	4664
921.368	4588
921.477	4527
921.587	4466
921.697	4363
921.806	4584
921.916	4474
922.025	4242
922.134	4318
922.244	4265
922.353	4356
922.462	4200
922.571	4116
922.68	3994
922.789	4051
922.898	4055
923.007	4048
923.116	4128
923.224	4071
923.333	4143
923.442	3979
923.55	3972
923.659	4036
923.767	4124
923.876	4032
923.984	4219
924.092	3960
924.201	4162
924.309	4128
924.417	4230
924.525	4078
924.633	4131
924.741	4927
924.849	3949
924.956	4124
925.064	3987
925.172	3949
925.279	3964
925.387	4093
925.494	4090
925.602	4215
925.709	4219
925.816	4131
925.924	4162
926.031	4215
926.138	4200
926.245	4246
926.352	4086
926.459	4257
926.566	4284
926.673	4166
926.779	4086
926.886	4093
926.993	4055
927.099	4010
927.206	3949
927.312	3964
927.419	4071
927.525	4097
927.631	4124
927.737	4006
927.843	3983
927.95	3873
928.056	4029
928.162	4074
928.267	4074
928.373	4706
928.479	4185
928.585	3922
928.69	4093
928.796	4139
928.901	3994
929.007	3876
929.112	4131
929.218	4048
929.323	3994
929.428	4029
929.533	4154
929.638	3968
929.743	4032
929.848	4097
929.953	4048
930.058	3937
930.163	3857
930.267	3896
930.372	4036
930.477	3869
930.581	4154
930.685	4055
930.79	3869
930.894	3945
930.998	3922
931.103	4112
931.207	3717
931.311	3732
931.415	3766
931.519	3549
931.623	3606
