Data from test_V78500241_1916.txt Node
Date: Fri Mar 25 17:02:19 CST 2022
User: usil
Spectrometer: V785-0024
Trigger mode: 0
Integration Time (sec): 4.000000E-1
Scans to average: 1
Nonlinearity correction enabled: false
Boxcar width: 0
Storing dark spectrum: false
XAxis mode: Wavelengths
Number of Pixels in Spectrum: 1024
>>>>>Begin Spectral Data<<<<<
801.071	8016
801.214	7967
801.356	7890
801.499	7822
801.641	7772
801.783	7780
801.926	8008
802.068	7856
802.211	7967
802.353	8008
802.496	7864
802.638	7833
802.78	7909
802.923	7925
803.065	7894
803.208	7864
803.35	7993
803.492	8027
803.635	8202
803.777	8024
803.919	8187
804.061	8465
804.204	8157
804.346	7993
804.488	7997
804.63	8024
804.773	8077
804.915	8103
805.057	8282
805.199	8149
805.341	8244
805.483	8267
805.626	8244
805.768	8126
805.91	8191
806.052	8309
806.194	8107
806.336	8286
806.478	8115
806.62	8058
806.762	8115
806.904	8351
807.046	8568
807.188	8427
807.33	8317
807.472	8328
807.614	8263
807.756	8134
807.898	7974
808.04	7906
808.182	7887
808.324	7974
808.465	7906
808.607	8084
808.749	8157
808.891	8218
809.033	8298
809.174	8153
809.316	8149
809.458	8005
809.6	8054
809.741	8035
809.883	8062
810.025	8092
810.166	8058
810.308	8065
810.45	8024
810.591	7856
810.733	7792
810.875	7666
811.016	7464
811.158	7483
811.299	7616
811.441	7681
811.582	7647
811.724	7628
811.865	7537
812.007	7582
812.148	7563
812.29	7624
812.431	7776
812.573	7913
812.714	8062
812.855	8115
812.997	8298
813.138	8290
813.279	8145
813.421	8100
813.562	7951
813.703	7746
813.845	7765
813.986	7422
814.127	7251
814.268	7255
814.41	7187
814.551	7206
814.692	7240
814.833	7091
814.974	7103
815.115	7110
815.256	7004
815.397	6943
815.539	6954
815.68	6764
815.821	6829
815.962	6871
816.103	6760
816.244	6745
816.385	6635
816.526	6570
816.666	6506
816.807	6380
816.948	6456
817.089	6471
817.23	6471
817.371	6342
817.512	6403
817.653	6395
817.793	6369
817.934	6380
818.075	6494
818.216	6441
818.356	6357
818.497	6243
818.638	6144
818.778	6175
818.919	6129
819.06	6178
819.2	6361
819.341	6346
819.481	6380
819.622	6601
819.762	6738
819.903	6730
820.043	6620
820.184	6532
820.324	6570
820.465	6741
820.605	6696
820.746	6688
820.886	6559
821.026	6639
821.167	6726
821.307	6818
821.447	6753
821.588	6715
821.728	6578
821.868	6509
822.008	6323
822.149	6346
822.289	6407
822.429	6190
822.569	6102
822.709	6178
822.849	5912
822.99	5912
823.13	5946
823.27	5878
823.41	5824
823.55	5779
823.69	5767
823.83	5794
823.97	5676
824.11	5592
824.25	5509
824.389	5570
824.529	5566
824.669	5520
824.809	5623
824.949	5661
825.089	5634
825.228	5573
825.368	5414
825.508	5349
825.648	5376
825.787	5368
825.927	5330
826.067	5292
826.206	5242
826.346	5357
826.485	5425
826.625	5425
826.765	5520
826.904	5455
827.044	5231
827.183	5201
827.323	5132
827.462	5330
827.601	5193
827.741	5193
827.88	5220
828.02	5056
828.159	5277
828.298	5311
828.437	5406
828.577	5311
828.716	5467
828.855	5345
828.994	5212
829.134	5143
829.273	5162
829.412	5220
829.551	5117
829.69	5185
829.829	5258
829.968	5368
830.107	5296
830.246	5227
830.385	5159
830.524	5174
830.663	5060
830.802	4949
830.941	4892
831.08	4908
831.219	5010
831.357	5006
831.496	5174
831.635	4961
831.774	4892
831.913	4866
832.051	4744
832.19	4714
832.329	4870
832.467	4740
832.606	4626
832.744	4736
832.883	4694
833.022	4740
833.16	4820
833.299	4782
833.437	4835
833.576	4801
833.714	4889
833.852	4881
833.991	4911
834.129	4953
834.267	4942
834.406	4953
834.544	5022
834.682	4995
834.821	4934
834.959	5121
835.097	5018
835.235	5155
835.373	5052
835.511	5083
835.65	5094
835.788	5025
835.926	4915
836.064	4839
836.202	4911
836.34	5117
836.478	5178
836.615	5086
836.753	5216
836.891	5258
837.029	5235
837.167	5185
837.305	5212
837.443	5181
837.58	5124
837.718	5284
837.856	5193
837.993	5204
838.131	5204
838.269	5155
838.406	5189
838.544	5223
838.681	5025
838.819	4995
838.956	4904
839.094	4911
839.231	4949
839.369	5052
839.506	5436
839.643	5277
839.781	5079
839.918	5014
840.055	5109
840.193	5132
840.33	5090
840.467	5166
840.604	5185
840.742	5406
840.879	5075
841.016	5132
841.153	5201
841.29	5376
841.427	5303
841.564	5311
841.701	5364
841.838	5227
841.975	5227
842.112	5280
842.249	5117
842.385	5117
842.522	5311
842.659	5166
842.796	5140
842.933	5223
843.069	5185
843.206	5159
843.343	5345
843.479	5242
843.616	5280
843.752	5006
843.889	5071
844.025	5235
844.162	5052
844.298	5178
844.435	5048
844.571	5048
844.708	5181
844.844	5341
844.98	5372
845.117	5303
845.253	5189
845.389	5094
845.525	5181
845.661	5117
845.798	5029
845.934	5128
846.07	5056
846.206	5193
846.342	5223
846.478	5132
846.614	5041
846.75	4930
846.886	4911
847.022	5132
847.158	4999
847.294	5079
847.429	5075
847.565	5048
847.701	5341
847.837	4835
847.972	4748
848.108	4919
848.244	4984
848.379	4774
848.515	4763
848.65	4736
848.786	4721
848.921	4755
849.057	4877
849.192	4896
849.328	4782
849.463	4839
849.598	4733
849.734	4744
849.869	4675
850.004	4687
850.14	4675
850.275	4626
850.41	4550
850.545	4596
850.68	4592
850.815	4611
850.95	4599
851.085	4904
851.22	4736
851.355	4641
851.49	4603
851.625	4573
851.76	4672
851.895	4584
852.03	4485
852.165	4618
852.299	4721
852.434	4828
852.569	4736
852.703	4786
852.838	4850
852.973	4923
853.107	4927
853.242	4752
853.376	4637
853.511	4531
853.645	4588
853.78	4805
853.914	4702
854.048	4672
854.183	4675
854.317	4710
854.451	4854
854.585	4637
854.72	4649
854.854	4733
854.988	4580
855.122	4615
855.256	4500
855.39	4679
855.524	4763
855.658	4736
855.792	4679
855.926	4755
856.06	4763
856.194	4805
856.327	4698
856.461	4580
856.595	4630
856.729	4607
856.862	4729
856.996	4763
857.13	4733
857.263	4793
857.397	4816
857.53	4683
857.664	4679
857.797	4759
857.931	4763
858.064	4702
858.197	4759
858.331	4653
858.464	4588
858.597	4573
858.731	4630
858.864	4630
858.997	4615
859.13	4656
859.263	4683
859.396	4687
859.529	4554
859.662	4588
859.795	4508
859.928	4653
860.061	4774
860.194	4793
860.327	4637
860.46	4554
860.592	4729
860.725	4706
860.858	4744
860.99	4538
861.123	4516
861.256	4538
861.388	4656
861.521	5318
861.653	4527
861.786	4440
861.918	4489
862.05	4485
862.183	4546
862.315	4546
862.447	4641
862.58	4573
862.712	4360
862.844	4291
862.976	4428
863.108	4447
863.24	4797
863.372	4329
863.504	4417
863.636	4432
863.768	4455
863.9	4424
864.032	4367
864.164	4337
864.296	4493
864.428	4523
864.559	4542
864.691	4558
864.823	4523
864.954	4489
865.086	4523
865.217	4470
865.349	4462
865.48	4436
865.612	4504
865.743	4630
865.875	4481
866.006	4462
866.137	4462
866.269	4443
866.4	4409
866.531	4398
866.662	4352
866.793	4394
866.924	4440
867.055	4523
867.186	4497
867.317	4398
867.448	4417
867.579	4360
867.71	4409
867.841	4352
867.972	4466
868.103	4462
868.233	4417
868.364	4459
868.495	4474
868.625	4725
868.756	4763
868.886	4554
869.017	4596
869.147	4755
869.278	4778
869.408	4668
869.539	4656
869.669	4740
869.799	4683
869.929	4763
870.06	4752
870.19	4953
870.32	4908
870.45	4938
870.58	5014
870.71	5086
870.84	5124
870.97	4923
871.1	4908
871.23	5140
871.36	5113
871.489	5018
871.619	5083
871.749	5102
871.879	5109
872.008	5170
872.138	5064
872.267	4953
872.397	4873
872.526	4858
872.656	4664
872.785	4839
872.915	4965
873.044	5018
873.173	4862
873.303	4968
873.432	4866
873.561	4953
873.69	4847
873.819	4854
873.948	4908
874.077	4793
874.206	4729
874.335	4816
874.464	4927
874.593	5025
874.722	4949
874.851	5056
874.979	5029
875.108	5037
875.237	4881
875.365	4904
875.494	4831
875.623	4972
875.751	4820
875.88	4885
876.008	4938
876.136	5033
876.265	5231
876.393	5364
876.521	5277
876.65	5231
876.778	5162
876.906	5064
877.034	5018
877.162	5037
877.29	4987
877.418	5022
877.546	5010
877.674	5067
877.802	5003
877.93	5022
878.058	4923
878.185	4839
878.313	4904
878.441	4946
878.568	4793
878.696	4873
878.824	4946
878.951	4976
879.079	5174
879.206	5258
879.333	5048
879.461	4957
879.588	5003
879.715	5162
879.842	5223
879.97	5037
880.097	4801
880.224	4714
880.351	4778
880.478	4816
880.605	4786
880.732	4778
880.859	5052
880.986	4866
881.112	4908
881.239	4767
881.366	4683
881.493	4626
881.619	4584
881.746	4637
881.872	4630
881.999	4668
882.125	4615
882.252	4763
882.378	4831
882.505	4987
882.631	4793
882.757	4683
882.883	4752
883.01	4763
883.136	4645
883.262	4592
883.388	4565
883.514	4763
883.64	4885
883.766	4801
883.892	4645
884.018	4702
884.143	4862
884.269	5010
884.395	4672
884.52	4580
884.646	4649
884.772	4573
884.897	4561
885.023	4592
885.148	4733
885.274	4839
885.399	4801
885.524	4740
885.65	4698
885.775	4828
885.9	4694
886.025	4831
886.15	4790
886.275	4763
886.4	4626
886.525	4748
886.65	4725
886.775	4687
886.9	4877
887.025	5056
887.149	4774
887.274	4622
887.399	4618
887.523	4584
887.648	4588
887.773	4599
887.897	4793
888.021	4744
888.146	4637
888.27	4824
888.395	4892
888.519	4778
888.643	4870
888.767	4850
888.891	4626
889.015	4577
889.139	4599
889.263	4584
889.387	4755
889.511	4839
889.635	4786
889.759	4599
889.883	4649
890.006	4710
890.13	4862
890.254	4607
890.377	4672
890.501	4546
890.624	4558
890.748	4653
890.871	4538
890.995	4383
891.118	4390
891.241	4527
891.364	4546
891.488	4618
891.611	4485
891.734	4519
891.857	4603
891.98	4508
892.103	4637
892.226	4573
892.349	4558
892.471	4421
892.594	4558
892.717	4637
892.839	4573
892.962	4584
893.085	4664
893.207	4630
893.33	4447
893.452	4485
893.575	4653
893.697	4615
893.819	4755
893.941	4812
894.064	4744
894.186	4626
894.308	4607
894.43	4729
894.552	4805
894.674	4736
894.796	4573
894.918	4618
895.04	4588
895.161	4656
895.283	4691
895.405	4588
895.526	4641
895.648	4668
895.769	4691
895.891	4717
896.012	4759
896.134	4683
896.255	4675
896.376	4611
896.498	4580
896.619	4675
896.74	4580
896.861	4637
896.982	4892
897.103	5090
897.224	4858
897.345	4755
897.466	4630
897.587	4763
897.708	4847
897.828	4790
897.949	4740
898.07	4596
898.19	4618
898.311	4835
898.431	4702
898.552	4755
898.672	4771
898.792	4797
898.913	4717
899.033	4592
899.153	4497
899.273	4417
899.393	4497
899.513	4508
899.633	4550
899.753	4573
899.873	4470
899.993	4531
900.113	4500
900.232	4592
900.352	4546
900.472	4459
900.591	4379
900.711	4508
900.83	4424
900.95	4611
901.069	4721
901.189	4527
901.308	4360
901.427	4299
901.546	4360
901.665	4470
901.784	4538
901.904	4394
902.023	4310
902.141	4188
902.26	4185
902.379	4287
902.498	4238
902.617	4242
902.735	4390
902.854	4409
902.973	4295
903.091	4177
903.21	4211
903.328	4299
903.446	4268
903.565	4215
903.683	4341
903.801	4318
903.919	4375
904.038	4428
904.156	4314
904.274	4402
904.392	4390
904.51	4443
904.627	4451
904.745	4569
904.863	4645
904.981	4440
905.098	4291
905.216	4383
905.334	4421
905.451	4455
905.569	4417
905.686	4569
905.803	4580
905.921	4386
906.038	4512
906.155	4451
906.272	4390
906.389	4478
906.506	4394
906.623	4421
906.74	4371
906.857	4310
906.974	4360
907.091	4573
907.208	4626
907.324	4584
907.441	4466
907.557	4291
907.674	4371
907.79	4303
907.907	4383
908.023	4459
908.139	4455
908.256	4470
908.372	4436
908.488	4421
908.604	4333
908.72	4284
908.836	4371
908.952	4306
909.068	4424
909.184	4561
909.3	4459
909.415	4588
909.531	4535
909.647	4322
909.762	4398
909.878	4344
909.993	4432
910.108	4405
910.224	4421
910.339	4470
910.454	4424
910.57	4341
910.685	4314
910.8	4653
910.915	4615
911.03	4470
911.145	4337
911.259	4333
911.374	4371
911.489	4272
911.604	4276
911.718	4131
911.833	4185
911.947	4109
912.062	3979
912.176	4185
912.291	4261
912.405	4280
912.519	4478
912.633	4535
912.748	4447
912.862	4295
912.976	4150
913.09	4116
913.204	4204
913.318	4227
913.431	4371
913.545	4333
913.659	4455
913.772	4363
913.886	4265
914	4177
914.113	4402
914.226	4405
914.34	4383
914.453	4219
914.566	4440
914.68	4276
914.793	4341
914.906	4086
915.019	4124
915.132	4082
915.245	4154
915.358	4207
915.47	4238
915.583	4280
915.696	4303
915.809	4436
915.921	4455
916.034	4246
916.146	4246
916.259	4215
916.371	4371
916.483	4363
916.595	4280
916.708	4299
916.82	4303
916.932	4352
917.044	4329
917.156	4303
917.268	4227
917.38	4272
917.491	4265
917.603	4276
917.715	4409
917.826	4428
917.938	4325
918.049	4295
918.161	4379
918.272	4516
918.384	4535
918.495	4470
918.606	4352
918.717	4215
918.828	4257
918.939	4383
919.05	4177
919.161	4287
919.272	4120
919.383	4211
919.494	4432
919.604	4554
919.715	4394
919.826	4341
919.936	4371
920.047	4500
920.157	4527
920.267	4710
920.378	4504
920.488	4489
920.598	4668
920.708	4987
920.818	4714
920.928	4771
921.038	4911
921.148	4889
921.258	4626
921.368	4565
921.477	4485
921.587	4455
921.697	4379
921.806	4535
921.916	4459
922.025	4219
922.134	4268
922.244	4185
922.353	4352
922.462	4169
922.571	4143
922.68	3991
922.789	3941
922.898	4017
923.007	4044
923.116	4090
923.224	4044
923.333	4093
923.442	4021
923.55	3983
923.659	3994
923.767	4101
923.876	4002
923.984	4135
924.092	3987
924.201	4074
924.309	4048
924.417	4154
924.525	4059
924.633	4090
924.741	5064
924.849	3956
924.956	4131
925.064	3998
925.172	3888
925.279	3991
925.387	4021
925.494	4032
925.602	4219
925.709	4147
925.816	4067
925.924	4124
926.031	4188
926.138	4169
926.245	4223
926.352	4074
926.459	4230
926.566	4291
926.673	4154
926.779	4101
926.886	4101
926.993	3972
927.099	3941
927.206	3945
927.312	3918
927.419	4063
927.525	4082
927.631	4078
927.737	3983
927.843	3922
927.95	3850
928.056	3979
928.162	4010
928.267	4029
928.373	4569
928.479	4128
928.585	3869
928.69	4017
928.796	4032
928.901	3972
929.007	3857
929.112	3994
929.218	3975
929.323	3983
929.428	3972
929.533	4116
929.638	3911
929.743	3937
929.848	4078
929.953	3964
930.058	3926
930.163	3812
930.267	3827
930.372	3956
930.477	3846
930.581	4059
930.685	3934
930.79	3823
930.894	3865
930.998	3869
931.103	4059
931.207	3720
931.311	3675
931.415	3682
931.519	3549
931.623	3564
