Data from test_V78500241_2110.txt Node
Date: Fri Mar 25 17:03:40 CST 2022
User: usil
Spectrometer: V785-0024
Trigger mode: 0
Integration Time (sec): 4.000000E-1
Scans to average: 1
Nonlinearity correction enabled: false
Boxcar width: 0
Storing dark spectrum: false
XAxis mode: Wavelengths
Number of Pixels in Spectrum: 1024
>>>>>Begin Spectral Data<<<<<
801.071	8138
801.214	8001
801.356	7849
801.499	7852
801.641	7776
801.783	7868
801.926	7986
802.068	7928
802.211	7974
802.353	8046
802.496	7875
802.638	7852
802.78	7830
802.923	7890
803.065	7849
803.208	7856
803.35	7967
803.492	8103
803.635	8168
803.777	8035
803.919	8157
804.061	8442
804.204	8195
804.346	8039
804.488	7959
804.63	8073
804.773	7982
804.915	8126
805.057	8320
805.199	8126
805.341	8210
805.483	8298
805.626	8153
805.768	8103
805.91	8237
806.052	8180
806.194	8107
806.336	8317
806.478	8077
806.62	8081
806.762	8077
806.904	8259
807.046	8495
807.188	8336
807.33	8324
807.472	8358
807.614	8134
807.756	8229
807.898	7982
808.04	7852
808.182	7807
808.324	7894
808.465	7917
808.607	8103
808.749	8145
808.891	8244
809.033	8286
809.174	8164
809.316	8050
809.458	8062
809.6	8005
809.741	8069
809.883	7997
810.025	8058
810.166	8054
810.308	8100
810.45	7982
810.591	7856
810.733	7769
810.875	7685
811.016	7525
811.158	7445
811.299	7594
811.441	7723
811.582	7734
811.724	7552
811.865	7502
812.007	7651
812.148	7563
812.29	7632
812.431	7666
812.573	7849
812.714	7967
812.855	8065
812.997	8218
813.138	8301
813.279	8138
813.421	8092
813.562	7955
813.703	7795
813.845	7742
813.986	7400
814.127	7278
814.268	7194
814.41	7183
814.551	7160
814.692	7228
814.833	7057
814.974	7133
815.115	7206
815.256	6935
815.397	6913
815.539	6909
815.68	6787
815.821	6757
815.962	6844
816.103	6928
816.244	6745
816.385	6688
816.526	6604
816.666	6502
816.807	6331
816.948	6418
817.089	6464
817.23	6456
817.371	6334
817.512	6334
817.653	6380
817.793	6372
817.934	6422
818.075	6475
818.216	6407
818.356	6395
818.497	6258
818.638	6095
818.778	6182
818.919	6140
819.06	6148
819.2	6327
819.341	6311
819.481	6384
819.622	6479
819.762	6700
819.903	6711
820.043	6612
820.184	6585
820.324	6540
820.465	6692
820.605	6711
820.746	6677
820.886	6528
821.026	6639
821.167	6703
821.307	6768
821.447	6779
821.588	6719
821.728	6593
821.868	6403
822.008	6285
822.149	6384
822.289	6296
822.429	6186
822.569	6095
822.709	6136
822.849	5935
822.99	5920
823.13	5923
823.27	5939
823.41	5813
823.55	5802
823.69	5775
823.83	5832
823.97	5668
824.11	5581
824.25	5501
824.389	5512
824.529	5585
824.669	5493
824.809	5615
824.949	5623
825.089	5608
825.228	5501
825.368	5406
825.508	5357
825.648	5417
825.787	5402
825.927	5307
826.067	5299
826.206	5337
826.346	5368
826.485	5410
826.625	5448
826.765	5611
826.904	5474
827.044	5307
827.183	5239
827.323	5140
827.462	5258
827.601	5208
827.741	5227
827.88	5231
828.02	5098
828.159	5231
828.298	5299
828.437	5357
828.577	5250
828.716	5516
828.855	5387
828.994	5170
829.134	5159
829.273	5193
829.412	5124
829.551	5170
829.69	5155
829.829	5242
829.968	5360
830.107	5254
830.246	5280
830.385	5178
830.524	5071
830.663	5102
830.802	4987
830.941	4885
831.08	4854
831.219	5003
831.357	4946
831.496	5155
831.635	4934
831.774	4866
831.913	4835
832.051	4714
832.19	4759
832.329	4797
832.467	4675
832.606	4630
832.744	4691
832.883	4721
833.022	4694
833.16	4725
833.299	4816
833.437	4831
833.576	4820
833.714	4850
833.852	4904
833.991	4908
834.129	4911
834.267	4927
834.406	4904
834.544	4927
834.682	4942
834.821	4953
834.959	5166
835.097	4968
835.235	5143
835.373	5079
835.511	5105
835.65	4980
835.788	5071
835.926	4873
836.064	4847
836.202	4904
836.34	5147
836.478	5216
836.615	5170
836.753	5284
836.891	5280
837.029	5231
837.167	5193
837.305	5162
837.443	5147
837.58	5048
837.718	5254
837.856	5178
837.993	5143
838.131	5197
838.269	5212
838.406	5208
838.544	5147
838.681	5048
838.819	4980
838.956	4892
839.094	4911
839.231	5006
839.369	5052
839.506	5467
839.643	5227
839.781	5071
839.918	5003
840.055	5086
840.193	5105
840.33	5102
840.467	5136
840.604	5216
840.742	5455
840.879	5071
841.016	5128
841.153	5155
841.29	5353
841.427	5364
841.564	5299
841.701	5406
841.838	5273
841.975	5227
842.112	5307
842.249	5193
842.385	5102
842.522	5368
842.659	5147
842.796	5121
842.933	5223
843.069	5147
843.206	5151
843.343	5254
843.479	5193
843.616	5197
843.752	5022
843.889	4980
844.025	5170
844.162	5018
844.298	5159
844.435	5067
844.571	5094
844.708	5201
844.844	5299
844.98	5322
845.117	5269
845.253	5143
845.389	5086
845.525	5170
845.661	5143
845.798	5018
845.934	5170
846.07	5075
846.206	5159
846.342	5303
846.478	5193
846.614	5003
846.75	4949
846.886	4957
847.022	5197
847.158	5033
847.294	5045
847.429	5098
847.565	5086
847.701	5330
847.837	4843
847.972	4847
848.108	4968
848.244	4953
848.379	4797
848.515	4759
848.65	4717
848.786	4706
848.921	4759
849.057	4843
849.192	4911
849.328	4812
849.463	4820
849.598	4763
849.734	4771
849.869	4702
850.004	4626
850.14	4664
850.275	4573
850.41	4565
850.545	4558
850.68	4607
850.815	4641
850.95	4653
851.085	4850
851.22	4733
851.355	4656
851.49	4565
851.625	4603
851.76	4645
851.895	4584
852.03	4497
852.165	4637
852.299	4729
852.434	4755
852.569	4736
852.703	4778
852.838	4854
852.973	4900
853.107	4881
853.242	4744
853.376	4618
853.511	4538
853.645	4599
853.78	4790
853.914	4694
854.048	4683
854.183	4683
854.317	4694
854.451	4835
854.585	4596
854.72	4615
854.854	4736
854.988	4588
855.122	4622
855.256	4531
855.39	4656
855.524	4752
855.658	4660
855.792	4630
855.926	4733
856.06	4736
856.194	4778
856.327	4710
856.461	4634
856.595	4596
856.729	4588
856.862	4740
856.996	4729
857.13	4694
857.263	4736
857.397	4816
857.53	4649
857.664	4725
857.797	4755
857.931	4831
858.064	4664
858.197	4729
858.331	4710
858.464	4588
858.597	4508
858.731	4630
858.864	4672
858.997	4580
859.13	4687
859.263	4702
859.396	4714
859.529	4603
859.662	4542
859.795	4508
859.928	4603
860.061	4721
860.194	4793
860.327	4580
860.46	4584
860.592	4691
860.725	4706
860.858	4714
860.99	4588
861.123	4531
861.256	4508
861.388	4607
861.521	5421
861.653	4432
861.786	4417
861.918	4440
862.05	4519
862.183	4588
862.315	4618
862.447	4634
862.58	4535
862.712	4421
862.844	4295
862.976	4443
863.108	4455
863.24	4748
863.372	4360
863.504	4443
863.636	4413
863.768	4470
863.9	4421
864.032	4291
864.164	4398
864.296	4481
864.428	4542
864.559	4588
864.691	4527
864.823	4519
864.954	4512
865.086	4504
865.217	4470
865.349	4417
865.48	4409
865.612	4481
865.743	4611
865.875	4470
866.006	4428
866.137	4459
866.269	4432
866.4	4413
866.531	4432
866.662	4421
866.793	4379
866.924	4390
867.055	4455
867.186	4485
867.317	4424
867.448	4428
867.579	4398
867.71	4409
867.841	4379
867.972	4421
868.103	4462
868.233	4421
868.364	4417
868.495	4455
868.625	4611
868.756	4668
868.886	4550
869.017	4596
869.147	4736
869.278	4714
869.408	4626
869.539	4618
869.669	4714
869.799	4672
869.929	4763
870.06	4744
870.19	4934
870.32	4915
870.45	4949
870.58	5018
870.71	5094
870.84	5064
870.97	4976
871.1	4938
871.23	5143
871.36	5121
871.489	5052
871.619	5067
871.749	5052
871.879	5113
872.008	5189
872.138	5029
872.267	4965
872.397	4835
872.526	4797
872.656	4744
872.785	4786
872.915	4949
873.044	5025
873.173	4953
873.303	4942
873.432	4927
873.561	4927
873.69	4843
873.819	4862
873.948	4942
874.077	4763
874.206	4694
874.335	4801
874.464	4908
874.593	5102
874.722	5010
874.851	5094
874.979	5048
875.108	5025
875.237	4904
875.365	4892
875.494	4896
875.623	4968
875.751	4824
875.88	4850
876.008	4984
876.136	5090
876.265	5166
876.393	5349
876.521	5231
876.65	5201
876.778	5212
876.906	5098
877.034	4995
877.162	5018
877.29	4999
877.418	5083
877.546	5037
877.674	5052
877.802	5025
877.93	5033
878.058	4953
878.185	4854
878.313	5029
878.441	4934
878.568	4752
878.696	4862
878.824	4961
878.951	5003
879.079	5098
879.206	5307
879.333	5094
879.461	4911
879.588	5006
879.715	5109
879.842	5197
879.97	4991
880.097	4771
880.224	4717
880.351	4809
880.478	4812
880.605	4835
880.732	4778
880.859	5090
880.986	4858
881.112	4904
881.239	4862
881.366	4653
881.493	4634
881.619	4588
881.746	4641
881.872	4664
881.999	4656
882.125	4725
882.252	4774
882.378	4786
882.505	4965
882.631	4816
882.757	4679
882.883	4740
883.01	4717
883.136	4706
883.262	4596
883.388	4588
883.514	4793
883.64	4892
883.766	4778
883.892	4675
884.018	4733
884.143	4850
884.269	5010
884.395	4679
884.52	4603
884.646	4622
884.772	4592
884.897	4500
885.023	4626
885.148	4740
885.274	4858
885.399	4809
885.524	4736
885.65	4672
885.775	4714
885.9	4714
886.025	4870
886.15	4805
886.275	4729
886.4	4668
886.525	4691
886.65	4634
886.775	4721
886.9	4908
887.025	4987
887.149	4790
887.274	4675
887.399	4584
887.523	4580
887.648	4634
887.773	4561
887.897	4729
888.021	4774
888.146	4668
888.27	4824
888.395	4877
888.519	4816
888.643	4835
888.767	4797
888.891	4668
889.015	4592
889.139	4641
889.263	4592
889.387	4774
889.511	4854
889.635	4786
889.759	4596
889.883	4687
890.006	4687
890.13	4824
890.254	4607
890.377	4733
890.501	4550
890.624	4527
890.748	4679
890.871	4485
890.995	4436
891.118	4360
891.241	4516
891.364	4527
891.488	4584
891.611	4527
891.734	4527
891.857	4599
891.98	4500
892.103	4599
892.226	4580
892.349	4535
892.471	4367
892.594	4535
892.717	4573
892.839	4561
892.962	4580
893.085	4637
893.207	4634
893.33	4428
893.452	4512
893.575	4637
893.697	4565
893.819	4793
893.941	4831
894.064	4748
894.186	4580
894.308	4637
894.43	4725
894.552	4835
894.674	4725
894.796	4577
894.918	4573
895.04	4561
895.161	4714
895.283	4672
895.405	4546
895.526	4603
895.648	4679
895.769	4675
895.891	4710
896.012	4717
896.134	4740
896.255	4622
896.376	4626
896.498	4558
896.619	4679
896.74	4580
896.861	4641
896.982	4915
897.103	5048
897.224	4824
897.345	4725
897.466	4656
897.587	4774
897.708	4862
897.828	4820
897.949	4698
898.07	4550
898.19	4641
898.311	4824
898.431	4698
898.552	4694
898.672	4782
898.792	4809
898.913	4759
899.033	4645
899.153	4531
899.273	4428
899.393	4516
899.513	4497
899.633	4508
899.753	4573
899.873	4527
899.993	4584
900.113	4493
900.232	4603
900.352	4558
900.472	4504
900.591	4402
900.711	4508
900.83	4436
900.95	4584
901.069	4664
901.189	4542
901.308	4398
901.427	4299
901.546	4356
901.665	4455
901.784	4527
901.904	4383
902.023	4352
902.141	4154
902.26	4188
902.379	4257
902.498	4207
902.617	4265
902.735	4386
902.854	4409
902.973	4310
903.091	4234
903.21	4219
903.328	4318
903.446	4280
903.565	4284
903.683	4375
903.801	4265
903.919	4375
904.038	4413
904.156	4272
904.274	4478
904.392	4344
904.51	4413
904.627	4489
904.745	4561
904.863	4656
904.981	4360
905.098	4280
905.216	4329
905.334	4421
905.451	4421
905.569	4451
905.686	4542
905.803	4550
905.921	4428
906.038	4546
906.155	4523
906.272	4443
906.389	4421
906.506	4337
906.623	4367
906.74	4371
906.857	4337
906.974	4386
907.091	4558
907.208	4683
907.324	4603
907.441	4481
907.557	4344
907.674	4360
907.79	4306
907.907	4386
908.023	4474
908.139	4481
908.256	4386
908.372	4504
908.488	4451
908.604	4394
908.72	4352
908.836	4390
908.952	4375
909.068	4440
909.184	4565
909.3	4462
909.415	4546
909.531	4611
909.647	4303
909.762	4409
909.878	4329
909.993	4462
910.108	4421
910.224	4398
910.339	4466
910.454	4413
910.57	4394
910.685	4341
910.8	4626
910.915	4561
911.03	4478
911.145	4322
911.259	4322
911.374	4386
911.489	4287
911.604	4265
911.718	4211
911.833	4192
911.947	4071
912.062	3994
912.176	4188
912.291	4238
912.405	4287
912.519	4455
912.633	4516
912.748	4421
912.862	4276
912.976	4234
913.09	4112
913.204	4181
913.318	4238
913.431	4363
913.545	4367
913.659	4451
913.772	4333
913.886	4223
914	4177
914.113	4394
914.226	4470
914.34	4428
914.453	4246
914.566	4474
914.68	4306
914.793	4322
914.906	4150
915.019	4124
915.132	4082
915.245	4188
915.358	4211
915.47	4211
915.583	4284
915.696	4276
915.809	4409
915.921	4367
916.034	4246
916.146	4253
916.259	4204
916.371	4356
916.483	4333
916.595	4200
916.708	4325
916.82	4333
916.932	4314
917.044	4344
917.156	4314
917.268	4219
917.38	4314
917.491	4284
917.603	4360
917.715	4371
917.826	4409
917.938	4344
918.049	4223
918.161	4344
918.272	4558
918.384	4481
918.495	4443
918.606	4299
918.717	4227
918.828	4322
918.939	4341
919.05	4238
919.161	4276
919.272	4067
919.383	4234
919.494	4390
919.604	4622
919.715	4413
919.826	4367
919.936	4443
920.047	4523
920.157	4489
920.267	4721
920.378	4558
920.488	4493
920.598	4744
920.708	4866
920.818	4763
920.928	4725
921.038	4927
921.148	4965
921.258	4569
921.368	4516
921.477	4455
921.587	4428
921.697	4394
921.806	4542
921.916	4394
922.025	4303
922.134	4253
922.244	4227
922.353	4341
922.462	4143
922.571	4082
922.68	4010
922.789	3991
922.898	4025
923.007	3975
923.116	4101
923.224	4059
923.333	4124
923.442	3994
923.55	3972
923.659	4029
923.767	4071
923.876	4017
923.984	4105
924.092	3956
924.201	4032
924.309	4067
924.417	4109
924.525	4055
924.633	4097
924.741	5041
924.849	3930
924.956	4150
925.064	3979
925.172	3926
925.279	3945
925.387	4025
925.494	4044
925.602	4230
925.709	4207
925.816	4040
925.924	4139
926.031	4200
926.138	4120
926.245	4227
926.352	4124
926.459	4238
926.566	4325
926.673	4166
926.779	4071
926.886	4078
926.993	3953
927.099	3983
927.206	3899
927.312	3964
927.419	4021
927.525	4036
927.631	4109
927.737	3968
927.843	3934
927.95	3827
928.056	3907
928.162	4002
928.267	4063
928.373	4554
928.479	4154
928.585	3880
928.69	4025
928.796	4051
928.901	3953
929.007	3854
929.112	4002
929.218	3975
929.323	3960
929.428	3945
929.533	4109
929.638	3934
929.743	3975
929.848	4044
929.953	3991
930.058	3911
930.163	3789
930.267	3838
930.372	3937
930.477	3770
930.581	4067
930.685	3960
930.79	3797
930.894	3831
930.998	3800
931.103	4040
931.207	3656
931.311	3686
931.415	3656
931.519	3519
931.623	3545
