Data from test_V78500241_243.txt Node
Date: Fri Mar 25 16:50:41 CST 2022
User: usil
Spectrometer: V785-0024
Trigger mode: 0
Integration Time (sec): 4.000000E-1
Scans to average: 1
Nonlinearity correction enabled: false
Boxcar width: 0
Storing dark spectrum: false
XAxis mode: Wavelengths
Number of Pixels in Spectrum: 1024
>>>>>Begin Spectral Data<<<<<
801.071	7978
801.214	7997
801.356	7909
801.499	7818
801.641	7830
801.783	7814
801.926	7951
802.068	8012
802.211	7963
802.353	8012
802.496	7887
802.638	7849
802.78	7906
802.923	7925
803.065	7833
803.208	7769
803.35	7917
803.492	8084
803.635	8100
803.777	8107
803.919	8088
804.061	8408
804.204	8126
804.346	8031
804.488	7921
804.63	8050
804.773	8031
804.915	8138
805.057	8248
805.199	8119
805.341	8221
805.483	8256
805.626	8126
805.768	8077
805.91	8142
806.052	8153
806.194	8054
806.336	8267
806.478	8130
806.62	8046
806.762	8115
806.904	8172
807.046	8434
807.188	8324
807.33	8271
807.472	8271
807.614	8073
807.756	8149
807.898	7936
808.04	7868
808.182	7864
808.324	7890
808.465	7955
808.607	8069
808.749	8157
808.891	8259
809.033	8298
809.174	8187
809.316	8035
809.458	8027
809.6	7944
809.741	8073
809.883	7974
810.025	8084
810.166	8103
810.308	8027
810.45	8016
810.591	7795
810.733	7807
810.875	7643
811.016	7445
811.158	7407
811.299	7578
811.441	7662
811.582	7586
811.724	7578
811.865	7495
812.007	7632
812.148	7594
812.29	7597
812.431	7757
812.573	7883
812.714	7997
812.855	8153
812.997	8263
813.138	8324
813.279	8126
813.421	8073
813.562	7959
813.703	7837
813.845	7807
813.986	7426
814.127	7236
814.268	7209
814.41	7194
814.551	7164
814.692	7164
814.833	7061
814.974	7152
815.115	7080
815.256	6951
815.397	6916
815.539	6970
815.68	6818
815.821	6779
815.962	6848
816.103	6833
816.244	6715
816.385	6684
816.526	6665
816.666	6528
816.807	6331
816.948	6384
817.089	6498
817.23	6437
817.371	6361
817.512	6361
817.653	6403
817.793	6281
817.934	6376
818.075	6509
818.216	6441
818.356	6372
818.497	6182
818.638	6125
818.778	6091
818.919	6159
819.06	6114
819.2	6273
819.341	6304
819.481	6334
819.622	6475
819.762	6764
819.903	6665
820.043	6566
820.184	6608
820.324	6509
820.465	6684
820.605	6597
820.746	6616
820.886	6513
821.026	6646
821.167	6673
821.307	6745
821.447	6791
821.588	6654
821.728	6582
821.868	6467
822.008	6281
822.149	6441
822.289	6410
822.429	6205
822.569	6091
822.709	6079
822.849	5939
822.99	5893
823.13	5878
823.27	5920
823.41	5805
823.55	5771
823.69	5790
823.83	5802
823.97	5642
824.11	5562
824.25	5497
824.389	5543
824.529	5566
824.669	5516
824.809	5642
824.949	5623
825.089	5589
825.228	5539
825.368	5376
825.508	5345
825.648	5383
825.787	5410
825.927	5391
826.067	5280
826.206	5280
826.346	5387
826.485	5376
826.625	5459
826.765	5524
826.904	5436
827.044	5280
827.183	5174
827.323	5166
827.462	5239
827.601	5231
827.741	5197
827.88	5185
828.02	5136
828.159	5254
828.298	5250
828.437	5391
828.577	5311
828.716	5516
828.855	5299
828.994	5170
829.134	5155
829.273	5166
829.412	5162
829.551	5098
829.69	5147
829.829	5250
829.968	5383
830.107	5280
830.246	5273
830.385	5136
830.524	5181
830.663	5075
830.802	4938
830.941	4953
831.08	4908
831.219	4965
831.357	4984
831.496	5181
831.635	4987
831.774	4873
831.913	4889
832.051	4729
832.19	4755
832.329	4835
832.467	4668
832.606	4599
832.744	4714
832.883	4778
833.022	4698
833.16	4809
833.299	4793
833.437	4774
833.576	4816
833.714	4812
833.852	4904
833.991	4911
834.129	4965
834.267	4934
834.406	4854
834.544	4946
834.682	4965
834.821	4991
834.959	5166
835.097	5041
835.235	5124
835.373	5033
835.511	5083
835.65	5079
835.788	5014
835.926	4919
836.064	4877
836.202	4946
836.34	5147
836.478	5227
836.615	5117
836.753	5204
836.891	5231
837.029	5258
837.167	5189
837.305	5178
837.443	5147
837.58	5109
837.718	5254
837.856	5170
837.993	5166
838.131	5258
838.269	5269
838.406	5227
838.544	5212
838.681	5025
838.819	5022
838.956	4927
839.094	4900
839.231	5045
839.369	5079
839.506	5455
839.643	5254
839.781	5083
839.918	5029
840.055	5117
840.193	5090
840.33	5086
840.467	5140
840.604	5189
840.742	5433
840.879	5071
841.016	5037
841.153	5162
841.29	5353
841.427	5315
841.564	5334
841.701	5368
841.838	5292
841.975	5231
842.112	5227
842.249	5094
842.385	5033
842.522	5364
842.659	5109
842.796	5094
842.933	5223
843.069	5117
843.206	5170
843.343	5216
843.479	5242
843.616	5364
843.752	5018
843.889	4987
844.025	5223
844.162	5018
844.298	5181
844.435	5094
844.571	5056
844.708	5170
844.844	5223
844.98	5239
845.117	5231
845.253	5105
845.389	5045
845.525	5128
845.661	5132
845.798	5006
845.934	5121
846.07	5037
846.206	5231
846.342	5261
846.478	5155
846.614	4995
846.75	4999
846.886	4911
847.022	5136
847.158	5025
847.294	5041
847.429	5090
847.565	5071
847.701	5307
847.837	4824
847.972	4778
848.108	4930
848.244	4900
848.379	4740
848.515	4679
848.65	4736
848.786	4729
848.921	4797
849.057	4835
849.192	4892
849.328	4778
849.463	4843
849.598	4801
849.734	4748
849.869	4710
850.004	4596
850.14	4645
850.275	4641
850.41	4519
850.545	4596
850.68	4641
850.815	4615
850.95	4660
851.085	4805
851.22	4706
851.355	4702
851.49	4687
851.625	4653
851.76	4599
851.895	4542
852.03	4580
852.165	4679
852.299	4729
852.434	4771
852.569	4721
852.703	4831
852.838	4862
852.973	4847
853.107	4938
853.242	4771
853.376	4660
853.511	4523
853.645	4656
853.78	4877
853.914	4706
854.048	4668
854.183	4653
854.317	4717
854.451	4908
854.585	4725
854.72	4645
854.854	4733
854.988	4641
855.122	4664
855.256	4561
855.39	4706
855.524	4843
855.658	4755
855.792	4706
855.926	4801
856.06	4831
856.194	4816
856.327	4714
856.461	4626
856.595	4664
856.729	4649
856.862	4805
856.996	4729
857.13	4717
857.263	4809
857.397	4866
857.53	4694
857.664	4748
857.797	4847
857.931	4824
858.064	4748
858.197	4778
858.331	4714
858.464	4664
858.597	4618
858.731	4649
858.864	4698
858.997	4653
859.13	4714
859.263	4687
859.396	4763
859.529	4645
859.662	4618
859.795	4588
859.928	4687
860.061	4831
860.194	4854
860.327	4679
860.46	4611
860.592	4714
860.725	4767
860.858	4778
860.99	4630
861.123	4561
861.256	4535
861.388	4626
861.521	5516
861.653	4592
861.786	4478
861.918	4508
862.05	4569
862.183	4653
862.315	4698
862.447	4679
862.58	4664
862.712	4447
862.844	4375
862.976	4527
863.108	4504
863.24	4953
863.372	4394
863.504	4424
863.636	4440
863.768	4493
863.9	4500
864.032	4405
864.164	4428
864.296	4546
864.428	4580
864.559	4599
864.691	4546
864.823	4573
864.954	4546
865.086	4584
865.217	4466
865.349	4451
865.48	4500
865.612	4538
865.743	4698
865.875	4554
866.006	4504
866.137	4523
866.269	4527
866.4	4481
866.531	4470
866.662	4428
866.793	4455
866.924	4451
867.055	4504
867.186	4470
867.317	4436
867.448	4451
867.579	4459
867.71	4459
867.841	4440
867.972	4508
868.103	4531
868.233	4500
868.364	4459
868.495	4558
868.625	4729
868.756	4889
868.886	4607
869.017	4668
869.147	4778
869.278	4831
869.408	4687
869.539	4702
869.669	4740
869.799	4683
869.929	4809
870.06	4782
870.19	4980
870.32	4991
870.45	4968
870.58	5029
870.71	5136
870.84	5159
870.97	4976
871.1	4930
871.23	5174
871.36	5159
871.489	5041
871.619	5105
871.749	5136
871.879	5124
872.008	5185
872.138	5064
872.267	5029
872.397	4919
872.526	4862
872.656	4786
872.785	4862
872.915	5052
873.044	5094
873.173	5014
873.303	4999
873.432	5033
873.561	4972
873.69	4915
873.819	4919
873.948	4953
874.077	4828
874.206	4790
874.335	4843
874.464	4942
874.593	5079
874.722	5025
874.851	5136
874.979	5113
875.108	5117
875.237	4957
875.365	4961
875.494	4923
875.623	4987
875.751	4904
875.88	4949
876.008	5014
876.136	5140
876.265	5223
876.393	5372
876.521	5315
876.65	5284
876.778	5197
876.906	5155
877.034	5090
877.162	5029
877.29	5029
877.418	5105
877.546	5121
877.674	5079
877.802	5041
877.93	5064
878.058	4942
878.185	4892
878.313	4972
878.441	4946
878.568	4816
878.696	4908
878.824	5006
878.951	5033
879.079	5162
879.206	5242
879.333	5159
879.461	5048
879.588	5025
879.715	5124
879.842	5265
879.97	5033
880.097	4835
880.224	4771
880.351	4873
880.478	4839
880.605	4873
880.732	4850
880.859	5117
880.986	4976
881.112	4908
881.239	4790
881.366	4691
881.493	4641
881.619	4675
881.746	4710
881.872	4675
881.999	4721
882.125	4698
882.252	4870
882.378	4866
882.505	5029
882.631	4828
882.757	4694
882.883	4748
883.01	4778
883.136	4698
883.262	4649
883.388	4668
883.514	4877
883.64	4949
883.766	4847
883.892	4706
884.018	4714
884.143	4908
884.269	5079
884.395	4717
884.52	4733
884.646	4637
884.772	4649
884.897	4554
885.023	4717
885.148	4809
885.274	4896
885.399	4812
885.524	4744
885.65	4733
885.775	4778
885.9	4771
886.025	4862
886.15	4774
886.275	4740
886.4	4691
886.525	4771
886.65	4744
886.775	4721
886.9	4949
887.025	5048
887.149	4889
887.274	4691
887.399	4607
887.523	4672
887.648	4637
887.773	4637
887.897	4809
888.021	4812
888.146	4759
888.27	4824
888.395	4930
888.519	4793
888.643	4889
888.767	4889
888.891	4694
889.015	4675
889.139	4675
889.263	4675
889.387	4816
889.511	4946
889.635	4797
889.759	4664
889.883	4691
890.006	4748
890.13	4870
890.254	4656
890.377	4755
890.501	4626
890.624	4546
890.748	4683
890.871	4558
890.995	4474
891.118	4421
891.241	4584
891.364	4569
891.488	4702
891.611	4527
891.734	4645
891.857	4664
891.98	4622
892.103	4672
892.226	4645
892.349	4550
892.471	4466
892.594	4649
892.717	4656
892.839	4637
892.962	4607
893.085	4740
893.207	4656
893.33	4500
893.452	4588
893.575	4687
893.697	4618
893.819	4774
893.941	4820
894.064	4797
894.186	4558
894.308	4634
894.43	4759
894.552	4862
894.674	4790
894.796	4592
894.918	4653
895.04	4584
895.161	4793
895.283	4660
895.405	4611
895.526	4683
895.648	4755
895.769	4683
895.891	4748
896.012	4801
896.134	4748
896.255	4710
896.376	4634
896.498	4660
896.619	4733
896.74	4611
896.861	4660
896.982	4904
897.103	5105
897.224	4850
897.345	4809
897.466	4736
897.587	4782
897.708	4896
897.828	4850
897.949	4668
898.07	4607
898.19	4694
898.311	4858
898.431	4645
898.552	4721
898.672	4877
898.792	4870
898.913	4740
899.033	4618
899.153	4516
899.273	4508
899.393	4561
899.513	4538
899.633	4538
899.753	4599
899.873	4531
899.993	4637
900.113	4523
900.232	4630
900.352	4527
900.472	4516
900.591	4402
900.711	4478
900.83	4443
900.95	4630
901.069	4694
901.189	4584
901.308	4421
901.427	4356
901.546	4375
901.665	4481
901.784	4527
901.904	4409
902.023	4299
902.141	4215
902.26	4196
902.379	4325
902.498	4280
902.617	4230
902.735	4402
902.854	4413
902.973	4379
903.091	4261
903.21	4257
903.328	4291
903.446	4310
903.565	4272
903.683	4398
903.801	4299
903.919	4390
904.038	4421
904.156	4363
904.274	4455
904.392	4413
904.51	4474
904.627	4478
904.745	4618
904.863	4694
904.981	4424
905.098	4322
905.216	4405
905.334	4481
905.451	4447
905.569	4485
905.686	4542
905.803	4592
905.921	4440
906.038	4531
906.155	4531
906.272	4402
906.389	4504
906.506	4341
906.623	4428
906.74	4455
906.857	4348
906.974	4402
907.091	4535
907.208	4653
907.324	4615
907.441	4508
907.557	4348
907.674	4360
907.79	4367
907.907	4367
908.023	4527
908.139	4466
908.256	4440
908.372	4546
908.488	4497
908.604	4367
908.72	4348
908.836	4405
908.952	4367
909.068	4455
909.184	4607
909.3	4466
909.415	4580
909.531	4565
909.647	4402
909.762	4417
909.878	4402
909.993	4462
910.108	4440
910.224	4398
910.339	4497
910.454	4451
910.57	4402
910.685	4360
910.8	4687
910.915	4637
911.03	4493
911.145	4371
911.259	4344
911.374	4341
911.489	4287
911.604	4314
911.718	4249
911.833	4215
911.947	4097
912.062	4090
912.176	4242
912.291	4265
912.405	4272
912.519	4497
912.633	4538
912.748	4390
912.862	4337
912.976	4242
913.09	4158
913.204	4223
913.318	4287
913.431	4371
913.545	4352
913.659	4428
913.772	4428
913.886	4284
914	4200
914.113	4383
914.226	4474
914.34	4436
914.453	4265
914.566	4440
914.68	4318
914.793	4329
914.906	4211
915.019	4204
915.132	4097
915.245	4219
915.358	4207
915.47	4268
915.583	4329
915.696	4287
915.809	4443
915.921	4459
916.034	4249
916.146	4230
916.259	4227
916.371	4402
916.483	4405
916.595	4310
916.708	4329
916.82	4299
916.932	4375
917.044	4390
917.156	4367
917.268	4215
917.38	4314
917.491	4280
917.603	4386
917.715	4413
917.826	4478
917.938	4356
918.049	4249
918.161	4428
918.272	4531
918.384	4535
918.495	4455
918.606	4322
918.717	4242
918.828	4348
918.939	4352
919.05	4276
919.161	4325
919.272	4128
919.383	4230
919.494	4478
919.604	4634
919.715	4379
919.826	4375
919.936	4432
920.047	4493
920.157	4546
920.267	4733
920.378	4538
920.488	4542
920.598	4710
920.708	4934
920.818	4748
920.928	4790
921.038	5018
921.148	4991
921.258	4611
921.368	4618
921.477	4546
921.587	4516
921.697	4363
921.806	4554
921.916	4459
922.025	4356
922.134	4303
922.244	4265
922.353	4379
922.462	4227
922.571	4181
922.68	4082
922.789	4010
922.898	4063
923.007	4055
923.116	4169
923.224	4177
923.333	4131
923.442	4021
923.55	4032
923.659	4082
923.767	4150
923.876	4074
923.984	4185
924.092	4055
924.201	4109
924.309	4120
924.417	4215
924.525	4101
924.633	4177
924.741	5113
924.849	3975
924.956	4166
925.064	4036
925.172	3960
925.279	4036
925.387	4112
925.494	4143
925.602	4268
925.709	4196
925.816	4078
925.924	4173
926.031	4291
926.138	4257
926.245	4249
926.352	4154
926.459	4314
926.566	4402
926.673	4211
926.779	4147
926.886	4131
926.993	4040
927.099	3994
927.206	4013
927.312	3994
927.419	4143
927.525	4090
927.631	4166
927.737	3983
927.843	4013
927.95	3850
928.056	4021
928.162	4059
928.267	4101
928.373	4653
928.479	4192
928.585	3934
928.69	4048
928.796	4105
928.901	4032
929.007	3888
929.112	4048
929.218	4040
929.323	3983
929.428	4048
929.533	4147
929.638	3979
929.743	3991
929.848	4090
929.953	4002
930.058	3998
930.163	3812
930.267	3880
930.372	4044
930.477	3850
930.581	4135
930.685	4006
930.79	3846
930.894	3941
930.998	3896
931.103	4120
931.207	3770
931.311	3740
931.415	3690
931.519	3599
931.623	3622
