Data from test_V78500241_2694.txt Node
Date: Fri Mar 25 17:07:44 CST 2022
User: usil
Spectrometer: V785-0024
Trigger mode: 0
Integration Time (sec): 4.000000E-1
Scans to average: 1
Nonlinearity correction enabled: false
Boxcar width: 0
Storing dark spectrum: false
XAxis mode: Wavelengths
Number of Pixels in Spectrum: 1024
>>>>>Begin Spectral Data<<<<<
801.071	8058
801.214	8008
801.356	7875
801.499	7845
801.641	7776
801.783	7921
801.926	8001
802.068	7925
802.211	8058
802.353	7974
802.496	7890
802.638	7837
802.78	7879
802.923	7959
803.065	7917
803.208	7841
803.35	7982
803.492	8073
803.635	8187
803.777	8020
803.919	8202
804.061	8438
804.204	8157
804.346	8107
804.488	7963
804.63	8081
804.773	8012
804.915	8149
805.057	8336
805.199	8183
805.341	8206
805.483	8294
805.626	8210
805.768	8157
805.91	8271
806.052	8210
806.194	8100
806.336	8244
806.478	8107
806.62	8073
806.762	8092
806.904	8252
807.046	8446
807.188	8415
807.33	8343
807.472	8389
807.614	8149
807.756	8145
807.898	8054
808.04	7917
808.182	7864
808.324	7909
808.465	7955
808.607	8119
808.749	8142
808.891	8263
809.033	8339
809.174	8233
809.316	8115
809.458	8069
809.6	8077
809.741	8062
809.883	8024
810.025	8195
810.166	8111
810.308	8054
810.45	7993
810.591	7868
810.733	7704
810.875	7647
811.016	7506
811.158	7449
811.299	7670
811.441	7712
811.582	7712
811.724	7624
811.865	7495
812.007	7590
812.148	7613
812.29	7674
812.431	7769
812.573	7902
812.714	7936
812.855	8134
812.997	8214
813.138	8332
813.279	8172
813.421	8092
813.562	8058
813.703	7890
813.845	7715
813.986	7453
814.127	7247
814.268	7225
814.41	7209
814.551	7141
814.692	7217
814.833	7088
814.974	7088
815.115	7160
815.256	6928
815.397	6947
815.539	6875
815.68	6833
815.821	6856
815.962	6882
816.103	6844
816.244	6738
816.385	6646
816.526	6616
816.666	6540
816.807	6376
816.948	6486
817.089	6517
817.23	6445
817.371	6414
817.512	6403
817.653	6372
817.793	6331
817.934	6384
818.075	6521
818.216	6399
818.356	6403
818.497	6281
818.638	6133
818.778	6133
818.919	6098
819.06	6178
819.2	6361
819.341	6342
819.481	6346
819.622	6566
819.762	6749
819.903	6688
820.043	6665
820.184	6627
820.324	6593
820.465	6745
820.605	6688
820.746	6642
820.886	6506
821.026	6715
821.167	6776
821.307	6779
821.447	6745
821.588	6703
821.728	6559
821.868	6525
822.008	6327
822.149	6414
822.289	6350
822.429	6186
822.569	6129
822.709	6102
822.849	5904
822.99	5897
823.13	5912
823.27	5916
823.41	5824
823.55	5756
823.69	5798
823.83	5775
823.97	5680
824.11	5554
824.25	5516
824.389	5558
824.529	5547
824.669	5543
824.809	5562
824.949	5661
825.089	5619
825.228	5570
825.368	5414
825.508	5349
825.648	5368
825.787	5387
825.927	5364
826.067	5326
826.206	5292
826.346	5398
826.485	5387
826.625	5440
826.765	5596
826.904	5509
827.044	5265
827.183	5223
827.323	5159
827.462	5250
827.601	5143
827.741	5189
827.88	5284
828.02	5102
828.159	5223
828.298	5330
828.437	5337
828.577	5299
828.716	5467
828.855	5315
828.994	5128
829.134	5216
829.273	5201
829.412	5140
829.551	5136
829.69	5181
829.829	5231
829.968	5353
830.107	5231
830.246	5322
830.385	5216
830.524	5124
830.663	5037
830.802	4961
830.941	4870
831.08	4934
831.219	4984
831.357	4957
831.496	5105
831.635	4927
831.774	4828
831.913	4831
832.051	4763
832.19	4763
832.329	4839
832.467	4691
832.606	4630
832.744	4736
832.883	4740
833.022	4702
833.16	4812
833.299	4873
833.437	4786
833.576	4824
833.714	4843
833.852	4885
833.991	4919
834.129	4968
834.267	4934
834.406	4938
834.544	5010
834.682	4965
834.821	4972
834.959	5189
835.097	5006
835.235	5178
835.373	5006
835.511	5094
835.65	5060
835.788	5029
835.926	4877
836.064	4839
836.202	4938
836.34	5121
836.478	5189
836.615	5102
836.753	5155
836.891	5368
837.029	5235
837.167	5181
837.305	5204
837.443	5109
837.58	5136
837.718	5322
837.856	5220
837.993	5124
838.131	5220
838.269	5216
838.406	5189
838.544	5151
838.681	5075
838.819	5033
838.956	4900
839.094	4900
839.231	4919
839.369	5064
839.506	5387
839.643	5242
839.781	5094
839.918	4984
840.055	5075
840.193	5121
840.33	5098
840.467	5117
840.604	5193
840.742	5452
840.879	5067
841.016	5102
841.153	5117
841.29	5353
841.427	5364
841.564	5318
841.701	5334
841.838	5227
841.975	5227
842.112	5292
842.249	5132
842.385	5159
842.522	5368
842.659	5136
842.796	5140
842.933	5189
843.069	5197
843.206	5140
843.343	5261
843.479	5208
843.616	5246
843.752	5045
843.889	5048
844.025	5216
844.162	4987
844.298	5220
844.435	5143
844.571	5105
844.708	5227
844.844	5315
844.98	5364
845.117	5288
845.253	5166
845.389	5132
845.525	5109
845.661	5090
845.798	5045
845.934	5128
846.07	5025
846.206	5204
846.342	5261
846.478	5185
846.614	4976
846.75	4953
846.886	4930
847.022	5132
847.158	4999
847.294	5079
847.429	5056
847.565	5064
847.701	5337
847.837	4831
847.972	4835
848.108	4968
848.244	4904
848.379	4752
848.515	4675
848.65	4714
848.786	4717
848.921	4748
849.057	4889
849.192	4904
849.328	4797
849.463	4820
849.598	4782
849.734	4782
849.869	4679
850.004	4535
850.14	4649
850.275	4656
850.41	4535
850.545	4531
850.68	4626
850.815	4626
850.95	4596
851.085	4801
851.22	4729
851.355	4672
851.49	4656
851.625	4641
851.76	4618
851.895	4523
852.03	4504
852.165	4675
852.299	4797
852.434	4771
852.569	4763
852.703	4797
852.838	4854
852.973	4957
853.107	4942
853.242	4809
853.376	4672
853.511	4516
853.645	4630
853.78	4831
853.914	4698
854.048	4660
854.183	4672
854.317	4725
854.451	4824
854.585	4649
854.72	4637
854.854	4744
854.988	4649
855.122	4664
855.256	4508
855.39	4691
855.524	4809
855.658	4679
855.792	4698
855.926	4675
856.06	4706
856.194	4816
856.327	4649
856.461	4630
856.595	4607
856.729	4611
856.862	4755
856.996	4706
857.13	4721
857.263	4793
857.397	4801
857.53	4649
857.664	4702
857.797	4729
857.931	4786
858.064	4698
858.197	4759
858.331	4618
858.464	4588
858.597	4478
858.731	4637
858.864	4622
858.997	4611
859.13	4656
859.263	4611
859.396	4675
859.529	4611
859.662	4561
859.795	4512
859.928	4649
860.061	4740
860.194	4774
860.327	4626
860.46	4588
860.592	4653
860.725	4717
860.858	4706
860.99	4577
861.123	4527
861.256	4512
861.388	4603
861.521	5303
861.653	4485
861.786	4428
861.918	4451
862.05	4527
862.183	4565
862.315	4588
862.447	4668
862.58	4561
862.712	4383
862.844	4360
862.976	4489
863.108	4440
863.24	4782
863.372	4303
863.504	4405
863.636	4386
863.768	4485
863.9	4443
864.032	4417
864.164	4402
864.296	4455
864.428	4565
864.559	4554
864.691	4554
864.823	4538
864.954	4489
865.086	4500
865.217	4561
865.349	4383
865.48	4413
865.612	4428
865.743	4641
865.875	4436
866.006	4436
866.137	4413
866.269	4424
866.4	4413
866.531	4409
866.662	4367
866.793	4371
866.924	4413
867.055	4542
867.186	4485
867.317	4405
867.448	4344
867.579	4436
867.71	4367
867.841	4367
867.972	4462
868.103	4489
868.233	4428
868.364	4459
868.495	4474
868.625	4607
868.756	4733
868.886	4535
869.017	4592
869.147	4748
869.278	4778
869.408	4649
869.539	4637
869.669	4729
869.799	4698
869.929	4782
870.06	4733
870.19	4946
870.32	4927
870.45	4927
870.58	5025
870.71	5136
870.84	5075
870.97	4965
871.1	4870
871.23	5124
871.36	5113
871.489	5048
871.619	5109
871.749	5086
871.879	5124
872.008	5140
872.138	5064
872.267	5022
872.397	4904
872.526	4843
872.656	4721
872.785	4805
872.915	4980
873.044	5067
873.173	4953
873.303	4953
873.432	4957
873.561	4980
873.69	4938
873.819	4866
873.948	4908
874.077	4824
874.206	4748
874.335	4736
874.464	4942
874.593	5090
874.722	4949
874.851	5132
874.979	5010
875.108	5052
875.237	4915
875.365	4835
875.494	4900
875.623	5014
875.751	4843
875.88	4828
876.008	4965
876.136	5067
876.265	5212
876.393	5334
876.521	5292
876.65	5201
876.778	5178
876.906	5041
877.034	5006
877.162	5083
877.29	4991
877.418	5048
877.546	5045
877.674	5086
877.802	4987
877.93	5025
878.058	4961
878.185	4949
878.313	4949
878.441	4938
878.568	4771
878.696	4866
878.824	4942
878.951	4934
879.079	5098
879.206	5303
879.333	5083
879.461	4942
879.588	5033
879.715	5128
879.842	5227
879.97	4991
880.097	4790
880.224	4790
880.351	4854
880.478	4847
880.605	4767
880.732	4812
880.859	5090
880.986	4892
881.112	4930
881.239	4801
881.366	4683
881.493	4592
881.619	4580
881.746	4599
881.872	4672
881.999	4622
882.125	4698
882.252	4793
882.378	4828
882.505	4984
882.631	4786
882.757	4675
882.883	4755
883.01	4767
883.136	4653
883.262	4588
883.388	4615
883.514	4850
883.64	4885
883.766	4805
883.892	4679
884.018	4725
884.143	4877
884.269	4980
884.395	4679
884.52	4622
884.646	4637
884.772	4546
884.897	4584
885.023	4653
885.148	4812
885.274	4900
885.399	4771
885.524	4771
885.65	4698
885.775	4733
885.9	4694
886.025	4885
886.15	4748
886.275	4721
886.4	4668
886.525	4736
886.65	4687
886.775	4698
886.9	4885
887.025	5014
887.149	4835
887.274	4691
887.399	4577
887.523	4584
887.648	4588
887.773	4588
887.897	4763
888.021	4778
888.146	4679
888.27	4843
888.395	4870
888.519	4790
888.643	4828
888.767	4828
888.891	4664
889.015	4622
889.139	4645
889.263	4615
889.387	4763
889.511	4911
889.635	4782
889.759	4675
889.883	4649
890.006	4683
890.13	4820
890.254	4611
890.377	4691
890.501	4538
890.624	4538
890.748	4653
890.871	4523
890.995	4405
891.118	4367
891.241	4474
891.364	4546
891.488	4607
891.611	4497
891.734	4588
891.857	4580
891.98	4588
892.103	4664
892.226	4580
892.349	4542
892.471	4470
892.594	4508
892.717	4618
892.839	4569
892.962	4573
893.085	4622
893.207	4603
893.33	4462
893.452	4535
893.575	4683
893.697	4603
893.819	4759
893.941	4820
894.064	4786
894.186	4603
894.308	4596
894.43	4714
894.552	4862
894.674	4733
894.796	4580
894.918	4577
895.04	4580
895.161	4702
895.283	4660
895.405	4596
895.526	4565
895.648	4660
895.769	4710
895.891	4691
896.012	4714
896.134	4687
896.255	4687
896.376	4615
896.498	4603
896.619	4637
896.74	4649
896.861	4618
896.982	4889
897.103	5064
897.224	4790
897.345	4748
897.466	4641
897.587	4694
897.708	4881
897.828	4778
897.949	4691
898.07	4573
898.19	4637
898.311	4809
898.431	4679
898.552	4740
898.672	4835
898.792	4755
898.913	4752
899.033	4592
899.153	4493
899.273	4405
899.393	4535
899.513	4500
899.633	4554
899.753	4516
899.873	4516
899.993	4569
900.113	4523
900.232	4622
900.352	4504
900.472	4512
900.591	4363
900.711	4500
900.83	4405
900.95	4622
901.069	4698
901.189	4558
901.308	4363
901.427	4337
901.546	4360
901.665	4432
901.784	4558
901.904	4344
902.023	4268
902.141	4173
902.26	4215
902.379	4299
902.498	4268
902.617	4227
902.735	4367
902.854	4409
902.973	4337
903.091	4242
903.21	4238
903.328	4265
903.446	4246
903.565	4261
903.683	4322
903.801	4268
903.919	4386
904.038	4455
904.156	4322
904.274	4417
904.392	4398
904.51	4470
904.627	4481
904.745	4550
904.863	4618
904.981	4436
905.098	4325
905.216	4363
905.334	4413
905.451	4405
905.569	4405
905.686	4519
905.803	4592
905.921	4424
906.038	4538
906.155	4512
906.272	4363
906.389	4500
906.506	4386
906.623	4360
906.74	4402
906.857	4371
906.974	4379
907.091	4535
907.208	4714
907.324	4588
907.441	4535
907.557	4390
907.674	4405
907.79	4322
907.907	4356
908.023	4512
908.139	4493
908.256	4432
908.372	4466
908.488	4428
908.604	4390
908.72	4337
908.836	4398
908.952	4367
909.068	4436
909.184	4561
909.3	4493
909.415	4580
909.531	4558
909.647	4325
909.762	4341
909.878	4333
909.993	4417
910.108	4398
910.224	4451
910.339	4489
910.454	4383
910.57	4333
910.685	4322
910.8	4649
910.915	4561
911.03	4500
911.145	4344
911.259	4318
911.374	4398
911.489	4303
911.604	4268
911.718	4166
911.833	4200
911.947	4086
912.062	4025
912.176	4188
912.291	4246
912.405	4295
912.519	4474
912.633	4497
912.748	4371
912.862	4363
912.976	4154
913.09	4150
913.204	4150
913.318	4253
913.431	4371
913.545	4371
913.659	4402
913.772	4337
913.886	4291
914	4234
914.113	4367
914.226	4421
914.34	4398
914.453	4246
914.566	4390
914.68	4295
914.793	4348
914.906	4143
915.019	4112
915.132	4055
915.245	4181
915.358	4207
915.47	4272
915.583	4280
915.696	4291
915.809	4443
915.921	4417
916.034	4253
916.146	4287
916.259	4230
916.371	4367
916.483	4333
916.595	4227
916.708	4314
916.82	4333
916.932	4303
917.044	4322
917.156	4344
917.268	4207
917.38	4295
917.491	4284
917.603	4352
917.715	4443
917.826	4478
917.938	4325
918.049	4211
918.161	4390
918.272	4542
918.384	4527
918.495	4455
918.606	4227
918.717	4211
918.828	4318
918.939	4375
919.05	4314
919.161	4310
919.272	4105
919.383	4234
919.494	4470
919.604	4630
919.715	4455
919.826	4356
919.936	4394
920.047	4565
920.157	4516
920.267	4702
920.378	4523
920.488	4497
920.598	4736
920.708	4850
920.818	4752
920.928	4793
921.038	4957
921.148	4911
921.258	4645
921.368	4607
921.477	4493
921.587	4455
921.697	4363
921.806	4550
921.916	4432
922.025	4291
922.134	4291
922.244	4242
922.353	4284
922.462	4185
922.571	4143
922.68	4013
922.789	3937
922.898	4048
923.007	3975
923.116	4135
923.224	4074
923.333	4071
923.442	3979
923.55	3998
923.659	4067
923.767	4093
923.876	4002
923.984	4090
924.092	4013
924.201	4051
924.309	4071
924.417	4139
924.525	4063
924.633	4135
924.741	5029
924.849	3934
924.956	4128
925.064	3956
925.172	3880
925.279	3915
925.387	4055
925.494	4006
925.602	4188
925.709	4196
925.816	4040
925.924	4150
926.031	4188
926.138	4185
926.245	4173
926.352	4071
926.459	4268
926.566	4249
926.673	4124
926.779	4093
926.886	4063
926.993	3960
927.099	3975
927.206	3934
927.312	3983
927.419	4021
927.525	4048
927.631	4044
927.737	3975
927.843	3941
927.95	3835
928.056	3934
928.162	4013
928.267	4082
928.373	4588
928.479	4105
928.585	3888
928.69	4021
928.796	4120
928.901	3968
929.007	3861
929.112	4002
929.218	3972
929.323	3918
929.428	3945
929.533	4116
929.638	3930
929.743	3975
929.848	4055
929.953	3991
930.058	3941
930.163	3759
930.267	3861
930.372	3979
930.477	3812
930.581	4101
930.685	3930
930.79	3823
930.894	3915
930.998	3857
931.103	4074
931.207	3675
931.311	3736
931.415	3675
931.519	3530
931.623	3545
