Data from test_V78500241_1886.txt Node
Date: Fri Mar 25 17:02:06 CST 2022
User: usil
Spectrometer: V785-0024
Trigger mode: 0
Integration Time (sec): 4.000000E-1
Scans to average: 1
Nonlinearity correction enabled: false
Boxcar width: 0
Storing dark spectrum: false
XAxis mode: Wavelengths
Number of Pixels in Spectrum: 1024
>>>>>Begin Spectral Data<<<<<
801.071	7989
801.214	7913
801.356	7864
801.499	7792
801.641	7776
801.783	7807
801.926	7959
802.068	7970
802.211	7932
802.353	7967
802.496	7864
802.638	7837
802.78	7936
802.923	7845
803.065	7875
803.208	7799
803.35	7887
803.492	8024
803.635	8149
803.777	8012
803.919	8157
804.061	8492
804.204	8142
804.346	8043
804.488	7986
804.63	8103
804.773	7974
804.915	8096
805.057	8286
805.199	8142
805.341	8180
805.483	8199
805.626	8183
805.768	8176
805.91	8240
806.052	8206
806.194	8161
806.336	8256
806.478	8065
806.62	8058
806.762	8206
806.904	8313
807.046	8434
807.188	8351
807.33	8256
807.472	8309
807.614	8115
807.756	8149
807.898	7974
808.04	7856
808.182	7894
808.324	7868
808.465	7928
808.607	8016
808.749	8096
808.891	8240
809.033	8347
809.174	8164
809.316	8005
809.458	8088
809.6	8005
809.741	8069
809.883	7989
810.025	8145
810.166	8058
810.308	7997
810.45	7982
810.591	7833
810.733	7761
810.875	7655
811.016	7510
811.158	7499
811.299	7559
811.441	7696
811.582	7666
811.724	7552
811.865	7529
812.007	7552
812.148	7586
812.29	7647
812.431	7746
812.573	7879
812.714	7982
812.855	8058
812.997	8218
813.138	8282
813.279	8168
813.421	8103
813.562	7993
813.703	7780
813.845	7712
813.986	7415
814.127	7228
814.268	7171
814.41	7251
814.551	7156
814.692	7190
814.833	7042
814.974	7076
815.115	7099
815.256	6966
815.397	6928
815.539	6970
815.68	6833
815.821	6707
815.962	6878
816.103	6844
816.244	6700
816.385	6612
816.526	6604
816.666	6525
816.807	6243
816.948	6388
817.089	6448
817.23	6460
817.371	6350
817.512	6327
817.653	6380
817.793	6323
817.934	6338
818.075	6479
818.216	6467
818.356	6452
818.497	6292
818.638	6178
818.778	6098
818.919	6110
819.06	6133
819.2	6376
819.341	6311
819.481	6361
819.622	6532
819.762	6650
819.903	6703
820.043	6627
820.184	6528
820.324	6612
820.465	6673
820.605	6623
820.746	6620
820.886	6471
821.026	6681
821.167	6658
821.307	6810
821.447	6825
821.588	6726
821.728	6578
821.868	6559
822.008	6353
822.149	6323
822.289	6350
822.429	6148
822.569	6129
822.709	6140
822.849	5851
822.99	5847
823.13	5885
823.27	5931
823.41	5817
823.55	5756
823.69	5745
823.83	5733
823.97	5707
824.11	5509
824.25	5501
824.389	5532
824.529	5573
824.669	5516
824.809	5592
824.949	5665
825.089	5657
825.228	5532
825.368	5372
825.508	5315
825.648	5357
825.787	5360
825.927	5383
826.067	5277
826.206	5277
826.346	5391
826.485	5379
826.625	5417
826.765	5528
826.904	5459
827.044	5242
827.183	5208
827.323	5113
827.462	5250
827.601	5174
827.741	5220
827.88	5151
828.02	5124
828.159	5288
828.298	5284
828.437	5364
828.577	5284
828.716	5532
828.855	5307
828.994	5147
829.134	5128
829.273	5151
829.412	5166
829.551	5098
829.69	5147
829.829	5220
829.968	5360
830.107	5307
830.246	5261
830.385	5231
830.524	5151
830.663	5033
830.802	4976
830.941	4919
831.08	4828
831.219	5037
831.357	4972
831.496	5140
831.635	4930
831.774	4850
831.913	4854
832.051	4672
832.19	4714
832.329	4816
832.467	4679
832.606	4645
832.744	4721
832.883	4702
833.022	4706
833.16	4763
833.299	4835
833.437	4812
833.576	4870
833.714	4831
833.852	4862
833.991	4900
834.129	4938
834.267	4949
834.406	4858
834.544	4953
834.682	4972
834.821	4953
834.959	5132
835.097	5006
835.235	5143
835.373	5056
835.511	5124
835.65	4984
835.788	5052
835.926	4854
836.064	4892
836.202	4900
836.34	5132
836.478	5220
836.615	5128
836.753	5227
836.891	5265
837.029	5269
837.167	5201
837.305	5181
837.443	5140
837.58	5109
837.718	5292
837.856	5143
837.993	5121
838.131	5227
838.269	5174
838.406	5121
838.544	5189
838.681	5014
838.819	4999
838.956	4862
839.094	4850
839.231	5006
839.369	5056
839.506	5417
839.643	5246
839.781	5064
839.918	4961
840.055	5090
840.193	5067
840.33	5064
840.467	5136
840.604	5197
840.742	5429
840.879	5052
841.016	5071
841.153	5201
841.29	5379
841.427	5299
841.564	5296
841.701	5357
841.838	5273
841.975	5166
842.112	5235
842.249	5155
842.385	5109
842.522	5330
842.659	5159
842.796	5204
842.933	5178
843.069	5132
843.206	5151
843.343	5258
843.479	5261
843.616	5273
843.752	5041
843.889	5025
844.025	5208
844.162	4976
844.298	5189
844.435	5071
844.571	5014
844.708	5201
844.844	5258
844.98	5292
845.117	5242
845.253	5143
845.389	5045
845.525	5143
845.661	5151
845.798	5052
845.934	5109
846.07	5075
846.206	5159
846.342	5246
846.478	5140
846.614	4987
846.75	4927
846.886	4915
847.022	5083
847.158	4980
847.294	5071
847.429	5060
847.565	5086
847.701	5345
847.837	4847
847.972	4843
848.108	4987
848.244	4949
848.379	4748
848.515	4725
848.65	4725
848.786	4717
848.921	4774
849.057	4847
849.192	4881
849.328	4782
849.463	4877
849.598	4774
849.734	4736
849.869	4687
850.004	4630
850.14	4679
850.275	4645
850.41	4542
850.545	4550
850.68	4546
850.815	4584
850.95	4626
851.085	4858
851.22	4694
851.355	4687
851.49	4607
851.625	4580
851.76	4656
851.895	4565
852.03	4542
852.165	4641
852.299	4740
852.434	4828
852.569	4759
852.703	4782
852.838	4809
852.973	4934
853.107	4934
853.242	4687
853.376	4675
853.511	4565
853.645	4634
853.78	4805
853.914	4675
854.048	4679
854.183	4622
854.317	4679
854.451	4839
854.585	4668
854.72	4622
854.854	4774
854.988	4580
855.122	4649
855.256	4523
855.39	4641
855.524	4790
855.658	4714
855.792	4710
855.926	4683
856.06	4717
856.194	4824
856.327	4694
856.461	4592
856.595	4626
856.729	4580
856.862	4763
856.996	4706
857.13	4691
857.263	4729
857.397	4835
857.53	4637
857.664	4759
857.797	4767
857.931	4733
858.064	4710
858.197	4759
858.331	4679
858.464	4637
858.597	4489
858.731	4634
858.864	4634
858.997	4603
859.13	4668
859.263	4618
859.396	4748
859.529	4516
859.662	4584
859.795	4527
859.928	4599
860.061	4721
860.194	4733
860.327	4577
860.46	4569
860.592	4687
860.725	4656
860.858	4717
860.99	4599
861.123	4478
861.256	4527
861.388	4626
861.521	5349
861.653	4497
861.786	4367
861.918	4424
862.05	4508
862.183	4577
862.315	4569
862.447	4675
862.58	4516
862.712	4424
862.844	4352
862.976	4485
863.108	4432
863.24	4839
863.372	4291
863.504	4443
863.636	4440
863.768	4512
863.9	4481
864.032	4383
864.164	4409
864.296	4451
864.428	4550
864.559	4577
864.691	4508
864.823	4519
864.954	4504
865.086	4527
865.217	4470
865.349	4398
865.48	4443
865.612	4474
865.743	4630
865.875	4436
866.006	4424
866.137	4497
866.269	4485
866.4	4424
866.531	4405
866.662	4363
866.793	4421
866.924	4428
867.055	4447
867.186	4447
867.317	4390
867.448	4383
867.579	4379
867.71	4394
867.841	4310
867.972	4421
868.103	4424
868.233	4413
868.364	4455
868.495	4432
868.625	4656
868.756	4755
868.886	4542
869.017	4653
869.147	4839
869.278	4771
869.408	4660
869.539	4637
869.669	4691
869.799	4645
869.929	4714
870.06	4778
870.19	4957
870.32	4900
870.45	4908
870.58	4972
870.71	5067
870.84	5102
870.97	4942
871.1	4862
871.23	5132
871.36	5140
871.489	5029
871.619	5045
871.749	5079
871.879	5132
872.008	5162
872.138	5037
872.267	4949
872.397	4786
872.526	4778
872.656	4702
872.785	4771
872.915	4968
873.044	5022
873.173	4923
873.303	4934
873.432	4908
873.561	4946
873.69	4904
873.819	4828
873.948	4889
874.077	4839
874.206	4748
874.335	4752
874.464	4858
874.593	5014
874.722	4987
874.851	5113
874.979	5033
875.108	5025
875.237	4877
875.365	4866
875.494	4896
875.623	4987
875.751	4850
875.88	4839
876.008	4984
876.136	4991
876.265	5185
876.393	5345
876.521	5280
876.65	5174
876.778	5189
876.906	5060
877.034	5041
877.162	5045
877.29	4965
877.418	5083
877.546	5010
877.674	5025
877.802	5018
877.93	5022
878.058	4866
878.185	4915
878.313	4942
878.441	4991
878.568	4793
878.696	4850
878.824	4942
878.951	4991
879.079	5121
879.206	5322
879.333	5071
879.461	5014
879.588	4961
879.715	5079
879.842	5185
879.97	5006
880.097	4801
880.224	4733
880.351	4767
880.478	4839
880.605	4774
880.732	4759
880.859	5067
880.986	4839
881.112	4942
881.239	4771
881.366	4687
881.493	4569
881.619	4592
881.746	4584
881.872	4660
881.999	4653
882.125	4694
882.252	4759
882.378	4809
882.505	4953
882.631	4767
882.757	4660
882.883	4736
883.01	4691
883.136	4637
883.262	4538
883.388	4592
883.514	4820
883.64	4862
883.766	4763
883.892	4618
884.018	4698
884.143	4854
884.269	5025
884.395	4653
884.52	4603
884.646	4603
884.772	4596
884.897	4542
885.023	4653
885.148	4778
885.274	4843
885.399	4797
885.524	4748
885.65	4717
885.775	4744
885.9	4714
886.025	4881
886.15	4752
886.275	4733
886.4	4649
886.525	4687
886.65	4748
886.775	4672
886.9	4904
887.025	5003
887.149	4805
887.274	4630
887.399	4554
887.523	4622
887.648	4573
887.773	4565
887.897	4797
888.021	4774
888.146	4672
888.27	4831
888.395	4953
888.519	4733
888.643	4835
888.767	4854
888.891	4672
889.015	4626
889.139	4645
889.263	4630
889.387	4717
889.511	4866
889.635	4778
889.759	4626
889.883	4611
890.006	4691
890.13	4778
890.254	4580
890.377	4664
890.501	4592
890.624	4527
890.748	4615
890.871	4546
890.995	4390
891.118	4352
891.241	4508
891.364	4584
891.488	4615
891.611	4512
891.734	4558
891.857	4607
891.98	4615
892.103	4596
892.226	4596
892.349	4573
892.471	4409
892.594	4508
892.717	4596
892.839	4558
892.962	4577
893.085	4660
893.207	4611
893.33	4470
893.452	4485
893.575	4641
893.697	4584
893.819	4786
893.941	4828
894.064	4759
894.186	4634
894.308	4561
894.43	4717
894.552	4828
894.674	4782
894.796	4558
894.918	4607
895.04	4577
895.161	4710
895.283	4664
895.405	4535
895.526	4611
895.648	4683
895.769	4694
895.891	4622
896.012	4706
896.134	4725
896.255	4592
896.376	4603
896.498	4573
896.619	4630
896.74	4584
896.861	4664
896.982	4923
897.103	5014
897.224	4820
897.345	4736
897.466	4660
897.587	4744
897.708	4870
897.828	4771
897.949	4603
898.07	4569
898.19	4634
898.311	4805
898.431	4664
898.552	4706
898.672	4809
898.792	4752
898.913	4721
899.033	4599
899.153	4474
899.273	4436
899.393	4519
899.513	4550
899.633	4535
899.753	4500
899.873	4512
899.993	4569
900.113	4512
900.232	4584
900.352	4493
900.472	4489
900.591	4379
900.711	4451
900.83	4470
900.95	4584
901.069	4717
901.189	4554
901.308	4383
901.427	4287
901.546	4371
901.665	4462
901.784	4470
901.904	4371
902.023	4341
902.141	4169
902.26	4181
902.379	4287
902.498	4284
902.617	4196
902.735	4325
902.854	4405
902.973	4371
903.091	4185
903.21	4227
903.328	4303
903.446	4238
903.565	4230
903.683	4356
903.801	4238
903.919	4367
904.038	4386
904.156	4314
904.274	4428
904.392	4405
904.51	4424
904.627	4428
904.745	4523
904.863	4637
904.981	4318
905.098	4318
905.216	4352
905.334	4405
905.451	4459
905.569	4436
905.686	4546
905.803	4550
905.921	4402
906.038	4546
906.155	4470
906.272	4421
906.389	4508
906.506	4352
906.623	4394
906.74	4398
906.857	4337
906.974	4379
907.091	4554
907.208	4618
907.324	4615
907.441	4523
907.557	4322
907.674	4314
907.79	4318
907.907	4383
908.023	4497
908.139	4451
908.256	4474
908.372	4466
908.488	4440
908.604	4394
908.72	4318
908.836	4394
908.952	4363
909.068	4386
909.184	4596
909.3	4519
909.415	4584
909.531	4546
909.647	4394
909.762	4371
909.878	4318
909.993	4390
910.108	4383
910.224	4383
910.339	4516
910.454	4409
910.57	4360
910.685	4268
910.8	4653
910.915	4588
911.03	4459
911.145	4318
911.259	4337
911.374	4318
911.489	4287
911.604	4318
911.718	4181
911.833	4219
911.947	4093
912.062	4044
912.176	4185
912.291	4234
912.405	4246
912.519	4470
912.633	4478
912.748	4367
912.862	4322
912.976	4192
913.09	4051
913.204	4215
913.318	4257
913.431	4352
913.545	4333
913.659	4440
913.772	4360
913.886	4234
914	4204
914.113	4390
914.226	4413
914.34	4375
914.453	4272
914.566	4417
914.68	4265
914.793	4337
914.906	4192
915.019	4093
915.132	4097
915.245	4173
915.358	4211
915.47	4177
915.583	4295
915.696	4306
915.809	4413
915.921	4428
916.034	4295
916.146	4272
916.259	4169
916.371	4383
916.483	4356
916.595	4249
916.708	4344
916.82	4272
916.932	4329
917.044	4337
917.156	4337
917.268	4192
917.38	4268
917.491	4242
917.603	4333
917.715	4413
917.826	4413
917.938	4333
918.049	4196
918.161	4409
918.272	4573
918.384	4554
918.495	4440
918.606	4276
918.717	4272
918.828	4348
918.939	4352
919.05	4272
919.161	4329
919.272	4105
919.383	4234
919.494	4432
919.604	4580
919.715	4394
919.826	4356
919.936	4417
920.047	4538
920.157	4497
920.267	4733
920.378	4508
920.488	4504
920.598	4733
920.708	4892
920.818	4759
920.928	4740
921.038	4915
921.148	4919
921.258	4618
921.368	4500
921.477	4497
921.587	4474
921.697	4379
921.806	4577
921.916	4421
922.025	4287
922.134	4223
922.244	4185
922.353	4303
922.462	4181
922.571	4131
922.68	3987
922.789	3964
922.898	4032
923.007	3983
923.116	4135
923.224	4086
923.333	4105
923.442	4002
923.55	3968
923.659	3987
923.767	4124
923.876	3964
923.984	4093
924.092	4017
924.201	4078
924.309	4090
924.417	4124
924.525	4029
924.633	4097
924.741	5018
924.849	3873
924.956	4135
925.064	3968
925.172	3880
925.279	3968
925.387	4013
925.494	4074
925.602	4154
925.709	4200
925.816	4021
925.924	4090
926.031	4246
926.138	4135
926.245	4154
926.352	4067
926.459	4242
926.566	4299
926.673	4158
926.779	4086
926.886	4120
926.993	4002
927.099	3964
927.206	3934
927.312	3926
927.419	4055
927.525	4032
927.631	4097
927.737	3949
927.843	3876
927.95	3835
928.056	4006
928.162	4025
928.267	4059
928.373	4542
928.479	4124
928.585	3865
928.69	4025
928.796	4055
928.901	3979
929.007	3823
929.112	4017
929.218	3960
929.323	3918
929.428	3930
929.533	4131
929.638	3934
929.743	3968
929.848	4067
929.953	3956
930.058	3903
930.163	3755
930.267	3835
930.372	3975
930.477	3789
930.581	4071
930.685	3911
930.79	3838
930.894	3884
930.998	3842
931.103	4051
931.207	3705
931.311	3660
931.415	3656
931.519	3488
931.623	3545
