Data from test_V78500241_2337.txt Node
Date: Fri Mar 25 17:05:15 CST 2022
User: usil
Spectrometer: V785-0024
Trigger mode: 0
Integration Time (sec): 4.000000E-1
Scans to average: 1
Nonlinearity correction enabled: false
Boxcar width: 0
Storing dark spectrum: false
XAxis mode: Wavelengths
Number of Pixels in Spectrum: 1024
>>>>>Begin Spectral Data<<<<<
801.071	8012
801.214	7993
801.356	7826
801.499	7841
801.641	7856
801.783	7902
801.926	7932
802.068	7989
802.211	7936
802.353	8126
802.496	7860
802.638	7845
802.78	7868
802.923	7906
803.065	7864
803.208	7856
803.35	7974
803.492	8134
803.635	8138
803.777	8020
803.919	8214
804.061	8473
804.204	8157
804.346	8046
804.488	8016
804.63	8092
804.773	8005
804.915	8103
805.057	8294
805.199	8206
805.341	8202
805.483	8256
805.626	8164
805.768	8149
805.91	8259
806.052	8157
806.194	8138
806.336	8324
806.478	8123
806.62	8115
806.762	8115
806.904	8271
807.046	8469
807.188	8358
807.33	8305
807.472	8358
807.614	8229
807.756	8206
807.898	7959
808.04	7814
808.182	7887
808.324	7909
808.465	7921
808.607	8065
808.749	8164
808.891	8206
809.033	8286
809.174	8206
809.316	8164
809.458	8115
809.6	7970
809.741	8031
809.883	8062
810.025	8084
810.166	8065
810.308	8012
810.45	8012
810.591	7925
810.733	7784
810.875	7655
811.016	7441
811.158	7422
811.299	7586
811.441	7655
811.582	7704
811.724	7632
811.865	7571
812.007	7670
812.148	7636
812.29	7639
812.431	7753
812.573	7860
812.714	7959
812.855	8115
812.997	8130
813.138	8256
813.279	8180
813.421	8065
813.562	7955
813.703	7784
813.845	7746
813.986	7422
814.127	7198
814.268	7217
814.41	7149
814.551	7194
814.692	7228
814.833	7110
814.974	7110
815.115	7129
815.256	6993
815.397	6989
815.539	6943
815.68	6798
815.821	6757
815.962	6863
816.103	6867
816.244	6650
816.385	6639
816.526	6646
816.666	6540
816.807	6311
816.948	6445
817.089	6540
817.23	6471
817.371	6376
817.512	6361
817.653	6369
817.793	6342
817.934	6410
818.075	6464
818.216	6410
818.356	6384
818.497	6277
818.638	6117
818.778	6159
818.919	6117
819.06	6209
819.2	6346
819.341	6319
819.481	6323
819.622	6601
819.762	6669
819.903	6688
820.043	6616
820.184	6623
820.324	6589
820.465	6707
820.605	6741
820.746	6585
820.886	6540
821.026	6642
821.167	6741
821.307	6837
821.447	6772
821.588	6654
821.728	6521
821.868	6456
822.008	6342
822.149	6350
822.289	6388
822.429	6216
822.569	6102
822.709	6114
822.849	5973
822.99	5954
823.13	5950
823.27	5912
823.41	5794
823.55	5847
823.69	5794
823.83	5756
823.97	5638
824.11	5558
824.25	5490
824.389	5558
824.529	5570
824.669	5539
824.809	5627
824.949	5710
825.089	5604
825.228	5554
825.368	5395
825.508	5406
825.648	5349
825.787	5410
825.927	5368
826.067	5341
826.206	5322
826.346	5395
826.485	5391
826.625	5353
826.765	5554
826.904	5444
827.044	5231
827.183	5242
827.323	5159
827.462	5254
827.601	5166
827.741	5197
827.88	5220
828.02	5098
828.159	5254
828.298	5296
828.437	5372
828.577	5334
828.716	5474
828.855	5273
828.994	5216
829.134	5132
829.273	5189
829.412	5159
829.551	5136
829.69	5227
829.829	5250
829.968	5364
830.107	5280
830.246	5299
830.385	5216
830.524	5113
830.663	5113
830.802	4987
830.941	4835
831.08	4900
831.219	4965
831.357	4968
831.496	5159
831.635	4927
831.774	4862
831.913	4858
832.051	4733
832.19	4790
832.329	4843
832.467	4744
832.606	4645
832.744	4729
832.883	4714
833.022	4736
833.16	4767
833.299	4896
833.437	4812
833.576	4847
833.714	4923
833.852	4904
833.991	4915
834.129	4946
834.267	4923
834.406	4896
834.544	5029
834.682	4968
834.821	4949
834.959	5136
835.097	4976
835.235	5155
835.373	5132
835.511	5132
835.65	5041
835.788	5079
835.926	4858
836.064	4870
836.202	4919
836.34	5159
836.478	5201
836.615	5113
836.753	5250
836.891	5277
837.029	5250
837.167	5189
837.305	5166
837.443	5178
837.58	5083
837.718	5273
837.856	5174
837.993	5181
838.131	5261
838.269	5162
838.406	5178
838.544	5159
838.681	5071
838.819	5029
838.956	4934
839.094	4885
839.231	4980
839.369	5090
839.506	5455
839.643	5292
839.781	5033
839.918	5010
840.055	5128
840.193	5060
840.33	5124
840.467	5128
840.604	5136
840.742	5448
840.879	5098
841.016	5105
841.153	5105
841.29	5345
841.427	5349
841.564	5288
841.701	5311
841.838	5288
841.975	5235
842.112	5250
842.249	5151
842.385	5132
842.522	5277
842.659	5174
842.796	5124
842.933	5174
843.069	5151
843.206	5140
843.343	5318
843.479	5223
843.616	5246
843.752	5029
843.889	5029
844.025	5223
844.162	5029
844.298	5147
844.435	5136
844.571	5025
844.708	5201
844.844	5296
844.98	5296
845.117	5288
845.253	5151
845.389	5060
845.525	5143
845.661	5086
845.798	5067
845.934	5124
846.07	5033
846.206	5223
846.342	5277
846.478	5174
846.614	5056
846.75	4957
846.886	4927
847.022	5067
847.158	5048
847.294	5075
847.429	5071
847.565	5075
847.701	5239
847.837	4896
847.972	4816
848.108	4911
848.244	4942
848.379	4782
848.515	4702
848.65	4691
848.786	4733
848.921	4816
849.057	4881
849.192	4904
849.328	4805
849.463	4820
849.598	4835
849.734	4763
849.869	4717
850.004	4634
850.14	4649
850.275	4615
850.41	4538
850.545	4603
850.68	4573
850.815	4607
850.95	4618
851.085	4805
851.22	4767
851.355	4698
851.49	4618
851.625	4592
851.76	4607
851.895	4550
852.03	4558
852.165	4683
852.299	4767
852.434	4771
852.569	4698
852.703	4729
852.838	4828
852.973	4923
853.107	4911
853.242	4736
853.376	4664
853.511	4542
853.645	4569
853.78	4812
853.914	4683
854.048	4653
854.183	4641
854.317	4740
854.451	4850
854.585	4702
854.72	4649
854.854	4717
854.988	4630
855.122	4630
855.256	4516
855.39	4634
855.524	4786
855.658	4725
855.792	4687
855.926	4767
856.06	4748
856.194	4816
856.327	4679
856.461	4611
856.595	4626
856.729	4626
856.862	4767
856.996	4687
857.13	4721
857.263	4736
857.397	4744
857.53	4683
857.664	4740
857.797	4721
857.931	4778
858.064	4683
858.197	4752
858.331	4675
858.464	4607
858.597	4561
858.731	4615
858.864	4641
858.997	4615
859.13	4634
859.263	4672
859.396	4679
859.529	4592
859.662	4584
859.795	4538
859.928	4622
860.061	4740
860.194	4740
860.327	4630
860.46	4546
860.592	4721
860.725	4752
860.858	4694
860.99	4538
861.123	4481
861.256	4569
861.388	4554
861.521	5337
861.653	4535
861.786	4440
861.918	4508
862.05	4531
862.183	4554
862.315	4611
862.447	4618
862.58	4565
862.712	4379
862.844	4318
862.976	4538
863.108	4432
863.24	4862
863.372	4310
863.504	4432
863.636	4421
863.768	4493
863.9	4409
864.032	4337
864.164	4402
864.296	4451
864.428	4542
864.559	4554
864.691	4531
864.823	4538
864.954	4489
865.086	4527
865.217	4500
865.349	4455
865.48	4459
865.612	4424
865.743	4645
865.875	4402
866.006	4440
866.137	4508
866.269	4478
866.4	4398
866.531	4440
866.662	4390
866.793	4375
866.924	4428
867.055	4519
867.186	4447
867.317	4421
867.448	4386
867.579	4356
867.71	4413
867.841	4363
867.972	4470
868.103	4432
868.233	4504
868.364	4436
868.495	4500
868.625	4683
868.756	4698
868.886	4561
869.017	4649
869.147	4740
869.278	4767
869.408	4679
869.539	4641
869.669	4721
869.799	4637
869.929	4782
870.06	4771
870.19	4942
870.32	4957
870.45	4938
870.58	5052
870.71	5067
870.84	5090
870.97	4915
871.1	4904
871.23	5136
871.36	5086
871.489	5006
871.619	5056
871.749	5090
871.879	5147
872.008	5231
872.138	5056
872.267	4999
872.397	4854
872.526	4793
872.656	4717
872.785	4790
872.915	4987
873.044	5018
873.173	4908
873.303	4957
873.432	4896
873.561	4991
873.69	4870
873.819	4892
873.948	4934
874.077	4824
874.206	4744
874.335	4771
874.464	4881
874.593	5083
874.722	4965
874.851	5067
874.979	5048
875.108	5029
875.237	4927
875.365	4919
875.494	4866
875.623	4976
875.751	4835
875.88	4908
876.008	4976
876.136	4995
876.265	5280
876.393	5296
876.521	5258
876.65	5204
876.778	5105
876.906	5064
877.034	5022
877.162	5022
877.29	5006
877.418	5067
877.546	5018
877.674	5022
877.802	5033
877.93	4995
878.058	4972
878.185	4927
878.313	4934
878.441	5003
878.568	4816
878.696	4877
878.824	4984
878.951	5060
879.079	5147
879.206	5322
879.333	5113
879.461	4923
879.588	4946
879.715	5109
879.842	5201
879.97	4999
880.097	4786
880.224	4752
880.351	4805
880.478	4828
880.605	4793
880.732	4797
880.859	5067
880.986	4881
881.112	4866
881.239	4816
881.366	4675
881.493	4630
881.619	4565
881.746	4607
881.872	4694
881.999	4645
882.125	4706
882.252	4740
882.378	4805
882.505	5014
882.631	4767
882.757	4714
882.883	4759
883.01	4740
883.136	4675
883.262	4569
883.388	4618
883.514	4831
883.64	4797
883.766	4767
883.892	4664
884.018	4733
884.143	4896
884.269	5052
884.395	4649
884.52	4622
884.646	4706
884.772	4546
884.897	4538
885.023	4660
885.148	4824
885.274	4835
885.399	4774
885.524	4755
885.65	4683
885.775	4744
885.9	4679
886.025	4896
886.15	4809
886.275	4725
886.4	4668
886.525	4752
886.65	4698
886.775	4702
886.9	4870
887.025	5052
887.149	4820
887.274	4672
887.399	4611
887.523	4641
887.648	4519
887.773	4573
887.897	4774
888.021	4748
888.146	4679
888.27	4778
888.395	4866
888.519	4812
888.643	4824
888.767	4801
888.891	4672
889.015	4569
889.139	4630
889.263	4592
889.387	4679
889.511	4923
889.635	4767
889.759	4637
889.883	4645
890.006	4748
890.13	4839
890.254	4626
890.377	4656
890.501	4542
890.624	4554
890.748	4656
890.871	4531
890.995	4428
891.118	4356
891.241	4542
891.364	4542
891.488	4618
891.611	4462
891.734	4565
891.857	4653
891.98	4546
892.103	4672
892.226	4577
892.349	4580
892.471	4413
892.594	4550
892.717	4615
892.839	4546
892.962	4573
893.085	4672
893.207	4603
893.33	4462
893.452	4500
893.575	4660
893.697	4535
893.819	4801
893.941	4816
894.064	4801
894.186	4577
894.308	4592
894.43	4725
894.552	4831
894.674	4748
894.796	4535
894.918	4573
895.04	4580
895.161	4694
895.283	4656
895.405	4554
895.526	4634
895.648	4675
895.769	4687
895.891	4744
896.012	4683
896.134	4702
896.255	4641
896.376	4607
896.498	4622
896.619	4714
896.74	4573
896.861	4637
896.982	4896
897.103	5022
897.224	4774
897.345	4748
897.466	4637
897.587	4672
897.708	4839
897.828	4790
897.949	4672
898.07	4550
898.19	4641
898.311	4835
898.431	4675
898.552	4752
898.672	4790
898.792	4793
898.913	4729
899.033	4668
899.153	4519
899.273	4459
899.393	4459
899.513	4516
899.633	4573
899.753	4569
899.873	4478
899.993	4588
900.113	4542
900.232	4592
900.352	4550
900.472	4459
900.591	4466
900.711	4455
900.83	4447
900.95	4599
901.069	4717
901.189	4500
901.308	4348
901.427	4287
901.546	4363
901.665	4493
901.784	4459
901.904	4405
902.023	4314
902.141	4215
902.26	4173
902.379	4356
902.498	4280
902.617	4200
902.735	4417
902.854	4363
902.973	4383
903.091	4192
903.21	4230
903.328	4280
903.446	4280
903.565	4284
903.683	4424
903.801	4246
903.919	4405
904.038	4451
904.156	4344
904.274	4440
904.392	4405
904.51	4386
904.627	4462
904.745	4573
904.863	4645
904.981	4405
905.098	4303
905.216	4394
905.334	4443
905.451	4440
905.569	4417
905.686	4527
905.803	4527
905.921	4428
906.038	4542
906.155	4455
906.272	4443
906.389	4512
906.506	4371
906.623	4383
906.74	4428
906.857	4329
906.974	4363
907.091	4512
907.208	4668
907.324	4550
907.441	4546
907.557	4310
907.674	4303
907.79	4329
907.907	4348
908.023	4504
908.139	4485
908.256	4432
908.372	4443
908.488	4428
908.604	4314
908.72	4318
908.836	4383
908.952	4363
909.068	4440
909.184	4615
909.3	4436
909.415	4561
909.531	4527
909.647	4402
909.762	4341
909.878	4344
909.993	4428
910.108	4436
910.224	4421
910.339	4440
910.454	4409
910.57	4344
910.685	4310
910.8	4691
910.915	4584
911.03	4493
911.145	4318
911.259	4360
911.374	4314
911.489	4265
911.604	4284
911.718	4173
911.833	4185
911.947	4082
912.062	4032
912.176	4181
912.291	4246
912.405	4295
912.519	4421
912.633	4493
912.748	4379
912.862	4268
912.976	4211
913.09	4082
913.204	4173
913.318	4253
913.431	4367
913.545	4344
913.659	4443
913.772	4379
913.886	4234
914	4284
914.113	4390
914.226	4405
914.34	4360
914.453	4276
914.566	4443
914.68	4299
914.793	4303
914.906	4185
915.019	4112
915.132	4082
915.245	4154
915.358	4192
915.47	4200
915.583	4261
915.696	4265
915.809	4424
915.921	4413
916.034	4284
916.146	4249
916.259	4185
916.371	4413
916.483	4329
916.595	4268
916.708	4333
916.82	4322
916.932	4299
917.044	4337
917.156	4303
917.268	4246
917.38	4268
917.491	4284
917.603	4310
917.715	4432
917.826	4455
917.938	4341
918.049	4249
918.161	4432
918.272	4516
918.384	4561
918.495	4485
918.606	4265
918.717	4219
918.828	4356
918.939	4367
919.05	4287
919.161	4303
919.272	4131
919.383	4223
919.494	4451
919.604	4634
919.715	4409
919.826	4367
919.936	4424
920.047	4500
920.157	4481
920.267	4721
920.378	4531
920.488	4497
920.598	4714
920.708	4881
920.818	4774
920.928	4771
921.038	4934
921.148	4968
921.258	4691
921.368	4542
921.477	4504
921.587	4451
921.697	4371
921.806	4588
921.916	4413
922.025	4291
922.134	4284
922.244	4234
922.353	4325
922.462	4169
922.571	4139
922.68	4002
922.789	3968
922.898	4048
923.007	3983
923.116	4090
923.224	4078
923.333	4059
923.442	3968
923.55	4010
923.659	4036
923.767	4093
923.876	4051
923.984	4150
924.092	3979
924.201	4082
924.309	4090
924.417	4124
924.525	4040
924.633	4109
924.741	5071
924.849	3899
924.956	4135
925.064	3994
925.172	3896
925.279	3972
925.387	4032
925.494	4051
925.602	4211
925.709	4200
925.816	4051
925.924	4120
926.031	4177
926.138	4162
926.245	4158
926.352	4105
926.459	4219
926.566	4314
926.673	4147
926.779	4116
926.886	4067
926.993	3991
927.099	3983
927.206	3934
927.312	3953
927.419	4071
927.525	4040
927.631	4078
927.737	3983
927.843	3964
927.95	3892
928.056	3998
928.162	3991
928.267	4055
928.373	4599
928.479	4048
928.585	3854
928.69	4044
928.796	4074
928.901	3964
929.007	3884
929.112	4010
929.218	3987
929.323	3960
929.428	3930
929.533	4120
929.638	3873
929.743	3972
929.848	4048
929.953	4036
930.058	3907
930.163	3759
930.267	3812
930.372	3979
930.477	3823
930.581	4082
930.685	3937
930.79	3823
930.894	3880
930.998	3873
931.103	4078
931.207	3705
931.311	3747
931.415	3663
931.519	3511
931.623	3568
