Data from test_V78500241_2393.txt Node
Date: Fri Mar 25 17:05:38 CST 2022
User: usil
Spectrometer: V785-0024
Trigger mode: 0
Integration Time (sec): 4.000000E-1
Scans to average: 1
Nonlinearity correction enabled: false
Boxcar width: 0
Storing dark spectrum: false
XAxis mode: Wavelengths
Number of Pixels in Spectrum: 1024
>>>>>Begin Spectral Data<<<<<
801.071	8031
801.214	7974
801.356	7906
801.499	7769
801.641	7811
801.783	7811
801.926	7951
802.068	7917
802.211	7959
802.353	7982
802.496	7936
802.638	7883
802.78	7921
802.923	7909
803.065	7913
803.208	7852
803.35	7974
803.492	8039
803.635	8195
803.777	8043
803.919	8183
804.061	8488
804.204	8130
804.346	8115
804.488	7944
804.63	8134
804.773	7978
804.915	8119
805.057	8298
805.199	8157
805.341	8176
805.483	8263
805.626	8191
805.768	8168
805.91	8248
806.052	8199
806.194	8069
806.336	8279
806.478	8103
806.62	8046
806.762	8168
806.904	8199
807.046	8465
807.188	8351
807.33	8358
807.472	8279
807.614	8161
807.756	8172
807.898	8043
808.04	7925
808.182	7898
808.324	7871
808.465	7894
808.607	8050
808.749	8149
808.891	8191
809.033	8271
809.174	8199
809.316	8062
809.458	8092
809.6	8024
809.741	7970
809.883	8020
810.025	8164
810.166	8039
810.308	8035
810.45	8012
810.591	7894
810.733	7734
810.875	7685
811.016	7632
811.158	7411
811.299	7597
811.441	7769
811.582	7696
811.724	7582
811.865	7499
812.007	7628
812.148	7601
812.29	7632
812.431	7765
812.573	7871
812.714	7986
812.855	8176
812.997	8183
813.138	8267
813.279	8199
813.421	8062
813.562	7974
813.703	7868
813.845	7715
813.986	7472
814.127	7282
814.268	7293
814.41	7156
814.551	7168
814.692	7270
814.833	7107
814.974	7072
815.115	7133
815.256	6973
815.397	6882
815.539	6943
815.68	6806
815.821	6787
815.962	6852
816.103	6837
816.244	6760
816.385	6665
816.526	6585
816.666	6513
816.807	6334
816.948	6429
817.089	6437
817.23	6414
817.371	6395
817.512	6346
817.653	6403
817.793	6353
817.934	6441
818.075	6452
818.216	6403
818.356	6369
818.497	6258
818.638	6148
818.778	6182
818.919	6171
819.06	6163
819.2	6292
819.341	6338
819.481	6361
819.622	6559
819.762	6726
819.903	6711
820.043	6585
820.184	6620
820.324	6608
820.465	6760
820.605	6700
820.746	6669
820.886	6521
821.026	6662
821.167	6734
821.307	6852
821.447	6764
821.588	6745
821.728	6593
821.868	6490
822.008	6300
822.149	6380
822.289	6350
822.429	6148
822.569	6125
822.709	6144
822.849	5980
822.99	5912
823.13	5889
823.27	5912
823.41	5752
823.55	5775
823.69	5729
823.83	5760
823.97	5646
824.11	5558
824.25	5482
824.389	5570
824.529	5554
824.669	5547
824.809	5589
824.949	5661
825.089	5592
825.228	5448
825.368	5440
825.508	5326
825.648	5379
825.787	5410
825.927	5398
826.067	5326
826.206	5250
826.346	5433
826.485	5360
826.625	5406
826.765	5573
826.904	5455
827.044	5261
827.183	5162
827.323	5132
827.462	5330
827.601	5201
827.741	5208
827.88	5235
828.02	5075
828.159	5273
828.298	5299
828.437	5353
828.577	5303
828.716	5478
828.855	5307
828.994	5181
829.134	5128
829.273	5189
829.412	5136
829.551	5079
829.69	5121
829.829	5216
829.968	5406
830.107	5280
830.246	5261
830.385	5185
830.524	5162
830.663	5079
830.802	4934
830.941	4892
831.08	4900
831.219	4968
831.357	4999
831.496	5178
831.635	4908
831.774	4854
831.913	4854
832.051	4710
832.19	4790
832.329	4843
832.467	4702
832.606	4592
832.744	4687
832.883	4725
833.022	4725
833.16	4774
833.299	4809
833.437	4850
833.576	4870
833.714	4816
833.852	4896
833.991	4858
834.129	4957
834.267	4957
834.406	4976
834.544	5022
834.682	4972
834.821	4980
834.959	5128
835.097	5006
835.235	5128
835.373	5075
835.511	5090
835.65	5037
835.788	4980
835.926	4892
836.064	4885
836.202	4949
836.34	5216
836.478	5223
836.615	5147
836.753	5220
836.891	5277
837.029	5223
837.167	5178
837.305	5140
837.443	5178
837.58	5094
837.718	5258
837.856	5189
837.993	5136
838.131	5284
838.269	5258
838.406	5208
838.544	5166
838.681	5056
838.819	4995
838.956	4934
839.094	4873
839.231	5010
839.369	5075
839.506	5440
839.643	5273
839.781	5109
839.918	5025
840.055	5075
840.193	5117
840.33	5071
840.467	5117
840.604	5174
840.742	5471
840.879	5128
841.016	5033
841.153	5147
841.29	5368
841.427	5341
841.564	5337
841.701	5372
841.838	5212
841.975	5162
842.112	5223
842.249	5105
842.385	5090
842.522	5284
842.659	5162
842.796	5124
842.933	5151
843.069	5128
843.206	5128
843.343	5315
843.479	5261
843.616	5311
843.752	5014
843.889	5029
844.025	5204
844.162	5064
844.298	5212
844.435	5094
844.571	5018
844.708	5178
844.844	5258
844.98	5360
845.117	5265
845.253	5102
845.389	5010
845.525	5166
845.661	5121
845.798	5003
845.934	5105
846.07	5083
846.206	5223
846.342	5246
846.478	5136
846.614	5029
846.75	4987
846.886	4934
847.022	5090
847.158	5048
847.294	5045
847.429	5113
847.565	5098
847.701	5265
847.837	4797
847.972	4790
848.108	4930
848.244	4873
848.379	4793
848.515	4691
848.65	4687
848.786	4729
848.921	4736
849.057	4866
849.192	4885
849.328	4866
849.463	4850
849.598	4778
849.734	4740
849.869	4656
850.004	4573
850.14	4626
850.275	4641
850.41	4538
850.545	4550
850.68	4607
850.815	4634
850.95	4622
851.085	4812
851.22	4717
851.355	4687
851.49	4588
851.625	4645
851.76	4626
851.895	4569
852.03	4504
852.165	4641
852.299	4702
852.434	4744
852.569	4733
852.703	4763
852.838	4843
852.973	4938
853.107	4911
853.242	4702
853.376	4683
853.511	4527
853.645	4599
853.78	4729
853.914	4634
854.048	4645
854.183	4660
854.317	4717
854.451	4850
854.585	4649
854.72	4622
854.854	4725
854.988	4599
855.122	4584
855.256	4573
855.39	4675
855.524	4786
855.658	4725
855.792	4675
855.926	4733
856.06	4771
856.194	4771
856.327	4668
856.461	4573
856.595	4596
856.729	4603
856.862	4790
856.996	4653
857.13	4706
857.263	4763
857.397	4812
857.53	4664
857.664	4706
857.797	4767
857.931	4752
858.064	4687
858.197	4748
858.331	4622
858.464	4573
858.597	4493
858.731	4691
858.864	4653
858.997	4596
859.13	4691
859.263	4641
859.396	4736
859.529	4584
859.662	4615
859.795	4577
859.928	4577
860.061	4736
860.194	4793
860.327	4649
860.46	4542
860.592	4710
860.725	4702
860.858	4740
860.99	4569
861.123	4561
861.256	4485
861.388	4592
861.521	5337
861.653	4489
861.786	4447
861.918	4489
862.05	4538
862.183	4558
862.315	4599
862.447	4660
862.58	4550
862.712	4375
862.844	4287
862.976	4462
863.108	4421
863.24	4752
863.372	4329
863.504	4447
863.636	4363
863.768	4481
863.9	4459
864.032	4344
864.164	4356
864.296	4474
864.428	4516
864.559	4542
864.691	4519
864.823	4489
864.954	4516
865.086	4455
865.217	4481
865.349	4417
865.48	4451
865.612	4512
865.743	4626
865.875	4451
866.006	4398
866.137	4481
866.269	4436
866.4	4424
866.531	4451
866.662	4402
866.793	4390
866.924	4451
867.055	4462
867.186	4443
867.317	4390
867.448	4386
867.579	4421
867.71	4390
867.841	4386
867.972	4478
868.103	4447
868.233	4405
868.364	4436
868.495	4470
868.625	4656
868.756	4733
868.886	4508
869.017	4656
869.147	4744
869.278	4729
869.408	4656
869.539	4618
869.669	4752
869.799	4660
869.929	4725
870.06	4771
870.19	4938
870.32	4930
870.45	4923
870.58	4965
870.71	5113
870.84	5075
870.97	4991
871.1	4965
871.23	5162
871.36	5124
871.489	5060
871.619	5014
871.749	5060
871.879	5151
872.008	5170
872.138	5056
872.267	4965
872.397	4870
872.526	4755
872.656	4687
872.785	4801
872.915	4957
873.044	5014
873.173	4942
873.303	4991
873.432	4915
873.561	4961
873.69	4843
873.819	4877
873.948	4896
874.077	4816
874.206	4793
874.335	4816
874.464	4877
874.593	5037
874.722	4949
874.851	5147
874.979	5056
875.108	5006
875.237	4934
875.365	4862
875.494	4862
875.623	4999
875.751	4812
875.88	4870
876.008	4980
876.136	5037
876.265	5178
876.393	5292
876.521	5277
876.65	5231
876.778	5140
876.906	5048
877.034	5037
877.162	5033
877.29	5014
877.418	4999
877.546	5041
877.674	5079
877.802	5033
877.93	5014
878.058	4927
878.185	4892
878.313	5006
878.441	4968
878.568	4771
878.696	4850
878.824	4938
878.951	4999
879.079	5113
879.206	5277
879.333	5075
879.461	4942
879.588	5003
879.715	5140
879.842	5212
879.97	4961
880.097	4824
880.224	4725
880.351	4809
880.478	4835
880.605	4782
880.732	4744
880.859	5056
880.986	4896
881.112	4873
881.239	4797
881.366	4656
881.493	4584
881.619	4569
881.746	4641
881.872	4683
881.999	4626
882.125	4687
882.252	4774
882.378	4771
882.505	4946
882.631	4812
882.757	4645
882.883	4763
883.01	4740
883.136	4668
883.262	4622
883.388	4618
883.514	4797
883.64	4930
883.766	4790
883.892	4714
884.018	4740
884.143	4927
884.269	5029
884.395	4679
884.52	4637
884.646	4611
884.772	4618
884.897	4535
885.023	4672
885.148	4774
885.274	4839
885.399	4771
885.524	4672
885.65	4691
885.775	4763
885.9	4694
886.025	4873
886.15	4748
886.275	4687
886.4	4634
886.525	4748
886.65	4679
886.775	4675
886.9	4923
887.025	5029
887.149	4793
887.274	4607
887.399	4607
887.523	4622
887.648	4596
887.773	4554
887.897	4759
888.021	4801
888.146	4683
888.27	4786
888.395	4900
888.519	4774
888.643	4793
888.767	4820
888.891	4683
889.015	4599
889.139	4702
889.263	4588
889.387	4748
889.511	4858
889.635	4816
889.759	4645
889.883	4641
890.006	4706
890.13	4828
890.254	4596
890.377	4679
890.501	4497
890.624	4558
890.748	4660
890.871	4535
890.995	4436
891.118	4440
891.241	4485
891.364	4596
891.488	4634
891.611	4516
891.734	4523
891.857	4577
891.98	4527
892.103	4611
892.226	4561
892.349	4523
892.471	4405
892.594	4523
892.717	4588
892.839	4561
892.962	4588
893.085	4649
893.207	4630
893.33	4409
893.452	4538
893.575	4649
893.697	4596
893.819	4790
893.941	4809
894.064	4759
894.186	4554
894.308	4565
894.43	4672
894.552	4824
894.674	4793
894.796	4523
894.918	4554
895.04	4554
895.161	4672
895.283	4634
895.405	4554
895.526	4607
895.648	4687
895.769	4714
895.891	4759
896.012	4725
896.134	4694
896.255	4679
896.376	4622
896.498	4618
896.619	4634
896.74	4645
896.861	4664
896.982	4896
897.103	5052
897.224	4835
897.345	4740
897.466	4641
897.587	4744
897.708	4839
897.828	4763
897.949	4694
898.07	4538
898.19	4660
898.311	4824
898.431	4615
898.552	4752
898.672	4782
898.792	4740
898.913	4698
899.033	4637
899.153	4500
899.273	4428
899.393	4466
899.513	4508
899.633	4542
899.753	4527
899.873	4519
899.993	4596
900.113	4535
900.232	4588
900.352	4542
900.472	4489
900.591	4379
900.711	4500
900.83	4436
900.95	4580
901.069	4679
901.189	4535
901.308	4371
901.427	4348
901.546	4413
901.665	4466
901.784	4500
901.904	4390
902.023	4318
902.141	4185
902.26	4188
902.379	4310
902.498	4261
902.617	4219
902.735	4341
902.854	4421
902.973	4379
903.091	4227
903.21	4207
903.328	4272
903.446	4246
903.565	4284
903.683	4341
903.801	4265
903.919	4398
904.038	4409
904.156	4314
904.274	4421
904.392	4402
904.51	4443
904.627	4485
904.745	4577
904.863	4592
904.981	4371
905.098	4314
905.216	4363
905.334	4443
905.451	4470
905.569	4447
905.686	4569
905.803	4561
905.921	4432
906.038	4550
906.155	4478
906.272	4417
906.389	4428
906.506	4405
906.623	4310
906.74	4417
906.857	4265
906.974	4375
907.091	4531
907.208	4694
907.324	4584
907.441	4478
907.557	4272
907.674	4348
907.79	4299
907.907	4383
908.023	4466
908.139	4440
908.256	4440
908.372	4474
908.488	4409
908.604	4337
908.72	4318
908.836	4363
908.952	4325
909.068	4432
909.184	4504
909.3	4455
909.415	4550
909.531	4550
909.647	4333
909.762	4371
909.878	4310
909.993	4394
910.108	4386
910.224	4363
910.339	4478
910.454	4379
910.57	4348
910.685	4276
910.8	4611
910.915	4580
911.03	4478
911.145	4329
911.259	4299
911.374	4352
911.489	4276
911.604	4242
911.718	4207
911.833	4215
911.947	4078
912.062	4051
912.176	4173
912.291	4204
912.405	4234
912.519	4459
912.633	4542
912.748	4413
912.862	4314
912.976	4166
913.09	4090
913.204	4169
913.318	4299
913.431	4363
913.545	4341
913.659	4462
913.772	4371
913.886	4257
914	4211
914.113	4344
914.226	4405
914.34	4394
914.453	4211
914.566	4421
914.68	4295
914.793	4299
914.906	4166
915.019	4162
915.132	4090
915.245	4185
915.358	4207
915.47	4234
915.583	4284
915.696	4333
915.809	4413
915.921	4402
916.034	4204
916.146	4284
916.259	4253
916.371	4375
916.483	4394
916.595	4242
916.708	4318
916.82	4344
916.932	4333
917.044	4322
917.156	4280
917.268	4215
917.38	4272
917.491	4295
917.603	4348
917.715	4337
917.826	4417
917.938	4310
918.049	4230
918.161	4386
918.272	4519
918.384	4535
918.495	4443
918.606	4295
918.717	4192
918.828	4314
918.939	4348
919.05	4242
919.161	4322
919.272	4139
919.383	4242
919.494	4428
919.604	4580
919.715	4466
919.826	4379
919.936	4428
920.047	4519
920.157	4436
920.267	4687
920.378	4523
920.488	4478
920.598	4736
920.708	4858
920.818	4721
920.928	4755
921.038	4942
921.148	4923
921.258	4649
921.368	4550
921.477	4500
921.587	4443
921.697	4360
921.806	4531
921.916	4413
922.025	4242
922.134	4242
922.244	4238
922.353	4303
922.462	4177
922.571	4166
922.68	3987
922.789	3960
922.898	4029
923.007	3979
923.116	4071
923.224	4097
923.333	4109
923.442	3956
923.55	3926
923.659	4013
923.767	4116
923.876	3968
923.984	4109
924.092	3953
924.201	4074
924.309	4082
924.417	4120
924.525	4025
924.633	4063
924.741	5022
924.849	3861
924.956	4139
925.064	3922
925.172	3869
925.279	3949
925.387	4078
925.494	4017
925.602	4188
925.709	4169
925.816	4036
925.924	4139
926.031	4169
926.138	4177
926.245	4253
926.352	4078
926.459	4234
926.566	4295
926.673	4116
926.779	4063
926.886	4013
926.993	3979
927.099	3941
927.206	3907
927.312	3956
927.419	4093
927.525	4040
927.631	4097
927.737	3949
927.843	3926
927.95	3869
928.056	3922
928.162	3934
928.267	4036
928.373	4611
928.479	4093
928.585	3876
928.69	3941
928.796	4055
928.901	3975
929.007	3842
929.112	4021
929.218	3975
929.323	3960
929.428	3949
929.533	4112
929.638	3937
929.743	3956
929.848	4013
929.953	3998
930.058	3945
930.163	3793
930.267	3793
930.372	3945
930.477	3823
930.581	4105
930.685	3968
930.79	3842
930.894	3876
930.998	3827
931.103	4010
931.207	3720
931.311	3698
931.415	3663
931.519	3561
931.623	3515
