Data from test_V78500241_2652.txt Node
Date: Fri Mar 25 17:07:26 CST 2022
User: usil
Spectrometer: V785-0024
Trigger mode: 0
Integration Time (sec): 4.000000E-1
Scans to average: 1
Nonlinearity correction enabled: false
Boxcar width: 0
Storing dark spectrum: false
XAxis mode: Wavelengths
Number of Pixels in Spectrum: 1024
>>>>>Begin Spectral Data<<<<<
801.071	8065
801.214	7967
801.356	7803
801.499	7879
801.641	7761
801.783	7833
801.926	7902
802.068	7947
802.211	7951
802.353	8001
802.496	7860
802.638	7879
802.78	7894
802.923	7890
803.065	7856
803.208	7830
803.35	7925
803.492	8081
803.635	8115
803.777	8062
803.919	8157
804.061	8461
804.204	8126
804.346	8043
804.488	7913
804.63	8081
804.773	8012
804.915	8126
805.057	8240
805.199	8111
805.341	8180
805.483	8252
805.626	8221
805.768	8149
805.91	8157
806.052	8065
806.194	8096
806.336	8233
806.478	8142
806.62	8016
806.762	8077
806.904	8252
807.046	8457
807.188	8317
807.33	8332
807.472	8263
807.614	8202
807.756	8126
807.898	8077
808.04	7780
808.182	7871
808.324	7864
808.465	7913
808.607	8046
808.749	8142
808.891	8187
809.033	8434
809.174	8195
809.316	8088
809.458	8046
809.6	8008
809.741	7967
809.883	8077
810.025	8020
810.166	8065
810.308	7978
810.45	8020
810.591	7887
810.733	7674
810.875	7639
811.016	7525
811.158	7487
811.299	7571
811.441	7746
811.582	7704
811.724	7594
811.865	7506
812.007	7624
812.148	7601
812.29	7613
812.431	7734
812.573	7864
812.714	7951
812.855	8096
812.997	8233
813.138	8377
813.279	8187
813.421	8073
813.562	8001
813.703	7906
813.845	7761
813.986	7445
814.127	7251
814.268	7247
814.41	7175
814.551	7156
814.692	7209
814.833	7110
814.974	7114
815.115	7122
815.256	7053
815.397	6928
815.539	6966
815.68	6825
815.821	6791
815.962	6875
816.103	6829
816.244	6768
816.385	6616
816.526	6608
816.666	6551
816.807	6319
816.948	6479
817.089	6456
817.23	6467
817.371	6399
817.512	6410
817.653	6407
817.793	6338
817.934	6452
818.075	6441
818.216	6422
818.356	6422
818.497	6251
818.638	6140
818.778	6117
818.919	6171
819.06	6213
819.2	6228
819.341	6292
819.481	6323
819.622	6597
819.762	6764
819.903	6692
820.043	6608
820.184	6620
820.324	6620
820.465	6757
820.605	6631
820.746	6639
820.886	6585
821.026	6692
821.167	6711
821.307	6863
821.447	6798
821.588	6646
821.728	6623
821.868	6494
822.008	6319
822.149	6361
822.289	6407
822.429	6159
822.569	6148
822.709	6163
822.849	5973
822.99	5904
823.13	5954
823.27	5893
823.41	5779
823.55	5752
823.69	5794
823.83	5756
823.97	5676
824.11	5509
824.25	5528
824.389	5596
824.529	5589
824.669	5512
824.809	5649
824.949	5619
825.089	5600
825.228	5509
825.368	5379
825.508	5330
825.648	5315
825.787	5410
825.927	5376
826.067	5330
826.206	5296
826.346	5417
826.485	5357
826.625	5402
826.765	5543
826.904	5459
827.044	5239
827.183	5204
827.323	5113
827.462	5273
827.601	5193
827.741	5204
827.88	5246
828.02	5098
828.159	5174
828.298	5288
828.437	5391
828.577	5277
828.716	5478
828.855	5345
828.994	5166
829.134	5117
829.273	5185
829.412	5121
829.551	5181
829.69	5189
829.829	5212
829.968	5330
830.107	5250
830.246	5269
830.385	5208
830.524	5128
830.663	5052
830.802	4968
830.941	4896
831.08	4900
831.219	4972
831.357	4976
831.496	5109
831.635	4911
831.774	4862
831.913	4877
832.051	4755
832.19	4733
832.329	4854
832.467	4668
832.606	4630
832.744	4740
832.883	4668
833.022	4653
833.16	4786
833.299	4866
833.437	4816
833.576	4881
833.714	4828
833.852	4828
833.991	4885
834.129	4927
834.267	4923
834.406	4953
834.544	4942
834.682	4938
834.821	4965
834.959	5143
835.097	5010
835.235	5128
835.373	5052
835.511	5136
835.65	5048
835.788	4965
835.926	4877
836.064	4850
836.202	4946
836.34	5113
836.478	5193
836.615	5098
836.753	5254
836.891	5334
837.029	5250
837.167	5204
837.305	5132
837.443	5113
837.58	5056
837.718	5265
837.856	5147
837.993	5189
838.131	5231
838.269	5216
838.406	5147
838.544	5159
838.681	5056
838.819	5010
838.956	4850
839.094	4870
839.231	5003
839.369	5041
839.506	5421
839.643	5242
839.781	5060
839.918	4999
840.055	5109
840.193	5075
840.33	5071
840.467	5136
840.604	5159
840.742	5383
840.879	5113
841.016	5147
841.153	5143
841.29	5372
841.427	5273
841.564	5318
841.701	5296
841.838	5216
841.975	5242
842.112	5239
842.249	5121
842.385	5159
842.522	5322
842.659	5155
842.796	5098
842.933	5201
843.069	5117
843.206	5155
843.343	5284
843.479	5227
843.616	5208
843.752	5048
843.889	5041
844.025	5204
844.162	4984
844.298	5185
844.435	5113
844.571	5014
844.708	5197
844.844	5265
844.98	5360
845.117	5250
845.253	5117
845.389	5041
845.525	5189
845.661	5170
845.798	5006
845.934	5151
846.07	5064
846.206	5193
846.342	5193
846.478	5128
846.614	4949
846.75	4919
846.886	4927
847.022	5124
847.158	4999
847.294	5064
847.429	5045
847.565	5098
847.701	5307
847.837	4824
847.972	4786
848.108	4911
848.244	4915
848.379	4820
848.515	4714
848.65	4675
848.786	4748
848.921	4759
849.057	4847
849.192	4892
849.328	4812
849.463	4850
849.598	4809
849.734	4782
849.869	4729
850.004	4611
850.14	4649
850.275	4603
850.41	4493
850.545	4542
850.68	4607
850.815	4592
850.95	4611
851.085	4835
851.22	4733
851.355	4637
851.49	4618
851.625	4615
851.76	4656
851.895	4584
852.03	4546
852.165	4626
852.299	4755
852.434	4801
852.569	4717
852.703	4771
852.838	4892
852.973	4946
853.107	4900
853.242	4740
853.376	4698
853.511	4569
853.645	4596
853.78	4835
853.914	4683
854.048	4691
854.183	4706
854.317	4714
854.451	4896
854.585	4748
854.72	4664
854.854	4793
854.988	4626
855.122	4664
855.256	4569
855.39	4679
855.524	4824
855.658	4767
855.792	4729
855.926	4740
856.06	4816
856.194	4858
856.327	4736
856.461	4675
856.595	4694
856.729	4679
856.862	4805
856.996	4736
857.13	4763
857.263	4801
857.397	4831
857.53	4694
857.664	4824
857.797	4774
857.931	4847
858.064	4725
858.197	4778
858.331	4679
858.464	4664
858.597	4592
858.731	4710
858.864	4736
858.997	4626
859.13	4725
859.263	4733
859.396	4698
859.529	4649
859.662	4611
859.795	4607
859.928	4706
860.061	4843
860.194	4771
860.327	4622
860.46	4618
860.592	4744
860.725	4801
860.858	4717
860.99	4622
861.123	4561
861.256	4618
861.388	4618
861.521	5448
861.653	4558
861.786	4504
861.918	4504
862.05	4554
862.183	4653
862.315	4618
862.447	4660
862.58	4573
862.712	4470
862.844	4367
862.976	4500
863.108	4531
863.24	4831
863.372	4402
863.504	4451
863.636	4428
863.768	4542
863.9	4440
864.032	4394
864.164	4466
864.296	4504
864.428	4599
864.559	4569
864.691	4561
864.823	4550
864.954	4451
865.086	4538
865.217	4519
865.349	4451
865.48	4508
865.612	4538
865.743	4729
865.875	4504
866.006	4455
866.137	4535
866.269	4504
866.4	4466
866.531	4455
866.662	4428
866.793	4459
866.924	4451
867.055	4531
867.186	4474
867.317	4459
867.448	4424
867.579	4409
867.71	4436
867.841	4421
867.972	4497
868.103	4516
868.233	4500
868.364	4512
868.495	4455
868.625	4668
868.756	4786
868.886	4607
869.017	4641
869.147	4828
869.278	4831
869.408	4660
869.539	4694
869.669	4675
869.799	4752
869.929	4759
870.06	4771
870.19	5018
870.32	4953
870.45	4991
870.58	5033
870.71	5113
870.84	5117
870.97	4968
871.1	4904
871.23	5162
871.36	5170
871.489	5060
871.619	5079
871.749	5136
871.879	5166
872.008	5208
872.138	5083
872.267	5064
872.397	4862
872.526	4824
872.656	4767
872.785	4877
872.915	4972
873.044	5105
873.173	4923
873.303	4999
873.432	4987
873.561	4961
873.69	4900
873.819	4946
873.948	4938
874.077	4839
874.206	4809
874.335	4877
874.464	4987
874.593	5071
874.722	4968
874.851	5162
874.979	5121
875.108	5060
875.237	4938
875.365	4980
875.494	4934
875.623	4991
875.751	4809
875.88	4847
876.008	4949
876.136	5056
876.265	5277
876.393	5406
876.521	5284
876.65	5284
876.778	5140
876.906	5109
877.034	5083
877.162	5067
877.29	5041
877.418	5079
877.546	5067
877.674	5094
877.802	5064
877.93	5029
878.058	4972
878.185	4949
878.313	4995
878.441	5022
878.568	4873
878.696	4930
878.824	5014
878.951	5086
879.079	5155
879.206	5318
879.333	5170
879.461	5018
879.588	5071
879.715	5197
879.842	5296
879.97	5052
880.097	4809
880.224	4759
880.351	4850
880.478	4870
880.605	4801
880.732	4812
880.859	5109
880.986	4915
881.112	4961
881.239	4820
881.366	4675
881.493	4668
881.619	4603
881.746	4634
881.872	4694
881.999	4668
882.125	4729
882.252	4828
882.378	4843
882.505	5014
882.631	4831
882.757	4725
882.883	4782
883.01	4748
883.136	4740
883.262	4622
883.388	4653
883.514	4847
883.64	4839
883.766	4816
883.892	4672
884.018	4710
884.143	4930
884.269	5037
884.395	4702
884.52	4660
884.646	4668
884.772	4668
884.897	4573
885.023	4698
885.148	4805
885.274	4870
885.399	4835
885.524	4793
885.65	4725
885.775	4733
885.9	4706
886.025	4896
886.15	4812
886.275	4744
886.4	4721
886.525	4752
886.65	4698
886.775	4740
886.9	4927
887.025	5014
887.149	4843
887.274	4698
887.399	4634
887.523	4584
887.648	4649
887.773	4607
887.897	4782
888.021	4805
888.146	4752
888.27	4839
888.395	4965
888.519	4866
888.643	4820
888.767	4904
888.891	4740
889.015	4615
889.139	4706
889.263	4656
889.387	4786
889.511	4881
889.635	4835
889.759	4675
889.883	4664
890.006	4733
890.13	4873
890.254	4675
890.377	4675
890.501	4584
890.624	4615
890.748	4687
890.871	4558
890.995	4424
891.118	4394
891.241	4607
891.364	4573
891.488	4649
891.611	4542
891.734	4531
891.857	4630
891.98	4599
892.103	4668
892.226	4645
892.349	4538
892.471	4436
892.594	4596
892.717	4607
892.839	4615
892.962	4637
893.085	4698
893.207	4660
893.33	4447
893.452	4592
893.575	4687
893.697	4664
893.819	4824
893.941	4873
894.064	4740
894.186	4641
894.308	4592
894.43	4729
894.552	4858
894.674	4763
894.796	4588
894.918	4584
895.04	4588
895.161	4733
895.283	4656
895.405	4596
895.526	4668
895.648	4736
895.769	4683
895.891	4755
896.012	4778
896.134	4710
896.255	4672
896.376	4710
896.498	4611
896.619	4729
896.74	4668
896.861	4634
896.982	4961
897.103	5094
897.224	4835
897.345	4755
897.466	4729
897.587	4691
897.708	4881
897.828	4790
897.949	4668
898.07	4561
898.19	4634
898.311	4831
898.431	4683
898.552	4755
898.672	4839
898.792	4839
898.913	4729
899.033	4660
899.153	4580
899.273	4508
899.393	4474
899.513	4561
899.633	4546
899.753	4546
899.873	4485
899.993	4645
900.113	4588
900.232	4569
900.352	4577
900.472	4481
900.591	4394
900.711	4516
900.83	4470
900.95	4603
901.069	4675
901.189	4558
901.308	4356
901.427	4390
901.546	4390
901.665	4462
901.784	4592
901.904	4409
902.023	4360
902.141	4234
902.26	4162
902.379	4337
902.498	4265
902.617	4207
902.735	4417
902.854	4413
902.973	4363
903.091	4242
903.21	4272
903.328	4314
903.446	4299
903.565	4223
903.683	4379
903.801	4306
903.919	4440
904.038	4455
904.156	4306
904.274	4428
904.392	4436
904.51	4474
904.627	4523
904.745	4580
904.863	4672
904.981	4424
905.098	4333
905.216	4390
905.334	4421
905.451	4504
905.569	4459
905.686	4592
905.803	4641
905.921	4413
906.038	4580
906.155	4512
906.272	4432
906.389	4474
906.506	4402
906.623	4360
906.74	4417
906.857	4325
906.974	4356
907.091	4519
907.208	4668
907.324	4611
907.441	4531
907.557	4325
907.674	4421
907.79	4363
907.907	4436
908.023	4493
908.139	4504
908.256	4447
908.372	4500
908.488	4489
908.604	4375
908.72	4344
908.836	4417
908.952	4413
909.068	4447
909.184	4584
909.3	4474
909.415	4622
909.531	4558
909.647	4371
909.762	4405
909.878	4379
909.993	4394
910.108	4489
910.224	4451
910.339	4481
910.454	4459
910.57	4356
910.685	4303
910.8	4660
910.915	4630
911.03	4504
911.145	4367
911.259	4363
911.374	4363
911.489	4329
911.604	4291
911.718	4188
911.833	4200
911.947	4101
912.062	4006
912.176	4185
912.291	4265
912.405	4261
912.519	4489
912.633	4542
912.748	4348
912.862	4344
912.976	4238
913.09	4112
913.204	4227
913.318	4265
913.431	4386
913.545	4402
913.659	4436
913.772	4356
913.886	4246
914	4230
914.113	4394
914.226	4413
914.34	4394
914.453	4261
914.566	4497
914.68	4291
914.793	4344
914.906	4177
915.019	4131
915.132	4078
915.245	4227
915.358	4230
915.47	4207
915.583	4272
915.696	4344
915.809	4398
915.921	4421
916.034	4295
916.146	4219
916.259	4196
916.371	4405
916.483	4337
916.595	4257
916.708	4356
916.82	4344
916.932	4367
917.044	4306
917.156	4318
917.268	4246
917.38	4318
917.491	4268
917.603	4333
917.715	4402
917.826	4489
917.938	4367
918.049	4196
918.161	4394
918.272	4519
918.384	4508
918.495	4470
918.606	4318
918.717	4291
918.828	4295
918.939	4394
919.05	4291
919.161	4310
919.272	4188
919.383	4257
919.494	4421
919.604	4683
919.715	4447
919.826	4363
919.936	4459
920.047	4516
920.157	4489
920.267	4740
920.378	4577
920.488	4596
920.598	4729
920.708	4900
920.818	4797
920.928	4809
921.038	5045
921.148	4984
921.258	4683
921.368	4577
921.477	4535
921.587	4489
921.697	4443
921.806	4618
921.916	4481
922.025	4287
922.134	4341
922.244	4246
922.353	4428
922.462	4200
922.571	4215
922.68	4051
922.789	4029
922.898	4071
923.007	4051
923.116	4154
923.224	4105
923.333	4116
923.442	4002
923.55	4032
923.659	4078
923.767	4177
923.876	4013
923.984	4135
924.092	4006
924.201	4078
924.309	4147
924.417	4185
924.525	4082
924.633	4135
924.741	5128
924.849	3979
924.956	4162
925.064	4032
925.172	3991
925.279	4017
925.387	4059
925.494	4093
925.602	4265
925.709	4177
925.816	4105
925.924	4185
926.031	4249
926.138	4215
926.245	4272
926.352	4150
926.459	4284
926.566	4363
926.673	4227
926.779	4135
926.886	4101
926.993	4013
927.099	4002
927.206	4025
927.312	4010
927.419	4109
927.525	4101
927.631	4124
927.737	4051
927.843	4010
927.95	3903
928.056	3991
928.162	4021
928.267	4135
928.373	4660
928.479	4150
928.585	3934
928.69	4090
928.796	4109
928.901	3994
929.007	3884
929.112	4071
929.218	4021
929.323	4029
929.428	3998
929.533	4162
929.638	3987
929.743	3979
929.848	4109
929.953	4048
930.058	3945
930.163	3831
930.267	3896
930.372	4017
930.477	3816
930.581	4128
930.685	4025
930.79	3865
930.894	3907
930.998	3892
931.103	4120
931.207	3755
931.311	3682
931.415	3720
931.519	3584
931.623	3622
