Data from test_V78500241_2524.txt Node
Date: Fri Mar 25 17:06:33 CST 2022
User: usil
Spectrometer: V785-0024
Trigger mode: 0
Integration Time (sec): 4.000000E-1
Scans to average: 1
Nonlinearity correction enabled: false
Boxcar width: 0
Storing dark spectrum: false
XAxis mode: Wavelengths
Number of Pixels in Spectrum: 1024
>>>>>Begin Spectral Data<<<<<
801.071	7974
801.214	8031
801.356	7860
801.499	7856
801.641	7772
801.783	7792
801.926	7913
802.068	7940
802.211	7955
802.353	7993
802.496	7772
802.638	7860
802.78	7841
802.923	7879
803.065	7890
803.208	7879
803.35	7917
803.492	8103
803.635	8176
803.777	7974
803.919	8115
804.061	8374
804.204	8123
804.346	8050
804.488	8020
804.63	8107
804.773	8020
804.915	8073
805.057	8271
805.199	8206
805.341	8176
805.483	8267
805.626	8279
805.768	8119
805.91	8191
806.052	8183
806.194	8065
806.336	8233
806.478	8119
806.62	8077
806.762	8092
806.904	8244
807.046	8450
807.188	8320
807.33	8336
807.472	8370
807.614	8134
807.756	8187
807.898	8020
808.04	7879
808.182	7875
808.324	7890
808.465	7963
808.607	8119
808.749	8088
808.891	8282
809.033	8343
809.174	8195
809.316	8050
809.458	8081
809.6	7959
809.741	7986
809.883	8020
810.025	8084
810.166	8084
810.308	8035
810.45	8043
810.591	7849
810.733	7753
810.875	7658
811.016	7575
811.158	7377
811.299	7578
811.441	7742
811.582	7708
811.724	7571
811.865	7540
812.007	7597
812.148	7586
812.29	7696
812.431	7708
812.573	7826
812.714	7989
812.855	8119
812.997	8161
813.138	8275
813.279	8145
813.421	8065
813.562	8024
813.703	7830
813.845	7738
813.986	7430
814.127	7301
814.268	7171
814.41	7168
814.551	7175
814.692	7217
814.833	7103
814.974	7053
815.115	7107
815.256	6958
815.397	6981
815.539	6943
815.68	6802
815.821	6833
815.962	6905
816.103	6810
816.244	6741
816.385	6658
816.526	6578
816.666	6490
816.807	6304
816.948	6460
817.089	6456
817.23	6479
817.371	6388
817.512	6399
817.653	6384
817.793	6334
817.934	6426
818.075	6410
818.216	6456
818.356	6445
818.497	6232
818.638	6049
818.778	6175
818.919	6140
819.06	6087
819.2	6319
819.341	6319
819.481	6357
819.622	6544
819.762	6741
819.903	6719
820.043	6574
820.184	6608
820.324	6616
820.465	6715
820.605	6711
820.746	6684
820.886	6547
821.026	6700
821.167	6719
821.307	6818
821.447	6814
821.588	6681
821.728	6627
821.868	6498
822.008	6338
822.149	6350
822.289	6391
822.429	6178
822.569	6144
822.709	6159
822.849	5935
822.99	5927
823.13	5973
823.27	5942
823.41	5775
823.55	5733
823.69	5764
823.83	5710
823.97	5623
824.11	5558
824.25	5512
824.389	5532
824.529	5627
824.669	5535
824.809	5668
824.949	5592
825.089	5539
825.228	5596
825.368	5395
825.508	5337
825.648	5376
825.787	5330
825.927	5360
826.067	5337
826.206	5292
826.346	5379
826.485	5417
826.625	5364
826.765	5528
826.904	5478
827.044	5258
827.183	5197
827.323	5151
827.462	5227
827.601	5174
827.741	5193
827.88	5197
828.02	5140
828.159	5250
828.298	5284
828.437	5334
828.577	5242
828.716	5486
828.855	5349
828.994	5151
829.134	5166
829.273	5201
829.412	5189
829.551	5102
829.69	5136
829.829	5208
829.968	5395
830.107	5250
830.246	5322
830.385	5151
830.524	5140
830.663	5083
830.802	4938
830.941	4900
831.08	4870
831.219	4976
831.357	4968
831.496	5162
831.635	4881
831.774	4889
831.913	4881
832.051	4717
832.19	4740
832.329	4843
832.467	4664
832.606	4664
832.744	4733
832.883	4714
833.022	4702
833.16	4793
833.299	4812
833.437	4824
833.576	4831
833.714	4847
833.852	4870
833.991	4919
834.129	4980
834.267	4927
834.406	4915
834.544	5022
834.682	4984
834.821	4999
834.959	5147
835.097	4927
835.235	5132
835.373	5041
835.511	5124
835.65	5064
835.788	5052
835.926	4938
836.064	4911
836.202	4961
836.34	5132
836.478	5193
836.615	5083
836.753	5185
836.891	5292
837.029	5216
837.167	5151
837.305	5132
837.443	5136
837.58	5056
837.718	5254
837.856	5216
837.993	5075
838.131	5246
838.269	5174
838.406	5189
838.544	5185
838.681	5037
838.819	5022
838.956	4843
839.094	4896
839.231	5025
839.369	5033
839.506	5417
839.643	5239
839.781	5052
839.918	5022
840.055	5128
840.193	5124
840.33	5098
840.467	5117
840.604	5189
840.742	5406
840.879	5086
841.016	5086
841.153	5166
841.29	5383
841.427	5349
841.564	5288
841.701	5303
841.838	5269
841.975	5284
842.112	5250
842.249	5090
842.385	5064
842.522	5311
842.659	5178
842.796	5140
842.933	5136
843.069	5109
843.206	5143
843.343	5288
843.479	5227
843.616	5254
843.752	5029
843.889	5029
844.025	5231
844.162	5037
844.298	5185
844.435	5090
844.571	5056
844.708	5170
844.844	5277
844.98	5406
845.117	5277
845.253	5109
845.389	5094
845.525	5189
845.661	5132
845.798	5025
845.934	5162
846.07	5056
846.206	5208
846.342	5280
846.478	5185
846.614	5022
846.75	4987
846.886	4930
847.022	5117
847.158	5060
847.294	5102
847.429	5140
847.565	5132
847.701	5330
847.837	4850
847.972	4805
848.108	4953
848.244	4972
848.379	4831
848.515	4679
848.65	4729
848.786	4725
848.921	4725
849.057	4923
849.192	4850
849.328	4831
849.463	4850
849.598	4805
849.734	4790
849.869	4687
850.004	4599
850.14	4645
850.275	4596
850.41	4508
850.545	4542
850.68	4580
850.815	4618
850.95	4630
851.085	4858
851.22	4714
851.355	4641
851.49	4618
851.625	4630
851.76	4672
851.895	4542
852.03	4516
852.165	4630
852.299	4748
852.434	4816
852.569	4774
852.703	4801
852.838	4847
852.973	4911
853.107	4896
853.242	4763
853.376	4634
853.511	4531
853.645	4611
853.78	4824
853.914	4675
854.048	4641
854.183	4630
854.317	4714
854.451	4835
854.585	4725
854.72	4645
854.854	4744
854.988	4618
855.122	4733
855.256	4546
855.39	4698
855.524	4740
855.658	4679
855.792	4706
855.926	4714
856.06	4721
856.194	4790
856.327	4683
856.461	4580
856.595	4611
856.729	4592
856.862	4694
856.996	4721
857.13	4714
857.263	4748
857.397	4805
857.53	4660
857.664	4763
857.797	4774
857.931	4778
858.064	4694
858.197	4752
858.331	4588
858.464	4584
858.597	4474
858.731	4603
858.864	4630
858.997	4584
859.13	4660
859.263	4679
859.396	4706
859.529	4588
859.662	4550
859.795	4516
859.928	4626
860.061	4717
860.194	4767
860.327	4634
860.46	4538
860.592	4721
860.725	4717
860.858	4702
860.99	4596
861.123	4508
861.256	4527
861.388	4596
861.521	5208
861.653	4466
861.786	4447
861.918	4413
862.05	4531
862.183	4577
862.315	4615
862.447	4630
862.58	4573
862.712	4386
862.844	4367
862.976	4489
863.108	4443
863.24	4763
863.372	4333
863.504	4443
863.636	4360
863.768	4485
863.9	4383
864.032	4348
864.164	4341
864.296	4459
864.428	4512
864.559	4546
864.691	4542
864.823	4523
864.954	4459
865.086	4523
865.217	4459
865.349	4394
865.48	4440
865.612	4500
865.743	4649
865.875	4466
866.006	4417
866.137	4443
866.269	4447
866.4	4455
866.531	4451
866.662	4398
866.793	4413
866.924	4405
867.055	4462
867.186	4466
867.317	4409
867.448	4375
867.579	4356
867.71	4390
867.841	4375
867.972	4493
868.103	4421
868.233	4428
868.364	4436
868.495	4523
868.625	4653
868.756	4771
868.886	4546
869.017	4573
869.147	4782
869.278	4748
869.408	4630
869.539	4668
869.669	4694
869.799	4668
869.929	4736
870.06	4717
870.19	4976
870.32	4938
870.45	4987
870.58	5006
870.71	5083
870.84	5060
870.97	4949
871.1	4938
871.23	5189
871.36	5105
871.489	4991
871.619	5083
871.749	5132
871.879	5086
872.008	5166
872.138	5083
872.267	4976
872.397	4847
872.526	4877
872.656	4710
872.785	4812
872.915	4919
873.044	5045
873.173	4942
873.303	4999
873.432	4896
873.561	4972
873.69	4885
873.819	4881
873.948	4854
874.077	4759
874.206	4771
874.335	4759
874.464	4938
874.593	5052
874.722	4987
874.851	5098
874.979	5041
875.108	5037
875.237	4923
875.365	4911
875.494	4858
875.623	4957
875.751	4801
875.88	4881
876.008	4968
876.136	5075
876.265	5208
876.393	5364
876.521	5265
876.65	5223
876.778	5201
876.906	5079
877.034	5018
877.162	5064
877.29	4999
877.418	5056
877.546	5075
877.674	5083
877.802	5071
877.93	4999
878.058	4934
878.185	4900
878.313	4972
878.441	4934
878.568	4812
878.696	4892
878.824	4999
878.951	4961
879.079	5075
879.206	5280
879.333	5079
879.461	4999
879.588	4972
879.715	5170
879.842	5208
879.97	4953
880.097	4790
880.224	4755
880.351	4850
880.478	4824
880.605	4801
880.732	4729
880.859	5083
880.986	4870
881.112	4885
881.239	4736
881.366	4679
881.493	4618
881.619	4558
881.746	4641
881.872	4656
881.999	4615
882.125	4687
882.252	4786
882.378	4850
882.505	4957
882.631	4755
882.757	4641
882.883	4668
883.01	4733
883.136	4641
883.262	4656
883.388	4573
883.514	4828
883.64	4850
883.766	4782
883.892	4668
884.018	4759
884.143	4900
884.269	5010
884.395	4687
884.52	4558
884.646	4618
884.772	4573
884.897	4558
885.023	4694
885.148	4774
885.274	4889
885.399	4831
885.524	4725
885.65	4721
885.775	4752
885.9	4721
886.025	4778
886.15	4816
886.275	4725
886.4	4645
886.525	4748
886.65	4634
886.775	4683
886.9	4881
887.025	5052
887.149	4824
887.274	4668
887.399	4588
887.523	4637
887.648	4565
887.773	4584
887.897	4824
888.021	4771
888.146	4660
888.27	4790
888.395	4854
888.519	4831
888.643	4847
888.767	4786
888.891	4721
889.015	4626
889.139	4637
889.263	4565
889.387	4759
889.511	4854
889.635	4767
889.759	4675
889.883	4634
890.006	4714
890.13	4805
890.254	4596
890.377	4645
890.501	4561
890.624	4554
890.748	4588
890.871	4538
890.995	4386
891.118	4405
891.241	4538
891.364	4561
891.488	4588
891.611	4519
891.734	4546
891.857	4611
891.98	4538
892.103	4637
892.226	4577
892.349	4516
892.471	4402
892.594	4569
892.717	4626
892.839	4573
892.962	4577
893.085	4694
893.207	4626
893.33	4421
893.452	4489
893.575	4622
893.697	4565
893.819	4793
893.941	4831
894.064	4774
894.186	4611
894.308	4618
894.43	4683
894.552	4809
894.674	4710
894.796	4561
894.918	4580
895.04	4538
895.161	4679
895.283	4641
895.405	4577
895.526	4649
895.648	4698
895.769	4710
895.891	4694
896.012	4714
896.134	4702
896.255	4714
896.376	4607
896.498	4596
896.619	4653
896.74	4588
896.861	4641
896.982	4957
897.103	5048
897.224	4801
897.345	4755
897.466	4679
897.587	4790
897.708	4854
897.828	4812
897.949	4649
898.07	4580
898.19	4683
898.311	4824
898.431	4615
898.552	4740
898.672	4816
898.792	4767
898.913	4755
899.033	4599
899.153	4466
899.273	4398
899.393	4500
899.513	4508
899.633	4527
899.753	4569
899.873	4478
899.993	4584
900.113	4527
900.232	4561
900.352	4561
900.472	4455
900.591	4379
900.711	4508
900.83	4428
900.95	4656
901.069	4683
901.189	4573
901.308	4405
901.427	4306
901.546	4348
901.665	4481
901.784	4500
901.904	4394
902.023	4360
902.141	4204
902.26	4192
902.379	4310
902.498	4242
902.617	4287
902.735	4360
902.854	4371
902.973	4348
903.091	4188
903.21	4238
903.328	4261
903.446	4268
903.565	4253
903.683	4314
903.801	4268
903.919	4421
904.038	4421
904.156	4325
904.274	4424
904.392	4424
904.51	4413
904.627	4485
904.745	4603
904.863	4645
904.981	4409
905.098	4310
905.216	4360
905.334	4402
905.451	4428
905.569	4432
905.686	4577
905.803	4584
905.921	4398
906.038	4542
906.155	4440
906.272	4413
906.389	4497
906.506	4363
906.623	4360
906.74	4348
906.857	4287
906.974	4375
907.091	4607
907.208	4702
907.324	4615
907.441	4447
907.557	4303
907.674	4318
907.79	4310
907.907	4379
908.023	4455
908.139	4466
908.256	4371
908.372	4455
908.488	4462
908.604	4287
908.72	4394
908.836	4337
908.952	4360
909.068	4466
909.184	4565
909.3	4481
909.415	4596
909.531	4569
909.647	4367
909.762	4363
909.878	4284
909.993	4451
910.108	4424
910.224	4405
910.339	4447
910.454	4398
910.57	4352
910.685	4314
910.8	4645
910.915	4546
911.03	4474
911.145	4325
911.259	4329
911.374	4383
911.489	4291
911.604	4253
911.718	4131
911.833	4204
911.947	4093
912.062	4006
912.176	4223
912.291	4276
912.405	4246
912.519	4455
912.633	4531
912.748	4455
912.862	4314
912.976	4173
913.09	4082
913.204	4192
913.318	4177
913.431	4363
913.545	4390
913.659	4436
913.772	4371
913.886	4223
914	4215
914.113	4383
914.226	4424
914.34	4375
914.453	4257
914.566	4474
914.68	4375
914.793	4337
914.906	4120
915.019	4105
915.132	4093
915.245	4230
915.358	4185
915.47	4204
915.583	4295
915.696	4325
915.809	4386
915.921	4413
916.034	4249
916.146	4246
916.259	4188
916.371	4402
916.483	4341
916.595	4265
916.708	4284
916.82	4303
916.932	4272
917.044	4360
917.156	4371
917.268	4227
917.38	4249
917.491	4261
917.603	4394
917.715	4421
917.826	4402
917.938	4325
918.049	4272
918.161	4371
918.272	4573
918.384	4569
918.495	4459
918.606	4329
918.717	4219
918.828	4306
918.939	4348
919.05	4249
919.161	4310
919.272	4090
919.383	4196
919.494	4421
919.604	4626
919.715	4470
919.826	4367
919.936	4417
920.047	4512
920.157	4497
920.267	4683
920.378	4554
920.488	4481
920.598	4679
920.708	4877
920.818	4774
920.928	4729
921.038	4946
921.148	4953
921.258	4641
921.368	4519
921.477	4516
921.587	4466
921.697	4409
921.806	4508
921.916	4432
922.025	4299
922.134	4276
922.244	4211
922.353	4352
922.462	4162
922.571	4158
922.68	4006
922.789	3949
922.898	4036
923.007	4032
923.116	4059
923.224	4032
923.333	4025
923.442	4002
923.55	3987
923.659	3994
923.767	4135
923.876	3956
923.984	4139
924.092	3994
924.201	4048
924.309	4090
924.417	4154
924.525	4067
924.633	4109
924.741	5086
924.849	3937
924.956	4147
925.064	3998
925.172	3896
925.279	3926
925.387	4078
925.494	4029
925.602	4196
925.709	4204
925.816	4032
925.924	4101
926.031	4261
926.138	4192
926.245	4223
926.352	4116
926.459	4253
926.566	4318
926.673	4120
926.779	4071
926.886	4090
926.993	3934
927.099	3953
927.206	3945
927.312	3903
927.419	4040
927.525	4006
927.631	4063
927.737	3945
927.843	3892
927.95	3766
928.056	3937
928.162	4013
928.267	4040
928.373	4577
928.479	4109
928.585	3899
928.69	4013
928.796	4112
928.901	3960
929.007	3869
929.112	4002
929.218	3956
929.323	3926
929.428	3964
929.533	4078
929.638	3941
929.743	3930
929.848	4067
929.953	4002
930.058	3968
930.163	3785
930.267	3865
930.372	3972
930.477	3838
930.581	4074
930.685	3945
930.79	3819
930.894	3876
930.998	3835
931.103	4032
931.207	3679
931.311	3671
931.415	3667
931.519	3538
931.623	3557
