Data from test_V78500241_2282.txt Node
Date: Fri Mar 25 17:04:52 CST 2022
User: usil
Spectrometer: V785-0024
Trigger mode: 0
Integration Time (sec): 4.000000E-1
Scans to average: 1
Nonlinearity correction enabled: false
Boxcar width: 0
Storing dark spectrum: false
XAxis mode: Wavelengths
Number of Pixels in Spectrum: 1024
>>>>>Begin Spectral Data<<<<<
801.071	8031
801.214	7928
801.356	7868
801.499	7906
801.641	7792
801.783	7826
801.926	7986
802.068	7928
802.211	7932
802.353	7978
802.496	7826
802.638	7894
802.78	7898
802.923	7887
803.065	7894
803.208	7822
803.35	7967
803.492	8069
803.635	8191
803.777	8062
803.919	8107
804.061	8438
804.204	8199
804.346	8096
804.488	7986
804.63	8084
804.773	7932
804.915	8081
805.057	8298
805.199	8073
805.341	8145
805.483	8263
805.626	8256
805.768	8187
805.91	8210
806.052	8195
806.194	8065
806.336	8301
806.478	8024
806.62	8069
806.762	8176
806.904	8225
807.046	8442
807.188	8408
807.33	8267
807.472	8343
807.614	8157
807.756	8123
807.898	8001
808.04	7932
808.182	7906
808.324	7852
808.465	7902
808.607	8088
808.749	8145
808.891	8233
809.033	8244
809.174	8176
809.316	8039
809.458	8024
809.6	8016
809.741	8058
809.883	8058
810.025	8100
810.166	8024
810.308	8012
810.45	7974
810.591	7852
810.733	7803
810.875	7696
811.016	7514
811.158	7419
811.299	7521
811.441	7632
811.582	7643
811.724	7575
811.865	7537
812.007	7537
812.148	7609
812.29	7696
812.431	7753
812.573	7852
812.714	7947
812.855	8088
812.997	8176
813.138	8328
813.279	8149
813.421	8069
813.562	7993
813.703	7909
813.845	7742
813.986	7430
814.127	7225
814.268	7251
814.41	7217
814.551	7152
814.692	7198
814.833	7065
814.974	7091
815.115	7084
815.256	6943
815.397	6947
815.539	6875
815.68	6798
815.821	6745
815.962	6840
816.103	6867
816.244	6642
816.385	6589
816.526	6585
816.666	6528
816.807	6277
816.948	6475
817.089	6498
817.23	6441
817.371	6350
817.512	6350
817.653	6361
817.793	6342
817.934	6346
818.075	6445
818.216	6391
818.356	6456
818.497	6216
818.638	6136
818.778	6102
818.919	6140
819.06	6098
819.2	6334
819.341	6361
819.481	6388
819.622	6589
819.762	6730
819.903	6696
820.043	6601
820.184	6532
820.324	6620
820.465	6688
820.605	6616
820.746	6631
820.886	6528
821.026	6684
821.167	6707
821.307	6795
821.447	6745
821.588	6658
821.728	6620
821.868	6483
822.008	6346
822.149	6380
822.289	6376
822.429	6163
822.569	6117
822.709	6144
822.849	5931
822.99	5893
823.13	5935
823.27	5965
823.41	5790
823.55	5764
823.69	5809
823.83	5794
823.97	5646
824.11	5543
824.25	5512
824.389	5520
824.529	5657
824.669	5615
824.809	5649
824.949	5649
825.089	5600
825.228	5554
825.368	5406
825.508	5345
825.648	5387
825.787	5402
825.927	5414
826.067	5322
826.206	5311
826.346	5417
826.485	5474
826.625	5410
826.765	5608
826.904	5482
827.044	5299
827.183	5204
827.323	5136
827.462	5227
827.601	5246
827.741	5216
827.88	5239
828.02	5109
828.159	5307
828.298	5360
828.437	5410
828.577	5341
828.716	5524
828.855	5330
828.994	5185
829.134	5220
829.273	5216
829.412	5132
829.551	5170
829.69	5216
829.829	5280
829.968	5429
830.107	5349
830.246	5311
830.385	5223
830.524	5143
830.663	5109
830.802	4976
830.941	4949
831.08	4949
831.219	5045
831.357	5022
831.496	5204
831.635	5003
831.774	4870
831.913	4873
832.051	4801
832.19	4782
832.329	4831
832.467	4744
832.606	4683
832.744	4759
832.883	4778
833.022	4748
833.16	4839
833.299	4877
833.437	4850
833.576	4904
833.714	4873
833.852	4911
833.991	4934
834.129	4991
834.267	4991
834.406	4968
834.544	4968
834.682	5018
834.821	4942
834.959	5181
835.097	5014
835.235	5159
835.373	5102
835.511	5102
835.65	5014
835.788	5048
835.926	4927
836.064	4923
836.202	4991
836.34	5197
836.478	5280
836.615	5147
836.753	5231
836.891	5345
837.029	5261
837.167	5246
837.305	5189
837.443	5239
837.58	5136
837.718	5303
837.856	5296
837.993	5193
838.131	5273
838.269	5265
838.406	5231
838.544	5239
838.681	5045
838.819	5060
838.956	4896
839.094	4934
839.231	5006
839.369	5098
839.506	5440
839.643	5334
839.781	5109
839.918	5071
840.055	5117
840.193	5105
840.33	5121
840.467	5189
840.604	5174
840.742	5478
840.879	5098
841.016	5136
841.153	5170
841.29	5398
841.427	5425
841.564	5429
841.701	5383
841.838	5307
841.975	5223
842.112	5330
842.249	5166
842.385	5113
842.522	5395
842.659	5258
842.796	5254
842.933	5235
843.069	5159
843.206	5166
843.343	5261
843.479	5227
843.616	5311
843.752	5071
843.889	5071
844.025	5265
844.162	5064
844.298	5250
844.435	5117
844.571	5071
844.708	5231
844.844	5334
844.98	5326
845.117	5368
845.253	5185
845.389	5174
845.525	5189
845.661	5140
845.798	5041
845.934	5181
846.07	5067
846.206	5159
846.342	5299
846.478	5170
846.614	5083
846.75	5014
846.886	4999
847.022	5178
847.158	5025
847.294	5048
847.429	5140
847.565	5147
847.701	5303
847.837	4835
847.972	4850
848.108	4999
848.244	4991
848.379	4835
848.515	4793
848.65	4748
848.786	4790
848.921	4828
849.057	4881
849.192	4896
849.328	4850
849.463	4908
849.598	4866
849.734	4767
849.869	4736
850.004	4653
850.14	4683
850.275	4694
850.41	4535
850.545	4577
850.68	4630
850.815	4694
850.95	4634
851.085	4900
851.22	4736
851.355	4736
851.49	4596
851.625	4645
851.76	4725
851.895	4599
852.03	4603
852.165	4664
852.299	4755
852.434	4790
852.569	4759
852.703	4797
852.838	4900
852.973	4915
853.107	4919
853.242	4706
853.376	4698
853.511	4615
853.645	4660
853.78	4816
853.914	4717
854.048	4744
854.183	4660
854.317	4691
854.451	4866
854.585	4714
854.72	4672
854.854	4786
854.988	4637
855.122	4672
855.256	4584
855.39	4653
855.524	4820
855.658	4763
855.792	4706
855.926	4786
856.06	4805
856.194	4816
856.327	4748
856.461	4683
856.595	4630
856.729	4668
856.862	4801
856.996	4710
857.13	4744
857.263	4767
857.397	4862
857.53	4645
857.664	4706
857.797	4759
857.931	4831
858.064	4721
858.197	4755
858.331	4664
858.464	4615
858.597	4580
858.731	4637
858.864	4653
858.997	4622
859.13	4714
859.263	4641
859.396	4714
859.529	4588
859.662	4584
859.795	4558
859.928	4683
860.061	4824
860.194	4835
860.327	4649
860.46	4569
860.592	4710
860.725	4736
860.858	4752
860.99	4577
861.123	4561
861.256	4573
861.388	4645
861.521	5307
861.653	4493
861.786	4432
861.918	4485
862.05	4561
862.183	4580
862.315	4622
862.447	4653
862.58	4519
862.712	4390
862.844	4344
862.976	4459
863.108	4504
863.24	4949
863.372	4310
863.504	4485
863.636	4398
863.768	4535
863.9	4421
864.032	4383
864.164	4443
864.296	4504
864.428	4542
864.559	4599
864.691	4558
864.823	4535
864.954	4508
865.086	4527
865.217	4470
865.349	4432
865.48	4440
865.612	4554
865.743	4645
865.875	4474
866.006	4459
866.137	4500
866.269	4470
866.4	4443
866.531	4470
866.662	4443
866.793	4440
866.924	4432
867.055	4519
867.186	4474
867.317	4428
867.448	4386
867.579	4421
867.71	4474
867.841	4417
867.972	4489
868.103	4447
868.233	4485
868.364	4478
868.495	4531
868.625	4653
868.756	4797
868.886	4592
869.017	4668
869.147	4782
869.278	4805
869.408	4706
869.539	4664
869.669	4752
869.799	4721
869.929	4774
870.06	4721
870.19	4927
870.32	5010
870.45	4927
870.58	5033
870.71	5113
870.84	5136
870.97	4987
871.1	4870
871.23	5185
871.36	5140
871.489	5025
871.619	5102
871.749	5064
871.879	5159
872.008	5166
872.138	5105
872.267	4984
872.397	4850
872.526	4831
872.656	4763
872.785	4824
872.915	4987
873.044	5090
873.173	4995
873.303	4984
873.432	4999
873.561	4999
873.69	4904
873.819	4847
873.948	4915
874.077	4824
874.206	4797
874.335	4801
874.464	4911
874.593	5094
874.722	5010
874.851	5155
874.979	5090
875.108	5048
875.237	4908
875.365	4908
875.494	4923
875.623	5018
875.751	4900
875.88	4911
876.008	4999
876.136	5052
876.265	5170
876.393	5364
876.521	5334
876.65	5269
876.778	5216
876.906	5086
877.034	5018
877.162	5075
877.29	4995
877.418	5094
877.546	5094
877.674	5060
877.802	5045
877.93	5014
878.058	4942
878.185	4919
878.313	4961
878.441	4953
878.568	4790
878.696	4923
878.824	4995
878.951	5045
879.079	5143
879.206	5307
879.333	5136
879.461	5010
879.588	4987
879.715	5193
879.842	5227
879.97	5064
880.097	4835
880.224	4752
880.351	4839
880.478	4870
880.605	4805
880.732	4801
880.859	5086
880.986	4987
881.112	4930
881.239	4782
881.366	4679
881.493	4584
881.619	4603
881.746	4653
881.872	4664
881.999	4653
882.125	4694
882.252	4801
882.378	4847
882.505	4999
882.631	4797
882.757	4717
882.883	4748
883.01	4740
883.136	4691
883.262	4607
883.388	4611
883.514	4835
883.64	4873
883.766	4782
883.892	4706
884.018	4744
884.143	4904
884.269	5022
884.395	4653
884.52	4618
884.646	4687
884.772	4580
884.897	4504
885.023	4634
885.148	4797
885.274	4862
885.399	4854
885.524	4721
885.65	4691
885.775	4831
885.9	4691
886.025	4870
886.15	4767
886.275	4759
886.4	4710
886.525	4717
886.65	4683
886.775	4687
886.9	4942
887.025	5006
887.149	4797
887.274	4645
887.399	4618
887.523	4611
887.648	4611
887.773	4603
887.897	4763
888.021	4767
888.146	4717
888.27	4812
888.395	4930
888.519	4850
888.643	4843
888.767	4793
888.891	4698
889.015	4641
889.139	4694
889.263	4588
889.387	4778
889.511	4858
889.635	4816
889.759	4618
889.883	4656
890.006	4755
890.13	4839
890.254	4611
890.377	4691
890.501	4603
890.624	4519
890.748	4653
890.871	4531
890.995	4436
891.118	4367
891.241	4531
891.364	4565
891.488	4645
891.611	4516
891.734	4546
891.857	4599
891.98	4558
892.103	4637
892.226	4603
892.349	4538
892.471	4455
892.594	4516
892.717	4603
892.839	4607
892.962	4607
893.085	4649
893.207	4554
893.33	4455
893.452	4577
893.575	4664
893.697	4607
893.819	4778
893.941	4854
894.064	4771
894.186	4599
894.308	4542
894.43	4733
894.552	4774
894.674	4763
894.796	4538
894.918	4611
895.04	4607
895.161	4706
895.283	4668
895.405	4565
895.526	4668
895.648	4683
895.769	4683
895.891	4717
896.012	4793
896.134	4729
896.255	4637
896.376	4607
896.498	4656
896.619	4675
896.74	4588
896.861	4672
896.982	4938
897.103	5052
897.224	4847
897.345	4767
897.466	4641
897.587	4702
897.708	4866
897.828	4748
897.949	4675
898.07	4546
898.19	4618
898.311	4797
898.431	4675
898.552	4744
898.672	4812
898.792	4797
898.913	4763
899.033	4634
899.153	4542
899.273	4386
899.393	4500
899.513	4500
899.633	4592
899.753	4588
899.873	4504
899.993	4588
900.113	4523
900.232	4584
900.352	4569
900.472	4481
900.591	4379
900.711	4535
900.83	4436
900.95	4554
901.069	4698
901.189	4569
901.308	4413
901.427	4306
901.546	4394
901.665	4466
901.784	4493
901.904	4398
902.023	4352
902.141	4177
902.26	4169
902.379	4276
902.498	4284
902.617	4204
902.735	4424
902.854	4413
902.973	4375
903.091	4219
903.21	4230
903.328	4276
903.446	4265
903.565	4268
903.683	4367
903.801	4265
903.919	4379
904.038	4485
904.156	4379
904.274	4409
904.392	4383
904.51	4447
904.627	4459
904.745	4588
904.863	4634
904.981	4379
905.098	4329
905.216	4356
905.334	4424
905.451	4466
905.569	4398
905.686	4584
905.803	4592
905.921	4428
906.038	4550
906.155	4508
906.272	4402
906.389	4466
906.506	4398
906.623	4428
906.74	4398
906.857	4322
906.974	4329
907.091	4535
907.208	4660
907.324	4603
907.441	4519
907.557	4394
907.674	4344
907.79	4363
907.907	4352
908.023	4470
908.139	4474
908.256	4409
908.372	4546
908.488	4451
908.604	4360
908.72	4341
908.836	4329
908.952	4405
909.068	4443
909.184	4554
909.3	4500
909.415	4558
909.531	4565
909.647	4394
909.762	4375
909.878	4314
909.993	4402
910.108	4459
910.224	4436
910.339	4466
910.454	4462
910.57	4344
910.685	4367
910.8	4717
910.915	4573
911.03	4455
911.145	4299
911.259	4333
911.374	4394
911.489	4280
911.604	4253
911.718	4196
911.833	4192
911.947	4120
912.062	4048
912.176	4230
912.291	4238
912.405	4192
912.519	4443
912.633	4512
912.748	4352
912.862	4348
912.976	4227
913.09	4131
913.204	4169
913.318	4249
913.431	4367
913.545	4379
913.659	4417
913.772	4333
913.886	4238
914	4230
914.113	4383
914.226	4432
914.34	4356
914.453	4230
914.566	4455
914.68	4360
914.793	4337
914.906	4135
915.019	4128
915.132	4082
915.245	4185
915.358	4211
915.47	4246
915.583	4253
915.696	4310
915.809	4428
915.921	4424
916.034	4291
916.146	4291
916.259	4215
916.371	4402
916.483	4356
916.595	4291
916.708	4383
916.82	4310
916.932	4360
917.044	4295
917.156	4310
917.268	4227
917.38	4291
917.491	4284
917.603	4348
917.715	4398
917.826	4440
917.938	4333
918.049	4238
918.161	4413
918.272	4485
918.384	4523
918.495	4432
918.606	4306
918.717	4200
918.828	4291
918.939	4383
919.05	4303
919.161	4306
919.272	4124
919.383	4219
919.494	4402
919.604	4653
919.715	4405
919.826	4318
919.936	4341
920.047	4550
920.157	4512
920.267	4687
920.378	4516
920.488	4504
920.598	4755
920.708	4862
920.818	4740
920.928	4752
921.038	4968
921.148	4938
921.258	4691
921.368	4538
921.477	4523
921.587	4440
921.697	4394
921.806	4538
921.916	4440
922.025	4276
922.134	4268
922.244	4227
922.353	4341
922.462	4162
922.571	4124
922.68	4002
922.789	3972
922.898	4025
923.007	3983
923.116	4112
923.224	4036
923.333	4090
923.442	3968
923.55	3964
923.659	3998
923.767	4090
923.876	4025
923.984	4105
924.092	3934
924.201	4067
924.309	4090
924.417	4093
924.525	4074
924.633	4139
924.741	5010
924.849	3968
924.956	4097
925.064	3922
925.172	3937
925.279	4013
925.387	4032
925.494	4040
925.602	4188
925.709	4173
925.816	4082
925.924	4135
926.031	4257
926.138	4207
926.245	4196
926.352	4078
926.459	4249
926.566	4360
926.673	4143
926.779	4071
926.886	4097
926.993	4006
927.099	3975
927.206	3949
927.312	3968
927.419	4051
927.525	4059
927.631	4109
927.737	3968
927.843	3960
927.95	3876
928.056	3983
928.162	3983
928.267	4036
928.373	4668
928.479	4071
928.585	3896
928.69	4017
928.796	4112
928.901	3964
929.007	3857
929.112	3960
929.218	3975
929.323	3896
929.428	3926
929.533	4116
929.638	3880
929.743	3964
929.848	4074
929.953	3983
930.058	3903
930.163	3755
930.267	3812
930.372	3922
930.477	3827
930.581	4090
930.685	3896
930.79	3808
930.894	3915
930.998	3842
931.103	4059
931.207	3709
931.311	3675
931.415	3709
931.519	3530
931.623	3564
