Data from test_V78500241_888.txt Node
Date: Fri Mar 25 16:55:10 CST 2022
User: usil
Spectrometer: V785-0024
Trigger mode: 0
Integration Time (sec): 4.000000E-1
Scans to average: 1
Nonlinearity correction enabled: false
Boxcar width: 0
Storing dark spectrum: false
XAxis mode: Wavelengths
Number of Pixels in Spectrum: 1024
>>>>>Begin Spectral Data<<<<<
801.071	7993
801.214	7989
801.356	7871
801.499	7864
801.641	7788
801.783	7814
801.926	7970
802.068	7928
802.211	7951
802.353	7947
802.496	7792
802.638	7890
802.78	7917
802.923	7860
803.065	7932
803.208	7864
803.35	8043
803.492	8069
803.635	8176
803.777	8043
803.919	8153
804.061	8404
804.204	8149
804.346	8069
804.488	7925
804.63	8081
804.773	8027
804.915	8046
805.057	8229
805.199	8157
805.341	8210
805.483	8233
805.626	8145
805.768	8096
805.91	8233
806.052	8210
806.194	8073
806.336	8248
806.478	8077
806.62	7986
806.762	8084
806.904	8240
807.046	8419
807.188	8328
807.33	8294
807.472	8248
807.614	8183
807.756	8100
807.898	7997
808.04	7849
808.182	7890
808.324	7849
808.465	7906
808.607	8046
808.749	8130
808.891	8229
809.033	8275
809.174	8176
809.316	8043
809.458	8016
809.6	7967
809.741	8016
809.883	8035
810.025	8111
810.166	8016
810.308	8039
810.45	7993
810.591	7841
810.733	7746
810.875	7685
811.016	7537
811.158	7510
811.299	7594
811.441	7670
811.582	7670
811.724	7586
811.865	7521
812.007	7601
812.148	7582
812.29	7521
812.431	7757
812.573	7780
812.714	7997
812.855	8062
812.997	8145
813.138	8305
813.279	8145
813.421	8142
813.562	8062
813.703	7845
813.845	7792
813.986	7441
814.127	7266
814.268	7244
814.41	7225
814.551	7114
814.692	7141
814.833	7031
814.974	7057
815.115	7038
815.256	6901
815.397	6928
815.539	6954
815.68	6810
815.821	6772
815.962	6798
816.103	6776
816.244	6768
816.385	6631
816.526	6612
816.666	6525
816.807	6323
816.948	6433
817.089	6448
817.23	6414
817.371	6399
817.512	6395
817.653	6388
817.793	6311
817.934	6433
818.075	6426
818.216	6399
818.356	6376
818.497	6239
818.638	6133
818.778	6125
818.919	6144
819.06	6175
819.2	6311
819.341	6361
819.481	6346
819.622	6494
819.762	6692
819.903	6696
820.043	6639
820.184	6547
820.324	6559
820.465	6741
820.605	6642
820.746	6654
820.886	6429
821.026	6700
821.167	6707
821.307	6772
821.447	6745
821.588	6658
821.728	6551
821.868	6460
822.008	6380
822.149	6350
822.289	6407
822.429	6140
822.569	6072
822.709	6079
822.849	5908
822.99	5908
823.13	5878
823.27	5931
823.41	5779
823.55	5790
823.69	5688
823.83	5779
823.97	5657
824.11	5554
824.25	5570
824.389	5535
824.529	5577
824.669	5478
824.809	5653
824.949	5653
825.089	5585
825.228	5474
825.368	5379
825.508	5303
825.648	5326
825.787	5391
825.927	5353
826.067	5277
826.206	5288
826.346	5299
826.485	5440
826.625	5383
826.765	5566
826.904	5467
827.044	5292
827.183	5212
827.323	5113
827.462	5216
827.601	5197
827.741	5178
827.88	5250
828.02	5109
828.159	5189
828.298	5254
828.437	5315
828.577	5250
828.716	5463
828.855	5341
828.994	5132
829.134	5140
829.273	5185
829.412	5121
829.551	5090
829.69	5109
829.829	5239
829.968	5379
830.107	5284
830.246	5265
830.385	5147
830.524	5147
830.663	5105
830.802	4976
830.941	4919
831.08	4847
831.219	4961
831.357	4972
831.496	5117
831.635	4881
831.774	4858
831.913	4858
832.051	4710
832.19	4744
832.329	4771
832.467	4687
832.606	4592
832.744	4714
832.883	4687
833.022	4733
833.16	4771
833.299	4793
833.437	4839
833.576	4839
833.714	4854
833.852	4870
833.991	4805
834.129	4953
834.267	4919
834.406	4862
834.544	4942
834.682	4930
834.821	4946
834.959	5189
835.097	4984
835.235	5060
835.373	5010
835.511	5113
835.65	4995
835.788	5037
835.926	4885
836.064	4900
836.202	4885
836.34	5151
836.478	5143
836.615	5128
836.753	5204
836.891	5246
837.029	5223
837.167	5181
837.305	5132
837.443	5113
837.58	5041
837.718	5235
837.856	5151
837.993	5136
838.131	5201
838.269	5223
838.406	5178
838.544	5155
838.681	5018
838.819	4980
838.956	4862
839.094	4862
839.231	4927
839.369	5018
839.506	5387
839.643	5265
839.781	5045
839.918	5018
840.055	5079
840.193	5056
840.33	5090
840.467	5132
840.604	5140
840.742	5372
840.879	5045
841.016	5064
841.153	5136
841.29	5318
841.427	5345
841.564	5326
841.701	5349
841.838	5242
841.975	5220
842.112	5212
842.249	5113
842.385	5132
842.522	5318
842.659	5231
842.796	5113
842.933	5178
843.069	5132
843.206	5162
843.343	5284
843.479	5189
843.616	5227
843.752	5003
843.889	4991
844.025	5223
844.162	5010
844.298	5189
844.435	5079
844.571	5079
844.708	5212
844.844	5261
844.98	5330
845.117	5250
845.253	5124
845.389	5128
845.525	5162
845.661	5143
845.798	5022
845.934	5170
846.07	5048
846.206	5162
846.342	5258
846.478	5132
846.614	4987
846.75	5018
846.886	4938
847.022	5086
847.158	5003
847.294	5041
847.429	5071
847.565	5033
847.701	5303
847.837	4866
847.972	4778
848.108	4984
848.244	4965
848.379	4763
848.515	4725
848.65	4691
848.786	4729
848.921	4782
849.057	4873
849.192	4889
849.328	4744
849.463	4835
849.598	4816
849.734	4763
849.869	4637
850.004	4554
850.14	4637
850.275	4550
850.41	4538
850.545	4531
850.68	4565
850.815	4592
850.95	4607
851.085	4812
851.22	4710
851.355	4634
851.49	4573
851.625	4615
851.76	4637
851.895	4512
852.03	4603
852.165	4615
852.299	4694
852.434	4771
852.569	4725
852.703	4752
852.838	4828
852.973	4858
853.107	4942
853.242	4744
853.376	4683
853.511	4558
853.645	4599
853.78	4797
853.914	4706
854.048	4691
854.183	4645
854.317	4687
854.451	4858
854.585	4694
854.72	4668
854.854	4717
854.988	4550
855.122	4649
855.256	4500
855.39	4679
855.524	4759
855.658	4702
855.792	4710
855.926	4694
856.06	4744
856.194	4790
856.327	4691
856.461	4607
856.595	4592
856.729	4611
856.862	4740
856.996	4653
857.13	4778
857.263	4733
857.397	4778
857.53	4645
857.664	4752
857.797	4714
857.931	4702
858.064	4672
858.197	4714
858.331	4637
858.464	4550
858.597	4531
858.731	4580
858.864	4607
858.997	4550
859.13	4618
859.263	4641
859.396	4668
859.529	4538
859.662	4588
859.795	4519
859.928	4626
860.061	4736
860.194	4710
860.327	4607
860.46	4561
860.592	4649
860.725	4721
860.858	4725
860.99	4542
861.123	4497
861.256	4516
861.388	4641
861.521	5288
861.653	4478
861.786	4470
861.918	4451
862.05	4497
862.183	4523
862.315	4535
862.447	4603
862.58	4531
862.712	4402
862.844	4303
862.976	4474
863.108	4432
863.24	4752
863.372	4341
863.504	4447
863.636	4390
863.768	4440
863.9	4428
864.032	4337
864.164	4371
864.296	4424
864.428	4550
864.559	4535
864.691	4523
864.823	4466
864.954	4519
865.086	4493
865.217	4459
865.349	4352
865.48	4432
865.612	4500
865.743	4626
865.875	4451
866.006	4398
866.137	4447
866.269	4421
866.4	4383
866.531	4402
866.662	4390
866.793	4390
866.924	4436
867.055	4519
867.186	4466
867.317	4386
867.448	4390
867.579	4356
867.71	4383
867.841	4360
867.972	4432
868.103	4440
868.233	4421
868.364	4466
868.495	4455
868.625	4694
868.756	4706
868.886	4516
869.017	4569
869.147	4736
869.278	4778
869.408	4683
869.539	4615
869.669	4691
869.799	4653
869.929	4759
870.06	4736
870.19	4949
870.32	4911
870.45	4904
870.58	4995
870.71	5075
870.84	5079
870.97	4949
871.1	4885
871.23	5140
871.36	5075
871.489	5037
871.619	5041
871.749	5052
871.879	5147
872.008	5117
872.138	4991
872.267	4976
872.397	4805
872.526	4748
872.656	4679
872.785	4790
872.915	4999
873.044	4957
873.173	4870
873.303	4968
873.432	4923
873.561	4900
873.69	4843
873.819	4763
873.948	4908
874.077	4793
874.206	4744
874.335	4786
874.464	4873
874.593	5071
874.722	4908
874.851	5090
874.979	5045
875.108	5022
875.237	4881
875.365	4881
875.494	4908
875.623	4961
875.751	4774
875.88	4843
876.008	4961
876.136	5006
876.265	5220
876.393	5299
876.521	5242
876.65	5220
876.778	5143
876.906	5060
877.034	4972
877.162	5056
877.29	4927
877.418	5029
877.546	4980
877.674	5018
877.802	5048
877.93	4972
878.058	4965
878.185	4831
878.313	4915
878.441	4934
878.568	4870
878.696	4889
878.824	4900
878.951	4965
879.079	5052
879.206	5231
879.333	5052
879.461	4957
879.588	4995
879.715	5052
879.842	5185
879.97	4987
880.097	4812
880.224	4714
880.351	4767
880.478	4809
880.605	4767
880.732	4767
880.859	5056
880.986	4870
881.112	4915
881.239	4698
881.366	4679
881.493	4550
881.619	4584
881.746	4615
881.872	4611
881.999	4637
882.125	4702
882.252	4759
882.378	4812
882.505	4957
882.631	4805
882.757	4645
882.883	4740
883.01	4736
883.136	4615
883.262	4607
883.388	4588
883.514	4812
883.64	4854
883.766	4786
883.892	4675
884.018	4694
884.143	4873
884.269	4968
884.395	4660
884.52	4580
884.646	4622
884.772	4554
884.897	4580
885.023	4691
885.148	4736
885.274	4927
885.399	4782
885.524	4714
885.65	4698
885.775	4725
885.9	4706
886.025	4873
886.15	4782
886.275	4721
886.4	4660
886.525	4691
886.65	4694
886.775	4675
886.9	4866
887.025	4987
887.149	4740
887.274	4615
887.399	4565
887.523	4603
887.648	4577
887.773	4493
887.897	4759
888.021	4801
888.146	4641
888.27	4793
888.395	4850
888.519	4797
888.643	4812
888.767	4847
888.891	4698
889.015	4577
889.139	4656
889.263	4599
889.387	4740
889.511	4870
889.635	4782
889.759	4611
889.883	4668
890.006	4778
890.13	4790
890.254	4592
890.377	4649
890.501	4538
890.624	4561
890.748	4561
890.871	4512
890.995	4432
891.118	4363
891.241	4519
891.364	4519
891.488	4599
891.611	4489
891.734	4504
891.857	4611
891.98	4512
892.103	4599
892.226	4538
892.349	4519
892.471	4405
892.594	4504
892.717	4599
892.839	4577
892.962	4565
893.085	4615
893.207	4546
893.33	4462
893.452	4497
893.575	4653
893.697	4531
893.819	4752
893.941	4847
894.064	4729
894.186	4538
894.308	4577
894.43	4660
894.552	4805
894.674	4748
894.796	4565
894.918	4573
895.04	4596
895.161	4748
895.283	4618
895.405	4577
895.526	4607
895.648	4637
895.769	4634
895.891	4660
896.012	4706
896.134	4710
896.255	4637
896.376	4588
896.498	4622
896.619	4687
896.74	4592
896.861	4615
896.982	4911
897.103	5079
897.224	4740
897.345	4729
897.466	4649
897.587	4668
897.708	4847
897.828	4767
897.949	4675
898.07	4535
898.19	4611
898.311	4782
898.431	4622
898.552	4714
898.672	4786
898.792	4740
898.913	4736
899.033	4580
899.153	4493
899.273	4440
899.393	4512
899.513	4478
899.633	4523
899.753	4478
899.873	4481
899.993	4523
900.113	4470
900.232	4561
900.352	4504
900.472	4489
900.591	4375
900.711	4466
900.83	4413
900.95	4637
901.069	4668
901.189	4519
901.308	4356
901.427	4284
901.546	4367
901.665	4459
901.784	4474
901.904	4348
902.023	4295
902.141	4162
902.26	4177
902.379	4295
902.498	4234
902.617	4150
902.735	4329
902.854	4386
902.973	4341
903.091	4177
903.21	4242
903.328	4272
903.446	4219
903.565	4276
903.683	4394
903.801	4200
903.919	4383
904.038	4455
904.156	4272
904.274	4409
904.392	4325
904.51	4485
904.627	4478
904.745	4584
904.863	4664
904.981	4371
905.098	4337
905.216	4386
905.334	4459
905.451	4462
905.569	4421
905.686	4561
905.803	4573
905.921	4417
906.038	4512
906.155	4508
906.272	4386
906.389	4436
906.506	4344
906.623	4398
906.74	4470
906.857	4348
906.974	4386
907.091	4573
907.208	4729
907.324	4596
907.441	4527
907.557	4383
907.674	4360
907.79	4363
907.907	4436
908.023	4546
908.139	4470
908.256	4462
908.372	4470
908.488	4516
908.604	4470
908.72	4306
908.836	4375
908.952	4428
909.068	4459
909.184	4641
909.3	4497
909.415	4596
909.531	4558
909.647	4383
909.762	4383
909.878	4386
909.993	4478
910.108	4470
910.224	4428
910.339	4577
910.454	4440
910.57	4360
910.685	4306
910.8	4691
910.915	4596
911.03	4558
911.145	4367
911.259	4337
911.374	4348
911.489	4348
911.604	4284
911.718	4185
911.833	4238
911.947	4116
912.062	4025
912.176	4272
912.291	4265
912.405	4306
912.519	4504
912.633	4527
912.748	4432
912.862	4322
912.976	4261
913.09	4154
913.204	4223
913.318	4322
913.431	4409
913.545	4417
913.659	4462
913.772	4405
913.886	4284
914	4230
914.113	4394
914.226	4443
914.34	4409
914.453	4284
914.566	4455
914.68	4318
914.793	4360
914.906	4227
915.019	4181
915.132	4074
915.245	4230
915.358	4234
915.47	4188
915.583	4306
915.696	4325
915.809	4451
915.921	4493
916.034	4284
916.146	4246
916.259	4265
916.371	4398
916.483	4325
916.595	4337
916.708	4337
916.82	4344
916.932	4363
917.044	4333
917.156	4333
917.268	4280
917.38	4325
917.491	4295
917.603	4356
917.715	4417
917.826	4447
917.938	4386
918.049	4272
918.161	4379
918.272	4637
918.384	4550
918.495	4512
918.606	4325
918.717	4268
918.828	4310
918.939	4421
919.05	4284
919.161	4341
919.272	4185
919.383	4291
919.494	4478
919.604	4622
919.715	4485
919.826	4386
919.936	4413
920.047	4542
920.157	4493
920.267	4702
920.378	4508
920.488	4493
920.598	4736
920.708	4892
920.818	4782
920.928	4759
921.038	5018
921.148	4942
921.258	4634
921.368	4569
921.477	4462
921.587	4466
921.697	4394
921.806	4565
921.916	4497
922.025	4341
922.134	4257
922.244	4284
922.353	4363
922.462	4230
922.571	4128
922.68	3972
922.789	4017
922.898	4040
923.007	4010
923.116	4124
923.224	4093
923.333	4101
923.442	4010
923.55	3983
923.659	4090
923.767	4131
923.876	3983
923.984	4154
924.092	4055
924.201	4093
924.309	4109
924.417	4090
924.525	4071
924.633	4143
924.741	4873
924.849	3918
924.956	4124
925.064	3994
925.172	3873
925.279	3975
925.387	4097
925.494	4078
925.602	4257
925.709	4234
925.816	4067
925.924	4158
926.031	4268
926.138	4196
926.245	4219
926.352	4143
926.459	4280
926.566	4375
926.673	4166
926.779	4109
926.886	4105
926.993	3975
927.099	3953
927.206	3945
927.312	3968
927.419	4051
927.525	4044
927.631	4090
927.737	4013
927.843	3975
927.95	3899
928.056	3998
928.162	4021
928.267	4093
928.373	4634
928.479	4101
928.585	3918
928.69	4029
928.796	4116
928.901	4002
929.007	3842
929.112	4032
929.218	4002
929.323	3994
929.428	3937
929.533	4139
929.638	3930
929.743	3956
929.848	4055
929.953	3987
930.058	3956
930.163	3804
930.267	3838
930.372	3972
930.477	3838
930.581	4093
930.685	3975
930.79	3873
930.894	3880
930.998	3907
931.103	4074
931.207	3751
931.311	3656
931.415	3686
931.519	3553
931.623	3530
