Data from test_V78500241_452.txt Node
Date: Fri Mar 25 16:52:08 CST 2022
User: usil
Spectrometer: V785-0024
Trigger mode: 0
Integration Time (sec): 4.000000E-1
Scans to average: 1
Nonlinearity correction enabled: false
Boxcar width: 0
Storing dark spectrum: false
XAxis mode: Wavelengths
Number of Pixels in Spectrum: 1024
>>>>>Begin Spectral Data<<<<<
801.071	8081
801.214	8031
801.356	7887
801.499	7868
801.641	7868
801.783	7898
801.926	8065
802.068	8084
802.211	7989
802.353	8039
802.496	7898
802.638	7909
802.78	7925
802.923	7902
803.065	7875
803.208	7894
803.35	7967
803.492	8126
803.635	8092
803.777	8046
803.919	8111
804.061	8469
804.204	8107
804.346	8039
804.488	7925
804.63	8084
804.773	8001
804.915	8107
805.057	8256
805.199	8183
805.341	8256
805.483	8286
805.626	8161
805.768	8031
805.91	8168
806.052	8168
806.194	8039
806.336	8324
806.478	8221
806.62	8092
806.762	8164
806.904	8267
807.046	8400
807.188	8301
807.33	8305
807.472	8320
807.614	8134
807.756	8168
807.898	8046
808.04	7879
808.182	7879
808.324	7902
808.465	7940
808.607	8031
808.749	8103
808.891	8252
809.033	8298
809.174	8202
809.316	8054
809.458	8024
809.6	7982
809.741	8073
809.883	8039
810.025	8115
810.166	8107
810.308	8031
810.45	8008
810.591	7928
810.733	7704
810.875	7620
811.016	7533
811.158	7556
811.299	7643
811.441	7753
811.582	7776
811.724	7643
811.865	7556
812.007	7651
812.148	7643
812.29	7666
812.431	7776
812.573	7894
812.714	8016
812.855	8134
812.997	8263
813.138	8370
813.279	8256
813.421	8130
813.562	8084
813.703	7932
813.845	7871
813.986	7510
814.127	7384
814.268	7282
814.41	7346
814.551	7194
814.692	7225
814.833	7122
814.974	7095
815.115	7160
815.256	7004
815.397	6905
815.539	6962
815.68	6837
815.821	6787
815.962	6882
816.103	6837
816.244	6719
816.385	6722
816.526	6738
816.666	6536
816.807	6369
816.948	6426
817.089	6513
817.23	6475
817.371	6331
817.512	6399
817.653	6391
817.793	6346
817.934	6395
818.075	6509
818.216	6467
818.356	6395
818.497	6277
818.638	6155
818.778	6163
818.919	6136
819.06	6171
819.2	6289
819.341	6357
819.481	6399
819.622	6502
819.762	6692
819.903	6711
820.043	6616
820.184	6646
820.324	6593
820.465	6646
820.605	6684
820.746	6654
820.886	6513
821.026	6715
821.167	6719
821.307	6787
821.447	6776
821.588	6677
821.728	6536
821.868	6452
822.008	6319
822.149	6388
822.289	6361
822.429	6178
822.569	6110
822.709	6098
822.849	5935
822.99	5874
823.13	5916
823.27	5931
823.41	5794
823.55	5786
823.69	5832
823.83	5828
823.97	5676
824.11	5520
824.25	5459
824.389	5501
824.529	5604
824.669	5501
824.809	5688
824.949	5657
825.089	5573
825.228	5551
825.368	5402
825.508	5315
825.648	5334
825.787	5368
825.927	5410
826.067	5330
826.206	5322
826.346	5433
826.485	5372
826.625	5379
826.765	5486
826.904	5467
827.044	5216
827.183	5223
827.323	5189
827.462	5246
827.601	5166
827.741	5258
827.88	5204
828.02	5124
828.159	5246
828.298	5345
828.437	5372
828.577	5311
828.716	5509
828.855	5337
828.994	5178
829.134	5162
829.273	5223
829.412	5174
829.551	5143
829.69	5155
829.829	5246
829.968	5364
830.107	5242
830.246	5277
830.385	5197
830.524	5147
830.663	5083
830.802	5018
830.941	4930
831.08	4873
831.219	5014
831.357	4999
831.496	5117
831.635	4938
831.774	4866
831.913	4873
832.051	4782
832.19	4759
832.329	4892
832.467	4740
832.606	4626
832.744	4721
832.883	4736
833.022	4717
833.16	4767
833.299	4805
833.437	4828
833.576	4820
833.714	4778
833.852	4889
833.991	4946
834.129	4968
834.267	4934
834.406	4889
834.544	5033
834.682	4995
834.821	4968
834.959	5147
835.097	5025
835.235	5181
835.373	5083
835.511	5132
835.65	5045
835.788	5048
835.926	4908
836.064	4942
836.202	4885
836.34	5105
836.478	5288
836.615	5132
836.753	5227
836.891	5307
837.029	5292
837.167	5231
837.305	5140
837.443	5147
837.58	5124
837.718	5231
837.856	5128
837.993	5174
838.131	5220
838.269	5166
838.406	5159
838.544	5204
838.681	5079
838.819	5079
838.956	4892
839.094	4904
839.231	4991
839.369	5018
839.506	5452
839.643	5307
839.781	5064
839.918	5029
840.055	5174
840.193	5117
840.33	5117
840.467	5170
840.604	5227
840.742	5471
840.879	5041
841.016	5079
841.153	5162
841.29	5379
841.427	5368
841.564	5391
841.701	5337
841.838	5292
841.975	5242
842.112	5269
842.249	5147
842.385	5113
842.522	5311
842.659	5181
842.796	5159
842.933	5231
843.069	5128
843.206	5170
843.343	5303
843.479	5212
843.616	5299
843.752	4968
843.889	5056
844.025	5284
844.162	5029
844.298	5212
844.435	5132
844.571	5102
844.708	5235
844.844	5315
844.98	5330
845.117	5258
845.253	5170
845.389	5086
845.525	5162
845.661	5147
845.798	5060
845.934	5166
846.07	5045
846.206	5220
846.342	5265
846.478	5166
846.614	5018
846.75	4968
846.886	4942
847.022	5121
847.158	4995
847.294	5094
847.429	5113
847.565	5048
847.701	5349
847.837	4896
847.972	4816
848.108	4976
848.244	4896
848.379	4843
848.515	4710
848.65	4710
848.786	4733
848.921	4793
849.057	4850
849.192	4919
849.328	4778
849.463	4831
849.598	4790
849.734	4694
849.869	4687
850.004	4653
850.14	4645
850.275	4577
850.41	4481
850.545	4577
850.68	4630
850.815	4580
850.95	4634
851.085	4820
851.22	4752
851.355	4672
851.49	4603
851.625	4672
851.76	4634
851.895	4554
852.03	4550
852.165	4607
852.299	4744
852.434	4793
852.569	4702
852.703	4763
852.838	4812
852.973	5010
853.107	4885
853.242	4740
853.376	4687
853.511	4626
853.645	4607
853.78	4786
853.914	4721
854.048	4664
854.183	4618
854.317	4736
854.451	4847
854.585	4641
854.72	4630
854.854	4763
854.988	4531
855.122	4626
855.256	4497
855.39	4645
855.524	4816
855.658	4744
855.792	4694
855.926	4740
856.06	4748
856.194	4767
856.327	4660
856.461	4622
856.595	4618
856.729	4649
856.862	4752
856.996	4679
857.13	4702
857.263	4725
857.397	4786
857.53	4710
857.664	4759
857.797	4797
857.931	4778
858.064	4710
858.197	4771
858.331	4660
858.464	4622
858.597	4531
858.731	4653
858.864	4660
858.997	4626
859.13	4622
859.263	4706
859.396	4698
859.529	4596
859.662	4546
859.795	4546
859.928	4588
860.061	4748
860.194	4752
860.327	4588
860.46	4542
860.592	4740
860.725	4694
860.858	4664
860.99	4622
861.123	4523
861.256	4508
861.388	4573
861.521	5440
861.653	4500
861.786	4432
861.918	4413
862.05	4466
862.183	4535
862.315	4584
862.447	4649
862.58	4531
862.712	4394
862.844	4329
862.976	4428
863.108	4462
863.24	4824
863.372	4303
863.504	4383
863.636	4455
863.768	4489
863.9	4455
864.032	4375
864.164	4371
864.296	4542
864.428	4573
864.559	4542
864.691	4573
864.823	4504
864.954	4527
865.086	4493
865.217	4489
865.349	4417
865.48	4455
865.612	4546
865.743	4660
865.875	4493
866.006	4413
866.137	4440
866.269	4451
866.4	4466
866.531	4421
866.662	4421
866.793	4424
866.924	4402
867.055	4531
867.186	4466
867.317	4371
867.448	4386
867.579	4379
867.71	4436
867.841	4436
867.972	4459
868.103	4459
868.233	4432
868.364	4459
868.495	4493
868.625	4714
868.756	4740
868.886	4538
869.017	4607
869.147	4755
869.278	4801
869.408	4748
869.539	4641
869.669	4714
869.799	4675
869.929	4706
870.06	4755
870.19	4972
870.32	4904
870.45	4953
870.58	5022
870.71	5124
870.84	5090
870.97	4980
871.1	4919
871.23	5166
871.36	5189
871.489	5018
871.619	5067
871.749	5094
871.879	5117
872.008	5201
872.138	5056
872.267	4987
872.397	4862
872.526	4763
872.656	4698
872.785	4809
872.915	4957
873.044	5025
873.173	4946
873.303	4934
873.432	4976
873.561	4938
873.69	4828
873.819	4892
873.948	4927
874.077	4858
874.206	4748
874.335	4805
874.464	4927
874.593	5067
874.722	4961
874.851	5083
874.979	5060
875.108	5064
875.237	4870
875.365	4885
875.494	4908
875.623	4984
875.751	4812
875.88	4873
876.008	4946
876.136	5071
876.265	5204
876.393	5345
876.521	5269
876.65	5242
876.778	5162
876.906	5064
877.034	5052
877.162	5071
877.29	4972
877.418	5018
877.546	5094
877.674	5060
877.802	5041
877.93	5064
878.058	4957
878.185	4889
878.313	4987
878.441	4991
878.568	4805
878.696	4858
878.824	4942
878.951	4991
879.079	5162
879.206	5280
879.333	5121
879.461	4995
879.588	4991
879.715	5113
879.842	5239
879.97	5045
880.097	4786
880.224	4759
880.351	4790
880.478	4858
880.605	4790
880.732	4801
880.859	5098
880.986	4877
881.112	4930
881.239	4809
881.366	4668
881.493	4615
881.619	4565
881.746	4611
881.872	4660
881.999	4675
882.125	4683
882.252	4797
882.378	4843
882.505	4949
882.631	4805
882.757	4698
882.883	4729
883.01	4755
883.136	4683
883.262	4611
883.388	4618
883.514	4847
883.64	4911
883.766	4790
883.892	4626
884.018	4702
884.143	4870
884.269	4980
884.395	4714
884.52	4554
884.646	4615
884.772	4577
884.897	4561
885.023	4649
885.148	4717
885.274	4877
885.399	4778
885.524	4744
885.65	4744
885.775	4736
885.9	4706
886.025	4847
886.15	4736
886.275	4740
886.4	4675
886.525	4725
886.65	4687
886.775	4706
886.9	4934
887.025	5041
887.149	4793
887.274	4675
887.399	4596
887.523	4607
887.648	4573
887.773	4599
887.897	4733
888.021	4801
888.146	4649
888.27	4774
888.395	4889
888.519	4790
888.643	4816
888.767	4812
888.891	4706
889.015	4611
889.139	4622
889.263	4615
889.387	4740
889.511	4889
889.635	4797
889.759	4664
889.883	4679
890.006	4702
890.13	4828
890.254	4649
890.377	4694
890.501	4538
890.624	4531
890.748	4664
890.871	4508
890.995	4443
891.118	4356
891.241	4527
891.364	4565
891.488	4641
891.611	4455
891.734	4561
891.857	4584
891.98	4531
892.103	4656
892.226	4599
892.349	4535
892.471	4417
892.594	4489
892.717	4599
892.839	4588
892.962	4611
893.085	4641
893.207	4550
893.33	4489
893.452	4519
893.575	4710
893.697	4603
893.819	4805
893.941	4839
894.064	4786
894.186	4565
894.308	4580
894.43	4744
894.552	4812
894.674	4759
894.796	4588
894.918	4599
895.04	4607
895.161	4721
895.283	4618
895.405	4607
895.526	4656
895.648	4687
895.769	4702
895.891	4706
896.012	4736
896.134	4740
896.255	4660
896.376	4660
896.498	4634
896.619	4660
896.74	4561
896.861	4672
896.982	4923
897.103	5140
897.224	4805
897.345	4755
897.466	4626
897.587	4679
897.708	4881
897.828	4790
897.949	4653
898.07	4596
898.19	4622
898.311	4847
898.431	4656
898.552	4763
898.672	4809
898.792	4759
898.913	4698
899.033	4641
899.153	4512
899.273	4436
899.393	4493
899.513	4584
899.633	4508
899.753	4584
899.873	4535
899.993	4558
900.113	4554
900.232	4603
900.352	4588
900.472	4462
900.591	4344
900.711	4500
900.83	4466
900.95	4584
901.069	4611
901.189	4542
901.308	4375
901.427	4325
901.546	4394
901.665	4485
901.784	4462
901.904	4363
902.023	4344
902.141	4150
902.26	4154
902.379	4322
902.498	4276
902.617	4287
902.735	4352
902.854	4375
902.973	4386
903.091	4200
903.21	4227
903.328	4325
903.446	4272
903.565	4238
903.683	4360
903.801	4268
903.919	4383
904.038	4417
904.156	4341
904.274	4405
904.392	4356
904.51	4402
904.627	4470
904.745	4561
904.863	4645
904.981	4394
905.098	4356
905.216	4402
905.334	4413
905.451	4421
905.569	4466
905.686	4535
905.803	4546
905.921	4432
906.038	4531
906.155	4497
906.272	4367
906.389	4466
906.506	4348
906.623	4356
906.74	4394
906.857	4280
906.974	4398
907.091	4588
907.208	4675
907.324	4554
907.441	4485
907.557	4375
907.674	4379
907.79	4329
907.907	4409
908.023	4489
908.139	4459
908.256	4443
908.372	4466
908.488	4485
908.604	4356
908.72	4363
908.836	4375
908.952	4390
909.068	4440
909.184	4550
909.3	4436
909.415	4569
909.531	4493
909.647	4306
909.762	4394
909.878	4356
909.993	4409
910.108	4428
910.224	4417
910.339	4470
910.454	4371
910.57	4367
910.685	4348
910.8	4664
910.915	4573
911.03	4516
911.145	4356
911.259	4348
911.374	4375
911.489	4325
911.604	4284
911.718	4173
911.833	4295
911.947	4086
912.062	4059
912.176	4265
912.291	4284
912.405	4287
912.519	4432
912.633	4519
912.748	4405
912.862	4337
912.976	4211
913.09	4071
913.204	4150
913.318	4230
913.431	4379
913.545	4375
913.659	4443
913.772	4348
913.886	4227
914	4219
914.113	4398
914.226	4424
914.34	4394
914.453	4234
914.566	4424
914.68	4280
914.793	4291
914.906	4169
915.019	4120
915.132	4150
915.245	4211
915.358	4265
915.47	4230
915.583	4253
915.696	4295
915.809	4436
915.921	4421
916.034	4261
916.146	4223
916.259	4223
916.371	4352
916.483	4363
916.595	4257
916.708	4310
916.82	4329
916.932	4322
917.044	4325
917.156	4344
917.268	4284
917.38	4299
917.491	4314
917.603	4325
917.715	4405
917.826	4424
917.938	4371
918.049	4227
918.161	4394
918.272	4565
918.384	4565
918.495	4432
918.606	4280
918.717	4287
918.828	4352
918.939	4344
919.05	4261
919.161	4356
919.272	4192
919.383	4276
919.494	4440
919.604	4702
919.715	4436
919.826	4386
919.936	4367
920.047	4561
920.157	4523
920.267	4702
920.378	4523
920.488	4466
920.598	4729
920.708	4877
920.818	4778
920.928	4778
921.038	4968
921.148	4892
921.258	4645
921.368	4554
921.477	4519
921.587	4478
921.697	4390
921.806	4550
921.916	4436
922.025	4268
922.134	4265
922.244	4265
922.353	4363
922.462	4219
922.571	4143
922.68	3987
922.789	4006
922.898	4063
923.007	4021
923.116	4109
923.224	4067
923.333	4101
923.442	3956
923.55	3987
923.659	4032
923.767	4090
923.876	3972
923.984	4154
924.092	3979
924.201	4139
924.309	4048
924.417	4139
924.525	4036
924.633	4124
924.741	5045
924.849	3892
924.956	4158
925.064	3983
925.172	3876
925.279	3968
925.387	4067
925.494	4044
925.602	4200
925.709	4173
925.816	4082
925.924	4131
926.031	4253
926.138	4139
926.245	4242
926.352	4124
926.459	4272
926.566	4284
926.673	4143
926.779	4090
926.886	4051
926.993	3968
927.099	3934
927.206	3953
927.312	3975
927.419	4059
927.525	4074
927.631	4086
927.737	3949
927.843	3960
927.95	3857
928.056	3975
928.162	3975
928.267	4082
928.373	4752
928.479	4105
928.585	3892
928.69	4048
928.796	4090
928.901	3960
929.007	3854
929.112	4013
929.218	3994
929.323	3915
929.428	3960
929.533	4169
929.638	3873
929.743	3972
929.848	4021
929.953	3994
930.058	3918
930.163	3766
930.267	3869
930.372	4044
930.477	3816
930.581	4116
930.685	3975
930.79	3827
930.894	3884
930.998	3876
931.103	4006
931.207	3747
931.311	3694
931.415	3671
931.519	3542
931.623	3519
