Data from test_V78500241_1066.txt Node
Date: Fri Mar 25 16:56:24 CST 2022
User: usil
Spectrometer: V785-0024
Trigger mode: 0
Integration Time (sec): 4.000000E-1
Scans to average: 1
Nonlinearity correction enabled: false
Boxcar width: 0
Storing dark spectrum: false
XAxis mode: Wavelengths
Number of Pixels in Spectrum: 1024
>>>>>Begin Spectral Data<<<<<
801.071	8077
801.214	8035
801.356	7909
801.499	7849
801.641	7818
801.783	7849
801.926	7898
802.068	7909
802.211	7898
802.353	7951
802.496	7807
802.638	7887
802.78	7967
802.923	7928
803.065	7955
803.208	7925
803.35	8035
803.492	8088
803.635	8164
803.777	8016
803.919	8202
804.061	8549
804.204	8107
804.346	8161
804.488	7955
804.63	8229
804.773	8035
804.915	8145
805.057	8305
805.199	8214
805.341	8199
805.483	8271
805.626	8214
805.768	8107
805.91	8229
806.052	8256
806.194	8084
806.336	8347
806.478	8164
806.62	8054
806.762	8187
806.904	8294
807.046	8484
807.188	8389
807.33	8309
807.472	8320
807.614	8130
807.756	8180
807.898	8001
808.04	7963
808.182	7947
808.324	7925
808.465	7947
808.607	8035
808.749	8096
808.891	8275
809.033	8339
809.174	8248
809.316	8119
809.458	8058
809.6	7947
809.741	8062
809.883	8046
810.025	8130
810.166	8058
810.308	8092
810.45	8020
810.591	7913
810.733	7769
810.875	7700
811.016	7582
811.158	7559
811.299	7575
811.441	7696
811.582	7677
811.724	7624
811.865	7529
812.007	7605
812.148	7613
812.29	7651
812.431	7776
812.573	7902
812.714	8024
812.855	8134
812.997	8279
813.138	8362
813.279	8183
813.421	8164
813.562	8065
813.703	7799
813.845	7742
813.986	7556
814.127	7297
814.268	7285
814.41	7251
814.551	7183
814.692	7190
814.833	7076
814.974	7152
815.115	7152
815.256	6951
815.397	6958
815.539	6993
815.68	6844
815.821	6825
815.962	6897
816.103	6833
816.244	6791
816.385	6642
816.526	6684
816.666	6528
816.807	6342
816.948	6361
817.089	6483
817.23	6467
817.371	6384
817.512	6464
817.653	6376
817.793	6395
817.934	6437
818.075	6483
818.216	6418
818.356	6388
818.497	6243
818.638	6159
818.778	6171
818.919	6140
819.06	6163
819.2	6391
819.341	6357
819.481	6372
819.622	6536
819.762	6806
819.903	6802
820.043	6631
820.184	6589
820.324	6620
820.465	6726
820.605	6741
820.746	6722
820.886	6509
821.026	6658
821.167	6730
821.307	6825
821.447	6882
821.588	6642
821.728	6566
821.868	6506
822.008	6353
822.149	6418
822.289	6433
822.429	6178
822.569	6136
822.709	6072
822.849	5923
822.99	5904
823.13	5923
823.27	5969
823.41	5817
823.55	5821
823.69	5794
823.83	5764
823.97	5630
824.11	5528
824.25	5528
824.389	5585
824.529	5630
824.669	5528
824.809	5634
824.949	5707
825.089	5608
825.228	5539
825.368	5349
825.508	5337
825.648	5299
825.787	5440
825.927	5414
826.067	5326
826.206	5341
826.346	5395
826.485	5433
826.625	5448
826.765	5539
826.904	5493
827.044	5299
827.183	5212
827.323	5124
827.462	5239
827.601	5201
827.741	5265
827.88	5220
828.02	5174
828.159	5280
828.298	5265
828.437	5326
828.577	5296
828.716	5482
828.855	5379
828.994	5235
829.134	5151
829.273	5204
829.412	5159
829.551	5113
829.69	5166
829.829	5246
829.968	5398
830.107	5273
830.246	5307
830.385	5181
830.524	5216
830.663	5048
830.802	4995
830.941	4854
831.08	4900
831.219	4991
831.357	5037
831.496	5178
831.635	4934
831.774	4839
831.913	4862
832.051	4771
832.19	4778
832.329	4854
832.467	4706
832.606	4626
832.744	4736
832.883	4721
833.022	4771
833.16	4786
833.299	4816
833.437	4854
833.576	4801
833.714	4862
833.852	4870
833.991	4870
834.129	5003
834.267	4927
834.406	4892
834.544	4942
834.682	4957
834.821	4961
834.959	5102
835.097	4984
835.235	5098
835.373	5147
835.511	5109
835.65	5083
835.788	4987
835.926	4934
836.064	4900
836.202	4927
836.34	5117
836.478	5208
836.615	5098
836.753	5166
836.891	5337
837.029	5273
837.167	5208
837.305	5212
837.443	5151
837.58	5048
837.718	5277
837.856	5197
837.993	5140
838.131	5212
838.269	5208
838.406	5208
838.544	5201
838.681	5037
838.819	5064
838.956	4927
839.094	4927
839.231	4995
839.369	5102
839.506	5417
839.643	5299
839.781	5075
839.918	4991
840.055	5121
840.193	5090
840.33	5113
840.467	5166
840.604	5189
840.742	5417
840.879	5029
841.016	5136
841.153	5132
841.29	5436
841.427	5330
841.564	5334
841.701	5391
841.838	5288
841.975	5239
842.112	5269
842.249	5124
842.385	5109
842.522	5280
842.659	5197
842.796	5170
842.933	5216
843.069	5086
843.206	5121
843.343	5296
843.479	5246
843.616	5288
843.752	5010
843.889	5022
844.025	5201
844.162	5045
844.298	5242
844.435	5083
844.571	5048
844.708	5220
844.844	5299
844.98	5330
845.117	5277
845.253	5151
845.389	5094
845.525	5155
845.661	5151
845.798	5052
845.934	5162
846.07	5067
846.206	5227
846.342	5265
846.478	5162
846.614	5075
846.75	4999
846.886	4934
847.022	5121
847.158	5014
847.294	5025
847.429	5094
847.565	5022
847.701	5303
847.837	4828
847.972	4828
848.108	4968
848.244	4949
848.379	4778
848.515	4729
848.65	4740
848.786	4771
848.921	4797
849.057	4835
849.192	4892
849.328	4820
849.463	4866
849.598	4824
849.734	4774
849.869	4736
850.004	4660
850.14	4691
850.275	4653
850.41	4550
850.545	4584
850.68	4603
850.815	4683
850.95	4596
851.085	4858
851.22	4710
851.355	4706
851.49	4588
851.625	4622
851.76	4660
851.895	4554
852.03	4508
852.165	4672
852.299	4733
852.434	4812
852.569	4721
852.703	4820
852.838	4828
852.973	4957
853.107	4961
853.242	4687
853.376	4710
853.511	4535
853.645	4656
853.78	4782
853.914	4691
854.048	4733
854.183	4660
854.317	4729
854.451	4847
854.585	4714
854.72	4656
854.854	4774
854.988	4588
855.122	4668
855.256	4508
855.39	4691
855.524	4759
855.658	4748
855.792	4706
855.926	4725
856.06	4748
856.194	4801
856.327	4664
856.461	4599
856.595	4584
856.729	4668
856.862	4771
856.996	4698
857.13	4748
857.263	4790
857.397	4839
857.53	4653
857.664	4679
857.797	4752
857.931	4740
858.064	4706
858.197	4767
858.331	4634
858.464	4607
858.597	4527
858.731	4626
858.864	4675
858.997	4580
859.13	4675
859.263	4687
859.396	4721
859.529	4573
859.662	4577
859.795	4569
859.928	4615
860.061	4744
860.194	4755
860.327	4653
860.46	4519
860.592	4748
860.725	4672
860.858	4748
860.99	4580
861.123	4569
861.256	4500
861.388	4637
861.521	5315
861.653	4470
861.786	4363
861.918	4516
862.05	4493
862.183	4508
862.315	4626
862.447	4664
862.58	4542
862.712	4436
862.844	4306
862.976	4485
863.108	4462
863.24	4866
863.372	4337
863.504	4474
863.636	4398
863.768	4531
863.9	4451
864.032	4310
864.164	4405
864.296	4462
864.428	4542
864.559	4554
864.691	4516
864.823	4481
864.954	4466
865.086	4546
865.217	4462
865.349	4413
865.48	4443
865.612	4470
865.743	4637
865.875	4417
866.006	4485
866.137	4470
866.269	4424
866.4	4417
866.531	4432
866.662	4424
866.793	4436
866.924	4462
867.055	4493
867.186	4485
867.317	4417
867.448	4405
867.579	4428
867.71	4367
867.841	4375
867.972	4481
868.103	4485
868.233	4466
868.364	4443
868.495	4481
868.625	4611
868.756	4824
868.886	4580
869.017	4561
869.147	4782
869.278	4782
869.408	4668
869.539	4668
869.669	4702
869.799	4656
869.929	4729
870.06	4744
870.19	4961
870.32	4942
870.45	4942
870.58	4995
870.71	5094
870.84	5067
870.97	4980
871.1	4923
871.23	5170
871.36	5086
871.489	4984
871.619	5041
871.749	5064
871.879	5083
872.008	5170
872.138	4995
872.267	4991
872.397	4824
872.526	4847
872.656	4740
872.785	4793
872.915	4942
873.044	5056
873.173	4927
873.303	4972
873.432	4942
873.561	4957
873.69	4839
873.819	4828
873.948	4923
874.077	4778
874.206	4778
874.335	4820
874.464	4908
874.593	5025
874.722	4934
874.851	5086
874.979	5006
875.108	5010
875.237	4873
875.365	4911
875.494	4790
875.623	4953
875.751	4862
875.88	4889
876.008	4927
876.136	5025
876.265	5193
876.393	5303
876.521	5201
876.65	5231
876.778	5064
876.906	5033
877.034	5018
877.162	5014
877.29	4999
877.418	5018
877.546	5014
877.674	5018
877.802	5048
877.93	4965
878.058	4957
878.185	4889
878.313	4976
878.441	4972
878.568	4790
878.696	4885
878.824	4957
878.951	4984
879.079	5147
879.206	5265
879.333	5109
879.461	4999
879.588	4987
879.715	5098
879.842	5231
879.97	5029
880.097	4771
880.224	4755
880.351	4771
880.478	4850
880.605	4824
880.732	4790
880.859	5041
880.986	4854
881.112	4900
881.239	4774
881.366	4660
881.493	4615
881.619	4584
881.746	4615
881.872	4660
881.999	4649
882.125	4691
882.252	4790
882.378	4858
882.505	4892
882.631	4797
882.757	4691
882.883	4710
883.01	4714
883.136	4641
883.262	4622
883.388	4546
883.514	4820
883.64	4854
883.766	4793
883.892	4672
884.018	4717
884.143	4976
884.269	5014
884.395	4679
884.52	4603
884.646	4679
884.772	4596
884.897	4550
885.023	4649
885.148	4816
885.274	4824
885.399	4824
885.524	4755
885.65	4698
885.775	4702
885.9	4706
886.025	4828
886.15	4797
886.275	4687
886.4	4664
886.525	4721
886.65	4740
886.775	4664
886.9	4923
887.025	5056
887.149	4847
887.274	4611
887.399	4577
887.523	4615
887.648	4577
887.773	4611
887.897	4771
888.021	4809
888.146	4672
888.27	4763
888.395	4904
888.519	4797
888.643	4816
888.767	4801
888.891	4664
889.015	4580
889.139	4641
889.263	4584
889.387	4706
889.511	4850
889.635	4816
889.759	4645
889.883	4653
890.006	4717
890.13	4820
890.254	4653
890.377	4672
890.501	4504
890.624	4542
890.748	4637
890.871	4493
890.995	4428
891.118	4344
891.241	4466
891.364	4493
891.488	4592
891.611	4485
891.734	4508
891.857	4596
891.98	4580
892.103	4664
892.226	4558
892.349	4527
892.471	4455
892.594	4546
892.717	4588
892.839	4561
892.962	4580
893.085	4664
893.207	4615
893.33	4424
893.452	4535
893.575	4634
893.697	4573
893.819	4786
893.941	4809
894.064	4733
894.186	4535
894.308	4603
894.43	4733
894.552	4820
894.674	4721
894.796	4546
894.918	4603
895.04	4558
895.161	4710
895.283	4592
895.405	4565
895.526	4634
895.648	4683
895.769	4672
895.891	4683
896.012	4767
896.134	4729
896.255	4637
896.376	4626
896.498	4580
896.619	4656
896.74	4569
896.861	4656
896.982	4923
897.103	5105
897.224	4877
897.345	4714
897.466	4622
897.587	4740
897.708	4820
897.828	4778
897.949	4679
898.07	4538
898.19	4630
898.311	4801
898.431	4649
898.552	4752
898.672	4847
898.792	4774
898.913	4725
899.033	4618
899.153	4558
899.273	4455
899.393	4474
899.513	4546
899.633	4519
899.753	4558
899.873	4470
899.993	4577
900.113	4580
900.232	4615
900.352	4508
900.472	4512
900.591	4436
900.711	4493
900.83	4405
900.95	4634
901.069	4641
901.189	4542
901.308	4325
901.427	4291
901.546	4341
901.665	4462
901.784	4493
901.904	4440
902.023	4284
902.141	4215
902.26	4177
902.379	4284
902.498	4268
902.617	4219
902.735	4337
902.854	4394
902.973	4352
903.091	4253
903.21	4154
903.328	4306
903.446	4303
903.565	4234
903.683	4356
903.801	4295
903.919	4367
904.038	4383
904.156	4360
904.274	4436
904.392	4386
904.51	4409
904.627	4470
904.745	4538
904.863	4607
904.981	4405
905.098	4314
905.216	4390
905.334	4443
905.451	4485
905.569	4447
905.686	4546
905.803	4580
905.921	4379
906.038	4554
906.155	4508
906.272	4352
906.389	4428
906.506	4367
906.623	4371
906.74	4424
906.857	4280
906.974	4363
907.091	4615
907.208	4607
907.324	4584
907.441	4497
907.557	4383
907.674	4329
907.79	4322
907.907	4413
908.023	4470
908.139	4455
908.256	4436
908.372	4512
908.488	4436
908.604	4337
908.72	4303
908.836	4348
908.952	4337
909.068	4383
909.184	4596
909.3	4447
909.415	4588
909.531	4573
909.647	4371
909.762	4352
909.878	4318
909.993	4436
910.108	4424
910.224	4417
910.339	4489
910.454	4413
910.57	4337
910.685	4276
910.8	4668
910.915	4561
911.03	4512
911.145	4287
911.259	4337
911.374	4310
911.489	4287
911.604	4265
911.718	4124
911.833	4192
911.947	4074
912.062	3972
912.176	4219
912.291	4215
912.405	4234
912.519	4417
912.633	4474
912.748	4413
912.862	4310
912.976	4181
913.09	4074
913.204	4135
913.318	4223
913.431	4360
913.545	4371
913.659	4386
913.772	4356
913.886	4200
914	4227
914.113	4390
914.226	4466
914.34	4367
914.453	4246
914.566	4440
914.68	4284
914.793	4348
914.906	4135
915.019	4112
915.132	4109
915.245	4177
915.358	4242
915.47	4230
915.583	4280
915.696	4295
915.809	4398
915.921	4417
916.034	4246
916.146	4280
916.259	4162
916.371	4383
916.483	4363
916.595	4253
916.708	4371
916.82	4291
916.932	4329
917.044	4253
917.156	4333
917.268	4230
917.38	4268
917.491	4261
917.603	4310
917.715	4390
917.826	4432
917.938	4287
918.049	4230
918.161	4405
918.272	4474
918.384	4546
918.495	4443
918.606	4284
918.717	4234
918.828	4341
918.939	4367
919.05	4268
919.161	4333
919.272	4097
919.383	4238
919.494	4386
919.604	4611
919.715	4379
919.826	4363
919.936	4329
920.047	4531
920.157	4493
920.267	4668
920.378	4542
920.488	4565
920.598	4672
920.708	4831
920.818	4752
920.928	4759
921.038	4934
921.148	4870
921.258	4653
921.368	4542
921.477	4489
921.587	4440
921.697	4306
921.806	4489
921.916	4466
922.025	4299
922.134	4261
922.244	4192
922.353	4333
922.462	4188
922.571	4128
922.68	4002
922.789	3960
922.898	4059
923.007	3991
923.116	4071
923.224	4040
923.333	4048
923.442	4017
923.55	3994
923.659	4010
923.767	4078
923.876	4002
923.984	4116
924.092	3956
924.201	4055
924.309	4120
924.417	4112
924.525	4048
924.633	4147
924.741	5010
924.849	3899
924.956	4109
925.064	3960
925.172	3873
925.279	3964
925.387	4017
925.494	4036
925.602	4204
925.709	4200
925.816	4055
925.924	4150
926.031	4185
926.138	4131
926.245	4242
926.352	4067
926.459	4204
926.566	4272
926.673	4162
926.779	4124
926.886	4074
926.993	3968
927.099	3934
927.206	3915
927.312	3934
927.419	4059
927.525	4029
927.631	4112
927.737	3983
927.843	3911
927.95	3838
928.056	3945
928.162	3975
928.267	4048
928.373	4634
928.479	4116
928.585	3926
928.69	3987
928.796	4071
928.901	3937
929.007	3774
929.112	3975
929.218	4017
929.323	3922
929.428	3972
929.533	4059
929.638	3869
929.743	3911
929.848	3998
929.953	3972
930.058	3926
930.163	3789
930.267	3835
930.372	3994
930.477	3835
930.581	4048
930.685	3930
930.79	3808
930.894	3857
930.998	3812
931.103	4002
931.207	3717
931.311	3660
931.415	3671
931.519	3488
931.623	3500
