Data from test_V78500241_1021.txt Node
Date: Fri Mar 25 16:56:06 CST 2022
User: usil
Spectrometer: V785-0024
Trigger mode: 0
Integration Time (sec): 4.000000E-1
Scans to average: 1
Nonlinearity correction enabled: false
Boxcar width: 0
Storing dark spectrum: false
XAxis mode: Wavelengths
Number of Pixels in Spectrum: 1024
>>>>>Begin Spectral Data<<<<<
801.071	8062
801.214	8081
801.356	7887
801.499	7955
801.641	7731
801.783	7849
801.926	7944
802.068	7974
802.211	7947
802.353	7955
802.496	7803
802.638	7883
802.78	7894
802.923	7868
803.065	7887
803.208	7887
803.35	8024
803.492	8054
803.635	8153
803.777	8039
803.919	8130
804.061	8393
804.204	8161
804.346	8031
804.488	7963
804.63	8088
804.773	8035
804.915	8039
805.057	8282
805.199	8183
805.341	8145
805.483	8320
805.626	8202
805.768	8134
805.91	8183
806.052	8271
806.194	8084
806.336	8263
806.478	8077
806.62	8024
806.762	8145
806.904	8244
807.046	8450
807.188	8252
807.33	8294
807.472	8320
807.614	8107
807.756	8096
807.898	8005
808.04	7913
808.182	7925
808.324	7879
808.465	7913
808.607	8103
808.749	8077
808.891	8210
809.033	8259
809.174	8145
809.316	8119
809.458	8027
809.6	7963
809.741	8054
809.883	8050
810.025	8088
810.166	8039
810.308	8001
810.45	8001
810.591	7868
810.733	7753
810.875	7666
811.016	7472
811.158	7540
811.299	7567
811.441	7700
811.582	7712
811.724	7597
811.865	7567
812.007	7586
812.148	7537
812.29	7578
812.431	7696
812.573	7849
812.714	7906
812.855	8069
812.997	8221
813.138	8320
813.279	8115
813.421	8031
813.562	8031
813.703	7795
813.845	7734
813.986	7483
814.127	7293
814.268	7198
814.41	7209
814.551	7084
814.692	7133
814.833	7038
814.974	7088
815.115	7076
815.256	6935
815.397	6958
815.539	6973
815.68	6856
815.821	6787
815.962	6909
816.103	6818
816.244	6722
816.385	6627
816.526	6589
816.666	6494
816.807	6327
816.948	6506
817.089	6471
817.23	6433
817.371	6365
817.512	6388
817.653	6391
817.793	6365
817.934	6418
818.075	6445
818.216	6437
818.356	6399
818.497	6205
818.638	6072
818.778	6152
818.919	6083
819.06	6178
819.2	6266
819.341	6338
819.481	6353
819.622	6608
819.762	6745
819.903	6707
820.043	6585
820.184	6559
820.324	6585
820.465	6662
820.605	6654
820.746	6620
820.886	6509
821.026	6616
821.167	6726
821.307	6760
821.447	6798
821.588	6654
821.728	6555
821.868	6532
822.008	6338
822.149	6338
822.289	6338
822.429	6159
822.569	6057
822.709	6121
822.849	5931
822.99	5920
823.13	5901
823.27	5920
823.41	5756
823.55	5817
823.69	5760
823.83	5767
823.97	5665
824.11	5532
824.25	5478
824.389	5543
824.529	5581
824.669	5543
824.809	5589
824.949	5615
825.089	5592
825.228	5543
825.368	5383
825.508	5322
825.648	5379
825.787	5387
825.927	5318
826.067	5311
826.206	5303
826.346	5376
826.485	5357
826.625	5410
826.765	5509
826.904	5520
827.044	5277
827.183	5170
827.323	5117
827.462	5307
827.601	5147
827.741	5174
827.88	5212
828.02	5159
828.159	5223
828.298	5258
828.437	5360
828.577	5284
828.716	5414
828.855	5349
828.994	5178
829.134	5147
829.273	5223
829.412	5117
829.551	5113
829.69	5155
829.829	5197
829.968	5322
830.107	5303
830.246	5269
830.385	5174
830.524	5113
830.663	5052
830.802	4984
830.941	4847
831.08	4885
831.219	4949
831.357	4938
831.496	5117
831.635	4919
831.774	4873
831.913	4862
832.051	4740
832.19	4721
832.329	4850
832.467	4691
832.606	4622
832.744	4691
832.883	4672
833.022	4755
833.16	4797
833.299	4809
833.437	4828
833.576	4809
833.714	4889
833.852	4862
833.991	4900
834.129	4942
834.267	4927
834.406	4866
834.544	4984
834.682	4965
834.821	4972
834.959	5166
835.097	4991
835.235	5159
835.373	5056
835.511	5071
835.65	5006
835.788	5010
835.926	4927
836.064	4896
836.202	4900
836.34	5208
836.478	5254
836.615	5102
836.753	5155
836.891	5288
837.029	5242
837.167	5201
837.305	5166
837.443	5170
837.58	5018
837.718	5239
837.856	5166
837.993	5132
838.131	5250
838.269	5162
838.406	5227
838.544	5185
838.681	5014
838.819	4999
838.956	4896
839.094	4900
839.231	4946
839.369	5045
839.506	5429
839.643	5296
839.781	5094
839.918	4999
840.055	4999
840.193	5052
840.33	5094
840.467	5143
840.604	5170
840.742	5402
840.879	5117
841.016	5105
841.153	5124
841.29	5364
841.427	5349
841.564	5265
841.701	5368
841.838	5265
841.975	5208
842.112	5284
842.249	5094
842.385	5105
842.522	5326
842.659	5159
842.796	5132
842.933	5204
843.069	5181
843.206	5178
843.343	5315
843.479	5261
843.616	5235
843.752	4999
843.889	4984
844.025	5235
844.162	4976
844.298	5220
844.435	5048
844.571	5006
844.708	5216
844.844	5303
844.98	5288
845.117	5261
845.253	5162
845.389	5090
845.525	5140
845.661	5109
845.798	5014
845.934	5102
846.07	5014
846.206	5155
846.342	5220
846.478	5159
846.614	4965
846.75	4972
846.886	4892
847.022	5075
847.158	5048
847.294	5052
847.429	5121
847.565	5029
847.701	5330
847.837	4854
847.972	4759
848.108	4923
848.244	4938
848.379	4763
848.515	4702
848.65	4672
848.786	4698
848.921	4740
849.057	4881
849.192	4862
849.328	4820
849.463	4812
849.598	4793
849.734	4782
849.869	4649
850.004	4596
850.14	4668
850.275	4607
850.41	4493
850.545	4546
850.68	4630
850.815	4634
850.95	4641
851.085	4816
851.22	4706
851.355	4645
851.49	4618
851.625	4599
851.76	4641
851.895	4546
852.03	4519
852.165	4649
852.299	4744
852.434	4733
852.569	4752
852.703	4752
852.838	4824
852.973	4927
853.107	4900
853.242	4717
853.376	4645
853.511	4497
853.645	4622
853.78	4771
853.914	4683
854.048	4660
854.183	4656
854.317	4714
854.451	4847
854.585	4687
854.72	4592
854.854	4710
854.988	4538
855.122	4641
855.256	4504
855.39	4653
855.524	4767
855.658	4725
855.792	4679
855.926	4736
856.06	4717
856.194	4793
856.327	4622
856.461	4645
856.595	4592
856.729	4622
856.862	4752
856.996	4668
857.13	4641
857.263	4740
857.397	4790
857.53	4607
857.664	4702
857.797	4782
857.931	4729
858.064	4660
858.197	4729
858.331	4626
858.464	4615
858.597	4531
858.731	4641
858.864	4599
858.997	4538
859.13	4683
859.263	4679
859.396	4679
859.529	4588
859.662	4554
859.795	4542
859.928	4634
860.061	4748
860.194	4767
860.327	4592
860.46	4561
860.592	4729
860.725	4675
860.858	4664
860.99	4535
861.123	4481
861.256	4531
861.388	4607
861.521	5250
861.653	4497
861.786	4394
861.918	4428
862.05	4558
862.183	4542
862.315	4569
862.447	4637
862.58	4500
862.712	4383
862.844	4337
862.976	4455
863.108	4447
863.24	4850
863.372	4329
863.504	4402
863.636	4413
863.768	4485
863.9	4417
864.032	4318
864.164	4402
864.296	4443
864.428	4535
864.559	4523
864.691	4512
864.823	4519
864.954	4451
865.086	4474
865.217	4402
865.349	4421
865.48	4417
865.612	4466
865.743	4630
865.875	4481
866.006	4466
866.137	4485
866.269	4428
866.4	4432
866.531	4363
866.662	4341
866.793	4390
866.924	4398
867.055	4424
867.186	4436
867.317	4390
867.448	4386
867.579	4409
867.71	4371
867.841	4409
867.972	4417
868.103	4432
868.233	4478
868.364	4447
868.495	4455
868.625	4645
868.756	4759
868.886	4538
869.017	4637
869.147	4763
869.278	4759
869.408	4634
869.539	4615
869.669	4725
869.799	4649
869.929	4763
870.06	4710
870.19	4953
870.32	4889
870.45	4930
870.58	4980
870.71	5086
870.84	5083
870.97	4927
871.1	4858
871.23	5113
871.36	5071
871.489	5045
871.619	5018
871.749	5037
871.879	5155
872.008	5102
872.138	5056
872.267	4942
872.397	4824
872.526	4790
872.656	4691
872.785	4797
872.915	4938
873.044	5010
873.173	4889
873.303	4904
873.432	4889
873.561	4930
873.69	4854
873.819	4790
873.948	4911
874.077	4824
874.206	4767
874.335	4809
874.464	4904
874.593	5045
874.722	4949
874.851	5071
874.979	4999
875.108	4995
875.237	4938
875.365	4839
875.494	4896
875.623	4946
875.751	4824
875.88	4866
876.008	4919
876.136	4980
876.265	5197
876.393	5334
876.521	5212
876.65	5189
876.778	5147
876.906	5090
877.034	5006
877.162	5075
877.29	4995
877.418	5033
877.546	5048
877.674	5003
877.802	5025
877.93	5045
878.058	4919
878.185	4873
878.313	4957
878.441	4847
878.568	4767
878.696	4896
878.824	4889
878.951	4984
879.079	5113
879.206	5231
879.333	5090
879.461	4961
879.588	5018
879.715	5086
879.842	5204
879.97	5003
880.097	4850
880.224	4736
880.351	4759
880.478	4847
880.605	4828
880.732	4755
880.859	5033
880.986	4930
881.112	4885
881.239	4816
881.366	4687
881.493	4596
881.619	4603
881.746	4607
881.872	4622
881.999	4645
882.125	4675
882.252	4790
882.378	4812
882.505	4938
882.631	4774
882.757	4687
882.883	4683
883.01	4733
883.136	4664
883.262	4569
883.388	4615
883.514	4843
883.64	4881
883.766	4752
883.892	4710
884.018	4721
884.143	4870
884.269	5006
884.395	4672
884.52	4626
884.646	4641
884.772	4580
884.897	4577
885.023	4641
885.148	4828
885.274	4809
885.399	4816
885.524	4683
885.65	4721
885.775	4714
885.9	4736
886.025	4892
886.15	4790
886.275	4740
886.4	4645
886.525	4717
886.65	4668
886.775	4679
886.9	4885
887.025	5052
887.149	4854
887.274	4683
887.399	4611
887.523	4588
887.648	4561
887.773	4546
887.897	4805
888.021	4797
888.146	4656
888.27	4809
888.395	4919
888.519	4782
888.643	4786
888.767	4854
888.891	4649
889.015	4561
889.139	4618
889.263	4611
889.387	4774
889.511	4824
889.635	4771
889.759	4641
889.883	4672
890.006	4698
890.13	4790
890.254	4584
890.377	4637
890.501	4588
890.624	4455
890.748	4691
890.871	4493
890.995	4405
891.118	4367
891.241	4527
891.364	4523
891.488	4641
891.611	4481
891.734	4554
891.857	4599
891.98	4573
892.103	4603
892.226	4569
892.349	4558
892.471	4443
892.594	4516
892.717	4626
892.839	4554
892.962	4580
893.085	4603
893.207	4599
893.33	4451
893.452	4508
893.575	4694
893.697	4603
893.819	4790
893.941	4801
894.064	4790
894.186	4569
894.308	4523
894.43	4653
894.552	4778
894.674	4721
894.796	4569
894.918	4580
895.04	4550
895.161	4691
895.283	4675
895.405	4577
895.526	4603
895.648	4641
895.769	4702
895.891	4702
896.012	4698
896.134	4706
896.255	4683
896.376	4615
896.498	4615
896.619	4687
896.74	4546
896.861	4618
896.982	4972
897.103	5018
897.224	4782
897.345	4702
897.466	4622
897.587	4672
897.708	4828
897.828	4763
897.949	4702
898.07	4573
898.19	4641
898.311	4755
898.431	4637
898.552	4710
898.672	4839
898.792	4801
898.913	4725
899.033	4584
899.153	4466
899.273	4417
899.393	4500
899.513	4478
899.633	4504
899.753	4527
899.873	4466
899.993	4561
900.113	4508
900.232	4577
900.352	4546
900.472	4443
900.591	4363
900.711	4474
900.83	4402
900.95	4584
901.069	4626
901.189	4542
901.308	4375
901.427	4299
901.546	4375
901.665	4508
901.784	4546
901.904	4409
902.023	4306
902.141	4215
902.26	4131
902.379	4329
902.498	4242
902.617	4211
902.735	4367
902.854	4390
902.973	4337
903.091	4185
903.21	4188
903.328	4246
903.446	4303
903.565	4257
903.683	4348
903.801	4284
903.919	4398
904.038	4417
904.156	4306
904.274	4440
904.392	4417
904.51	4424
904.627	4497
904.745	4538
904.863	4630
904.981	4398
905.098	4303
905.216	4363
905.334	4417
905.451	4474
905.569	4424
905.686	4523
905.803	4542
905.921	4417
906.038	4542
906.155	4424
906.272	4390
906.389	4424
906.506	4363
906.623	4375
906.74	4363
906.857	4287
906.974	4379
907.091	4531
907.208	4675
907.324	4592
907.441	4523
907.557	4367
907.674	4344
907.79	4329
907.907	4371
908.023	4470
908.139	4481
908.256	4424
908.372	4455
908.488	4466
908.604	4348
908.72	4322
908.836	4386
908.952	4371
909.068	4478
909.184	4523
909.3	4428
909.415	4592
909.531	4554
909.647	4341
909.762	4417
909.878	4325
909.993	4417
910.108	4421
910.224	4424
910.339	4405
910.454	4379
910.57	4341
910.685	4329
910.8	4626
910.915	4535
911.03	4474
911.145	4318
911.259	4249
911.374	4360
911.489	4333
911.604	4295
911.718	4196
911.833	4154
911.947	4040
912.062	4093
912.176	4223
912.291	4207
912.405	4280
912.519	4478
912.633	4489
912.748	4367
912.862	4272
912.976	4253
913.09	4116
913.204	4185
913.318	4249
913.431	4360
913.545	4344
913.659	4478
913.772	4363
913.886	4261
914	4238
914.113	4367
914.226	4436
914.34	4386
914.453	4238
914.566	4421
914.68	4306
914.793	4333
914.906	4135
915.019	4166
915.132	4063
915.245	4162
915.358	4185
915.47	4272
915.583	4272
915.696	4295
915.809	4390
915.921	4417
916.034	4238
916.146	4230
916.259	4215
916.371	4325
916.483	4379
916.595	4265
916.708	4291
916.82	4333
916.932	4318
917.044	4284
917.156	4314
917.268	4234
917.38	4318
917.491	4253
917.603	4325
917.715	4405
917.826	4451
917.938	4325
918.049	4295
918.161	4379
918.272	4519
918.384	4554
918.495	4462
918.606	4291
918.717	4227
918.828	4325
918.939	4432
919.05	4219
919.161	4265
919.272	4109
919.383	4211
919.494	4443
919.604	4584
919.715	4417
919.826	4306
919.936	4405
920.047	4546
920.157	4474
920.267	4691
920.378	4596
920.488	4504
920.598	4687
920.708	4862
920.818	4778
920.928	4763
921.038	4976
921.148	4892
921.258	4626
921.368	4550
921.477	4428
921.587	4478
921.697	4390
921.806	4489
921.916	4436
922.025	4261
922.134	4265
922.244	4227
922.353	4303
922.462	4219
922.571	4181
922.68	4010
922.789	3987
922.898	4048
923.007	3983
923.116	4116
923.224	4029
923.333	4093
923.442	3983
923.55	3987
923.659	4029
923.767	4124
923.876	3994
923.984	4097
924.092	3953
924.201	4093
924.309	4109
924.417	4105
924.525	4048
924.633	4086
924.741	5014
924.849	3892
924.956	4124
925.064	3998
925.172	3907
925.279	3968
925.387	4051
925.494	4071
925.602	4238
925.709	4188
925.816	4010
925.924	4105
926.031	4268
926.138	4158
926.245	4166
926.352	4044
926.459	4211
926.566	4337
926.673	4154
926.779	4051
926.886	4124
926.993	3998
927.099	3968
927.206	3922
927.312	3907
927.419	4074
927.525	4078
927.631	4116
927.737	3953
927.843	3953
927.95	3827
928.056	3987
928.162	3987
928.267	4006
928.373	4656
928.479	4093
928.585	3842
928.69	4025
928.796	4093
928.901	3960
929.007	3838
929.112	4021
929.218	3968
929.323	3934
929.428	3926
929.533	4101
929.638	3896
929.743	3972
929.848	3987
929.953	3983
930.058	3903
930.163	3755
930.267	3876
930.372	3964
930.477	3823
930.581	4078
930.685	3994
930.79	3819
930.894	3896
930.998	3808
931.103	4048
931.207	3720
931.311	3686
931.415	3652
931.519	3526
931.623	3557
