Data from test_V78500241_2823.txt Node
Date: Fri Mar 25 17:08:37 CST 2022
User: usil
Spectrometer: V785-0024
Trigger mode: 0
Integration Time (sec): 4.000000E-1
Scans to average: 1
Nonlinearity correction enabled: false
Boxcar width: 0
Storing dark spectrum: false
XAxis mode: Wavelengths
Number of Pixels in Spectrum: 1024
>>>>>Begin Spectral Data<<<<<
801.071	8035
801.214	8035
801.356	7871
801.499	7868
801.641	7811
801.783	7860
801.926	8054
802.068	7982
802.211	8020
802.353	7986
802.496	7868
802.638	7906
802.78	7902
802.923	7982
803.065	7898
803.208	7921
803.35	7982
803.492	8142
803.635	8187
803.777	8031
803.919	8119
804.061	8385
804.204	8172
804.346	8069
804.488	7997
804.63	8206
804.773	8069
804.915	8111
805.057	8290
805.199	8237
805.341	8244
805.483	8237
805.626	8210
805.768	8149
805.91	8252
806.052	8183
806.194	8126
806.336	8351
806.478	8115
806.62	8073
806.762	8142
806.904	8286
807.046	8518
807.188	8294
807.33	8328
807.472	8370
807.614	8157
807.756	8199
807.898	8024
808.04	7921
808.182	7883
808.324	7917
808.465	7890
808.607	8107
808.749	8206
808.891	8195
809.033	8286
809.174	8210
809.316	8069
809.458	8088
809.6	8016
809.741	8024
809.883	8058
810.025	8134
810.166	8054
810.308	8031
810.45	8039
810.591	7921
810.733	7769
810.875	7731
811.016	7575
811.158	7480
811.299	7601
811.441	7742
811.582	7693
811.724	7578
811.865	7525
812.007	7681
812.148	7571
812.29	7639
812.431	7753
812.573	7887
812.714	8054
812.855	8157
812.997	8176
813.138	8279
813.279	8145
813.421	8134
813.562	7982
813.703	7906
813.845	7738
813.986	7518
814.127	7331
814.268	7259
814.41	7274
814.551	7251
814.692	7228
814.833	7156
814.974	7122
815.115	7187
815.256	6924
815.397	6947
815.539	7015
815.68	6806
815.821	6791
815.962	6825
816.103	6833
816.244	6760
816.385	6711
816.526	6631
816.666	6540
816.807	6338
816.948	6506
817.089	6448
817.23	6445
817.371	6357
817.512	6414
817.653	6388
817.793	6300
817.934	6418
818.075	6517
818.216	6422
818.356	6448
818.497	6273
818.638	6205
818.778	6201
818.919	6140
819.06	6186
819.2	6327
819.341	6289
819.481	6365
819.622	6585
819.762	6753
819.903	6684
820.043	6642
820.184	6616
820.324	6597
820.465	6684
820.605	6703
820.746	6681
820.886	6555
821.026	6658
821.167	6722
821.307	6741
821.447	6810
821.588	6677
821.728	6578
821.868	6506
822.008	6357
822.149	6372
822.289	6410
822.429	6216
822.569	6114
822.709	6133
822.849	5870
822.99	5927
823.13	5939
823.27	5927
823.41	5813
823.55	5836
823.69	5714
823.83	5760
823.97	5691
824.11	5551
824.25	5528
824.389	5577
824.529	5581
824.669	5558
824.809	5657
824.949	5665
825.089	5615
825.228	5562
825.368	5410
825.508	5337
825.648	5326
825.787	5379
825.927	5372
826.067	5311
826.206	5246
826.346	5364
826.485	5467
826.625	5455
826.765	5528
826.904	5516
827.044	5231
827.183	5216
827.323	5159
827.462	5227
827.601	5181
827.741	5231
827.88	5193
828.02	5117
828.159	5242
828.298	5269
828.437	5372
828.577	5303
828.716	5463
828.855	5364
828.994	5174
829.134	5147
829.273	5246
829.412	5105
829.551	5147
829.69	5113
829.829	5212
829.968	5345
830.107	5220
830.246	5326
830.385	5216
830.524	5121
830.663	5090
830.802	4957
830.941	4862
831.08	4877
831.219	4968
831.357	5006
831.496	5143
831.635	4900
831.774	4843
831.913	4850
832.051	4748
832.19	4721
832.329	4831
832.467	4736
832.606	4672
832.744	4714
832.883	4797
833.022	4691
833.16	4767
833.299	4812
833.437	4797
833.576	4839
833.714	4885
833.852	4812
833.991	4885
834.129	4980
834.267	4881
834.406	4892
834.544	4972
834.682	4968
834.821	4972
834.959	5174
835.097	4999
835.235	5189
835.373	5075
835.511	5136
835.65	5029
835.788	5006
835.926	4885
836.064	4881
836.202	4942
836.34	5185
836.478	5197
836.615	5136
836.753	5208
836.891	5330
837.029	5185
837.167	5201
837.305	5159
837.443	5159
837.58	5071
837.718	5242
837.856	5227
837.993	5132
838.131	5197
838.269	5185
838.406	5181
838.544	5227
838.681	5025
838.819	5006
838.956	4896
839.094	4961
839.231	4999
839.369	5056
839.506	5379
839.643	5258
839.781	5064
839.918	5033
840.055	5136
840.193	5090
840.33	5113
840.467	5124
840.604	5201
840.742	5410
840.879	5086
841.016	5033
841.153	5231
841.29	5448
841.427	5326
841.564	5326
841.701	5372
841.838	5330
841.975	5273
842.112	5296
842.249	5147
842.385	5071
842.522	5349
842.659	5201
842.796	5113
842.933	5235
843.069	5185
843.206	5201
843.343	5303
843.479	5269
843.616	5197
843.752	5086
843.889	5018
844.025	5212
844.162	5041
844.298	5212
844.435	5060
844.571	5079
844.708	5185
844.844	5311
844.98	5364
845.117	5303
845.253	5170
845.389	5098
845.525	5105
845.661	5162
845.798	5041
845.934	5151
846.07	5033
846.206	5159
846.342	5258
846.478	5208
846.614	5033
846.75	5010
846.886	4934
847.022	5166
847.158	5003
847.294	5056
847.429	5105
847.565	5048
847.701	5330
847.837	4854
847.972	4782
848.108	4930
848.244	4896
848.379	4801
848.515	4740
848.65	4721
848.786	4721
848.921	4831
849.057	4889
849.192	4873
849.328	4866
849.463	4782
849.598	4824
849.734	4797
849.869	4706
850.004	4656
850.14	4691
850.275	4569
850.41	4554
850.545	4611
850.68	4622
850.815	4626
850.95	4603
851.085	4839
851.22	4744
851.355	4660
851.49	4599
851.625	4649
851.76	4649
851.895	4546
852.03	4455
852.165	4634
852.299	4740
852.434	4725
852.569	4736
852.703	4801
852.838	4870
852.973	4930
853.107	4896
853.242	4767
853.376	4668
853.511	4615
853.645	4634
853.78	4820
853.914	4763
854.048	4653
854.183	4634
854.317	4649
854.451	4820
854.585	4706
854.72	4660
854.854	4767
854.988	4603
855.122	4611
855.256	4538
855.39	4611
855.524	4790
855.658	4714
855.792	4668
855.926	4793
856.06	4767
856.194	4790
856.327	4664
856.461	4656
856.595	4622
856.729	4645
856.862	4774
856.996	4710
857.13	4721
857.263	4763
857.397	4828
857.53	4634
857.664	4725
857.797	4755
857.931	4752
858.064	4729
858.197	4721
858.331	4683
858.464	4622
858.597	4546
858.731	4637
858.864	4664
858.997	4592
859.13	4656
859.263	4649
859.396	4687
859.529	4577
859.662	4542
859.795	4527
859.928	4634
860.061	4748
860.194	4736
860.327	4603
860.46	4538
860.592	4694
860.725	4668
860.858	4706
860.99	4584
861.123	4519
861.256	4535
861.388	4615
861.521	5303
861.653	4497
861.786	4451
861.918	4466
862.05	4592
862.183	4565
862.315	4618
862.447	4702
862.58	4558
862.712	4417
862.844	4318
862.976	4470
863.108	4428
863.24	4831
863.372	4310
863.504	4379
863.636	4417
863.768	4447
863.9	4500
864.032	4352
864.164	4390
864.296	4497
864.428	4558
864.559	4535
864.691	4538
864.823	4546
864.954	4436
865.086	4489
865.217	4470
865.349	4443
865.48	4451
865.612	4516
865.743	4637
865.875	4481
866.006	4417
866.137	4481
866.269	4413
866.4	4440
866.531	4413
866.662	4402
866.793	4409
866.924	4447
867.055	4489
867.186	4432
867.317	4413
867.448	4402
867.579	4379
867.71	4379
867.841	4402
867.972	4413
868.103	4428
868.233	4470
868.364	4500
868.495	4516
868.625	4668
868.756	4717
868.886	4531
869.017	4603
869.147	4759
869.278	4736
869.408	4668
869.539	4611
869.669	4721
869.799	4656
869.929	4786
870.06	4755
870.19	4976
870.32	4934
870.45	4938
870.58	5018
870.71	5113
870.84	5086
870.97	4896
871.1	4862
871.23	5098
871.36	5136
871.489	5018
871.619	5086
871.749	5109
871.879	5067
872.008	5162
872.138	5060
872.267	4980
872.397	4809
872.526	4786
872.656	4752
872.785	4801
872.915	4968
873.044	5025
873.173	4953
873.303	4999
873.432	4949
873.561	4938
873.69	4885
873.819	4877
873.948	4946
874.077	4797
874.206	4771
874.335	4782
874.464	4946
874.593	5064
874.722	4995
874.851	5113
874.979	5064
875.108	5045
875.237	4942
875.365	4824
875.494	4843
875.623	4972
875.751	4809
875.88	4866
876.008	5018
876.136	5006
876.265	5181
876.393	5360
876.521	5292
876.65	5231
876.778	5128
876.906	5079
877.034	5045
877.162	5098
877.29	5033
877.418	5041
877.546	5048
877.674	5025
877.802	5048
877.93	4965
878.058	4953
878.185	4847
878.313	4946
878.441	4953
878.568	4812
878.696	4862
878.824	4968
878.951	4968
879.079	5174
879.206	5269
879.333	5128
879.461	4995
879.588	5029
879.715	5162
879.842	5212
879.97	5041
880.097	4782
880.224	4706
880.351	4843
880.478	4835
880.605	4801
880.732	4816
880.859	5090
880.986	4934
881.112	4934
881.239	4774
881.366	4729
881.493	4611
881.619	4531
881.746	4626
881.872	4645
881.999	4660
882.125	4668
882.252	4763
882.378	4812
882.505	4942
882.631	4835
882.757	4698
882.883	4729
883.01	4767
883.136	4660
883.262	4569
883.388	4630
883.514	4866
883.64	4885
883.766	4736
883.892	4710
884.018	4729
884.143	4904
884.269	5025
884.395	4653
884.52	4607
884.646	4634
884.772	4558
884.897	4535
885.023	4672
885.148	4759
885.274	4892
885.399	4809
885.524	4687
885.65	4641
885.775	4721
885.9	4725
886.025	4812
886.15	4774
886.275	4748
886.4	4637
886.525	4721
886.65	4683
886.775	4717
886.9	4877
887.025	5029
887.149	4805
887.274	4626
887.399	4561
887.523	4584
887.648	4577
887.773	4630
887.897	4809
888.021	4759
888.146	4721
888.27	4831
888.395	4889
888.519	4774
888.643	4831
888.767	4843
888.891	4660
889.015	4584
889.139	4664
889.263	4565
889.387	4694
889.511	4889
889.635	4885
889.759	4607
889.883	4694
890.006	4729
890.13	4820
890.254	4588
890.377	4714
890.501	4577
890.624	4527
890.748	4592
890.871	4508
890.995	4424
891.118	4383
891.241	4497
891.364	4512
891.488	4622
891.611	4478
891.734	4538
891.857	4546
891.98	4542
892.103	4626
892.226	4577
892.349	4550
892.471	4390
892.594	4523
892.717	4569
892.839	4584
892.962	4618
893.085	4694
893.207	4588
893.33	4436
893.452	4485
893.575	4618
893.697	4577
893.819	4778
893.941	4793
894.064	4748
894.186	4573
894.308	4611
894.43	4729
894.552	4850
894.674	4748
894.796	4493
894.918	4630
895.04	4569
895.161	4672
895.283	4611
895.405	4573
895.526	4634
895.648	4687
895.769	4664
895.891	4702
896.012	4725
896.134	4729
896.255	4668
896.376	4592
896.498	4607
896.619	4698
896.74	4592
896.861	4649
896.982	4896
897.103	5060
897.224	4877
897.345	4740
897.466	4641
897.587	4694
897.708	4839
897.828	4778
897.949	4645
898.07	4546
898.19	4630
898.311	4877
898.431	4660
898.552	4748
898.672	4847
898.792	4733
898.913	4736
899.033	4656
899.153	4436
899.273	4409
899.393	4485
899.513	4508
899.633	4497
899.753	4554
899.873	4466
899.993	4565
900.113	4470
900.232	4558
900.352	4558
900.472	4478
900.591	4383
900.711	4455
900.83	4421
900.95	4573
901.069	4679
901.189	4554
901.308	4375
901.427	4303
901.546	4375
901.665	4466
901.784	4478
901.904	4390
902.023	4322
902.141	4196
902.26	4188
902.379	4341
902.498	4253
902.617	4268
902.735	4398
902.854	4367
902.973	4333
903.091	4257
903.21	4257
903.328	4234
903.446	4238
903.565	4284
903.683	4344
903.801	4337
903.919	4402
904.038	4466
904.156	4322
904.274	4459
904.392	4360
904.51	4436
904.627	4481
904.745	4542
904.863	4649
904.981	4383
905.098	4287
905.216	4405
905.334	4462
905.451	4421
905.569	4443
905.686	4523
905.803	4577
905.921	4432
906.038	4561
906.155	4466
906.272	4432
906.389	4424
906.506	4363
906.623	4402
906.74	4394
906.857	4268
906.974	4436
907.091	4558
907.208	4656
907.324	4607
907.441	4451
907.557	4341
907.674	4344
907.79	4371
907.907	4352
908.023	4489
908.139	4497
908.256	4455
908.372	4504
908.488	4462
908.604	4390
908.72	4322
908.836	4371
908.952	4379
909.068	4421
909.184	4546
909.3	4485
909.415	4611
909.531	4558
909.647	4318
909.762	4360
909.878	4329
909.993	4462
910.108	4390
910.224	4455
910.339	4455
910.454	4402
910.57	4371
910.685	4284
910.8	4653
910.915	4607
911.03	4508
911.145	4280
911.259	4303
911.374	4344
911.489	4276
911.604	4291
911.718	4150
911.833	4166
911.947	4101
912.062	4017
912.176	4238
912.291	4249
912.405	4268
912.519	4455
912.633	4489
912.748	4386
912.862	4329
912.976	4215
913.09	4067
913.204	4177
913.318	4284
913.431	4405
913.545	4360
913.659	4474
913.772	4341
913.886	4223
914	4223
914.113	4352
914.226	4485
914.34	4356
914.453	4192
914.566	4440
914.68	4322
914.793	4314
914.906	4162
915.019	4112
915.132	4097
915.245	4173
915.358	4215
915.47	4246
915.583	4265
915.696	4329
915.809	4489
915.921	4417
916.034	4287
916.146	4284
916.259	4219
916.371	4360
916.483	4371
916.595	4234
916.708	4322
916.82	4310
916.932	4341
917.044	4322
917.156	4337
917.268	4242
917.38	4291
917.491	4242
917.603	4329
917.715	4413
917.826	4474
917.938	4386
918.049	4215
918.161	4390
918.272	4504
918.384	4542
918.495	4394
918.606	4303
918.717	4291
918.828	4371
918.939	4360
919.05	4227
919.161	4306
919.272	4128
919.383	4207
919.494	4409
919.604	4592
919.715	4443
919.826	4363
919.936	4367
920.047	4512
920.157	4474
920.267	4736
920.378	4527
920.488	4500
920.598	4691
920.708	4949
920.818	4790
920.928	4782
921.038	4915
921.148	4953
921.258	4599
921.368	4561
921.477	4489
921.587	4455
921.697	4367
921.806	4592
921.916	4402
922.025	4280
922.134	4291
922.244	4223
922.353	4356
922.462	4173
922.571	4188
922.68	4013
922.789	3987
922.898	4036
923.007	3949
923.116	4097
923.224	4025
923.333	4055
923.442	4032
923.55	3987
923.659	4063
923.767	4082
923.876	4010
923.984	4139
924.092	4029
924.201	4051
924.309	4074
924.417	4169
924.525	4025
924.633	4112
924.741	4927
924.849	3915
924.956	4120
925.064	3956
925.172	3934
925.279	3964
925.387	4051
925.494	4124
925.602	4219
925.709	4177
925.816	4021
925.924	4139
926.031	4192
926.138	4185
926.245	4215
926.352	4124
926.459	4268
926.566	4303
926.673	4185
926.779	4086
926.886	4063
926.993	3983
927.099	3934
927.206	4002
927.312	3922
927.419	4036
927.525	4048
927.631	4063
927.737	3964
927.843	3994
927.95	3842
928.056	3956
928.162	3998
928.267	4055
928.373	4580
928.479	4097
928.585	3899
928.69	4059
928.796	4074
928.901	3987
929.007	3793
929.112	3998
929.218	3956
929.323	3911
929.428	3960
929.533	4090
929.638	3911
929.743	3964
929.848	4036
929.953	4002
930.058	3899
930.163	3831
930.267	3854
930.372	3968
930.477	3793
930.581	4105
930.685	3934
930.79	3854
930.894	3907
930.998	3861
931.103	4044
931.207	3709
931.311	3686
931.415	3682
931.519	3496
931.623	3515
