Data from test_V78500241_1265.txt Node
Date: Fri Mar 25 16:57:47 CST 2022
User: usil
Spectrometer: V785-0024
Trigger mode: 0
Integration Time (sec): 4.000000E-1
Scans to average: 1
Nonlinearity correction enabled: false
Boxcar width: 0
Storing dark spectrum: false
XAxis mode: Wavelengths
Number of Pixels in Spectrum: 1024
>>>>>Begin Spectral Data<<<<<
801.071	8092
801.214	8027
801.356	7887
801.499	7860
801.641	7780
801.783	7784
801.926	8008
802.068	7925
802.211	7989
802.353	7989
802.496	7841
802.638	7814
802.78	7951
802.923	7959
803.065	7913
803.208	7909
803.35	8031
803.492	8035
803.635	8172
803.777	7955
803.919	8138
804.061	8488
804.204	8180
804.346	8077
804.488	8031
804.63	8100
804.773	8084
804.915	8134
805.057	8339
805.199	8210
805.341	8210
805.483	8298
805.626	8301
805.768	8172
805.91	8237
806.052	8313
806.194	8161
806.336	8290
806.478	8107
806.62	8058
806.762	8145
806.904	8332
807.046	8480
807.188	8362
807.33	8256
807.472	8339
807.614	8202
807.756	8123
807.898	8054
808.04	7909
808.182	7944
808.324	7940
808.465	7860
808.607	8069
808.749	8142
808.891	8138
809.033	8214
809.174	8214
809.316	8115
809.458	8100
809.6	7974
809.741	8031
809.883	7982
810.025	8100
810.166	8054
810.308	8008
810.45	8008
810.591	7890
810.733	7738
810.875	7666
811.016	7537
811.158	7495
811.299	7605
811.441	7696
811.582	7746
811.724	7578
811.865	7613
812.007	7571
812.148	7495
812.29	7597
812.431	7738
812.573	7959
812.714	7947
812.855	8115
812.997	8218
813.138	8305
813.279	8210
813.421	8157
813.562	8020
813.703	7883
813.845	7761
813.986	7415
814.127	7297
814.268	7202
814.41	7221
814.551	7198
814.692	7251
814.833	7091
814.974	7031
815.115	7141
815.256	6924
815.397	6928
815.539	6973
815.68	6897
815.821	6909
815.962	6829
816.103	6837
816.244	6745
816.385	6703
816.526	6570
816.666	6448
816.807	6311
816.948	6441
817.089	6452
817.23	6429
817.371	6350
817.512	6399
817.653	6388
817.793	6357
817.934	6429
818.075	6448
818.216	6403
818.356	6403
818.497	6239
818.638	6129
818.778	6140
818.919	6095
819.06	6194
819.2	6296
819.341	6262
819.481	6384
819.622	6570
819.762	6745
819.903	6741
820.043	6642
820.184	6574
820.324	6517
820.465	6703
820.605	6700
820.746	6669
820.886	6494
821.026	6707
821.167	6711
821.307	6772
821.447	6772
821.588	6665
821.728	6566
821.868	6517
822.008	6323
822.149	6384
822.289	6376
822.429	6136
822.569	6083
822.709	6106
822.849	5935
822.99	5916
823.13	5935
823.27	5946
823.41	5741
823.55	5786
823.69	5786
823.83	5790
823.97	5680
824.11	5474
824.25	5535
824.389	5608
824.529	5638
824.669	5501
824.809	5672
824.949	5657
825.089	5604
825.228	5539
825.368	5444
825.508	5368
825.648	5372
825.787	5288
825.927	5421
826.067	5353
826.206	5280
826.346	5353
826.485	5395
826.625	5345
826.765	5573
826.904	5478
827.044	5242
827.183	5223
827.323	5113
827.462	5284
827.601	5178
827.741	5189
827.88	5258
828.02	5121
828.159	5242
828.298	5258
828.437	5391
828.577	5318
828.716	5493
828.855	5303
828.994	5147
829.134	5136
829.273	5189
829.412	5140
829.551	5132
829.69	5162
829.829	5239
829.968	5326
830.107	5277
830.246	5280
830.385	5170
830.524	5155
830.663	5071
830.802	4972
830.941	4919
831.08	4858
831.219	4965
831.357	4938
831.496	5201
831.635	4915
831.774	4820
831.913	4847
832.051	4721
832.19	4725
832.329	4793
832.467	4668
832.606	4664
832.744	4687
832.883	4706
833.022	4691
833.16	4778
833.299	4847
833.437	4862
833.576	4862
833.714	4862
833.852	4873
833.991	4908
834.129	4942
834.267	4942
834.406	4915
834.544	4946
834.682	4984
834.821	4972
834.959	5143
835.097	4972
835.235	5151
835.373	5079
835.511	5109
835.65	5075
835.788	5056
835.926	4862
836.064	4908
836.202	4900
836.34	5117
836.478	5216
836.615	5113
836.753	5197
836.891	5288
837.029	5250
837.167	5235
837.305	5223
837.443	5105
837.58	5086
837.718	5235
837.856	5124
837.993	5193
838.131	5220
838.269	5201
838.406	5185
838.544	5155
838.681	5025
838.819	4999
838.956	4965
839.094	4908
839.231	4961
839.369	5083
839.506	5414
839.643	5242
839.781	5048
839.918	5018
840.055	5086
840.193	5132
840.33	5083
840.467	5113
840.604	5151
840.742	5497
840.879	5060
841.016	5071
841.153	5117
841.29	5330
841.427	5368
841.564	5322
841.701	5353
841.838	5261
841.975	5197
842.112	5258
842.249	5143
842.385	5052
842.522	5299
842.659	5189
842.796	5136
842.933	5185
843.069	5136
843.206	5098
843.343	5334
843.479	5223
843.616	5273
843.752	5048
843.889	4968
844.025	5227
844.162	4991
844.298	5166
844.435	5060
844.571	5048
844.708	5216
844.844	5315
844.98	5318
845.117	5261
845.253	5159
845.389	5079
845.525	5140
845.661	5105
845.798	4999
845.934	5075
846.07	5071
846.206	5208
846.342	5246
846.478	5174
846.614	5010
846.75	4987
846.886	4919
847.022	5170
847.158	5010
847.294	5102
847.429	5075
847.565	5037
847.701	5292
847.837	4831
847.972	4843
848.108	4957
848.244	4938
848.379	4771
848.515	4721
848.65	4740
848.786	4725
848.921	4767
849.057	4862
849.192	4831
849.328	4835
849.463	4854
849.598	4790
849.734	4729
849.869	4694
850.004	4660
850.14	4706
850.275	4615
850.41	4527
850.545	4565
850.68	4565
850.815	4580
850.95	4580
851.085	4850
851.22	4759
851.355	4668
851.49	4618
851.625	4641
851.76	4679
851.895	4580
852.03	4542
852.165	4588
852.299	4687
852.434	4763
852.569	4744
852.703	4744
852.838	4847
852.973	4900
853.107	4961
853.242	4733
853.376	4660
853.511	4538
853.645	4641
853.78	4759
853.914	4679
854.048	4687
854.183	4637
854.317	4679
854.451	4793
854.585	4691
854.72	4656
854.854	4774
854.988	4611
855.122	4630
855.256	4554
855.39	4649
855.524	4790
855.658	4729
855.792	4694
855.926	4740
856.06	4736
856.194	4755
856.327	4672
856.461	4584
856.595	4603
856.729	4698
856.862	4725
856.996	4637
857.13	4721
857.263	4782
857.397	4767
857.53	4672
857.664	4694
857.797	4763
857.931	4748
858.064	4694
858.197	4687
858.331	4603
858.464	4596
858.597	4497
858.731	4626
858.864	4592
858.997	4615
859.13	4630
859.263	4607
859.396	4664
859.529	4546
859.662	4542
859.795	4512
859.928	4580
860.061	4752
860.194	4782
860.327	4618
860.46	4527
860.592	4714
860.725	4721
860.858	4706
860.99	4554
861.123	4580
861.256	4535
861.388	4577
861.521	5299
861.653	4489
861.786	4470
861.918	4432
862.05	4504
862.183	4546
862.315	4584
862.447	4672
862.58	4550
862.712	4383
862.844	4337
862.976	4432
863.108	4462
863.24	4889
863.372	4314
863.504	4462
863.636	4383
863.768	4485
863.9	4386
864.032	4371
864.164	4348
864.296	4451
864.428	4565
864.559	4531
864.691	4542
864.823	4500
864.954	4516
865.086	4546
865.217	4428
865.349	4371
865.48	4409
865.612	4531
865.743	4577
865.875	4440
866.006	4394
866.137	4466
866.269	4409
866.4	4432
866.531	4405
866.662	4405
866.793	4386
866.924	4455
867.055	4451
867.186	4394
867.317	4470
867.448	4390
867.579	4379
867.71	4386
867.841	4360
867.972	4451
868.103	4451
868.233	4402
868.364	4432
868.495	4402
868.625	4645
868.756	4805
868.886	4565
869.017	4607
869.147	4774
869.278	4729
869.408	4649
869.539	4653
869.669	4694
869.799	4645
869.929	4763
870.06	4733
870.19	4927
870.32	4911
870.45	4885
870.58	5003
870.71	5075
870.84	5071
870.97	4923
871.1	4854
871.23	5102
871.36	5128
871.489	5060
871.619	5056
871.749	5029
871.879	5109
872.008	5166
872.138	5037
872.267	4984
872.397	4847
872.526	4778
872.656	4675
872.785	4843
872.915	4927
873.044	5037
873.173	4965
873.303	4976
873.432	4934
873.561	4991
873.69	4873
873.819	4858
873.948	4870
874.077	4805
874.206	4774
874.335	4782
874.464	4911
874.593	5033
874.722	4915
874.851	5098
874.979	5052
875.108	5045
875.237	4881
875.365	4896
875.494	4877
875.623	4968
875.751	4812
875.88	4942
876.008	4965
876.136	5010
876.265	5178
876.393	5269
876.521	5231
876.65	5181
876.778	5128
876.906	5025
877.034	5018
877.162	5075
877.29	4980
877.418	5052
877.546	5052
877.674	5067
877.802	4949
877.93	5006
878.058	4923
878.185	4866
878.313	4965
878.441	4915
878.568	4774
878.696	4870
878.824	4904
878.951	4946
879.079	5090
879.206	5311
879.333	5079
879.461	4980
879.588	4972
879.715	5105
879.842	5269
879.97	4961
880.097	4790
880.224	4767
880.351	4801
880.478	4828
880.605	4790
880.732	4752
880.859	5094
880.986	4862
881.112	4854
881.239	4805
881.366	4668
881.493	4611
881.619	4535
881.746	4672
881.872	4630
881.999	4630
882.125	4618
882.252	4786
882.378	4835
882.505	4965
882.631	4850
882.757	4660
882.883	4675
883.01	4736
883.136	4641
883.262	4580
883.388	4588
883.514	4843
883.64	4858
883.766	4771
883.892	4672
884.018	4710
884.143	4915
884.269	5048
884.395	4649
884.52	4611
884.646	4672
884.772	4550
884.897	4584
885.023	4668
885.148	4755
885.274	4824
885.399	4858
885.524	4668
885.65	4698
885.775	4733
885.9	4698
886.025	4858
886.15	4774
886.275	4744
886.4	4675
886.525	4710
886.65	4691
886.775	4694
886.9	4915
887.025	4999
887.149	4797
887.274	4618
887.399	4577
887.523	4641
887.648	4580
887.773	4561
887.897	4755
888.021	4774
888.146	4668
888.27	4763
888.395	4881
888.519	4809
888.643	4812
888.767	4831
888.891	4672
889.015	4592
889.139	4653
889.263	4611
889.387	4778
889.511	4839
889.635	4790
889.759	4611
889.883	4615
890.006	4744
890.13	4816
890.254	4592
890.377	4679
890.501	4531
890.624	4481
890.748	4615
890.871	4489
890.995	4459
891.118	4405
891.241	4527
891.364	4584
891.488	4653
891.611	4489
891.734	4531
891.857	4611
891.98	4535
892.103	4622
892.226	4599
892.349	4554
892.471	4413
892.594	4565
892.717	4588
892.839	4588
892.962	4519
893.085	4679
893.207	4565
893.33	4402
893.452	4504
893.575	4637
893.697	4580
893.819	4809
893.941	4790
894.064	4763
894.186	4558
894.308	4554
894.43	4698
894.552	4790
894.674	4748
894.796	4592
894.918	4584
895.04	4554
895.161	4729
895.283	4683
895.405	4588
895.526	4656
895.648	4653
895.769	4653
895.891	4668
896.012	4763
896.134	4729
896.255	4675
896.376	4592
896.498	4596
896.619	4630
896.74	4603
896.861	4637
896.982	4934
897.103	5094
897.224	4831
897.345	4710
897.466	4656
897.587	4740
897.708	4812
897.828	4778
897.949	4664
898.07	4561
898.19	4645
898.311	4790
898.431	4668
898.552	4725
898.672	4809
898.792	4763
898.913	4752
899.033	4607
899.153	4504
899.273	4390
899.393	4512
899.513	4569
899.633	4519
899.753	4538
899.873	4531
899.993	4531
900.113	4523
900.232	4516
900.352	4489
900.472	4558
900.591	4375
900.711	4485
900.83	4436
900.95	4584
901.069	4698
901.189	4497
901.308	4413
901.427	4291
901.546	4363
901.665	4440
901.784	4546
901.904	4398
902.023	4284
902.141	4192
902.26	4116
902.379	4299
902.498	4215
902.617	4223
902.735	4329
902.854	4383
902.973	4341
903.091	4219
903.21	4219
903.328	4280
903.446	4280
903.565	4249
903.683	4295
903.801	4261
903.919	4432
904.038	4398
904.156	4329
904.274	4428
904.392	4417
904.51	4413
904.627	4485
904.745	4546
904.863	4637
904.981	4424
905.098	4329
905.216	4375
905.334	4424
905.451	4421
905.569	4428
905.686	4546
905.803	4516
905.921	4402
906.038	4561
906.155	4504
906.272	4371
906.389	4478
906.506	4322
906.623	4371
906.74	4428
906.857	4299
906.974	4322
907.091	4580
907.208	4660
907.324	4607
907.441	4489
907.557	4360
907.674	4341
907.79	4257
907.907	4367
908.023	4436
908.139	4436
908.256	4424
908.372	4481
908.488	4443
908.604	4318
908.72	4344
908.836	4394
908.952	4390
909.068	4443
909.184	4516
909.3	4493
909.415	4596
909.531	4531
909.647	4318
909.762	4383
909.878	4356
909.993	4424
910.108	4398
910.224	4398
910.339	4478
910.454	4432
910.57	4363
910.685	4246
910.8	4634
910.915	4569
911.03	4516
911.145	4325
911.259	4299
911.374	4379
911.489	4291
911.604	4287
911.718	4150
911.833	4188
911.947	4120
912.062	4021
912.176	4181
912.291	4204
912.405	4249
912.519	4428
912.633	4470
912.748	4295
912.862	4314
912.976	4227
913.09	4067
913.204	4227
913.318	4215
913.431	4337
913.545	4295
913.659	4455
913.772	4367
913.886	4268
914	4219
914.113	4375
914.226	4443
914.34	4352
914.453	4242
914.566	4421
914.68	4265
914.793	4318
914.906	4169
915.019	4086
915.132	4090
915.245	4169
915.358	4158
915.47	4230
915.583	4238
915.696	4268
915.809	4405
915.921	4417
916.034	4280
916.146	4280
916.259	4253
916.371	4371
916.483	4383
916.595	4253
916.708	4318
916.82	4295
916.932	4333
917.044	4310
917.156	4310
917.268	4253
917.38	4276
917.491	4265
917.603	4360
917.715	4421
917.826	4432
917.938	4314
918.049	4257
918.161	4371
918.272	4516
918.384	4508
918.495	4356
918.606	4310
918.717	4219
918.828	4356
918.939	4352
919.05	4253
919.161	4310
919.272	4101
919.383	4253
919.494	4421
919.604	4641
919.715	4421
919.826	4325
919.936	4398
920.047	4538
920.157	4470
920.267	4702
920.378	4550
920.488	4459
920.598	4672
920.708	4881
920.818	4729
920.928	4736
921.038	4961
921.148	4904
921.258	4603
921.368	4519
921.477	4519
921.587	4409
921.697	4356
921.806	4535
921.916	4428
922.025	4265
922.134	4284
922.244	4169
922.353	4314
922.462	4200
922.571	4124
922.68	4078
922.789	3975
922.898	4006
923.007	3987
923.116	4116
923.224	4059
923.333	4044
923.442	4013
923.55	3953
923.659	4013
923.767	4051
923.876	4002
923.984	4143
924.092	3998
924.201	4067
924.309	4067
924.417	4090
924.525	3991
924.633	4090
924.741	5056
924.849	3907
924.956	4135
925.064	4002
925.172	3899
925.279	3930
925.387	4093
925.494	4071
925.602	4227
925.709	4162
925.816	3987
925.924	4120
926.031	4150
926.138	4158
926.245	4227
926.352	4032
926.459	4234
926.566	4268
926.673	4128
926.779	4097
926.886	4112
926.993	3991
927.099	3998
927.206	3888
927.312	3956
927.419	4082
927.525	4021
927.631	4082
927.737	3956
927.843	3903
927.95	3838
928.056	3945
928.162	3949
928.267	4040
928.373	4691
928.479	4116
928.585	3873
928.69	4017
928.796	4090
928.901	3949
929.007	3842
929.112	4029
929.218	3949
929.323	3930
929.428	3979
929.533	4116
929.638	3915
929.743	3979
929.848	4017
929.953	3937
930.058	3907
930.163	3770
930.267	3865
930.372	4002
930.477	3808
930.581	4109
930.685	3953
930.79	3808
930.894	3854
930.998	3861
931.103	4067
931.207	3705
931.311	3671
931.415	3633
931.519	3538
931.623	3549
