Data from test_V78500241_1382.txt Node
Date: Fri Mar 25 16:58:36 CST 2022
User: usil
Spectrometer: V785-0024
Trigger mode: 0
Integration Time (sec): 4.000000E-1
Scans to average: 1
Nonlinearity correction enabled: false
Boxcar width: 0
Storing dark spectrum: false
XAxis mode: Wavelengths
Number of Pixels in Spectrum: 1024
>>>>>Begin Spectral Data<<<<<
801.071	8084
801.214	8050
801.356	7928
801.499	7841
801.641	7738
801.783	7795
801.926	7997
802.068	7955
802.211	8012
802.353	7951
802.496	7811
802.638	7864
802.78	7913
802.923	7967
803.065	7890
803.208	7860
803.35	7875
803.492	8054
803.635	8149
803.777	7993
803.919	8111
804.061	8408
804.204	8153
804.346	8073
804.488	7940
804.63	8077
804.773	8016
804.915	8164
805.057	8275
805.199	8126
805.341	8271
805.483	8244
805.626	8233
805.768	8164
805.91	8153
806.052	8149
806.194	8138
806.336	8301
806.478	8084
806.62	8035
806.762	8172
806.904	8279
807.046	8492
807.188	8343
807.33	8290
807.472	8252
807.614	8195
807.756	8130
807.898	7932
808.04	7860
808.182	7883
808.324	7856
808.465	7959
808.607	8096
808.749	8088
808.891	8145
809.033	8294
809.174	8126
809.316	8020
809.458	8050
809.6	7993
809.741	8020
809.883	7967
810.025	8062
810.166	8119
810.308	8020
810.45	7974
810.591	7887
810.733	7708
810.875	7601
811.016	7514
811.158	7514
811.299	7613
811.441	7700
811.582	7731
811.724	7506
811.865	7529
812.007	7578
812.148	7609
812.29	7639
812.431	7666
812.573	7833
812.714	7944
812.855	8073
812.997	8138
813.138	8309
813.279	8176
813.421	8046
813.562	7986
813.703	7909
813.845	7742
813.986	7396
814.127	7285
814.268	7190
814.41	7160
814.551	7156
814.692	7198
814.833	7023
814.974	7080
815.115	7099
815.256	6970
815.397	6924
815.539	6913
815.68	6795
815.821	6753
815.962	6810
816.103	6810
816.244	6688
816.385	6650
816.526	6578
816.666	6467
816.807	6296
816.948	6395
817.089	6426
817.23	6407
817.371	6372
817.512	6334
817.653	6403
817.793	6331
817.934	6403
818.075	6467
818.216	6494
818.356	6437
818.497	6251
818.638	6167
818.778	6114
818.919	6114
819.06	6232
819.2	6304
819.341	6334
819.481	6311
819.622	6536
819.762	6715
819.903	6692
820.043	6635
820.184	6589
820.324	6555
820.465	6635
820.605	6650
820.746	6559
820.886	6502
821.026	6620
821.167	6677
821.307	6783
821.447	6711
821.588	6620
821.728	6631
821.868	6464
822.008	6281
822.149	6311
822.289	6319
822.429	6205
822.569	6064
822.709	6053
822.849	5893
822.99	5874
823.13	5844
823.27	5878
823.41	5817
823.55	5794
823.69	5745
823.83	5745
823.97	5661
824.11	5566
824.25	5474
824.389	5505
824.529	5604
824.669	5528
824.809	5638
824.949	5676
825.089	5592
825.228	5566
825.368	5345
825.508	5292
825.648	5277
825.787	5364
825.927	5326
826.067	5258
826.206	5292
826.346	5402
826.485	5353
826.625	5353
826.765	5520
826.904	5486
827.044	5250
827.183	5178
827.323	5094
827.462	5193
827.601	5170
827.741	5197
827.88	5223
828.02	5102
828.159	5178
828.298	5284
828.437	5349
828.577	5277
828.716	5410
828.855	5280
828.994	5147
829.134	5102
829.273	5166
829.412	5140
829.551	5140
829.69	5124
829.829	5273
829.968	5349
830.107	5250
830.246	5250
830.385	5147
830.524	5083
830.663	5056
830.802	4991
830.941	4919
831.08	4892
831.219	4995
831.357	4995
831.496	5121
831.635	4927
831.774	4847
831.913	4812
832.051	4702
832.19	4790
832.329	4793
832.467	4710
832.606	4679
832.744	4721
832.883	4710
833.022	4698
833.16	4828
833.299	4820
833.437	4774
833.576	4816
833.714	4877
833.852	4816
833.991	4843
834.129	4930
834.267	4919
834.406	4904
834.544	4949
834.682	4934
834.821	4995
834.959	5128
835.097	4961
835.235	5155
835.373	5094
835.511	5060
835.65	5041
835.788	4999
835.926	4896
836.064	4873
836.202	4908
836.34	5109
836.478	5197
836.615	5143
836.753	5208
836.891	5246
837.029	5258
837.167	5178
837.305	5124
837.443	5094
837.58	5067
837.718	5265
837.856	5178
837.993	5162
838.131	5216
838.269	5166
838.406	5185
838.544	5170
838.681	5064
838.819	5006
838.956	4835
839.094	4885
839.231	4946
839.369	5067
839.506	5387
839.643	5261
839.781	5094
839.918	4984
840.055	5086
840.193	5071
840.33	5075
840.467	5094
840.604	5147
840.742	5383
840.879	5079
841.016	5124
841.153	5132
841.29	5364
841.427	5353
841.564	5284
841.701	5318
841.838	5273
841.975	5261
842.112	5220
842.249	5109
842.385	5067
842.522	5296
842.659	5185
842.796	5166
842.933	5201
843.069	5117
843.206	5220
843.343	5265
843.479	5254
843.616	5261
843.752	5045
843.889	5025
844.025	5124
844.162	4991
844.298	5246
844.435	5079
844.571	5052
844.708	5162
844.844	5235
844.98	5360
845.117	5231
845.253	5109
845.389	5067
845.525	5147
845.661	5105
845.798	5029
845.934	5083
846.07	4995
846.206	5174
846.342	5254
846.478	5143
846.614	4976
846.75	4987
846.886	4919
847.022	5117
847.158	5010
847.294	5060
847.429	5060
847.565	5060
847.701	5273
847.837	4885
847.972	4763
848.108	4927
848.244	4919
848.379	4786
848.515	4694
848.65	4664
848.786	4763
848.921	4786
849.057	4862
849.192	4835
849.328	4782
849.463	4828
849.598	4820
849.734	4763
849.869	4691
850.004	4573
850.14	4694
850.275	4611
850.41	4493
850.545	4569
850.68	4561
850.815	4592
850.95	4637
851.085	4767
851.22	4759
851.355	4679
851.49	4618
851.625	4634
851.76	4656
851.895	4535
852.03	4523
852.165	4675
852.299	4656
852.434	4790
852.569	4725
852.703	4748
852.838	4816
852.973	4961
853.107	4904
853.242	4740
853.376	4668
853.511	4527
853.645	4588
853.78	4740
853.914	4668
854.048	4622
854.183	4611
854.317	4691
854.451	4839
854.585	4645
854.72	4615
854.854	4782
854.988	4637
855.122	4630
855.256	4508
855.39	4637
855.524	4755
855.658	4702
855.792	4664
855.926	4714
856.06	4729
856.194	4767
856.327	4664
856.461	4626
856.595	4603
856.729	4634
856.862	4744
856.996	4706
857.13	4714
857.263	4736
857.397	4759
857.53	4630
857.664	4694
857.797	4736
857.931	4797
858.064	4653
858.197	4714
858.331	4668
858.464	4573
858.597	4531
858.731	4653
858.864	4622
858.997	4561
859.13	4626
859.263	4630
859.396	4660
859.529	4523
859.662	4481
859.795	4527
859.928	4622
860.061	4714
860.194	4752
860.327	4626
860.46	4519
860.592	4710
860.725	4706
860.858	4683
860.99	4584
861.123	4466
861.256	4527
861.388	4584
861.521	5410
861.653	4447
861.786	4455
861.918	4447
862.05	4516
862.183	4542
862.315	4592
862.447	4634
862.58	4546
862.712	4394
862.844	4325
862.976	4455
863.108	4428
863.24	4862
863.372	4310
863.504	4386
863.636	4413
863.768	4493
863.9	4432
864.032	4329
864.164	4360
864.296	4462
864.428	4546
864.559	4531
864.691	4542
864.823	4508
864.954	4485
865.086	4508
865.217	4402
865.349	4394
865.48	4417
865.612	4455
865.743	4592
865.875	4428
866.006	4333
866.137	4440
866.269	4428
866.4	4333
866.531	4394
866.662	4379
866.793	4417
866.924	4371
867.055	4462
867.186	4424
867.317	4402
867.448	4405
867.579	4363
867.71	4398
867.841	4344
867.972	4466
868.103	4455
868.233	4424
868.364	4432
868.495	4466
868.625	4618
868.756	4710
868.886	4527
869.017	4615
869.147	4721
869.278	4771
869.408	4637
869.539	4634
869.669	4664
869.799	4653
869.929	4752
870.06	4717
870.19	4908
870.32	4919
870.45	4915
870.58	5056
870.71	5056
870.84	5090
870.97	4877
871.1	4904
871.23	5143
871.36	5132
871.489	5045
871.619	5045
871.749	5079
871.879	5098
872.008	5162
872.138	5025
872.267	5003
872.397	4885
872.526	4839
872.656	4679
872.785	4831
872.915	4915
873.044	5045
873.173	4953
873.303	4961
873.432	4927
873.561	4919
873.69	4908
873.819	4866
873.948	4870
874.077	4774
874.206	4725
874.335	4778
874.464	4927
874.593	5045
874.722	4991
874.851	5079
874.979	4987
875.108	4995
875.237	4843
875.365	4847
875.494	4828
875.623	4919
875.751	4793
875.88	4839
876.008	4938
876.136	4984
876.265	5208
876.393	5330
876.521	5277
876.65	5235
876.778	5151
876.906	5083
877.034	5018
877.162	4949
877.29	4987
877.418	5071
877.546	5060
877.674	5033
877.802	5006
877.93	4953
878.058	4961
878.185	4850
878.313	4953
878.441	4972
878.568	4740
878.696	4862
878.824	4972
878.951	4949
879.079	5094
879.206	5246
879.333	5121
879.461	4991
879.588	4927
879.715	5109
879.842	5231
879.97	4980
880.097	4774
880.224	4793
880.351	4793
880.478	4755
880.605	4782
880.732	4816
880.859	5079
880.986	4877
881.112	4873
881.239	4812
881.366	4698
881.493	4588
881.619	4599
881.746	4664
881.872	4618
881.999	4584
882.125	4668
882.252	4767
882.378	4782
882.505	4923
882.631	4702
882.757	4618
882.883	4687
883.01	4698
883.136	4622
883.262	4558
883.388	4565
883.514	4797
883.64	4896
883.766	4805
883.892	4664
884.018	4683
884.143	4908
884.269	4991
884.395	4687
884.52	4569
884.646	4611
884.772	4565
884.897	4542
885.023	4603
885.148	4740
885.274	4877
885.399	4748
885.524	4660
885.65	4687
885.775	4691
885.9	4656
886.025	4835
886.15	4778
886.275	4710
886.4	4672
886.525	4717
886.65	4653
886.775	4698
886.9	4946
887.025	4995
887.149	4786
887.274	4679
887.399	4584
887.523	4523
887.648	4599
887.773	4573
887.897	4763
888.021	4790
888.146	4656
888.27	4793
888.395	4911
888.519	4805
888.643	4828
888.767	4816
888.891	4630
889.015	4592
889.139	4675
889.263	4618
889.387	4809
889.511	4877
889.635	4816
889.759	4588
889.883	4694
890.006	4755
890.13	4854
890.254	4656
890.377	4698
890.501	4542
890.624	4527
890.748	4653
890.871	4493
890.995	4409
891.118	4386
891.241	4538
891.364	4615
891.488	4683
891.611	4538
891.734	4573
891.857	4637
891.98	4618
892.103	4687
892.226	4569
892.349	4565
892.471	4405
892.594	4634
892.717	4630
892.839	4618
892.962	4637
893.085	4672
893.207	4641
893.33	4493
893.452	4519
893.575	4691
893.697	4615
893.819	4778
893.941	4843
894.064	4809
894.186	4599
894.308	4622
894.43	4774
894.552	4839
894.674	4816
894.796	4565
894.918	4611
895.04	4584
895.161	4782
895.283	4660
895.405	4546
895.526	4664
895.648	4691
895.769	4733
895.891	4767
896.012	4725
896.134	4755
896.255	4733
896.376	4672
896.498	4672
896.619	4675
896.74	4637
896.861	4675
896.982	4968
897.103	5132
897.224	4843
897.345	4748
897.466	4691
897.587	4710
897.708	4900
897.828	4767
897.949	4702
898.07	4569
898.19	4660
898.311	4877
898.431	4694
898.552	4736
898.672	4873
898.792	4831
898.913	4774
899.033	4596
899.153	4550
899.273	4440
899.393	4519
899.513	4546
899.633	4577
899.753	4569
899.873	4535
899.993	4626
900.113	4565
900.232	4637
900.352	4554
900.472	4493
900.591	4447
900.711	4527
900.83	4451
900.95	4615
901.069	4729
901.189	4558
901.308	4390
901.427	4352
901.546	4405
901.665	4504
901.784	4561
901.904	4455
902.023	4329
902.141	4223
902.26	4234
902.379	4348
902.498	4268
902.617	4257
902.735	4390
902.854	4405
902.973	4424
903.091	4219
903.21	4246
903.328	4325
903.446	4291
903.565	4291
903.683	4352
903.801	4257
903.919	4367
904.038	4402
904.156	4329
904.274	4459
904.392	4367
904.51	4462
904.627	4516
904.745	4550
904.863	4599
904.981	4436
905.098	4329
905.216	4314
905.334	4478
905.451	4489
905.569	4447
905.686	4622
905.803	4569
905.921	4447
906.038	4584
906.155	4481
906.272	4447
906.389	4481
906.506	4329
906.623	4348
906.74	4424
906.857	4348
906.974	4398
907.091	4554
907.208	4668
907.324	4573
907.441	4542
907.557	4398
907.674	4402
907.79	4363
907.907	4379
908.023	4489
908.139	4474
908.256	4421
908.372	4485
908.488	4466
908.604	4440
908.72	4348
908.836	4386
908.952	4402
909.068	4459
909.184	4580
909.3	4519
909.415	4592
909.531	4538
909.647	4390
909.762	4390
909.878	4386
909.993	4504
910.108	4470
910.224	4394
910.339	4535
910.454	4394
910.57	4379
910.685	4268
910.8	4698
910.915	4645
911.03	4459
911.145	4394
911.259	4348
911.374	4379
911.489	4295
911.604	4344
911.718	4227
911.833	4238
911.947	4128
912.062	4055
912.176	4223
912.291	4276
912.405	4276
912.519	4443
912.633	4470
912.748	4379
912.862	4371
912.976	4246
913.09	4116
913.204	4249
913.318	4257
913.431	4405
913.545	4383
913.659	4489
913.772	4375
913.886	4314
914	4272
914.113	4402
914.226	4470
914.34	4447
914.453	4318
914.566	4466
914.68	4310
914.793	4337
914.906	4188
915.019	4158
915.132	4082
915.245	4200
915.358	4219
915.47	4246
915.583	4314
915.696	4341
915.809	4440
915.921	4417
916.034	4299
916.146	4310
916.259	4230
916.371	4417
916.483	4363
916.595	4284
916.708	4333
916.82	4322
916.932	4375
917.044	4383
917.156	4299
917.268	4295
917.38	4333
917.491	4249
917.603	4383
917.715	4478
917.826	4466
917.938	4360
918.049	4268
918.161	4398
918.272	4584
918.384	4546
918.495	4462
918.606	4337
918.717	4276
918.828	4329
918.939	4470
919.05	4265
919.161	4360
919.272	4147
919.383	4295
919.494	4436
919.604	4660
919.715	4466
919.826	4405
919.936	4417
920.047	4558
920.157	4538
920.267	4729
920.378	4558
920.488	4512
920.598	4675
920.708	4938
920.818	4820
920.928	4805
921.038	4980
921.148	4930
921.258	4649
921.368	4565
921.477	4554
921.587	4436
921.697	4344
921.806	4588
921.916	4474
922.025	4284
922.134	4310
922.244	4261
922.353	4348
922.462	4105
922.571	4124
922.68	4055
922.789	3994
922.898	4040
923.007	4040
923.116	4112
923.224	4067
923.333	4093
923.442	4006
923.55	3994
923.659	3998
923.767	4105
923.876	4055
923.984	4120
924.092	4010
924.201	4078
924.309	4093
924.417	4131
924.525	4071
924.633	4078
924.741	5083
924.849	3934
924.956	4154
925.064	3960
925.172	3892
925.279	3949
925.387	4071
925.494	4105
925.602	4207
925.709	4230
925.816	4074
925.924	4105
926.031	4257
926.138	4227
926.245	4246
926.352	4109
926.459	4291
926.566	4352
926.673	4227
926.779	4074
926.886	4109
926.993	3972
927.099	3956
927.206	3987
927.312	3964
927.419	4055
927.525	4093
927.631	4173
927.737	4010
927.843	3987
927.95	3865
928.056	3930
928.162	3998
928.267	4036
928.373	4687
928.479	4143
928.585	3903
928.69	4071
928.796	4067
928.901	3975
929.007	3781
929.112	4055
929.218	4010
929.323	3964
929.428	3983
929.533	4101
929.638	3934
929.743	3987
929.848	4063
929.953	4010
930.058	3964
930.163	3797
930.267	3812
930.372	4006
930.477	3812
930.581	4150
930.685	3964
930.79	3835
930.894	3903
930.998	3804
931.103	4029
931.207	3732
931.311	3694
931.415	3694
931.519	3557
931.623	3564
