Data from test_V78500241_1601.txt Node
Date: Fri Mar 25 17:00:08 CST 2022
User: usil
Spectrometer: V785-0024
Trigger mode: 0
Integration Time (sec): 4.000000E-1
Scans to average: 1
Nonlinearity correction enabled: false
Boxcar width: 0
Storing dark spectrum: false
XAxis mode: Wavelengths
Number of Pixels in Spectrum: 1024
>>>>>Begin Spectral Data<<<<<
801.071	8065
801.214	8065
801.356	7799
801.499	7879
801.641	7761
801.783	7887
801.926	7883
802.068	7993
802.211	7959
802.353	7970
802.496	7860
802.638	7921
802.78	7902
802.923	7925
803.065	7932
803.208	7909
803.35	7974
803.492	8115
803.635	8176
803.777	8008
803.919	8172
804.061	8450
804.204	8191
804.346	8088
804.488	7936
804.63	8168
804.773	8016
804.915	8183
805.057	8370
805.199	8145
805.341	8229
805.483	8275
805.626	8164
805.768	8180
805.91	8252
806.052	8221
806.194	8161
806.336	8362
806.478	8024
806.62	8096
806.762	8180
806.904	8286
807.046	8499
807.188	8415
807.33	8385
807.472	8339
807.614	8157
807.756	8187
807.898	8062
808.04	7890
808.182	7970
808.324	7932
808.465	7963
808.607	8119
808.749	8077
808.891	8157
809.033	8305
809.174	8275
809.316	8043
809.458	8100
809.6	7951
809.741	8027
809.883	8024
810.025	8100
810.166	8077
810.308	8043
810.45	7963
810.591	7902
810.733	7742
810.875	7712
811.016	7491
811.158	7552
811.299	7613
811.441	7696
811.582	7700
811.724	7582
811.865	7540
812.007	7628
812.148	7655
812.29	7582
812.431	7807
812.573	7887
812.714	8012
812.855	8123
812.997	8180
813.138	8366
813.279	8237
813.421	8073
813.562	7967
813.703	7894
813.845	7727
813.986	7434
814.127	7327
814.268	7152
814.41	7202
814.551	7149
814.692	7209
814.833	7038
814.974	7137
815.115	7168
815.256	6951
815.397	6966
815.539	7008
815.68	6886
815.821	6802
815.962	6916
816.103	6875
816.244	6741
816.385	6608
816.526	6631
816.666	6479
816.807	6308
816.948	6429
817.089	6509
817.23	6395
817.371	6342
817.512	6380
817.653	6384
817.793	6327
817.934	6429
818.075	6494
818.216	6433
818.356	6441
818.497	6308
818.638	6144
818.778	6190
818.919	6140
819.06	6205
819.2	6346
819.341	6350
819.481	6429
819.622	6574
819.762	6760
819.903	6677
820.043	6582
820.184	6585
820.324	6608
820.465	6726
820.605	6703
820.746	6650
820.886	6509
821.026	6658
821.167	6700
821.307	6821
821.447	6738
821.588	6700
821.728	6635
821.868	6471
822.008	6308
822.149	6437
822.289	6380
822.429	6152
822.569	6106
822.709	6163
822.849	5901
822.99	5893
823.13	5897
823.27	5912
823.41	5779
823.55	5786
823.69	5809
823.83	5832
823.97	5707
824.11	5585
824.25	5528
824.389	5570
824.529	5642
824.669	5509
824.809	5623
824.949	5691
825.089	5668
825.228	5554
825.368	5421
825.508	5349
825.648	5379
825.787	5398
825.927	5391
826.067	5315
826.206	5277
826.346	5402
826.485	5398
826.625	5440
826.765	5554
826.904	5471
827.044	5303
827.183	5250
827.323	5132
827.462	5345
827.601	5170
827.741	5185
827.88	5258
828.02	5124
828.159	5242
828.298	5337
828.437	5391
828.577	5315
828.716	5528
828.855	5360
828.994	5162
829.134	5201
829.273	5181
829.412	5212
829.551	5151
829.69	5227
829.829	5254
829.968	5379
830.107	5258
830.246	5280
830.385	5220
830.524	5159
830.663	5124
830.802	4995
830.941	4904
831.08	4938
831.219	5018
831.357	5037
831.496	5197
831.635	4980
831.774	4904
831.913	4877
832.051	4755
832.19	4755
832.329	4824
832.467	4702
832.606	4664
832.744	4755
832.883	4809
833.022	4755
833.16	4805
833.299	4782
833.437	4870
833.576	4877
833.714	4873
833.852	4900
833.991	4911
834.129	4968
834.267	4957
834.406	4919
834.544	5037
834.682	4987
834.821	5022
834.959	5109
835.097	4984
835.235	5136
835.373	5102
835.511	5102
835.65	5056
835.788	5041
835.926	4900
836.064	4896
836.202	4896
836.34	5136
836.478	5254
836.615	5064
836.753	5208
836.891	5322
837.029	5250
837.167	5216
837.305	5162
837.443	5185
837.58	5086
837.718	5239
837.856	5185
837.993	5193
838.131	5223
838.269	5239
838.406	5193
838.544	5201
838.681	5094
838.819	5045
838.956	4870
839.094	4919
839.231	4965
839.369	5071
839.506	5414
839.643	5307
839.781	5067
839.918	4991
840.055	5079
840.193	5143
840.33	5102
840.467	5132
840.604	5185
840.742	5414
840.879	5056
841.016	5136
841.153	5170
841.29	5379
841.427	5326
841.564	5360
841.701	5360
841.838	5326
841.975	5258
842.112	5265
842.249	5128
842.385	5105
842.522	5376
842.659	5220
842.796	5151
842.933	5216
843.069	5166
843.206	5162
843.343	5330
843.479	5258
843.616	5277
843.752	5052
843.889	5041
844.025	5208
844.162	5006
844.298	5208
844.435	5071
844.571	5075
844.708	5181
844.844	5326
844.98	5326
845.117	5322
845.253	5204
845.389	5067
845.525	5189
845.661	5128
845.798	5037
845.934	5113
846.07	5113
846.206	5193
846.342	5296
846.478	5132
846.614	5022
846.75	4946
846.886	4953
847.022	5124
847.158	5075
847.294	5079
847.429	5071
847.565	5025
847.701	5326
847.837	4881
847.972	4824
848.108	4984
848.244	4946
848.379	4752
848.515	4710
848.65	4778
848.786	4790
848.921	4752
849.057	4938
849.192	4934
849.328	4828
849.463	4900
849.598	4797
849.734	4767
849.869	4687
850.004	4615
850.14	4698
850.275	4615
850.41	4538
850.545	4592
850.68	4580
850.815	4664
850.95	4622
851.085	4854
851.22	4793
851.355	4725
851.49	4653
851.625	4656
851.76	4706
851.895	4565
852.03	4542
852.165	4672
852.299	4752
852.434	4786
852.569	4797
852.703	4812
852.838	4862
852.973	4885
853.107	4923
853.242	4763
853.376	4672
853.511	4599
853.645	4577
853.78	4828
853.914	4687
854.048	4668
854.183	4679
854.317	4786
854.451	4850
854.585	4706
854.72	4672
854.854	4725
854.988	4607
855.122	4622
855.256	4565
855.39	4653
855.524	4820
855.658	4710
855.792	4672
855.926	4744
856.06	4824
856.194	4828
856.327	4717
856.461	4592
856.595	4630
856.729	4615
856.862	4771
856.996	4702
857.13	4683
857.263	4759
857.397	4812
857.53	4668
857.664	4714
857.797	4790
857.931	4763
858.064	4691
858.197	4782
858.331	4645
858.464	4580
858.597	4516
858.731	4611
858.864	4630
858.997	4577
859.13	4691
859.263	4645
859.396	4702
859.529	4554
859.662	4615
859.795	4588
859.928	4649
860.061	4767
860.194	4740
860.327	4607
860.46	4611
860.592	4702
860.725	4710
860.858	4721
860.99	4561
861.123	4523
861.256	4523
861.388	4626
861.521	5147
861.653	4440
861.786	4451
861.918	4478
862.05	4523
862.183	4580
862.315	4615
862.447	4603
862.58	4538
862.712	4455
862.844	4291
862.976	4462
863.108	4440
863.24	4771
863.372	4356
863.504	4424
863.636	4459
863.768	4500
863.9	4436
864.032	4375
864.164	4405
864.296	4485
864.428	4523
864.559	4596
864.691	4558
864.823	4558
864.954	4485
865.086	4554
865.217	4481
865.349	4421
865.48	4451
865.612	4451
865.743	4656
865.875	4413
866.006	4470
866.137	4462
866.269	4443
866.4	4447
866.531	4421
866.662	4398
866.793	4367
866.924	4500
867.055	4497
867.186	4489
867.317	4421
867.448	4383
867.579	4375
867.71	4344
867.841	4383
867.972	4462
868.103	4455
868.233	4478
868.364	4432
868.495	4474
868.625	4645
868.756	4778
868.886	4565
869.017	4668
869.147	4740
869.278	4725
869.408	4702
869.539	4626
869.669	4706
869.799	4683
869.929	4729
870.06	4725
870.19	5003
870.32	4949
870.45	4923
870.58	5064
870.71	5140
870.84	5094
870.97	4976
871.1	4885
871.23	5090
871.36	5113
871.489	5045
871.619	5090
871.749	5090
871.879	5102
872.008	5132
872.138	5052
872.267	4968
872.397	4850
872.526	4793
872.656	4748
872.785	4782
872.915	4942
873.044	4999
873.173	4927
873.303	4972
873.432	4984
873.561	4965
873.69	4904
873.819	4854
873.948	4862
874.077	4828
874.206	4782
874.335	4797
874.464	4934
874.593	5041
874.722	4949
874.851	5083
874.979	5056
875.108	5052
875.237	4889
875.365	4831
875.494	4904
875.623	5010
875.751	4786
875.88	4870
876.008	4976
876.136	5037
876.265	5181
876.393	5311
876.521	5288
876.65	5216
876.778	5147
876.906	5124
877.034	5003
877.162	5025
877.29	4976
877.418	5045
877.546	5083
877.674	5003
877.802	5033
877.93	5052
878.058	4927
878.185	4896
878.313	5003
878.441	4915
878.568	4820
878.696	4881
878.824	4930
878.951	5060
879.079	5075
879.206	5307
879.333	5094
879.461	4953
879.588	4980
879.715	5105
879.842	5223
879.97	4995
880.097	4782
880.224	4721
880.351	4801
880.478	4839
880.605	4828
880.732	4774
880.859	5132
880.986	4915
881.112	4930
881.239	4782
881.366	4698
881.493	4546
881.619	4569
881.746	4634
881.872	4645
881.999	4660
882.125	4679
882.252	4786
882.378	4805
882.505	4968
882.631	4850
882.757	4637
882.883	4725
883.01	4702
883.136	4672
883.262	4573
883.388	4569
883.514	4805
883.64	4839
883.766	4828
883.892	4660
884.018	4755
884.143	4904
884.269	5041
884.395	4656
884.52	4653
884.646	4607
884.772	4580
884.897	4592
885.023	4656
885.148	4793
885.274	4862
885.399	4812
885.524	4752
885.65	4683
885.775	4752
885.9	4721
886.025	4919
886.15	4771
886.275	4694
886.4	4675
886.525	4706
886.65	4717
886.775	4675
886.9	4927
887.025	5033
887.149	4790
887.274	4649
887.399	4569
887.523	4618
887.648	4618
887.773	4611
887.897	4786
888.021	4725
888.146	4656
888.27	4801
888.395	4896
888.519	4774
888.643	4805
888.767	4824
888.891	4691
889.015	4599
889.139	4637
889.263	4618
889.387	4767
889.511	4870
889.635	4820
889.759	4641
889.883	4675
890.006	4755
890.13	4854
890.254	4607
890.377	4660
890.501	4523
890.624	4466
890.748	4645
890.871	4481
890.995	4470
891.118	4386
891.241	4523
891.364	4535
891.488	4599
891.611	4478
891.734	4538
891.857	4596
891.98	4538
892.103	4702
892.226	4588
892.349	4523
892.471	4421
892.594	4527
892.717	4592
892.839	4569
892.962	4546
893.085	4649
893.207	4626
893.33	4462
893.452	4531
893.575	4599
893.697	4599
893.819	4805
893.941	4809
894.064	4801
894.186	4561
894.308	4573
894.43	4721
894.552	4786
894.674	4733
894.796	4504
894.918	4626
895.04	4603
895.161	4733
895.283	4653
895.405	4626
895.526	4649
895.648	4683
895.769	4691
895.891	4683
896.012	4710
896.134	4729
896.255	4740
896.376	4630
896.498	4584
896.619	4645
896.74	4596
896.861	4637
896.982	4904
897.103	5094
897.224	4820
897.345	4786
897.466	4698
897.587	4748
897.708	4915
897.828	4733
897.949	4645
898.07	4519
898.19	4634
898.311	4774
898.431	4675
898.552	4725
898.672	4824
898.792	4797
898.913	4744
899.033	4542
899.153	4519
899.273	4417
899.393	4519
899.513	4546
899.633	4508
899.753	4504
899.873	4485
899.993	4580
900.113	4531
900.232	4527
900.352	4531
900.472	4455
900.591	4428
900.711	4493
900.83	4424
900.95	4641
901.069	4618
901.189	4493
901.308	4318
901.427	4356
901.546	4428
901.665	4497
901.784	4538
901.904	4383
902.023	4337
902.141	4166
902.26	4169
902.379	4261
902.498	4257
902.617	4253
902.735	4329
902.854	4394
902.973	4375
903.091	4204
903.21	4204
903.328	4318
903.446	4329
903.565	4268
903.683	4367
903.801	4265
903.919	4367
904.038	4417
904.156	4310
904.274	4405
904.392	4386
904.51	4405
904.627	4508
904.745	4577
904.863	4664
904.981	4337
905.098	4344
905.216	4348
905.334	4436
905.451	4371
905.569	4470
905.686	4519
905.803	4588
905.921	4379
906.038	4542
906.155	4489
906.272	4398
906.389	4474
906.506	4341
906.623	4322
906.74	4363
906.857	4284
906.974	4360
907.091	4542
907.208	4649
907.324	4569
907.441	4474
907.557	4375
907.674	4325
907.79	4299
907.907	4428
908.023	4455
908.139	4421
908.256	4417
908.372	4470
908.488	4459
908.604	4318
908.72	4314
908.836	4386
908.952	4375
909.068	4413
909.184	4527
909.3	4462
909.415	4550
909.531	4550
909.647	4325
909.762	4379
909.878	4333
909.993	4459
910.108	4398
910.224	4379
910.339	4489
910.454	4409
910.57	4337
910.685	4325
910.8	4615
910.915	4550
911.03	4493
911.145	4284
911.259	4310
911.374	4402
911.489	4284
911.604	4238
911.718	4158
911.833	4227
911.947	4090
912.062	4044
912.176	4166
912.291	4242
912.405	4268
912.519	4474
912.633	4485
912.748	4383
912.862	4276
912.976	4173
913.09	4086
913.204	4169
913.318	4268
913.431	4390
913.545	4375
913.659	4417
913.772	4360
913.886	4215
914	4192
914.113	4356
914.226	4417
914.34	4379
914.453	4242
914.566	4462
914.68	4352
914.793	4371
914.906	4143
915.019	4090
915.132	4128
915.245	4147
915.358	4230
915.47	4162
915.583	4234
915.696	4261
915.809	4379
915.921	4405
916.034	4238
916.146	4261
916.259	4196
916.371	4383
916.483	4360
916.595	4204
916.708	4306
916.82	4303
916.932	4344
917.044	4333
917.156	4299
917.268	4253
917.38	4276
917.491	4280
917.603	4299
917.715	4436
917.826	4436
917.938	4325
918.049	4147
918.161	4417
918.272	4569
918.384	4523
918.495	4459
918.606	4268
918.717	4227
918.828	4329
918.939	4405
919.05	4242
919.161	4303
919.272	4124
919.383	4211
919.494	4440
919.604	4618
919.715	4451
919.826	4352
919.936	4443
920.047	4474
920.157	4489
920.267	4668
920.378	4542
920.488	4527
920.598	4694
920.708	4911
920.818	4752
920.928	4740
921.038	4972
921.148	4934
921.258	4573
921.368	4565
921.477	4478
921.587	4421
921.697	4356
921.806	4485
921.916	4413
922.025	4261
922.134	4188
922.244	4242
922.353	4363
922.462	4139
922.571	4177
922.68	3956
922.789	3975
922.898	4013
923.007	3968
923.116	4082
923.224	4090
923.333	4116
923.442	3960
923.55	3991
923.659	4029
923.767	4090
923.876	3972
923.984	4131
924.092	3968
924.201	4071
924.309	4074
924.417	4131
924.525	4071
924.633	4139
924.741	4877
924.849	3922
924.956	4086
925.064	3983
925.172	3876
925.279	3987
925.387	4063
925.494	4029
925.602	4223
925.709	4162
925.816	4044
925.924	4158
926.031	4211
926.138	4162
926.245	4223
926.352	4135
926.459	4246
926.566	4268
926.673	4097
926.779	4048
926.886	4074
926.993	4017
927.099	3922
927.206	3930
927.312	3922
927.419	4082
927.525	3987
927.631	4097
927.737	3960
927.843	3953
927.95	3823
928.056	3949
928.162	3983
928.267	4071
928.373	4630
928.479	4124
928.585	3888
928.69	3979
928.796	4082
928.901	3953
929.007	3812
929.112	4013
929.218	3907
929.323	3956
929.428	3956
929.533	4101
929.638	3911
929.743	3937
929.848	4055
929.953	3979
930.058	3850
930.163	3804
930.267	3816
930.372	3987
930.477	3789
930.581	4078
930.685	3911
930.79	3778
930.894	3869
930.998	3846
931.103	4017
931.207	3694
931.311	3675
931.415	3663
931.519	3458
931.623	3515
