Data from test_V78500241_385.txt Node
Date: Fri Mar 25 16:51:40 CST 2022
User: usil
Spectrometer: V785-0024
Trigger mode: 0
Integration Time (sec): 4.000000E-1
Scans to average: 1
Nonlinearity correction enabled: false
Boxcar width: 0
Storing dark spectrum: false
XAxis mode: Wavelengths
Number of Pixels in Spectrum: 1024
>>>>>Begin Spectral Data<<<<<
801.071	8123
801.214	8050
801.356	7932
801.499	7902
801.641	7917
801.783	7792
801.926	8012
802.068	8050
802.211	8065
802.353	7989
802.496	7940
802.638	7921
802.78	7913
802.923	7989
803.065	7902
803.208	7902
803.35	7974
803.492	8035
803.635	8180
803.777	8119
803.919	8191
804.061	8492
804.204	8252
804.346	8134
804.488	8008
804.63	8069
804.773	8039
804.915	8172
805.057	8347
805.199	8275
805.341	8298
805.483	8347
805.626	8210
805.768	8077
805.91	8172
806.052	8168
806.194	8126
806.336	8355
806.478	8191
806.62	8183
806.762	8202
806.904	8381
807.046	8503
807.188	8374
807.33	8317
807.472	8366
807.614	8259
807.756	8183
807.898	8065
808.04	7970
808.182	7951
808.324	8001
808.465	7982
808.607	8134
808.749	8237
808.891	8267
809.033	8301
809.174	8176
809.316	8111
809.458	8073
809.6	8012
809.741	8024
809.883	8024
810.025	8092
810.166	8138
810.308	8134
810.45	8027
810.591	7894
810.733	7742
810.875	7731
811.016	7609
811.158	7556
811.299	7712
811.441	7814
811.582	7750
811.724	7616
811.865	7624
812.007	7670
812.148	7643
812.29	7666
812.431	7826
812.573	7913
812.714	7978
812.855	8176
812.997	8263
813.138	8324
813.279	8221
813.421	8138
813.562	8039
813.703	7921
813.845	7845
813.986	7506
814.127	7400
814.268	7324
814.41	7251
814.551	7217
814.692	7236
814.833	7095
814.974	7126
815.115	7164
815.256	6939
815.397	6924
815.539	7023
815.68	6890
815.821	6776
815.962	6924
816.103	6875
816.244	6810
816.385	6665
816.526	6658
816.666	6563
816.807	6376
816.948	6483
817.089	6578
817.23	6475
817.371	6395
817.512	6445
817.653	6448
817.793	6357
817.934	6437
818.075	6464
818.216	6452
818.356	6429
818.497	6334
818.638	6213
818.778	6186
818.919	6163
819.06	6133
819.2	6357
819.341	6361
819.481	6422
819.622	6540
819.762	6768
819.903	6726
820.043	6620
820.184	6597
820.324	6593
820.465	6696
820.605	6726
820.746	6669
820.886	6559
821.026	6646
821.167	6764
821.307	6772
821.447	6818
821.588	6719
821.728	6574
821.868	6551
822.008	6372
822.149	6433
822.289	6410
822.429	6159
822.569	6121
822.709	6152
822.849	5950
822.99	5977
823.13	5885
823.27	5882
823.41	5863
823.55	5863
823.69	5844
823.83	5851
823.97	5665
824.11	5589
824.25	5547
824.389	5528
824.529	5638
824.669	5551
824.809	5703
824.949	5729
825.089	5596
825.228	5581
825.368	5406
825.508	5364
825.648	5417
825.787	5433
825.927	5421
826.067	5341
826.206	5315
826.346	5406
826.485	5391
826.625	5414
826.765	5604
826.904	5497
827.044	5284
827.183	5220
827.323	5178
827.462	5269
827.601	5208
827.741	5235
827.88	5216
828.02	5121
828.159	5250
828.298	5269
828.437	5372
828.577	5296
828.716	5501
828.855	5425
828.994	5189
829.134	5132
829.273	5204
829.412	5121
829.551	5143
829.69	5155
829.829	5299
829.968	5395
830.107	5261
830.246	5288
830.385	5246
830.524	5162
830.663	5079
830.802	4976
830.941	4946
831.08	4957
831.219	4976
831.357	4953
831.496	5201
831.635	4976
831.774	4847
831.913	4896
832.051	4774
832.19	4767
832.329	4835
832.467	4675
832.606	4679
832.744	4736
832.883	4771
833.022	4694
833.16	4793
833.299	4809
833.437	4889
833.576	4847
833.714	4858
833.852	4881
833.991	4885
834.129	4968
834.267	4987
834.406	4942
834.544	4957
834.682	5025
834.821	5037
834.959	5155
835.097	5037
835.235	5178
835.373	5147
835.511	5124
835.65	5029
835.788	5022
835.926	4915
836.064	4866
836.202	4995
836.34	5140
836.478	5220
836.615	5140
836.753	5235
836.891	5315
837.029	5258
837.167	5239
837.305	5201
837.443	5147
837.58	5181
837.718	5277
837.856	5231
837.993	5181
838.131	5242
838.269	5246
838.406	5204
838.544	5223
838.681	5045
838.819	5045
838.956	4923
839.094	4927
839.231	5041
839.369	5109
839.506	5463
839.643	5292
839.781	5048
839.918	5041
840.055	5155
840.193	5155
840.33	5067
840.467	5242
840.604	5208
840.742	5444
840.879	5124
841.016	5064
841.153	5212
841.29	5307
841.427	5368
841.564	5330
841.701	5364
841.838	5288
841.975	5227
842.112	5303
842.249	5159
842.385	5117
842.522	5391
842.659	5220
842.796	5189
842.933	5254
843.069	5212
843.206	5159
843.343	5334
843.479	5269
843.616	5269
843.752	5018
843.889	4999
844.025	5242
844.162	5094
844.298	5311
844.435	5060
844.571	5124
844.708	5231
844.844	5326
844.98	5368
845.117	5315
845.253	5155
845.389	5113
845.525	5185
845.661	5170
845.798	5064
845.934	5136
846.07	5041
846.206	5212
846.342	5273
846.478	5208
846.614	5025
846.75	4987
846.886	4881
847.022	5136
847.158	5064
847.294	5086
847.429	5128
847.565	5083
847.701	5326
847.837	4915
847.972	4839
848.108	4961
848.244	4946
848.379	4782
848.515	4748
848.65	4733
848.786	4782
848.921	4786
849.057	4854
849.192	4942
849.328	4831
849.463	4896
849.598	4786
849.734	4790
849.869	4733
850.004	4630
850.14	4660
850.275	4588
850.41	4580
850.545	4546
850.68	4596
850.815	4634
850.95	4630
851.085	4797
851.22	4782
851.355	4706
851.49	4668
851.625	4622
851.76	4637
851.895	4577
852.03	4527
852.165	4687
852.299	4729
852.434	4774
852.569	4748
852.703	4790
852.838	4862
852.973	4965
853.107	4904
853.242	4714
853.376	4691
853.511	4580
853.645	4634
853.78	4820
853.914	4687
854.048	4710
854.183	4672
854.317	4702
854.451	4858
854.585	4660
854.72	4641
854.854	4759
854.988	4592
855.122	4694
855.256	4542
855.39	4668
855.524	4767
855.658	4736
855.792	4717
855.926	4725
856.06	4793
856.194	4782
856.327	4710
856.461	4630
856.595	4607
856.729	4615
856.862	4771
856.996	4698
857.13	4740
857.263	4782
857.397	4805
857.53	4691
857.664	4744
857.797	4771
857.931	4790
858.064	4691
858.197	4714
858.331	4649
858.464	4649
858.597	4504
858.731	4675
858.864	4622
858.997	4596
859.13	4637
859.263	4626
859.396	4721
859.529	4611
859.662	4531
859.795	4599
859.928	4683
860.061	4763
860.194	4774
860.327	4641
860.46	4569
860.592	4691
860.725	4717
860.858	4733
860.99	4592
861.123	4538
861.256	4527
861.388	4630
861.521	5376
861.653	4489
861.786	4504
861.918	4474
862.05	4508
862.183	4558
862.315	4656
862.447	4668
862.58	4558
862.712	4455
862.844	4291
862.976	4500
863.108	4470
863.24	4771
863.372	4291
863.504	4379
863.636	4455
863.768	4493
863.9	4421
864.032	4371
864.164	4409
864.296	4481
864.428	4565
864.559	4577
864.691	4558
864.823	4531
864.954	4504
865.086	4550
865.217	4481
865.349	4451
865.48	4451
865.612	4459
865.743	4641
865.875	4508
866.006	4440
866.137	4474
866.269	4481
866.4	4375
866.531	4405
866.662	4413
866.793	4451
866.924	4447
867.055	4523
867.186	4402
867.317	4405
867.448	4390
867.579	4424
867.71	4424
867.841	4432
867.972	4493
868.103	4447
868.233	4485
868.364	4459
868.495	4478
868.625	4687
868.756	4793
868.886	4573
869.017	4630
869.147	4767
869.278	4771
869.408	4626
869.539	4630
869.669	4729
869.799	4641
869.929	4759
870.06	4725
870.19	4965
870.32	4915
870.45	5006
870.58	5014
870.71	5075
870.84	5109
870.97	4919
871.1	4877
871.23	5178
871.36	5090
871.489	5033
871.619	5113
871.749	5102
871.879	5113
872.008	5204
872.138	5102
872.267	4961
872.397	4850
872.526	4763
872.656	4721
872.785	4850
872.915	4911
873.044	5033
873.173	5003
873.303	4896
873.432	4934
873.561	4919
873.69	4889
873.819	4942
873.948	4930
874.077	4786
874.206	4748
874.335	4835
874.464	4911
874.593	5045
874.722	4927
874.851	5075
874.979	5086
875.108	5003
875.237	4908
875.365	4854
875.494	4953
875.623	4942
875.751	4831
875.88	4881
876.008	4984
876.136	5041
876.265	5197
876.393	5277
876.521	5303
876.65	5250
876.778	5166
876.906	5094
877.034	5048
877.162	5079
877.29	4976
877.418	5086
877.546	5025
877.674	5056
877.802	5025
877.93	5029
878.058	4942
878.185	4885
878.313	4972
878.441	4911
878.568	4820
878.696	4911
878.824	5010
878.951	4980
879.079	5143
879.206	5364
879.333	5117
879.461	4972
879.588	4976
879.715	5113
879.842	5220
879.97	5014
880.097	4797
880.224	4752
880.351	4782
880.478	4900
880.605	4854
880.732	4797
880.859	5094
880.986	4923
881.112	4896
881.239	4740
881.366	4691
881.493	4611
881.619	4603
881.746	4641
881.872	4660
881.999	4645
882.125	4694
882.252	4812
882.378	4793
882.505	4987
882.631	4824
882.757	4687
882.883	4740
883.01	4733
883.136	4675
883.262	4611
883.388	4569
883.514	4828
883.64	4824
883.766	4850
883.892	4706
884.018	4660
884.143	4870
884.269	5018
884.395	4672
884.52	4637
884.646	4660
884.772	4618
884.897	4615
885.023	4653
885.148	4805
885.274	4870
885.399	4828
885.524	4687
885.65	4691
885.775	4771
885.9	4717
886.025	4820
886.15	4759
886.275	4752
886.4	4649
886.525	4782
886.65	4706
886.775	4679
886.9	4938
887.025	5041
887.149	4843
887.274	4653
887.399	4561
887.523	4637
887.648	4618
887.773	4565
887.897	4790
888.021	4793
888.146	4691
888.27	4797
888.395	4854
888.519	4805
888.643	4858
888.767	4805
888.891	4675
889.015	4641
889.139	4691
889.263	4634
889.387	4759
889.511	4889
889.635	4828
889.759	4653
889.883	4634
890.006	4740
890.13	4786
890.254	4622
890.377	4698
890.501	4565
890.624	4558
890.748	4664
890.871	4493
890.995	4485
891.118	4402
891.241	4516
891.364	4542
891.488	4645
891.611	4535
891.734	4554
891.857	4615
891.98	4558
892.103	4694
892.226	4573
892.349	4523
892.471	4428
892.594	4554
892.717	4580
892.839	4599
892.962	4599
893.085	4645
893.207	4607
893.33	4474
893.452	4554
893.575	4660
893.697	4569
893.819	4790
893.941	4843
894.064	4759
894.186	4596
894.308	4523
894.43	4763
894.552	4835
894.674	4767
894.796	4588
894.918	4611
895.04	4573
895.161	4694
895.283	4694
895.405	4634
895.526	4649
895.648	4698
895.769	4752
895.891	4710
896.012	4744
896.134	4733
896.255	4687
896.376	4668
896.498	4679
896.619	4660
896.74	4622
896.861	4653
896.982	4885
897.103	5121
897.224	4831
897.345	4744
897.466	4660
897.587	4702
897.708	4843
897.828	4744
897.949	4641
898.07	4542
898.19	4672
898.311	4824
898.431	4668
898.552	4698
898.672	4805
898.792	4763
898.913	4752
899.033	4588
899.153	4493
899.273	4462
899.393	4497
899.513	4523
899.633	4519
899.753	4558
899.873	4546
899.993	4618
900.113	4584
900.232	4569
900.352	4558
900.472	4508
900.591	4432
900.711	4493
900.83	4481
900.95	4656
901.069	4668
901.189	4489
901.308	4371
901.427	4348
901.546	4360
901.665	4455
901.784	4550
901.904	4417
902.023	4322
902.141	4249
902.26	4173
902.379	4314
902.498	4246
902.617	4234
902.735	4348
902.854	4405
902.973	4348
903.091	4234
903.21	4211
903.328	4333
903.446	4230
903.565	4253
903.683	4375
903.801	4291
903.919	4428
904.038	4398
904.156	4272
904.274	4470
904.392	4432
904.51	4424
904.627	4455
904.745	4603
904.863	4694
904.981	4428
905.098	4318
905.216	4352
905.334	4459
905.451	4485
905.569	4424
905.686	4615
905.803	4580
905.921	4417
906.038	4580
906.155	4466
906.272	4436
906.389	4485
906.506	4375
906.623	4402
906.74	4398
906.857	4341
906.974	4356
907.091	4558
907.208	4683
907.324	4588
907.441	4535
907.557	4394
907.674	4363
907.79	4333
907.907	4428
908.023	4561
908.139	4493
908.256	4428
908.372	4516
908.488	4478
908.604	4379
908.72	4329
908.836	4306
908.952	4398
909.068	4409
909.184	4558
909.3	4531
909.415	4580
909.531	4603
909.647	4375
909.762	4344
909.878	4409
909.993	4409
910.108	4394
910.224	4394
910.339	4516
910.454	4443
910.57	4386
910.685	4310
910.8	4626
910.915	4615
911.03	4436
911.145	4337
911.259	4314
911.374	4371
911.489	4325
911.604	4295
911.718	4185
911.833	4166
911.947	4097
912.062	4040
912.176	4211
912.291	4215
912.405	4219
912.519	4447
912.633	4474
912.748	4375
912.862	4318
912.976	4204
913.09	4093
913.204	4230
913.318	4268
913.431	4375
913.545	4344
913.659	4485
913.772	4337
913.886	4249
914	4219
914.113	4379
914.226	4436
914.34	4409
914.453	4211
914.566	4436
914.68	4291
914.793	4329
914.906	4162
915.019	4120
915.132	4025
915.245	4173
915.358	4192
915.47	4238
915.583	4272
915.696	4303
915.809	4405
915.921	4386
916.034	4303
916.146	4211
916.259	4253
916.371	4379
916.483	4383
916.595	4257
916.708	4303
916.82	4299
916.932	4352
917.044	4268
917.156	4314
917.268	4261
917.38	4242
917.491	4280
917.603	4356
917.715	4383
917.826	4428
917.938	4333
918.049	4238
918.161	4348
918.272	4550
918.384	4554
918.495	4432
918.606	4299
918.717	4246
918.828	4360
918.939	4367
919.05	4242
919.161	4314
919.272	4150
919.383	4253
919.494	4462
919.604	4554
919.715	4455
919.826	4360
919.936	4390
920.047	4474
920.157	4462
920.267	4706
920.378	4584
920.488	4523
920.598	4717
920.708	4873
920.818	4774
920.928	4812
921.038	4923
921.148	4923
921.258	4649
921.368	4542
921.477	4462
921.587	4493
921.697	4383
921.806	4561
921.916	4455
922.025	4276
922.134	4268
922.244	4204
922.353	4333
922.462	4200
922.571	4147
922.68	4006
922.789	3960
922.898	4025
923.007	4002
923.116	4120
923.224	4082
923.333	4086
923.442	3968
923.55	3994
923.659	4059
923.767	4147
923.876	4029
923.984	4116
924.092	3994
924.201	4036
924.309	4105
924.417	4082
924.525	4093
924.633	4093
924.741	5102
924.849	3949
924.956	4128
925.064	4006
925.172	3911
925.279	3968
925.387	4048
925.494	4055
925.602	4162
925.709	4204
925.816	4032
925.924	4074
926.031	4230
926.138	4181
926.245	4223
926.352	4116
926.459	4234
926.566	4341
926.673	4139
926.779	4093
926.886	4112
926.993	3991
927.099	3953
927.206	3941
927.312	3979
927.419	4063
927.525	4013
927.631	4105
927.737	3987
927.843	3945
927.95	3838
928.056	3953
928.162	4036
928.267	4071
928.373	4649
928.479	4097
928.585	3861
928.69	4036
928.796	4116
928.901	3953
929.007	3857
929.112	4010
929.218	3968
929.323	3987
929.428	3949
929.533	4120
929.638	3934
929.743	3987
929.848	4078
929.953	4002
930.058	3953
930.163	3808
930.267	3827
930.372	3964
930.477	3831
930.581	4093
930.685	3994
930.79	3816
930.894	3876
930.998	3823
931.103	4055
931.207	3762
931.311	3663
931.415	3694
931.519	3504
931.623	3534
