Data from test_V78500241_808.txt Node
Date: Fri Mar 25 16:54:37 CST 2022
User: usil
Spectrometer: V785-0024
Trigger mode: 0
Integration Time (sec): 4.000000E-1
Scans to average: 1
Nonlinearity correction enabled: false
Boxcar width: 0
Storing dark spectrum: false
XAxis mode: Wavelengths
Number of Pixels in Spectrum: 1024
>>>>>Begin Spectral Data<<<<<
801.071	8020
801.214	8035
801.356	7837
801.499	7887
801.641	7807
801.783	7776
801.926	7989
802.068	7955
802.211	7982
802.353	7967
802.496	7871
802.638	7932
802.78	7871
802.923	7925
803.065	7890
803.208	7852
803.35	7959
803.492	7997
803.635	8134
803.777	8008
803.919	8130
804.061	8339
804.204	8115
804.346	8062
804.488	7940
804.63	8016
804.773	8027
804.915	8084
805.057	8328
805.199	8191
805.341	8229
805.483	8279
805.626	8168
805.768	8077
805.91	8142
806.052	8195
806.194	8024
806.336	8305
806.478	8115
806.62	7993
806.762	8096
806.904	8259
807.046	8454
807.188	8328
807.33	8351
807.472	8256
807.614	8153
807.756	8115
807.898	7944
808.04	7856
808.182	7871
808.324	7833
808.465	7879
808.607	8024
808.749	8088
808.891	8183
809.033	8305
809.174	8202
809.316	8054
809.458	7951
809.6	7944
809.741	8065
809.883	7967
810.025	8050
810.166	8024
810.308	8016
810.45	8050
810.591	7974
810.733	7753
810.875	7651
811.016	7537
811.158	7460
811.299	7537
811.441	7719
811.582	7753
811.724	7544
811.865	7537
812.007	7616
812.148	7556
812.29	7582
812.431	7731
812.573	7822
812.714	7967
812.855	8069
812.997	8153
813.138	8259
813.279	8153
813.421	8077
813.562	7921
813.703	7868
813.845	7765
813.986	7445
814.127	7392
814.268	7289
814.41	7198
814.551	7126
814.692	7175
814.833	7023
814.974	7034
815.115	7042
815.256	6932
815.397	6916
815.539	6993
815.68	6840
815.821	6719
815.962	6852
816.103	6806
816.244	6642
816.385	6681
816.526	6578
816.666	6494
816.807	6304
816.948	6441
817.089	6452
817.23	6456
817.371	6380
817.512	6353
817.653	6327
817.793	6376
817.934	6441
818.075	6433
818.216	6391
818.356	6369
818.497	6232
818.638	6095
818.778	6194
818.919	6136
819.06	6125
819.2	6319
819.341	6323
819.481	6331
819.622	6513
819.762	6779
819.903	6662
820.043	6509
820.184	6551
820.324	6597
820.465	6623
820.605	6627
820.746	6597
820.886	6509
821.026	6639
821.167	6734
821.307	6783
821.447	6738
821.588	6582
821.728	6570
821.868	6467
822.008	6372
822.149	6376
822.289	6361
822.429	6178
822.569	6053
822.709	6083
822.849	5908
822.99	5863
823.13	5916
823.27	5904
823.41	5764
823.55	5764
823.69	5779
823.83	5745
823.97	5672
824.11	5528
824.25	5539
824.389	5566
824.529	5589
824.669	5490
824.809	5566
824.949	5634
825.089	5615
825.228	5547
825.368	5436
825.508	5330
825.648	5307
825.787	5318
825.927	5398
826.067	5280
826.206	5277
826.346	5372
826.485	5402
826.625	5429
826.765	5512
826.904	5452
827.044	5239
827.183	5147
827.323	5109
827.462	5239
827.601	5178
827.741	5181
827.88	5178
828.02	5121
828.159	5220
828.298	5296
828.437	5311
828.577	5296
828.716	5444
828.855	5345
828.994	5162
829.134	5136
829.273	5151
829.412	5166
829.551	5102
829.69	5128
829.829	5212
829.968	5379
830.107	5258
830.246	5239
830.385	5208
830.524	5109
830.663	5064
830.802	4946
830.941	4934
831.08	4889
831.219	4972
831.357	4976
831.496	5147
831.635	4911
831.774	4862
831.913	4862
832.051	4736
832.19	4710
832.329	4877
832.467	4691
832.606	4649
832.744	4702
832.883	4714
833.022	4706
833.16	4812
833.299	4809
833.437	4797
833.576	4816
833.714	4816
833.852	4831
833.991	4904
834.129	4923
834.267	4953
834.406	4877
834.544	4968
834.682	4938
834.821	5003
834.959	5143
835.097	4991
835.235	5109
835.373	5048
835.511	5094
835.65	4984
835.788	4984
835.926	4873
836.064	4866
836.202	4915
836.34	5166
836.478	5239
836.615	5098
836.753	5159
836.891	5273
837.029	5239
837.167	5193
837.305	5166
837.443	5113
837.58	5064
837.718	5235
837.856	5220
837.993	5090
838.131	5254
838.269	5204
838.406	5193
838.544	5223
838.681	5075
838.819	4965
838.956	4862
839.094	4870
839.231	4987
839.369	5102
839.506	5414
839.643	5261
839.781	5045
839.918	5003
840.055	5090
840.193	5071
840.33	5105
840.467	5147
840.604	5220
840.742	5417
840.879	5037
841.016	5045
841.153	5178
841.29	5368
841.427	5292
841.564	5341
841.701	5345
841.838	5246
841.975	5220
842.112	5273
842.249	5102
842.385	5121
842.522	5341
842.659	5189
842.796	5132
842.933	5212
843.069	5124
843.206	5155
843.343	5242
843.479	5235
843.616	5284
843.752	5025
843.889	4957
844.025	5178
844.162	4987
844.298	5201
844.435	5052
844.571	5060
844.708	5162
844.844	5299
844.98	5326
845.117	5292
845.253	5121
845.389	5041
845.525	5162
845.661	5147
845.798	5010
845.934	5060
846.07	5045
846.206	5204
846.342	5269
846.478	5220
846.614	5029
846.75	4968
846.886	4873
847.022	5140
847.158	5010
847.294	5041
847.429	5079
847.565	5037
847.701	5280
847.837	4862
847.972	4782
848.108	4953
848.244	4923
848.379	4767
848.515	4687
848.65	4710
848.786	4729
848.921	4774
849.057	4828
849.192	4835
849.328	4752
849.463	4790
849.598	4812
849.734	4714
849.869	4687
850.004	4630
850.14	4702
850.275	4527
850.41	4519
850.545	4573
850.68	4618
850.815	4660
850.95	4603
851.085	4850
851.22	4717
851.355	4645
851.49	4672
851.625	4618
851.76	4656
851.895	4592
852.03	4558
852.165	4656
852.299	4733
852.434	4725
852.569	4702
852.703	4733
852.838	4824
852.973	4930
853.107	4911
853.242	4702
853.376	4679
853.511	4535
853.645	4611
853.78	4755
853.914	4675
854.048	4649
854.183	4622
854.317	4675
854.451	4828
854.585	4691
854.72	4653
854.854	4755
854.988	4626
855.122	4611
855.256	4485
855.39	4645
855.524	4759
855.658	4702
855.792	4668
855.926	4694
856.06	4782
856.194	4786
856.327	4691
856.461	4634
856.595	4584
856.729	4599
856.862	4774
856.996	4653
857.13	4683
857.263	4721
857.397	4809
857.53	4675
857.664	4744
857.797	4687
857.931	4774
858.064	4683
858.197	4694
858.331	4706
858.464	4584
858.597	4508
858.731	4615
858.864	4615
858.997	4565
859.13	4634
859.263	4656
859.396	4736
859.529	4603
859.662	4542
859.795	4527
859.928	4630
860.061	4805
860.194	4736
860.327	4542
860.46	4611
860.592	4717
860.725	4725
860.858	4744
860.99	4588
861.123	4466
861.256	4504
861.388	4653
861.521	5246
861.653	4474
861.786	4455
861.918	4478
862.05	4504
862.183	4580
862.315	4569
862.447	4637
862.58	4535
862.712	4367
862.844	4337
862.976	4440
863.108	4474
863.24	4786
863.372	4295
863.504	4394
863.636	4402
863.768	4451
863.9	4413
864.032	4394
864.164	4383
864.296	4462
864.428	4538
864.559	4565
864.691	4561
864.823	4535
864.954	4493
865.086	4447
865.217	4432
865.349	4436
865.48	4432
865.612	4478
865.743	4618
865.875	4432
866.006	4462
866.137	4432
866.269	4386
866.4	4440
866.531	4402
866.662	4383
866.793	4344
866.924	4451
867.055	4493
867.186	4485
867.317	4440
867.448	4390
867.579	4356
867.71	4405
867.841	4386
867.972	4447
868.103	4424
868.233	4436
868.364	4451
868.495	4462
868.625	4653
868.756	4733
868.886	4573
869.017	4615
869.147	4744
869.278	4763
869.408	4660
869.539	4634
869.669	4706
869.799	4626
869.929	4752
870.06	4717
870.19	4961
870.32	4953
870.45	4976
870.58	5045
870.71	5037
870.84	5045
870.97	4930
871.1	4911
871.23	5117
871.36	5109
871.489	5045
871.619	5075
871.749	5109
871.879	5155
872.008	5147
872.138	5010
872.267	4987
872.397	4877
872.526	4778
872.656	4717
872.785	4828
872.915	4923
873.044	4995
873.173	4900
873.303	4968
873.432	4980
873.561	4984
873.69	4866
873.819	4835
873.948	4915
874.077	4812
874.206	4698
874.335	4744
874.464	4896
874.593	5041
874.722	4889
874.851	5052
874.979	5029
875.108	5018
875.237	4911
875.365	4908
875.494	4870
875.623	4965
875.751	4774
875.88	4847
876.008	4938
876.136	5018
876.265	5166
876.393	5265
876.521	5204
876.65	5155
876.778	5166
876.906	5098
877.034	4968
877.162	5010
877.29	4961
877.418	5041
877.546	5018
877.674	5048
877.802	5045
877.93	4991
878.058	4957
878.185	4889
878.313	4942
878.441	4946
878.568	4763
878.696	4835
878.824	4930
878.951	4972
879.079	5060
879.206	5250
879.333	5064
879.461	4953
879.588	4976
879.715	5132
879.842	5220
879.97	5041
880.097	4725
880.224	4767
880.351	4816
880.478	4786
880.605	4790
880.732	4809
880.859	5067
880.986	4850
881.112	4892
881.239	4771
881.366	4691
881.493	4622
881.619	4599
881.746	4649
881.872	4626
881.999	4630
882.125	4702
882.252	4763
882.378	4843
882.505	4908
882.631	4847
882.757	4668
882.883	4729
883.01	4736
883.136	4679
883.262	4580
883.388	4588
883.514	4771
883.64	4835
883.766	4774
883.892	4672
884.018	4714
884.143	4885
884.269	5010
884.395	4664
884.52	4668
884.646	4596
884.772	4531
884.897	4565
885.023	4687
885.148	4778
885.274	4873
885.399	4774
885.524	4763
885.65	4721
885.775	4744
885.9	4675
886.025	4847
886.15	4793
886.275	4675
886.4	4679
886.525	4717
886.65	4691
886.775	4653
886.9	4885
887.025	5083
887.149	4752
887.274	4641
887.399	4546
887.523	4565
887.648	4611
887.773	4592
887.897	4828
888.021	4755
888.146	4626
888.27	4797
888.395	4877
888.519	4797
888.643	4862
888.767	4771
888.891	4615
889.015	4622
889.139	4641
889.263	4607
889.387	4774
889.511	4915
889.635	4752
889.759	4660
889.883	4641
890.006	4733
890.13	4805
890.254	4607
890.377	4653
890.501	4546
890.624	4485
890.748	4592
890.871	4493
890.995	4451
891.118	4417
891.241	4535
891.364	4535
891.488	4653
891.611	4455
891.734	4603
891.857	4637
891.98	4535
892.103	4611
892.226	4611
892.349	4538
892.471	4451
892.594	4558
892.717	4558
892.839	4546
892.962	4588
893.085	4653
893.207	4630
893.33	4466
893.452	4542
893.575	4679
893.697	4561
893.819	4778
893.941	4831
894.064	4759
894.186	4596
894.308	4542
894.43	4755
894.552	4824
894.674	4759
894.796	4554
894.918	4584
895.04	4561
895.161	4771
895.283	4691
895.405	4538
895.526	4618
895.648	4664
895.769	4679
895.891	4736
896.012	4736
896.134	4691
896.255	4641
896.376	4618
896.498	4622
896.619	4626
896.74	4596
896.861	4653
896.982	4877
897.103	5071
897.224	4866
897.345	4782
897.466	4729
897.587	4706
897.708	4858
897.828	4767
897.949	4649
898.07	4603
898.19	4630
898.311	4786
898.431	4698
898.552	4668
898.672	4824
898.792	4805
898.913	4729
899.033	4611
899.153	4481
899.273	4402
899.393	4493
899.513	4516
899.633	4504
899.753	4512
899.873	4554
899.993	4611
900.113	4558
900.232	4584
900.352	4527
900.472	4459
900.591	4417
900.711	4481
900.83	4413
900.95	4577
901.069	4714
901.189	4550
901.308	4337
901.427	4306
901.546	4421
901.665	4478
901.784	4500
901.904	4390
902.023	4314
902.141	4192
902.26	4177
902.379	4265
902.498	4272
902.617	4204
902.735	4383
902.854	4398
902.973	4363
903.091	4181
903.21	4219
903.328	4299
903.446	4314
903.565	4291
903.683	4375
903.801	4280
903.919	4394
904.038	4402
904.156	4325
904.274	4470
904.392	4386
904.51	4459
904.627	4440
904.745	4531
904.863	4596
904.981	4409
905.098	4280
905.216	4329
905.334	4402
905.451	4417
905.569	4447
905.686	4554
905.803	4577
905.921	4390
906.038	4531
906.155	4485
906.272	4333
906.389	4455
906.506	4352
906.623	4341
906.74	4394
906.857	4306
906.974	4356
907.091	4607
907.208	4660
907.324	4550
907.441	4474
907.557	4386
907.674	4337
907.79	4306
907.907	4371
908.023	4474
908.139	4508
908.256	4432
908.372	4462
908.488	4383
908.604	4352
908.72	4329
908.836	4398
908.952	4417
909.068	4455
909.184	4554
909.3	4466
909.415	4519
909.531	4535
909.647	4363
909.762	4379
909.878	4291
909.993	4474
910.108	4459
910.224	4413
910.339	4470
910.454	4379
910.57	4344
910.685	4287
910.8	4630
910.915	4577
911.03	4474
911.145	4253
911.259	4318
911.374	4363
911.489	4268
911.604	4265
911.718	4162
911.833	4249
911.947	4029
912.062	4048
912.176	4242
912.291	4223
912.405	4234
912.519	4447
912.633	4481
912.748	4379
912.862	4318
912.976	4207
913.09	4109
913.204	4158
913.318	4276
913.431	4367
913.545	4348
913.659	4402
913.772	4394
913.886	4261
914	4230
914.113	4322
914.226	4443
914.34	4405
914.453	4211
914.566	4390
914.68	4253
914.793	4337
914.906	4131
915.019	4109
915.132	4055
915.245	4173
915.358	4215
915.47	4188
915.583	4280
915.696	4253
915.809	4447
915.921	4436
916.034	4249
916.146	4223
916.259	4238
916.371	4379
916.483	4386
916.595	4322
916.708	4375
916.82	4352
916.932	4299
917.044	4333
917.156	4280
917.268	4276
917.38	4291
917.491	4268
917.603	4329
917.715	4390
917.826	4466
917.938	4367
918.049	4238
918.161	4402
918.272	4569
918.384	4577
918.495	4432
918.606	4284
918.717	4219
918.828	4348
918.939	4363
919.05	4299
919.161	4257
919.272	4177
919.383	4200
919.494	4436
919.604	4641
919.715	4436
919.826	4344
919.936	4409
920.047	4485
920.157	4481
920.267	4660
920.378	4508
920.488	4462
920.598	4687
920.708	4892
920.818	4778
920.928	4778
921.038	4965
921.148	4942
921.258	4573
921.368	4569
921.477	4504
921.587	4470
921.697	4329
921.806	4554
921.916	4432
922.025	4261
922.134	4265
922.244	4230
922.353	4303
922.462	4169
922.571	4169
922.68	4032
922.789	3998
922.898	4029
923.007	3987
923.116	4101
923.224	4044
923.333	4074
923.442	3964
923.55	3918
923.659	4055
923.767	4086
923.876	4002
923.984	4147
924.092	4010
924.201	4097
924.309	4090
924.417	4147
924.525	4036
924.633	4074
924.741	4900
924.849	3915
924.956	4120
925.064	3930
925.172	3960
925.279	3934
925.387	4097
925.494	4013
925.602	4215
925.709	4185
925.816	4051
925.924	4147
926.031	4211
926.138	4192
926.245	4192
926.352	4063
926.459	4219
926.566	4341
926.673	4185
926.779	4063
926.886	4071
926.993	3972
927.099	3953
927.206	3930
927.312	3915
927.419	4040
927.525	4032
927.631	4101
927.737	4010
927.843	3926
927.95	3846
928.056	3953
928.162	3953
928.267	4029
928.373	4683
928.479	4120
928.585	3896
928.69	4040
928.796	4013
928.901	3956
929.007	3865
929.112	4025
929.218	3991
929.323	3934
929.428	3918
929.533	4044
929.638	3937
929.743	3911
929.848	4021
929.953	4044
930.058	3915
930.163	3747
930.267	3789
930.372	4002
930.477	3766
930.581	4090
930.685	3945
930.79	3827
930.894	3857
930.998	3857
931.103	3991
931.207	3720
931.311	3694
931.415	3671
931.519	3564
931.623	3549
