Data from test_V78500241_2192.txt Node
Date: Fri Mar 25 17:04:14 CST 2022
User: usil
Spectrometer: V785-0024
Trigger mode: 0
Integration Time (sec): 4.000000E-1
Scans to average: 1
Nonlinearity correction enabled: false
Boxcar width: 0
Storing dark spectrum: false
XAxis mode: Wavelengths
Number of Pixels in Spectrum: 1024
>>>>>Begin Spectral Data<<<<<
801.071	8005
801.214	8073
801.356	7940
801.499	7864
801.641	7879
801.783	7852
801.926	7989
802.068	7947
802.211	7917
802.353	8005
802.496	7871
802.638	7875
802.78	7928
802.923	7883
803.065	7875
803.208	7830
803.35	7967
803.492	8096
803.635	8134
803.777	8024
803.919	8103
804.061	8518
804.204	8187
804.346	8115
804.488	8008
804.63	8142
804.773	7974
804.915	8149
805.057	8313
805.199	8282
805.341	8126
805.483	8271
805.626	8290
805.768	8103
805.91	8206
806.052	8218
806.194	8115
806.336	8355
806.478	8161
806.62	8062
806.762	8142
806.904	8290
807.046	8492
807.188	8351
807.33	8301
807.472	8381
807.614	8180
807.756	8123
807.898	8081
808.04	7925
808.182	7932
808.324	7906
808.465	7970
808.607	8100
808.749	8088
808.891	8214
809.033	8279
809.174	8187
809.316	8149
809.458	8107
809.6	8062
809.741	8103
809.883	8084
810.025	8168
810.166	8050
810.308	8126
810.45	8016
810.591	7849
810.733	7727
810.875	7712
811.016	7537
811.158	7514
811.299	7670
811.441	7689
811.582	7647
811.724	7571
811.865	7514
812.007	7624
812.148	7556
812.29	7590
812.431	7746
812.573	7909
812.714	7986
812.855	8134
812.997	8157
813.138	8351
813.279	8142
813.421	8168
813.562	8016
813.703	7807
813.845	7769
813.986	7495
814.127	7236
814.268	7232
814.41	7202
814.551	7137
814.692	7194
814.833	7164
814.974	7129
815.115	7149
815.256	7046
815.397	6939
815.539	6920
815.68	6814
815.821	6856
815.962	6901
816.103	6829
816.244	6726
816.385	6604
816.526	6662
816.666	6536
816.807	6357
816.948	6426
817.089	6498
817.23	6426
817.371	6380
817.512	6380
817.653	6441
817.793	6357
817.934	6464
818.075	6441
818.216	6448
818.356	6410
818.497	6338
818.638	6125
818.778	6163
818.919	6190
819.06	6194
819.2	6331
819.341	6342
819.481	6418
819.622	6555
819.762	6745
819.903	6764
820.043	6601
820.184	6570
820.324	6620
820.465	6753
820.605	6730
820.746	6700
820.886	6612
821.026	6692
821.167	6696
821.307	6833
821.447	6779
821.588	6696
821.728	6578
821.868	6521
822.008	6346
822.149	6391
822.289	6327
822.429	6163
822.569	6148
822.709	6178
822.849	5965
822.99	5992
823.13	5923
823.27	5977
823.41	5775
823.55	5783
823.69	5748
823.83	5813
823.97	5691
824.11	5501
824.25	5547
824.389	5627
824.529	5600
824.669	5539
824.809	5653
824.949	5649
825.089	5638
825.228	5554
825.368	5444
825.508	5376
825.648	5307
825.787	5444
825.927	5395
826.067	5353
826.206	5280
826.346	5391
826.485	5417
826.625	5414
826.765	5532
826.904	5505
827.044	5227
827.183	5197
827.323	5216
827.462	5235
827.601	5227
827.741	5140
827.88	5189
828.02	5094
828.159	5246
828.298	5326
828.437	5337
828.577	5303
828.716	5490
828.855	5330
828.994	5128
829.134	5155
829.273	5220
829.412	5132
829.551	5178
829.69	5181
829.829	5296
829.968	5383
830.107	5337
830.246	5292
830.385	5170
830.524	5113
830.663	5140
830.802	4987
830.941	4908
831.08	4866
831.219	5041
831.357	4942
831.496	5159
831.635	4949
831.774	4835
831.913	4934
832.051	4714
832.19	4736
832.329	4927
832.467	4714
832.606	4603
832.744	4755
832.883	4759
833.022	4721
833.16	4793
833.299	4828
833.437	4866
833.576	4786
833.714	4870
833.852	4915
833.991	4915
834.129	4968
834.267	4923
834.406	4968
834.544	5022
834.682	5010
834.821	4980
834.959	5193
835.097	5045
835.235	5132
835.373	5003
835.511	5140
835.65	5014
835.788	5048
835.926	4927
836.064	4927
836.202	4923
836.34	5250
836.478	5277
836.615	5155
836.753	5201
836.891	5349
837.029	5273
837.167	5223
837.305	5181
837.443	5235
837.58	5109
837.718	5261
837.856	5220
837.993	5189
838.131	5197
838.269	5242
838.406	5265
838.544	5155
838.681	5041
838.819	5060
838.956	4961
839.094	4923
839.231	5029
839.369	5071
839.506	5436
839.643	5288
839.781	5052
839.918	5029
840.055	5143
840.193	5113
840.33	5136
840.467	5155
840.604	5159
840.742	5467
840.879	5098
841.016	5159
841.153	5204
841.29	5376
841.427	5318
841.564	5292
841.701	5337
841.838	5326
841.975	5250
842.112	5303
842.249	5208
842.385	5136
842.522	5315
842.659	5201
842.796	5185
842.933	5185
843.069	5121
843.206	5162
843.343	5345
843.479	5254
843.616	5311
843.752	5071
843.889	5067
844.025	5212
844.162	5060
844.298	5181
844.435	5060
844.571	5067
844.708	5227
844.844	5303
844.98	5315
845.117	5303
845.253	5174
845.389	5132
845.525	5140
845.661	5162
845.798	5022
845.934	5090
846.07	5098
846.206	5239
846.342	5288
846.478	5193
846.614	5033
846.75	4999
846.886	4908
847.022	5147
847.158	5041
847.294	5105
847.429	5155
847.565	5079
847.701	5368
847.837	4858
847.972	4854
848.108	4919
848.244	4930
848.379	4816
848.515	4725
848.65	4698
848.786	4744
848.921	4782
849.057	4873
849.192	4892
849.328	4831
849.463	4850
849.598	4778
849.734	4767
849.869	4721
850.004	4634
850.14	4649
850.275	4634
850.41	4531
850.545	4542
850.68	4592
850.815	4672
850.95	4637
851.085	4858
851.22	4733
851.355	4702
851.49	4630
851.625	4634
851.76	4645
851.895	4554
852.03	4527
852.165	4698
852.299	4763
852.434	4797
852.569	4771
852.703	4759
852.838	4831
852.973	4942
853.107	4930
853.242	4748
853.376	4672
853.511	4573
853.645	4607
853.78	4748
853.914	4702
854.048	4691
854.183	4702
854.317	4714
854.451	4854
854.585	4687
854.72	4637
854.854	4755
854.988	4611
855.122	4664
855.256	4485
855.39	4649
855.524	4778
855.658	4755
855.792	4615
855.926	4744
856.06	4778
856.194	4805
856.327	4733
856.461	4592
856.595	4653
856.729	4660
856.862	4706
856.996	4698
857.13	4740
857.263	4759
857.397	4812
857.53	4675
857.664	4710
857.797	4771
857.931	4767
858.064	4691
858.197	4736
858.331	4687
858.464	4634
858.597	4580
858.731	4672
858.864	4622
858.997	4592
859.13	4691
859.263	4698
859.396	4694
859.529	4561
859.662	4596
859.795	4542
859.928	4615
860.061	4736
860.194	4733
860.327	4561
860.46	4596
860.592	4721
860.725	4744
860.858	4702
860.99	4607
861.123	4516
861.256	4489
861.388	4622
861.521	5391
861.653	4459
861.786	4489
861.918	4459
862.05	4500
862.183	4523
862.315	4588
862.447	4660
862.58	4489
862.712	4398
862.844	4344
862.976	4443
863.108	4432
863.24	4839
863.372	4405
863.504	4428
863.636	4375
863.768	4447
863.9	4451
864.032	4383
864.164	4436
864.296	4508
864.428	4565
864.559	4523
864.691	4512
864.823	4542
864.954	4531
865.086	4470
865.217	4432
865.349	4409
865.48	4443
865.612	4508
865.743	4626
865.875	4455
866.006	4394
866.137	4421
866.269	4451
866.4	4451
866.531	4424
866.662	4383
866.793	4428
866.924	4409
867.055	4508
867.186	4432
867.317	4421
867.448	4371
867.579	4413
867.71	4405
867.841	4367
867.972	4451
868.103	4421
868.233	4451
868.364	4462
868.495	4512
868.625	4634
868.756	4725
868.886	4645
869.017	4645
869.147	4812
869.278	4805
869.408	4653
869.539	4622
869.669	4710
869.799	4660
869.929	4733
870.06	4748
870.19	4980
870.32	4946
870.45	4972
870.58	5033
870.71	5090
870.84	5098
870.97	4919
871.1	4896
871.23	5166
871.36	5121
871.489	4946
871.619	5067
871.749	5037
871.879	5079
872.008	5265
872.138	5109
872.267	4995
872.397	4873
872.526	4801
872.656	4801
872.785	4778
872.915	4965
873.044	5029
873.173	4900
873.303	4968
873.432	4877
873.561	4976
873.69	4854
873.819	4850
873.948	4858
874.077	4812
874.206	4786
874.335	4782
874.464	4923
874.593	5064
874.722	4949
874.851	5056
874.979	5098
875.108	5048
875.237	4923
875.365	4885
875.494	4930
875.623	5003
875.751	4816
875.88	4873
876.008	4984
876.136	5022
876.265	5223
876.393	5330
876.521	5269
876.65	5265
876.778	5189
876.906	5079
877.034	5006
877.162	5037
877.29	4987
877.418	5029
877.546	5041
877.674	5037
877.802	5045
877.93	4987
878.058	4942
878.185	4843
878.313	4949
878.441	4995
878.568	4793
878.696	4862
878.824	4915
878.951	4972
879.079	5166
879.206	5269
879.333	5060
879.461	5014
879.588	4995
879.715	5094
879.842	5223
879.97	5003
880.097	4702
880.224	4786
880.351	4812
880.478	4866
880.605	4812
880.732	4805
880.859	5083
880.986	4889
881.112	4927
881.239	4774
881.366	4725
881.493	4618
881.619	4649
881.746	4622
881.872	4679
881.999	4645
882.125	4656
882.252	4744
882.378	4885
882.505	4961
882.631	4805
882.757	4630
882.883	4740
883.01	4740
883.136	4668
883.262	4592
883.388	4660
883.514	4816
883.64	4858
883.766	4839
883.892	4603
884.018	4710
884.143	4854
884.269	4968
884.395	4622
884.52	4577
884.646	4664
884.772	4588
884.897	4523
885.023	4679
885.148	4774
885.274	4889
885.399	4809
885.524	4687
885.65	4721
885.775	4771
885.9	4755
886.025	4843
886.15	4797
886.275	4782
886.4	4649
886.525	4752
886.65	4687
886.775	4694
886.9	4870
887.025	4995
887.149	4812
887.274	4653
887.399	4569
887.523	4596
887.648	4569
887.773	4584
887.897	4759
888.021	4782
888.146	4656
888.27	4835
888.395	4923
888.519	4820
888.643	4824
888.767	4850
888.891	4630
889.015	4592
889.139	4656
889.263	4588
889.387	4755
889.511	4911
889.635	4744
889.759	4653
889.883	4691
890.006	4691
890.13	4824
890.254	4664
890.377	4702
890.501	4542
890.624	4493
890.748	4637
890.871	4500
890.995	4432
891.118	4344
891.241	4508
891.364	4558
891.488	4649
891.611	4504
891.734	4577
891.857	4592
891.98	4519
892.103	4637
892.226	4637
892.349	4481
892.471	4409
892.594	4531
892.717	4607
892.839	4542
892.962	4580
893.085	4649
893.207	4611
893.33	4466
893.452	4554
893.575	4660
893.697	4573
893.819	4771
893.941	4858
894.064	4767
894.186	4596
894.308	4592
894.43	4736
894.552	4835
894.674	4744
894.796	4523
894.918	4580
895.04	4618
895.161	4698
895.283	4748
895.405	4603
895.526	4630
895.648	4683
895.769	4702
895.891	4679
896.012	4759
896.134	4702
896.255	4698
896.376	4653
896.498	4584
896.619	4668
896.74	4611
896.861	4664
896.982	4942
897.103	5025
897.224	4847
897.345	4736
897.466	4637
897.587	4744
897.708	4809
897.828	4797
897.949	4656
898.07	4546
898.19	4637
898.311	4839
898.431	4675
898.552	4763
898.672	4774
898.792	4835
898.913	4698
899.033	4599
899.153	4497
899.273	4432
899.393	4466
899.513	4519
899.633	4527
899.753	4542
899.873	4497
899.993	4569
900.113	4455
900.232	4618
900.352	4500
900.472	4459
900.591	4398
900.711	4493
900.83	4421
900.95	4611
901.069	4694
901.189	4523
901.308	4379
901.427	4318
901.546	4390
901.665	4489
901.784	4474
901.904	4375
902.023	4306
902.141	4169
902.26	4135
902.379	4325
902.498	4211
902.617	4207
902.735	4390
902.854	4375
902.973	4341
903.091	4223
903.21	4242
903.328	4303
903.446	4276
903.565	4249
903.683	4318
903.801	4257
903.919	4390
904.038	4405
904.156	4291
904.274	4424
904.392	4394
904.51	4424
904.627	4500
904.745	4596
904.863	4649
904.981	4394
905.098	4318
905.216	4386
905.334	4421
905.451	4428
905.569	4383
905.686	4531
905.803	4577
905.921	4409
906.038	4508
906.155	4466
906.272	4405
906.389	4481
906.506	4344
906.623	4386
906.74	4360
906.857	4333
906.974	4394
907.091	4542
907.208	4672
907.324	4573
907.441	4512
907.557	4299
907.674	4394
907.79	4318
907.907	4341
908.023	4436
908.139	4462
908.256	4405
908.372	4474
908.488	4462
908.604	4325
908.72	4314
908.836	4356
908.952	4417
909.068	4398
909.184	4573
909.3	4474
909.415	4565
909.531	4546
909.647	4306
909.762	4379
909.878	4344
909.993	4451
910.108	4405
910.224	4383
910.339	4436
910.454	4417
910.57	4360
910.685	4318
910.8	4706
910.915	4592
911.03	4489
911.145	4268
911.259	4284
911.374	4329
911.489	4253
911.604	4287
911.718	4219
911.833	4211
911.947	4101
912.062	4029
912.176	4185
912.291	4207
912.405	4253
912.519	4493
912.633	4535
912.748	4409
912.862	4325
912.976	4166
913.09	4086
913.204	4158
913.318	4230
913.431	4363
913.545	4379
913.659	4478
913.772	4356
913.886	4253
914	4246
914.113	4363
914.226	4402
914.34	4386
914.453	4249
914.566	4436
914.68	4299
914.793	4383
914.906	4154
915.019	4143
915.132	4078
915.245	4188
915.358	4234
915.47	4246
915.583	4242
915.696	4272
915.809	4375
915.921	4421
916.034	4295
916.146	4227
916.259	4200
916.371	4379
916.483	4348
916.595	4303
916.708	4333
916.82	4344
916.932	4333
917.044	4306
917.156	4337
917.268	4268
917.38	4280
917.491	4276
917.603	4329
917.715	4428
917.826	4440
917.938	4360
918.049	4268
918.161	4363
918.272	4558
918.384	4546
918.495	4409
918.606	4265
918.717	4268
918.828	4360
918.939	4348
919.05	4272
919.161	4325
919.272	4131
919.383	4215
919.494	4443
919.604	4626
919.715	4421
919.826	4344
919.936	4402
920.047	4500
920.157	4538
920.267	4675
920.378	4519
920.488	4455
920.598	4748
920.708	4850
920.818	4714
920.928	4759
921.038	4942
921.148	4911
921.258	4622
921.368	4580
921.477	4455
921.587	4459
921.697	4360
921.806	4508
921.916	4421
922.025	4207
922.134	4227
922.244	4204
922.353	4348
922.462	4177
922.571	4086
922.68	4025
922.789	3975
922.898	4059
923.007	4010
923.116	4090
923.224	4074
923.333	4071
923.442	3994
923.55	3998
923.659	3983
923.767	4078
923.876	4006
923.984	4093
924.092	3987
924.201	4048
924.309	4078
924.417	4101
924.525	4059
924.633	4067
924.741	5033
924.849	3884
924.956	4093
925.064	3941
925.172	3918
925.279	3949
925.387	4025
925.494	4013
925.602	4166
925.709	4162
925.816	4029
925.924	4131
926.031	4219
926.138	4185
926.245	4188
926.352	4036
926.459	4246
926.566	4299
926.673	4173
926.779	4044
926.886	4112
926.993	3975
927.099	3926
927.206	3972
927.312	3975
927.419	4074
927.525	4036
927.631	4067
927.737	3964
927.843	3896
927.95	3846
928.056	3960
928.162	3972
928.267	3979
928.373	4691
928.479	4105
928.585	3907
928.69	4010
928.796	4105
928.901	3960
929.007	3831
929.112	3991
929.218	3972
929.323	3915
929.428	3972
929.533	4109
929.638	3922
929.743	3960
929.848	4040
929.953	3994
930.058	3960
930.163	3747
930.267	3838
930.372	3937
930.477	3755
930.581	4090
930.685	3934
930.79	3846
930.894	3880
930.998	3857
931.103	4040
931.207	3720
931.311	3682
931.415	3663
931.519	3530
931.623	3538
