Data from test_V78500241_1821.txt Node
Date: Fri Mar 25 17:01:39 CST 2022
User: usil
Spectrometer: V785-0024
Trigger mode: 0
Integration Time (sec): 4.000000E-1
Scans to average: 1
Nonlinearity correction enabled: false
Boxcar width: 0
Storing dark spectrum: false
XAxis mode: Wavelengths
Number of Pixels in Spectrum: 1024
>>>>>Begin Spectral Data<<<<<
801.071	8050
801.214	7982
801.356	7921
801.499	7837
801.641	7845
801.783	7879
801.926	7982
802.068	8005
802.211	8005
802.353	8031
802.496	7921
802.638	7894
802.78	7951
802.923	7898
803.065	7951
803.208	7898
803.35	8012
803.492	8100
803.635	8202
803.777	8035
803.919	8214
804.061	8450
804.204	8161
804.346	8119
804.488	7970
804.63	8077
804.773	8046
804.915	8119
805.057	8298
805.199	8229
805.341	8183
805.483	8275
805.626	8195
805.768	8119
805.91	8195
806.052	8233
806.194	8123
806.336	8263
806.478	8092
806.62	8111
806.762	8153
806.904	8244
807.046	8522
807.188	8423
807.33	8275
807.472	8389
807.614	8142
807.756	8180
807.898	8050
808.04	7986
808.182	7925
808.324	7887
808.465	7925
808.607	8115
808.749	8115
808.891	8202
809.033	8339
809.174	8256
809.316	8126
809.458	8183
809.6	7993
809.741	8100
809.883	8039
810.025	8069
810.166	8062
810.308	8027
810.45	8005
810.591	7845
810.733	7776
810.875	7700
811.016	7575
811.158	7529
811.299	7582
811.441	7757
811.582	7708
811.724	7605
811.865	7575
812.007	7628
812.148	7605
812.29	7666
812.431	7761
812.573	7837
812.714	8020
812.855	8115
812.997	8225
813.138	8336
813.279	8145
813.421	8050
813.562	7940
813.703	7860
813.845	7719
813.986	7438
814.127	7312
814.268	7308
814.41	7145
814.551	7209
814.692	7232
814.833	7168
814.974	7145
815.115	7103
815.256	6939
815.397	6905
815.539	6958
815.68	6897
815.821	6840
815.962	6897
816.103	6783
816.244	6738
816.385	6612
816.526	6627
816.666	6490
816.807	6319
816.948	6460
817.089	6460
817.23	6479
817.371	6372
817.512	6388
817.653	6391
817.793	6357
817.934	6429
818.075	6509
818.216	6395
818.356	6456
818.497	6304
818.638	6121
818.778	6209
818.919	6163
819.06	6171
819.2	6323
819.341	6296
819.481	6369
819.622	6582
819.762	6764
819.903	6726
820.043	6574
820.184	6585
820.324	6574
820.465	6703
820.605	6700
820.746	6688
820.886	6502
821.026	6669
821.167	6730
821.307	6810
821.447	6818
821.588	6707
821.728	6627
821.868	6509
822.008	6353
822.149	6346
822.289	6342
822.429	6140
822.569	6049
822.709	6129
822.849	5897
822.99	5908
823.13	5931
823.27	5939
823.41	5840
823.55	5828
823.69	5828
823.83	5832
823.97	5726
824.11	5581
824.25	5543
824.389	5573
824.529	5634
824.669	5554
824.809	5668
824.949	5649
825.089	5649
825.228	5539
825.368	5398
825.508	5334
825.648	5337
825.787	5353
825.927	5349
826.067	5334
826.206	5337
826.346	5429
826.485	5417
826.625	5436
826.765	5623
826.904	5455
827.044	5269
827.183	5288
827.323	5162
827.462	5273
827.601	5208
827.741	5258
827.88	5261
828.02	5071
828.159	5223
828.298	5315
828.437	5398
828.577	5299
828.716	5501
828.855	5280
828.994	5189
829.134	5151
829.273	5193
829.412	5166
829.551	5155
829.69	5178
829.829	5235
829.968	5387
830.107	5239
830.246	5242
830.385	5204
830.524	5124
830.663	5052
830.802	4965
830.941	4946
831.08	4911
831.219	4991
831.357	5003
831.496	5170
831.635	4968
831.774	4828
831.913	4919
832.051	4759
832.19	4740
832.329	4854
832.467	4717
832.606	4618
832.744	4717
832.883	4752
833.022	4752
833.16	4801
833.299	4835
833.437	4877
833.576	4843
833.714	4877
833.852	4854
833.991	4927
834.129	4980
834.267	4965
834.406	4938
834.544	4961
834.682	4987
834.821	5003
834.959	5170
835.097	4984
835.235	5159
835.373	5071
835.511	5109
835.65	5025
835.788	5041
835.926	4930
836.064	4877
836.202	4934
836.34	5140
836.478	5246
836.615	5128
836.753	5185
836.891	5265
837.029	5261
837.167	5189
837.305	5189
837.443	5147
837.58	5056
837.718	5235
837.856	5189
837.993	5170
838.131	5242
838.269	5216
838.406	5181
838.544	5189
838.681	5052
838.819	5022
838.956	4885
839.094	4908
839.231	4972
839.369	5098
839.506	5436
839.643	5299
839.781	5041
839.918	4987
840.055	5128
840.193	5109
840.33	5113
840.467	5140
840.604	5166
840.742	5429
840.879	5113
841.016	5102
841.153	5147
841.29	5414
841.427	5326
841.564	5277
841.701	5334
841.838	5265
841.975	5235
842.112	5330
842.249	5166
842.385	5102
842.522	5330
842.659	5246
842.796	5185
842.933	5227
843.069	5147
843.206	5162
843.343	5345
843.479	5223
843.616	5280
843.752	5083
843.889	5025
844.025	5250
844.162	5045
844.298	5197
844.435	5071
844.571	5075
844.708	5166
844.844	5315
844.98	5337
845.117	5311
845.253	5136
845.389	5102
845.525	5155
845.661	5178
845.798	5098
845.934	5105
846.07	5075
846.206	5197
846.342	5284
846.478	5193
846.614	5014
846.75	4968
846.886	4961
847.022	5117
847.158	4999
847.294	5033
847.429	5109
847.565	5060
847.701	5372
847.837	4847
847.972	4801
848.108	4930
848.244	4923
848.379	4748
848.515	4790
848.65	4714
848.786	4729
848.921	4774
849.057	4904
849.192	4896
849.328	4793
849.463	4885
849.598	4755
849.734	4740
849.869	4679
850.004	4618
850.14	4683
850.275	4634
850.41	4512
850.545	4573
850.68	4626
850.815	4626
850.95	4641
851.085	4854
851.22	4733
851.355	4717
851.49	4641
851.625	4668
851.76	4649
851.895	4596
852.03	4554
852.165	4744
852.299	4706
852.434	4835
852.569	4755
852.703	4774
852.838	4866
852.973	4949
853.107	4930
853.242	4710
853.376	4664
853.511	4554
853.645	4649
853.78	4847
853.914	4736
854.048	4683
854.183	4641
854.317	4725
854.451	4854
854.585	4698
854.72	4672
854.854	4755
854.988	4611
855.122	4622
855.256	4527
855.39	4675
855.524	4790
855.658	4717
855.792	4683
855.926	4702
856.06	4774
856.194	4763
856.327	4706
856.461	4558
856.595	4611
856.729	4622
856.862	4771
856.996	4664
857.13	4748
857.263	4793
857.397	4786
857.53	4660
857.664	4717
857.797	4717
857.931	4774
858.064	4702
858.197	4759
858.331	4645
858.464	4626
858.597	4519
858.731	4641
858.864	4664
858.997	4603
859.13	4645
859.263	4630
859.396	4694
859.529	4615
859.662	4531
859.795	4592
859.928	4618
860.061	4725
860.194	4778
860.327	4611
860.46	4584
860.592	4748
860.725	4687
860.858	4717
860.99	4592
861.123	4535
861.256	4508
861.388	4592
861.521	5410
861.653	4497
861.786	4462
861.918	4466
862.05	4527
862.183	4580
862.315	4622
862.447	4634
862.58	4516
862.712	4371
862.844	4341
862.976	4481
863.108	4535
863.24	4854
863.372	4360
863.504	4474
863.636	4390
863.768	4474
863.9	4409
864.032	4371
864.164	4432
864.296	4531
864.428	4546
864.559	4584
864.691	4577
864.823	4481
864.954	4504
865.086	4546
865.217	4417
865.349	4413
865.48	4436
865.612	4489
865.743	4569
865.875	4462
866.006	4402
866.137	4489
866.269	4409
866.4	4447
866.531	4447
866.662	4386
866.793	4398
866.924	4421
867.055	4531
867.186	4432
867.317	4436
867.448	4398
867.579	4371
867.71	4421
867.841	4379
867.972	4440
868.103	4451
868.233	4459
868.364	4459
868.495	4527
868.625	4694
868.756	4771
868.886	4607
869.017	4603
869.147	4801
869.278	4767
869.408	4618
869.539	4641
869.669	4729
869.799	4622
869.929	4755
870.06	4752
870.19	4934
870.32	4904
870.45	4980
870.58	5056
870.71	5045
870.84	5045
870.97	4980
871.1	4915
871.23	5178
871.36	5155
871.489	5010
871.619	5041
871.749	5124
871.879	5086
872.008	5170
872.138	5014
872.267	5018
872.397	4866
872.526	4831
872.656	4729
872.785	4850
872.915	4995
873.044	5018
873.173	4885
873.303	4957
873.432	4999
873.561	4957
873.69	4862
873.819	4831
873.948	4927
874.077	4839
874.206	4782
874.335	4786
874.464	4854
874.593	5048
874.722	4953
874.851	5086
874.979	5010
875.108	5071
875.237	4953
875.365	4930
875.494	4873
875.623	4946
875.751	4828
875.88	4877
876.008	4930
876.136	5025
876.265	5189
876.393	5326
876.521	5254
876.65	5216
876.778	5170
876.906	5090
877.034	4984
877.162	5045
877.29	5010
877.418	5037
877.546	5018
877.674	5018
877.802	5029
877.93	4965
878.058	4976
878.185	4858
878.313	4972
878.441	4953
878.568	4824
878.696	4892
878.824	5003
878.951	5006
879.079	5117
879.206	5299
879.333	5064
879.461	5006
879.588	5056
879.715	5083
879.842	5216
879.97	5037
880.097	4771
880.224	4710
880.351	4763
880.478	4809
880.605	4778
880.732	4801
880.859	5067
880.986	4923
881.112	4870
881.239	4763
881.366	4725
881.493	4622
881.619	4550
881.746	4687
881.872	4615
881.999	4672
882.125	4672
882.252	4752
882.378	4835
882.505	4991
882.631	4793
882.757	4641
882.883	4755
883.01	4755
883.136	4675
883.262	4603
883.388	4653
883.514	4843
883.64	4870
883.766	4828
883.892	4698
884.018	4755
884.143	4850
884.269	4987
884.395	4660
884.52	4653
884.646	4626
884.772	4569
884.897	4592
885.023	4580
885.148	4763
885.274	4812
885.399	4778
885.524	4736
885.65	4668
885.775	4740
885.9	4687
886.025	4831
886.15	4755
886.275	4771
886.4	4664
886.525	4714
886.65	4649
886.775	4702
886.9	4934
887.025	5090
887.149	4820
887.274	4622
887.399	4580
887.523	4584
887.648	4573
887.773	4542
887.897	4725
888.021	4755
888.146	4694
888.27	4816
888.395	4911
888.519	4809
888.643	4801
888.767	4809
888.891	4683
889.015	4569
889.139	4675
889.263	4603
889.387	4786
889.511	4904
889.635	4774
889.759	4615
889.883	4645
890.006	4683
890.13	4839
890.254	4630
890.377	4649
890.501	4592
890.624	4485
890.748	4615
890.871	4481
890.995	4455
891.118	4386
891.241	4504
891.364	4535
891.488	4618
891.611	4512
891.734	4531
891.857	4588
891.98	4535
892.103	4653
892.226	4592
892.349	4512
892.471	4413
892.594	4504
892.717	4573
892.839	4603
892.962	4584
893.085	4645
893.207	4542
893.33	4485
893.452	4470
893.575	4660
893.697	4512
893.819	4763
893.941	4847
894.064	4752
894.186	4580
894.308	4584
894.43	4698
894.552	4843
894.674	4740
894.796	4538
894.918	4611
895.04	4561
895.161	4683
895.283	4679
895.405	4611
895.526	4634
895.648	4721
895.769	4698
895.891	4725
896.012	4793
896.134	4736
896.255	4664
896.376	4622
896.498	4577
896.619	4668
896.74	4668
896.861	4675
896.982	4896
897.103	5056
897.224	4774
897.345	4725
897.466	4679
897.587	4729
897.708	4885
897.828	4759
897.949	4675
898.07	4569
898.19	4618
898.311	4793
898.431	4668
898.552	4733
898.672	4774
898.792	4805
898.913	4782
899.033	4607
899.153	4531
899.273	4447
899.393	4497
899.513	4516
899.633	4519
899.753	4569
899.873	4474
899.993	4542
900.113	4546
900.232	4565
900.352	4523
900.472	4470
900.591	4398
900.711	4531
900.83	4428
900.95	4573
901.069	4683
901.189	4561
901.308	4341
901.427	4276
901.546	4325
901.665	4417
901.784	4519
901.904	4367
902.023	4287
902.141	4158
902.26	4173
902.379	4280
902.498	4249
902.617	4181
902.735	4371
902.854	4360
902.973	4379
903.091	4200
903.21	4238
903.328	4234
903.446	4284
903.565	4253
903.683	4337
903.801	4272
903.919	4344
904.038	4440
904.156	4360
904.274	4440
904.392	4417
904.51	4386
904.627	4409
904.745	4516
904.863	4641
904.981	4413
905.098	4325
905.216	4337
905.334	4424
905.451	4417
905.569	4436
905.686	4569
905.803	4584
905.921	4428
906.038	4558
906.155	4462
906.272	4417
906.389	4440
906.506	4344
906.623	4398
906.74	4341
906.857	4306
906.974	4402
907.091	4538
907.208	4668
907.324	4523
907.441	4497
907.557	4348
907.674	4322
907.79	4318
907.907	4436
908.023	4485
908.139	4474
908.256	4409
908.372	4481
908.488	4500
908.604	4398
908.72	4333
908.836	4375
908.952	4371
909.068	4379
909.184	4603
909.3	4489
909.415	4592
909.531	4531
909.647	4337
909.762	4352
909.878	4394
909.993	4383
910.108	4386
910.224	4409
910.339	4451
910.454	4394
910.57	4344
910.685	4276
910.8	4603
910.915	4584
911.03	4516
911.145	4314
911.259	4352
911.374	4344
911.489	4276
911.604	4291
911.718	4147
911.833	4166
911.947	4074
912.062	4021
912.176	4185
912.291	4265
912.405	4207
912.519	4417
912.633	4470
912.748	4356
912.862	4322
912.976	4219
913.09	4128
913.204	4173
913.318	4215
913.431	4386
913.545	4337
913.659	4405
913.772	4344
913.886	4204
914	4211
914.113	4352
914.226	4402
914.34	4379
914.453	4219
914.566	4402
914.68	4337
914.793	4314
914.906	4177
915.019	4090
915.132	4074
915.245	4169
915.358	4150
915.47	4261
915.583	4265
915.696	4268
915.809	4375
915.921	4375
916.034	4261
916.146	4249
916.259	4200
916.371	4356
916.483	4356
916.595	4276
916.708	4322
916.82	4314
916.932	4318
917.044	4356
917.156	4341
917.268	4230
917.38	4299
917.491	4242
917.603	4284
917.715	4440
917.826	4398
917.938	4322
918.049	4246
918.161	4371
918.272	4512
918.384	4584
918.495	4474
918.606	4238
918.717	4242
918.828	4344
918.939	4325
919.05	4207
919.161	4325
919.272	4128
919.383	4230
919.494	4417
919.604	4611
919.715	4447
919.826	4348
919.936	4447
920.047	4519
920.157	4447
920.267	4679
920.378	4508
920.488	4508
920.598	4694
920.708	4923
920.818	4694
920.928	4801
921.038	4923
921.148	4896
921.258	4611
921.368	4527
921.477	4481
921.587	4485
921.697	4363
921.806	4569
921.916	4466
922.025	4265
922.134	4284
922.244	4242
922.353	4348
922.462	4185
922.571	4139
922.68	3979
922.789	3991
922.898	4086
923.007	3998
923.116	4086
923.224	4029
923.333	4040
923.442	3991
923.55	3964
923.659	4044
923.767	4131
923.876	4013
923.984	4109
924.092	3998
924.201	4044
924.309	4097
924.417	4097
924.525	4067
924.633	4055
924.741	5071
924.849	3876
924.956	4109
925.064	3949
925.172	3922
925.279	3956
925.387	4067
925.494	4055
925.602	4223
925.709	4139
925.816	4025
925.924	4082
926.031	4230
926.138	4124
926.245	4204
926.352	4097
926.459	4223
926.566	4333
926.673	4078
926.779	4051
926.886	4074
926.993	3991
927.099	3987
927.206	3918
927.312	3994
927.419	4074
927.525	4048
927.631	4109
927.737	3930
927.843	3998
927.95	3831
928.056	3949
928.162	3911
928.267	4017
928.373	4577
928.479	4067
928.585	3850
928.69	3998
928.796	4097
928.901	3998
929.007	3816
929.112	3979
929.218	3953
929.323	3911
929.428	3922
929.533	4135
929.638	3876
929.743	3953
929.848	4059
929.953	3991
930.058	3884
930.163	3770
930.267	3789
930.372	3972
930.477	3789
930.581	4082
930.685	3915
930.79	3838
930.894	3835
930.998	3857
931.103	4006
931.207	3728
931.311	3656
931.415	3633
931.519	3511
931.623	3572
