Data from test_V78500241_2262.txt Node
Date: Fri Mar 25 17:04:43 CST 2022
User: usil
Spectrometer: V785-0024
Trigger mode: 0
Integration Time (sec): 4.000000E-1
Scans to average: 1
Nonlinearity correction enabled: false
Boxcar width: 0
Storing dark spectrum: false
XAxis mode: Wavelengths
Number of Pixels in Spectrum: 1024
>>>>>Begin Spectral Data<<<<<
801.071	8016
801.214	7959
801.356	7841
801.499	7837
801.641	7753
801.783	7856
801.926	8005
802.068	7928
802.211	7986
802.353	8005
802.496	7955
802.638	7890
802.78	7898
802.923	7906
803.065	7887
803.208	7868
803.35	7978
803.492	8073
803.635	8123
803.777	8077
803.919	8157
804.061	8488
804.204	8183
804.346	8001
804.488	7997
804.63	8100
804.773	8008
804.915	8081
805.057	8370
805.199	8153
805.341	8218
805.483	8282
805.626	8237
805.768	8176
805.91	8221
806.052	8233
806.194	8054
806.336	8271
806.478	8123
806.62	8073
806.762	8153
806.904	8271
807.046	8461
807.188	8377
807.33	8317
807.472	8324
807.614	8153
807.756	8142
807.898	7993
808.04	7852
808.182	7909
808.324	7925
808.465	7982
808.607	8027
808.749	8084
808.891	8252
809.033	8320
809.174	8256
809.316	8096
809.458	8065
809.6	8027
809.741	8119
809.883	8062
810.025	8043
810.166	8107
810.308	7989
810.45	7978
810.591	7860
810.733	7704
810.875	7689
811.016	7533
811.158	7502
811.299	7556
811.441	7693
811.582	7712
811.724	7597
811.865	7480
812.007	7605
812.148	7613
812.29	7677
812.431	7731
812.573	7887
812.714	7986
812.855	8164
812.997	8259
813.138	8290
813.279	8126
813.421	8039
813.562	7959
813.703	7849
813.845	7765
813.986	7384
814.127	7247
814.268	7202
814.41	7236
814.551	7194
814.692	7263
814.833	7091
814.974	7042
815.115	7129
815.256	6966
815.397	6932
815.539	6951
815.68	6837
815.821	6768
815.962	6871
816.103	6795
816.244	6749
816.385	6639
816.526	6563
816.666	6494
816.807	6277
816.948	6467
817.089	6513
817.23	6452
817.371	6418
817.512	6372
817.653	6414
817.793	6376
817.934	6464
818.075	6467
818.216	6502
818.356	6403
818.497	6300
818.638	6106
818.778	6163
818.919	6144
819.06	6083
819.2	6304
819.341	6334
819.481	6365
819.622	6490
819.762	6741
819.903	6730
820.043	6608
820.184	6506
820.324	6631
820.465	6707
820.605	6616
820.746	6692
820.886	6566
821.026	6669
821.167	6711
821.307	6840
821.447	6764
821.588	6673
821.728	6578
821.868	6509
822.008	6346
822.149	6384
822.289	6346
822.429	6106
822.569	6091
822.709	6148
822.849	5942
822.99	5916
823.13	5885
823.27	5908
823.41	5775
823.55	5775
823.69	5794
823.83	5813
823.97	5630
824.11	5558
824.25	5524
824.389	5608
824.529	5627
824.669	5539
824.809	5657
824.949	5707
825.089	5642
825.228	5554
825.368	5391
825.508	5360
825.648	5383
825.787	5429
825.927	5368
826.067	5318
826.206	5330
826.346	5440
826.485	5414
826.625	5357
826.765	5581
826.904	5474
827.044	5303
827.183	5193
827.323	5121
827.462	5273
827.601	5212
827.741	5170
827.88	5185
828.02	5124
828.159	5303
828.298	5341
828.437	5391
828.577	5269
828.716	5467
828.855	5326
828.994	5166
829.134	5143
829.273	5178
829.412	5178
829.551	5136
829.69	5136
829.829	5212
829.968	5379
830.107	5231
830.246	5315
830.385	5136
830.524	5178
830.663	5071
830.802	5014
830.941	4900
831.08	4911
831.219	5018
831.357	4968
831.496	5159
831.635	4949
831.774	4877
831.913	4866
832.051	4725
832.19	4755
832.329	4858
832.467	4717
832.606	4622
832.744	4744
832.883	4725
833.022	4729
833.16	4809
833.299	4843
833.437	4847
833.576	4820
833.714	4831
833.852	4927
833.991	4919
834.129	4949
834.267	4915
834.406	4930
834.544	4942
834.682	4995
834.821	4965
834.959	5166
835.097	4965
835.235	5140
835.373	5090
835.511	5105
835.65	5041
835.788	5056
835.926	4889
836.064	4885
836.202	4934
836.34	5132
836.478	5261
836.615	5124
836.753	5231
836.891	5288
837.029	5265
837.167	5231
837.305	5193
837.443	5117
837.58	5083
837.718	5250
837.856	5178
837.993	5105
838.131	5223
838.269	5208
838.406	5170
838.544	5189
838.681	5060
838.819	5006
838.956	4961
839.094	4911
839.231	5003
839.369	5071
839.506	5398
839.643	5288
839.781	5052
839.918	5022
840.055	5124
840.193	5124
840.33	5083
840.467	5159
840.604	5223
840.742	5444
840.879	5086
841.016	5083
841.153	5216
841.29	5383
841.427	5337
841.564	5334
841.701	5360
841.838	5250
841.975	5254
842.112	5273
842.249	5170
842.385	5045
842.522	5311
842.659	5166
842.796	5147
842.933	5193
843.069	5140
843.206	5166
843.343	5337
843.479	5193
843.616	5284
843.752	5048
843.889	4976
844.025	5231
844.162	5018
844.298	5250
844.435	5029
844.571	5083
844.708	5204
844.844	5292
844.98	5322
845.117	5273
845.253	5121
845.389	5079
845.525	5140
845.661	5117
845.798	5010
845.934	5132
846.07	5075
846.206	5231
846.342	5299
846.478	5162
846.614	5056
846.75	4919
846.886	4934
847.022	5117
847.158	5014
847.294	5071
847.429	5090
847.565	5056
847.701	5307
847.837	4881
847.972	4790
848.108	4953
848.244	4938
848.379	4797
848.515	4748
848.65	4778
848.786	4744
848.921	4782
849.057	4866
849.192	4896
849.328	4854
849.463	4767
849.598	4778
849.734	4759
849.869	4717
850.004	4660
850.14	4687
850.275	4558
850.41	4565
850.545	4531
850.68	4618
850.815	4588
850.95	4634
851.085	4896
851.22	4778
851.355	4691
851.49	4615
851.625	4603
851.76	4656
851.895	4550
852.03	4558
852.165	4645
852.299	4714
852.434	4828
852.569	4744
852.703	4755
852.838	4812
852.973	4911
853.107	4877
853.242	4725
853.376	4691
853.511	4538
853.645	4645
853.78	4805
853.914	4672
854.048	4702
854.183	4694
854.317	4679
854.451	4870
854.585	4618
854.72	4641
854.854	4752
854.988	4550
855.122	4649
855.256	4561
855.39	4641
855.524	4797
855.658	4721
855.792	4698
855.926	4694
856.06	4797
856.194	4793
856.327	4649
856.461	4626
856.595	4615
856.729	4637
856.862	4721
856.996	4717
857.13	4729
857.263	4763
857.397	4839
857.53	4615
857.664	4691
857.797	4774
857.931	4755
858.064	4744
858.197	4694
858.331	4615
858.464	4603
858.597	4546
858.731	4596
858.864	4637
858.997	4569
859.13	4694
859.263	4679
859.396	4675
859.529	4611
859.662	4626
859.795	4497
859.928	4641
860.061	4774
860.194	4740
860.327	4565
860.46	4565
860.592	4687
860.725	4694
860.858	4774
860.99	4565
861.123	4535
861.256	4531
861.388	4565
861.521	5273
861.653	4474
861.786	4432
861.918	4519
862.05	4535
862.183	4550
862.315	4584
862.447	4599
862.58	4538
862.712	4394
862.844	4318
862.976	4489
863.108	4451
863.24	4866
863.372	4322
863.504	4398
863.636	4424
863.768	4516
863.9	4440
864.032	4367
864.164	4379
864.296	4451
864.428	4546
864.559	4592
864.691	4523
864.823	4538
864.954	4462
865.086	4519
865.217	4489
865.349	4440
865.48	4481
865.612	4462
865.743	4664
865.875	4474
866.006	4367
866.137	4432
866.269	4447
866.4	4432
866.531	4413
866.662	4409
866.793	4409
866.924	4402
867.055	4489
867.186	4447
867.317	4440
867.448	4363
867.579	4371
867.71	4405
867.841	4360
867.972	4485
868.103	4462
868.233	4447
868.364	4424
868.495	4538
868.625	4675
868.756	4740
868.886	4554
869.017	4599
869.147	4759
869.278	4740
869.408	4653
869.539	4649
869.669	4698
869.799	4630
869.929	4778
870.06	4759
870.19	4965
870.32	4934
870.45	4942
870.58	5041
870.71	5079
870.84	5105
870.97	4961
871.1	4866
871.23	5136
871.36	5121
871.489	4980
871.619	5083
871.749	5102
871.879	5121
872.008	5147
872.138	5037
872.267	5022
872.397	4866
872.526	4812
872.656	4679
872.785	4786
872.915	4889
873.044	5048
873.173	4946
873.303	4980
873.432	4923
873.561	4999
873.69	4885
873.819	4809
873.948	4930
874.077	4858
874.206	4736
874.335	4801
874.464	4938
874.593	5041
874.722	4965
874.851	5086
874.979	5018
875.108	5018
875.237	4923
875.365	4854
875.494	4915
875.623	4972
875.751	4835
875.88	4839
876.008	5022
876.136	5041
876.265	5204
876.393	5318
876.521	5246
876.65	5208
876.778	5147
876.906	5094
877.034	5010
877.162	5022
877.29	4965
877.418	5006
877.546	5041
877.674	5056
877.802	5041
877.93	5006
878.058	4953
878.185	4881
878.313	4980
878.441	4930
878.568	4778
878.696	4854
878.824	4946
878.951	4991
879.079	5113
879.206	5315
879.333	5041
879.461	4980
879.588	4991
879.715	5166
879.842	5235
879.97	4976
880.097	4744
880.224	4714
880.351	4797
880.478	4809
880.605	4774
880.732	4771
880.859	5079
880.986	4889
881.112	4938
881.239	4801
881.366	4660
881.493	4592
881.619	4573
881.746	4622
881.872	4622
881.999	4664
882.125	4656
882.252	4790
882.378	4839
882.505	4961
882.631	4778
882.757	4675
882.883	4691
883.01	4717
883.136	4710
883.262	4607
883.388	4611
883.514	4854
883.64	4801
883.766	4820
883.892	4668
884.018	4668
884.143	4873
884.269	4984
884.395	4664
884.52	4615
884.646	4622
884.772	4596
884.897	4558
885.023	4653
885.148	4786
885.274	4889
885.399	4797
885.524	4702
885.65	4672
885.775	4698
885.9	4710
886.025	4866
886.15	4812
886.275	4706
886.4	4656
886.525	4698
886.65	4706
886.775	4691
886.9	4881
887.025	5010
887.149	4858
887.274	4660
887.399	4580
887.523	4565
887.648	4542
887.773	4580
887.897	4786
888.021	4782
888.146	4691
888.27	4786
888.395	4930
888.519	4790
888.643	4816
888.767	4816
888.891	4698
889.015	4653
889.139	4660
889.263	4588
889.387	4801
889.511	4850
889.635	4763
889.759	4668
889.883	4615
890.006	4702
890.13	4831
890.254	4573
890.377	4698
890.501	4558
890.624	4519
890.748	4649
890.871	4542
890.995	4436
891.118	4436
891.241	4489
891.364	4565
891.488	4603
891.611	4447
891.734	4554
891.857	4630
891.98	4554
892.103	4672
892.226	4637
892.349	4500
892.471	4402
892.594	4580
892.717	4573
892.839	4546
892.962	4592
893.085	4664
893.207	4611
893.33	4424
893.452	4535
893.575	4656
893.697	4569
893.819	4767
893.941	4805
894.064	4755
894.186	4592
894.308	4603
894.43	4740
894.552	4786
894.674	4759
894.796	4599
894.918	4542
895.04	4584
895.161	4721
895.283	4645
895.405	4558
895.526	4607
895.648	4679
895.769	4683
895.891	4725
896.012	4748
896.134	4710
896.255	4664
896.376	4630
896.498	4580
896.619	4694
896.74	4588
896.861	4668
896.982	4923
897.103	5098
897.224	4881
897.345	4664
897.466	4649
897.587	4691
897.708	4900
897.828	4725
897.949	4675
898.07	4538
898.19	4615
898.311	4843
898.431	4710
898.552	4733
898.672	4801
898.792	4790
898.913	4710
899.033	4607
899.153	4546
899.273	4436
899.393	4481
899.513	4527
899.633	4485
899.753	4512
899.873	4550
899.993	4580
900.113	4531
900.232	4577
900.352	4558
900.472	4451
900.591	4432
900.711	4470
900.83	4447
900.95	4512
901.069	4679
901.189	4577
901.308	4280
901.427	4276
901.546	4356
901.665	4417
901.784	4493
901.904	4398
902.023	4314
902.141	4230
902.26	4188
902.379	4318
902.498	4188
902.617	4253
902.735	4379
902.854	4375
902.973	4360
903.091	4188
903.21	4227
903.328	4280
903.446	4253
903.565	4253
903.683	4314
903.801	4261
903.919	4398
904.038	4470
904.156	4310
904.274	4447
904.392	4386
904.51	4417
904.627	4493
904.745	4588
904.863	4630
904.981	4424
905.098	4291
905.216	4337
905.334	4417
905.451	4375
905.569	4409
905.686	4546
905.803	4569
905.921	4402
906.038	4584
906.155	4493
906.272	4367
906.389	4455
906.506	4306
906.623	4363
906.74	4371
906.857	4291
906.974	4352
907.091	4516
907.208	4717
907.324	4584
907.441	4531
907.557	4356
907.674	4310
907.79	4306
907.907	4394
908.023	4474
908.139	4466
908.256	4470
908.372	4519
908.488	4462
908.604	4337
908.72	4295
908.836	4386
908.952	4310
909.068	4390
909.184	4554
909.3	4497
909.415	4615
909.531	4584
909.647	4310
909.762	4375
909.878	4363
909.993	4466
910.108	4356
910.224	4363
910.339	4424
910.454	4440
910.57	4371
910.685	4280
910.8	4660
910.915	4622
911.03	4462
911.145	4329
911.259	4295
911.374	4344
911.489	4265
911.604	4227
911.718	4234
911.833	4181
911.947	4116
912.062	4025
912.176	4181
912.291	4223
912.405	4219
912.519	4443
912.633	4478
912.748	4386
912.862	4299
912.976	4204
913.09	4101
913.204	4192
913.318	4295
913.431	4341
913.545	4341
913.659	4428
913.772	4341
913.886	4272
914	4238
914.113	4379
914.226	4375
914.34	4421
914.453	4261
914.566	4440
914.68	4299
914.793	4303
914.906	4181
915.019	4116
915.132	4124
915.245	4196
915.358	4207
915.47	4200
915.583	4249
915.696	4314
915.809	4363
915.921	4409
916.034	4238
916.146	4257
916.259	4219
916.371	4375
916.483	4306
916.595	4261
916.708	4322
916.82	4291
916.932	4367
917.044	4303
917.156	4268
917.268	4238
917.38	4295
917.491	4284
917.603	4329
917.715	4421
917.826	4459
917.938	4333
918.049	4204
918.161	4383
918.272	4527
918.384	4508
918.495	4451
918.606	4318
918.717	4257
918.828	4337
918.939	4390
919.05	4257
919.161	4284
919.272	4150
919.383	4246
919.494	4455
919.604	4596
919.715	4402
919.826	4329
919.936	4424
920.047	4519
920.157	4481
920.267	4630
920.378	4535
920.488	4440
920.598	4687
920.708	4843
920.818	4744
920.928	4740
921.038	4930
921.148	4942
921.258	4577
921.368	4599
921.477	4527
921.587	4481
921.697	4394
921.806	4523
921.916	4462
922.025	4246
922.134	4242
922.244	4227
922.353	4352
922.462	4154
922.571	4173
922.68	4025
922.789	3937
922.898	4051
923.007	3964
923.116	4078
923.224	4059
923.333	4044
923.442	4010
923.55	3964
923.659	4040
923.767	4131
923.876	3998
923.984	4101
924.092	3964
924.201	4093
924.309	4109
924.417	4166
924.525	4051
924.633	4112
924.741	5083
924.849	3934
924.956	4124
925.064	3945
925.172	3842
925.279	3930
925.387	4082
925.494	4006
925.602	4192
925.709	4169
925.816	4029
925.924	4090
926.031	4169
926.138	4150
926.245	4234
926.352	4071
926.459	4207
926.566	4299
926.673	4181
926.779	4105
926.886	4040
926.993	3968
927.099	3949
927.206	3930
927.312	3956
927.419	4078
927.525	4059
927.631	4109
927.737	3949
927.843	3907
927.95	3819
928.056	3945
928.162	3945
928.267	4078
928.373	4664
928.479	4139
928.585	3842
928.69	4032
928.796	4063
928.901	3964
929.007	3827
929.112	4006
929.218	3994
929.323	3911
929.428	3941
929.533	4082
929.638	3945
929.743	3991
929.848	4063
929.953	4006
930.058	3903
930.163	3766
930.267	3823
930.372	4013
930.477	3797
930.581	4067
930.685	3937
930.79	3835
930.894	3869
930.998	3888
931.103	4032
931.207	3724
931.311	3641
931.415	3648
931.519	3496
931.623	3526
