Data from test_V78500241_2447.txt Node
Date: Fri Mar 25 17:06:01 CST 2022
User: usil
Spectrometer: V785-0024
Trigger mode: 0
Integration Time (sec): 4.000000E-1
Scans to average: 1
Nonlinearity correction enabled: false
Boxcar width: 0
Storing dark spectrum: false
XAxis mode: Wavelengths
Number of Pixels in Spectrum: 1024
>>>>>Begin Spectral Data<<<<<
801.071	8050
801.214	7936
801.356	7875
801.499	7841
801.641	7795
801.783	7807
801.926	7959
802.068	7928
802.211	7921
802.353	7936
802.496	7849
802.638	7925
802.78	7993
802.923	7868
803.065	7860
803.208	7871
803.35	7993
803.492	8111
803.635	8115
803.777	8046
803.919	8096
804.061	8499
804.204	8172
804.346	8107
804.488	8001
804.63	8050
804.773	8020
804.915	8111
805.057	8233
805.199	8187
805.341	8221
805.483	8183
805.626	8267
805.768	8180
805.91	8225
806.052	8183
806.194	8084
806.336	8294
806.478	8126
806.62	8008
806.762	8096
806.904	8263
807.046	8442
807.188	8309
807.33	8317
807.472	8324
807.614	8157
807.756	8172
807.898	8081
808.04	7868
808.182	7902
808.324	7902
808.465	7871
808.607	8016
808.749	8027
808.891	8244
809.033	8324
809.174	8244
809.316	8084
809.458	8130
809.6	8012
809.741	8046
809.883	8001
810.025	8065
810.166	8043
810.308	8046
810.45	7982
810.591	7799
810.733	7769
810.875	7689
811.016	7525
811.158	7499
811.299	7624
811.441	7662
811.582	7704
811.724	7529
811.865	7502
812.007	7571
812.148	7624
812.29	7609
812.431	7628
812.573	7852
812.714	7925
812.855	8153
812.997	8256
813.138	8294
813.279	8149
813.421	8119
813.562	7989
813.703	7871
813.845	7719
813.986	7430
814.127	7270
814.268	7228
814.41	7175
814.551	7221
814.692	7190
814.833	7061
814.974	7088
815.115	7110
815.256	7000
815.397	6924
815.539	6943
815.68	6848
815.821	6749
815.962	6821
816.103	6825
816.244	6711
816.385	6555
816.526	6658
816.666	6525
816.807	6338
816.948	6414
817.089	6460
817.23	6426
817.371	6391
817.512	6395
817.653	6414
817.793	6376
817.934	6380
818.075	6506
818.216	6426
818.356	6365
818.497	6289
818.638	6175
818.778	6220
818.919	6190
819.06	6095
819.2	6361
819.341	6346
819.481	6372
819.622	6521
819.762	6764
819.903	6707
820.043	6612
820.184	6616
820.324	6608
820.465	6738
820.605	6673
820.746	6646
820.886	6532
821.026	6688
821.167	6715
821.307	6760
821.447	6840
821.588	6696
821.728	6547
821.868	6467
822.008	6353
822.149	6410
822.289	6262
822.429	6102
822.569	6102
822.709	6152
822.849	5946
822.99	5946
823.13	5931
823.27	5889
823.41	5767
823.55	5790
823.69	5752
823.83	5767
823.97	5699
824.11	5532
824.25	5478
824.389	5543
824.529	5611
824.669	5592
824.809	5596
824.949	5672
825.089	5623
825.228	5608
825.368	5364
825.508	5345
825.648	5345
825.787	5368
825.927	5341
826.067	5326
826.206	5292
826.346	5410
826.485	5376
826.625	5395
826.765	5558
826.904	5474
827.044	5334
827.183	5231
827.323	5090
827.462	5261
827.601	5212
827.741	5201
827.88	5197
828.02	5121
828.159	5231
828.298	5337
828.437	5391
828.577	5307
828.716	5493
828.855	5303
828.994	5090
829.134	5193
829.273	5216
829.412	5151
829.551	5128
829.69	5132
829.829	5258
829.968	5433
830.107	5273
830.246	5280
830.385	5166
830.524	5121
830.663	5064
830.802	4949
830.941	4873
831.08	4854
831.219	4957
831.357	4991
831.496	5140
831.635	4904
831.774	4828
831.913	4831
832.051	4752
832.19	4725
832.329	4843
832.467	4687
832.606	4630
832.744	4740
832.883	4771
833.022	4725
833.16	4786
833.299	4812
833.437	4824
833.576	4797
833.714	4923
833.852	4919
833.991	4896
834.129	4957
834.267	4976
834.406	4866
834.544	4961
834.682	4938
834.821	4927
834.959	5124
835.097	4972
835.235	5181
835.373	5056
835.511	5102
835.65	4999
835.788	5014
835.926	4885
836.064	4877
836.202	4930
836.34	5216
836.478	5193
836.615	5166
836.753	5277
836.891	5353
837.029	5231
837.167	5220
837.305	5193
837.443	5067
837.58	5090
837.718	5220
837.856	5193
837.993	5136
838.131	5280
838.269	5159
838.406	5216
838.544	5193
838.681	5037
838.819	5029
838.956	4858
839.094	4858
839.231	5033
839.369	5079
839.506	5421
839.643	5280
839.781	5041
839.918	5029
840.055	5090
840.193	5098
840.33	5151
840.467	5124
840.604	5136
840.742	5414
840.879	5067
841.016	5086
841.153	5132
841.29	5376
841.427	5349
841.564	5277
841.701	5349
841.838	5242
841.975	5201
842.112	5265
842.249	5136
842.385	5121
842.522	5307
842.659	5208
842.796	5083
842.933	5174
843.069	5147
843.206	5166
843.343	5280
843.479	5204
843.616	5242
843.752	5025
843.889	4995
844.025	5204
844.162	5018
844.298	5170
844.435	5037
844.571	5067
844.708	5220
844.844	5242
844.98	5311
845.117	5288
845.253	5151
845.389	5067
845.525	5147
845.661	5121
845.798	5029
845.934	5109
846.07	5010
846.206	5227
846.342	5292
846.478	5155
846.614	5018
846.75	4942
846.886	4976
847.022	5162
847.158	5025
847.294	5025
847.429	5079
847.565	5064
847.701	5334
847.837	4908
847.972	4831
848.108	4923
848.244	4923
848.379	4774
848.515	4752
848.65	4675
848.786	4767
848.921	4831
849.057	4835
849.192	4919
849.328	4805
849.463	4889
849.598	4774
849.734	4790
849.869	4683
850.004	4649
850.14	4664
850.275	4630
850.41	4519
850.545	4550
850.68	4615
850.815	4599
850.95	4634
851.085	4805
851.22	4714
851.355	4714
851.49	4637
851.625	4592
851.76	4714
851.895	4558
852.03	4508
852.165	4626
852.299	4748
852.434	4748
852.569	4736
852.703	4736
852.838	4843
852.973	4961
853.107	4866
853.242	4782
853.376	4649
853.511	4489
853.645	4603
853.78	4767
853.914	4717
854.048	4637
854.183	4637
854.317	4694
854.451	4820
854.585	4649
854.72	4691
854.854	4767
854.988	4641
855.122	4603
855.256	4478
855.39	4698
855.524	4778
855.658	4710
855.792	4679
855.926	4744
856.06	4752
856.194	4812
856.327	4714
856.461	4592
856.595	4611
856.729	4641
856.862	4740
856.996	4694
857.13	4725
857.263	4759
857.397	4805
857.53	4656
857.664	4733
857.797	4763
857.931	4771
858.064	4679
858.197	4710
858.331	4660
858.464	4599
858.597	4504
858.731	4634
858.864	4573
858.997	4622
859.13	4630
859.263	4630
859.396	4694
859.529	4542
859.662	4558
859.795	4588
859.928	4637
860.061	4740
860.194	4774
860.327	4577
860.46	4531
860.592	4778
860.725	4698
860.858	4733
860.99	4569
861.123	4523
861.256	4527
861.388	4603
861.521	5322
861.653	4443
861.786	4440
861.918	4474
862.05	4523
862.183	4558
862.315	4596
862.447	4668
862.58	4481
862.712	4424
862.844	4329
862.976	4497
863.108	4481
863.24	4778
863.372	4398
863.504	4421
863.636	4386
863.768	4440
863.9	4409
864.032	4337
864.164	4383
864.296	4478
864.428	4596
864.559	4561
864.691	4535
864.823	4531
864.954	4466
865.086	4474
865.217	4466
865.349	4409
865.48	4455
865.612	4550
865.743	4607
865.875	4497
866.006	4440
866.137	4478
866.269	4493
866.4	4421
866.531	4440
866.662	4390
866.793	4386
866.924	4417
867.055	4485
867.186	4447
867.317	4386
867.448	4379
867.579	4398
867.71	4413
867.841	4341
867.972	4440
868.103	4504
868.233	4451
868.364	4405
868.495	4481
868.625	4691
868.756	4748
868.886	4558
869.017	4588
869.147	4736
869.278	4828
869.408	4679
869.539	4649
869.669	4660
869.799	4618
869.929	4755
870.06	4714
870.19	4968
870.32	4900
870.45	4984
870.58	5045
870.71	5090
870.84	5185
870.97	4961
871.1	4923
871.23	5147
871.36	5121
871.489	4991
871.619	5052
871.749	5105
871.879	5166
872.008	5143
872.138	5117
872.267	4927
872.397	4850
872.526	4793
872.656	4763
872.785	4824
872.915	4949
873.044	5014
873.173	4930
873.303	4934
873.432	4938
873.561	5006
873.69	4889
873.819	4904
873.948	4976
874.077	4839
874.206	4782
874.335	4805
874.464	4934
874.593	5075
874.722	4991
874.851	5067
874.979	5056
875.108	5029
875.237	4896
875.365	4923
875.494	4858
875.623	4987
875.751	4828
875.88	4854
876.008	4999
876.136	5041
876.265	5231
876.393	5372
876.521	5269
876.65	5239
876.778	5208
876.906	5064
877.034	5014
877.162	5025
877.29	4991
877.418	5037
877.546	5045
877.674	4999
877.802	5018
877.93	5045
878.058	4911
878.185	4889
878.313	4930
878.441	4953
878.568	4805
878.696	4866
878.824	4980
878.951	5029
879.079	5060
879.206	5239
879.333	5143
879.461	5033
879.588	5048
879.715	5151
879.842	5239
879.97	4984
880.097	4801
880.224	4744
880.351	4824
880.478	4870
880.605	4748
880.732	4809
880.859	5098
880.986	4877
881.112	4946
881.239	4717
881.366	4668
881.493	4611
881.619	4588
881.746	4630
881.872	4649
881.999	4637
882.125	4679
882.252	4828
882.378	4820
882.505	4877
882.631	4854
882.757	4710
882.883	4717
883.01	4755
883.136	4672
883.262	4584
883.388	4615
883.514	4801
883.64	4892
883.766	4786
883.892	4630
884.018	4771
884.143	4870
884.269	5090
884.395	4645
884.52	4603
884.646	4626
884.772	4618
884.897	4519
885.023	4641
885.148	4824
885.274	4866
885.399	4809
885.524	4736
885.65	4714
885.775	4778
885.9	4702
886.025	4877
886.15	4752
886.275	4740
886.4	4656
886.525	4729
886.65	4668
886.775	4702
886.9	4870
887.025	5037
887.149	4816
887.274	4622
887.399	4626
887.523	4618
887.648	4599
887.773	4580
887.897	4790
888.021	4771
888.146	4645
888.27	4778
888.395	4892
888.519	4790
888.643	4809
888.767	4812
888.891	4653
889.015	4588
889.139	4691
889.263	4558
889.387	4740
889.511	4881
889.635	4782
889.759	4626
889.883	4649
890.006	4740
890.13	4862
890.254	4637
890.377	4641
890.501	4558
890.624	4592
890.748	4622
890.871	4516
890.995	4443
891.118	4375
891.241	4558
891.364	4573
891.488	4596
891.611	4500
891.734	4497
891.857	4596
891.98	4550
892.103	4672
892.226	4573
892.349	4550
892.471	4432
892.594	4584
892.717	4592
892.839	4516
892.962	4622
893.085	4653
893.207	4611
893.33	4504
893.452	4550
893.575	4679
893.697	4561
893.819	4759
893.941	4881
894.064	4740
894.186	4634
894.308	4558
894.43	4721
894.552	4809
894.674	4759
894.796	4577
894.918	4584
895.04	4546
895.161	4660
895.283	4675
895.405	4577
895.526	4615
895.648	4683
895.769	4679
895.891	4752
896.012	4736
896.134	4656
896.255	4630
896.376	4615
896.498	4607
896.619	4691
896.74	4596
896.861	4672
896.982	4911
897.103	5140
897.224	4816
897.345	4710
897.466	4634
897.587	4736
897.708	4858
897.828	4767
897.949	4706
898.07	4565
898.19	4637
898.311	4835
898.431	4691
898.552	4725
898.672	4839
898.792	4824
898.913	4740
899.033	4645
899.153	4558
899.273	4417
899.393	4504
899.513	4508
899.633	4588
899.753	4527
899.873	4481
899.993	4569
900.113	4512
900.232	4599
900.352	4531
900.472	4504
900.591	4390
900.711	4455
900.83	4436
900.95	4596
901.069	4691
901.189	4535
901.308	4329
901.427	4303
901.546	4360
901.665	4481
901.784	4535
901.904	4383
902.023	4322
902.141	4204
902.26	4185
902.379	4325
902.498	4329
902.617	4204
902.735	4337
902.854	4428
902.973	4352
903.091	4204
903.21	4185
903.328	4306
903.446	4261
903.565	4246
903.683	4337
903.801	4291
903.919	4363
904.038	4489
904.156	4352
904.274	4462
904.392	4386
904.51	4386
904.627	4485
904.745	4558
904.863	4634
904.981	4363
905.098	4299
905.216	4367
905.334	4455
905.451	4432
905.569	4424
905.686	4538
905.803	4565
905.921	4398
906.038	4558
906.155	4512
906.272	4451
906.389	4485
906.506	4329
906.623	4379
906.74	4390
906.857	4291
906.974	4352
907.091	4538
907.208	4653
907.324	4577
907.441	4542
907.557	4341
907.674	4333
907.79	4363
907.907	4451
908.023	4489
908.139	4443
908.256	4440
908.372	4470
908.488	4455
908.604	4363
908.72	4291
908.836	4402
908.952	4371
909.068	4455
909.184	4561
909.3	4432
909.415	4588
909.531	4523
909.647	4360
909.762	4375
909.878	4314
909.993	4459
910.108	4413
910.224	4390
910.339	4466
910.454	4390
910.57	4341
910.685	4272
910.8	4656
910.915	4542
911.03	4443
911.145	4295
911.259	4318
911.374	4341
911.489	4261
911.604	4318
911.718	4162
911.833	4227
911.947	4040
912.062	4059
912.176	4192
912.291	4242
912.405	4246
912.519	4478
912.633	4478
912.748	4386
912.862	4303
912.976	4200
913.09	4074
913.204	4150
913.318	4287
913.431	4390
913.545	4386
913.659	4421
913.772	4356
913.886	4223
914	4204
914.113	4386
914.226	4424
914.34	4405
914.453	4219
914.566	4424
914.68	4272
914.793	4333
914.906	4181
915.019	4143
915.132	4067
915.245	4154
915.358	4185
915.47	4314
915.583	4322
915.696	4284
915.809	4394
915.921	4421
916.034	4249
916.146	4261
916.259	4234
916.371	4375
916.483	4356
916.595	4234
916.708	4329
916.82	4303
916.932	4299
917.044	4371
917.156	4360
917.268	4246
917.38	4295
917.491	4268
917.603	4333
917.715	4383
917.826	4474
917.938	4325
918.049	4234
918.161	4367
918.272	4519
918.384	4538
918.495	4436
918.606	4306
918.717	4207
918.828	4329
918.939	4375
919.05	4276
919.161	4341
919.272	4158
919.383	4204
919.494	4470
919.604	4634
919.715	4436
919.826	4356
919.936	4383
920.047	4523
920.157	4466
920.267	4656
920.378	4516
920.488	4527
920.598	4691
920.708	4873
920.818	4740
920.928	4771
921.038	4953
921.148	4915
921.258	4592
921.368	4542
921.477	4500
921.587	4451
921.697	4379
921.806	4569
921.916	4432
922.025	4284
922.134	4207
922.244	4204
922.353	4360
922.462	4185
922.571	4154
922.68	3949
922.789	3915
922.898	4017
923.007	4029
923.116	4105
923.224	4032
923.333	4078
923.442	3987
923.55	3930
923.659	4044
923.767	4143
923.876	3975
923.984	4116
924.092	3945
924.201	4101
924.309	4090
924.417	4139
924.525	4055
924.633	4097
924.741	5079
924.849	3972
924.956	4131
925.064	3994
925.172	3941
925.279	3964
925.387	4036
925.494	4036
925.602	4177
925.709	4185
925.816	4013
925.924	4139
926.031	4230
926.138	4150
926.245	4204
926.352	4082
926.459	4227
926.566	4352
926.673	4185
926.779	4097
926.886	4074
926.993	3983
927.099	3979
927.206	3987
927.312	3907
927.419	4025
927.525	3972
927.631	4109
927.737	3934
927.843	3922
927.95	3827
928.056	3934
928.162	3960
928.267	4044
928.373	4675
928.479	4128
928.585	3899
928.69	4032
928.796	4067
928.901	3941
929.007	3819
929.112	3998
929.218	3968
929.323	3930
929.428	3979
929.533	4055
929.638	3892
929.743	3960
929.848	4010
929.953	3972
930.058	3945
930.163	3770
930.267	3850
930.372	3972
930.477	3785
930.581	4116
930.685	3930
930.79	3808
930.894	3899
930.998	3850
931.103	4025
931.207	3686
931.311	3686
931.415	3622
931.519	3534
931.623	3542
