Data from test_V78500241_464.txt Node
Date: Fri Mar 25 16:52:13 CST 2022
User: usil
Spectrometer: V785-0024
Trigger mode: 0
Integration Time (sec): 4.000000E-1
Scans to average: 1
Nonlinearity correction enabled: false
Boxcar width: 0
Storing dark spectrum: false
XAxis mode: Wavelengths
Number of Pixels in Spectrum: 1024
>>>>>Begin Spectral Data<<<<<
801.071	8027
801.214	8012
801.356	7947
801.499	7868
801.641	7822
801.783	7913
801.926	8016
802.068	8092
802.211	8035
802.353	8024
802.496	7845
802.638	7955
802.78	7913
802.923	7917
803.065	7917
803.208	7868
803.35	7963
803.492	8024
803.635	8138
803.777	8081
803.919	8183
804.061	8419
804.204	8221
804.346	8092
804.488	7936
804.63	8084
804.773	8073
804.915	8084
805.057	8317
805.199	8180
805.341	8286
805.483	8267
805.626	8183
805.768	8092
805.91	8153
806.052	8233
806.194	8092
806.336	8358
806.478	8187
806.62	8111
806.762	8195
806.904	8305
807.046	8556
807.188	8328
807.33	8294
807.472	8309
807.614	8157
807.756	8145
807.898	7959
808.04	7936
808.182	7928
808.324	7963
808.465	7917
808.607	8039
808.749	8164
808.891	8199
809.033	8320
809.174	8157
809.316	8088
809.458	8069
809.6	7955
809.741	8096
809.883	8005
810.025	8115
810.166	8073
810.308	8077
810.45	8039
810.591	7894
810.733	7742
810.875	7632
811.016	7578
811.158	7510
811.299	7586
811.441	7784
811.582	7704
811.724	7616
811.865	7616
812.007	7662
812.148	7590
812.29	7696
812.431	7723
812.573	7898
812.714	8111
812.855	8164
812.997	8290
813.138	8434
813.279	8218
813.421	8145
813.562	8084
813.703	7917
813.845	7860
813.986	7556
814.127	7373
814.268	7266
814.41	7278
814.551	7217
814.692	7263
814.833	7110
814.974	7160
815.115	7118
815.256	7042
815.397	6943
815.539	6970
815.68	6867
815.821	6810
815.962	6924
816.103	6939
816.244	6798
816.385	6673
816.526	6612
816.666	6551
816.807	6369
816.948	6460
817.089	6494
817.23	6403
817.371	6433
817.512	6369
817.653	6414
817.793	6372
817.934	6418
818.075	6498
818.216	6452
818.356	6464
818.497	6292
818.638	6148
818.778	6171
818.919	6190
819.06	6186
819.2	6384
819.341	6388
819.481	6391
819.622	6513
819.762	6768
819.903	6768
820.043	6620
820.184	6582
820.324	6593
820.465	6665
820.605	6700
820.746	6688
820.886	6498
821.026	6707
821.167	6783
821.307	6795
821.447	6783
821.588	6669
821.728	6582
821.868	6486
822.008	6372
822.149	6369
822.289	6403
822.429	6213
822.569	6102
822.709	6144
822.849	5923
822.99	5908
823.13	5965
823.27	5878
823.41	5786
823.55	5817
823.69	5786
823.83	5752
823.97	5745
824.11	5566
824.25	5512
824.389	5604
824.529	5581
824.669	5589
824.809	5672
824.949	5611
825.089	5630
825.228	5566
825.368	5425
825.508	5398
825.648	5398
825.787	5402
825.927	5395
826.067	5334
826.206	5334
826.346	5417
826.485	5440
826.625	5433
826.765	5558
826.904	5448
827.044	5265
827.183	5284
827.323	5136
827.462	5273
827.601	5193
827.741	5201
827.88	5231
828.02	5155
828.159	5277
828.298	5326
828.437	5387
828.577	5315
828.716	5535
828.855	5288
828.994	5231
829.134	5189
829.273	5216
829.412	5170
829.551	5136
829.69	5208
829.829	5296
829.968	5330
830.107	5269
830.246	5261
830.385	5220
830.524	5147
830.663	5102
830.802	4961
830.941	4908
831.08	4915
831.219	5045
831.357	5010
831.496	5170
831.635	4904
831.774	4900
831.913	4820
832.051	4740
832.19	4790
832.329	4862
832.467	4714
832.606	4622
832.744	4759
832.883	4702
833.022	4812
833.16	4843
833.299	4850
833.437	4835
833.576	4820
833.714	4885
833.852	4946
833.991	4911
834.129	5010
834.267	4968
834.406	4942
834.544	4991
834.682	4987
834.821	4965
834.959	5189
835.097	4995
835.235	5147
835.373	5094
835.511	5079
835.65	5094
835.788	5018
835.926	4923
836.064	4968
836.202	4957
836.34	5216
836.478	5239
836.615	5140
836.753	5181
836.891	5345
837.029	5235
837.167	5197
837.305	5162
837.443	5143
837.58	5094
837.718	5307
837.856	5204
837.993	5124
838.131	5273
838.269	5204
838.406	5269
838.544	5212
838.681	5075
838.819	5056
838.956	4927
839.094	4908
839.231	4987
839.369	5086
839.506	5433
839.643	5250
839.781	5025
839.918	5064
840.055	5121
840.193	5109
840.33	5162
840.467	5117
840.604	5246
840.742	5452
840.879	5075
841.016	5109
841.153	5155
841.29	5364
841.427	5372
841.564	5376
841.701	5414
841.838	5288
841.975	5254
842.112	5246
842.249	5181
842.385	5075
842.522	5307
842.659	5151
842.796	5170
842.933	5201
843.069	5155
843.206	5185
843.343	5353
843.479	5265
843.616	5280
843.752	5075
843.889	5071
844.025	5277
844.162	5090
844.298	5284
844.435	5128
844.571	5071
844.708	5269
844.844	5318
844.98	5326
845.117	5250
845.253	5181
845.389	5083
845.525	5147
845.661	5166
845.798	5041
845.934	5094
846.07	5086
846.206	5239
846.342	5303
846.478	5208
846.614	5041
846.75	4995
846.886	4911
847.022	5136
847.158	5083
847.294	5083
847.429	5075
847.565	5071
847.701	5307
847.837	4854
847.972	4805
848.108	4961
848.244	4946
848.379	4778
848.515	4752
848.65	4733
848.786	4782
848.921	4782
849.057	4892
849.192	4870
849.328	4835
849.463	4927
849.598	4847
849.734	4835
849.869	4698
850.004	4687
850.14	4687
850.275	4626
850.41	4531
850.545	4577
850.68	4611
850.815	4672
850.95	4634
851.085	4923
851.22	4752
851.355	4694
851.49	4611
851.625	4611
851.76	4653
851.895	4577
852.03	4573
852.165	4653
852.299	4748
852.434	4835
852.569	4733
852.703	4805
852.838	4824
852.973	4961
853.107	4946
853.242	4729
853.376	4729
853.511	4607
853.645	4675
853.78	4763
853.914	4714
854.048	4656
854.183	4630
854.317	4668
854.451	4877
854.585	4706
854.72	4588
854.854	4729
854.988	4637
855.122	4649
855.256	4504
855.39	4683
855.524	4752
855.658	4755
855.792	4694
855.926	4748
856.06	4809
856.194	4778
856.327	4679
856.461	4653
856.595	4645
856.729	4641
856.862	4782
856.996	4767
857.13	4717
857.263	4767
857.397	4816
857.53	4706
857.664	4683
857.797	4736
857.931	4809
858.064	4675
858.197	4774
858.331	4615
858.464	4637
858.597	4580
858.731	4645
858.864	4660
858.997	4603
859.13	4706
859.263	4698
859.396	4694
859.529	4592
859.662	4599
859.795	4546
859.928	4668
860.061	4755
860.194	4793
860.327	4637
860.46	4603
860.592	4725
860.725	4767
860.858	4752
860.99	4641
861.123	4527
861.256	4527
861.388	4653
861.521	5357
861.653	4500
861.786	4481
861.918	4478
862.05	4577
862.183	4542
862.315	4607
862.447	4668
862.58	4577
862.712	4447
862.844	4356
862.976	4497
863.108	4466
863.24	4790
863.372	4383
863.504	4432
863.636	4394
863.768	4478
863.9	4443
864.032	4360
864.164	4443
864.296	4489
864.428	4535
864.559	4580
864.691	4493
864.823	4565
864.954	4527
865.086	4504
865.217	4478
865.349	4413
865.48	4447
865.612	4462
865.743	4649
865.875	4493
866.006	4428
866.137	4531
866.269	4451
866.4	4447
866.531	4455
866.662	4405
866.793	4489
866.924	4478
867.055	4535
867.186	4481
867.317	4398
867.448	4375
867.579	4383
867.71	4409
867.841	4375
867.972	4459
868.103	4485
868.233	4459
868.364	4417
868.495	4512
868.625	4694
868.756	4771
868.886	4542
869.017	4577
869.147	4752
869.278	4790
869.408	4656
869.539	4660
869.669	4706
869.799	4664
869.929	4755
870.06	4755
870.19	4972
870.32	4889
870.45	4938
870.58	5064
870.71	5098
870.84	5075
870.97	4938
871.1	4934
871.23	5178
871.36	5143
871.489	5018
871.619	5109
871.749	5105
871.879	5109
872.008	5159
872.138	5105
872.267	5018
872.397	4862
872.526	4847
872.656	4725
872.785	4828
872.915	4927
873.044	5003
873.173	4946
873.303	5003
873.432	4999
873.561	4961
873.69	4896
873.819	4870
873.948	4930
874.077	4850
874.206	4744
874.335	4820
874.464	4949
874.593	5075
874.722	4976
874.851	5098
874.979	5060
875.108	5029
875.237	4934
875.365	4915
875.494	4900
875.623	5003
875.751	4866
875.88	4873
876.008	4999
876.136	5033
876.265	5284
876.393	5318
876.521	5269
876.65	5197
876.778	5121
876.906	5056
877.034	5037
877.162	5056
877.29	4972
877.418	5025
877.546	5006
877.674	5048
877.802	5056
877.93	4999
878.058	4927
878.185	4908
878.313	5048
878.441	4984
878.568	4797
878.696	4858
878.824	4972
878.951	4987
879.079	5162
879.206	5254
879.333	5102
879.461	5006
879.588	5045
879.715	5162
879.842	5250
879.97	5010
880.097	4778
880.224	4778
880.351	4820
880.478	4847
880.605	4835
880.732	4748
880.859	5086
880.986	4908
881.112	4919
881.239	4790
881.366	4653
881.493	4615
881.619	4618
881.746	4618
881.872	4611
881.999	4664
882.125	4714
882.252	4771
882.378	4805
882.505	4953
882.631	4824
882.757	4626
882.883	4706
883.01	4687
883.136	4660
883.262	4634
883.388	4668
883.514	4812
883.64	4816
883.766	4820
883.892	4668
884.018	4721
884.143	4885
884.269	5006
884.395	4660
884.52	4618
884.646	4668
884.772	4622
884.897	4607
885.023	4660
885.148	4843
885.274	4870
885.399	4824
885.524	4717
885.65	4672
885.775	4694
885.9	4729
886.025	4854
886.15	4805
886.275	4706
886.4	4672
886.525	4706
886.65	4698
886.775	4725
886.9	4919
887.025	5060
887.149	4797
887.274	4649
887.399	4599
887.523	4596
887.648	4554
887.773	4561
887.897	4793
888.021	4812
888.146	4706
888.27	4866
888.395	4934
888.519	4801
888.643	4828
888.767	4835
888.891	4702
889.015	4592
889.139	4672
889.263	4603
889.387	4752
889.511	4877
889.635	4797
889.759	4634
889.883	4672
890.006	4763
890.13	4835
890.254	4649
890.377	4683
890.501	4580
890.624	4523
890.748	4653
890.871	4519
890.995	4398
891.118	4375
891.241	4527
891.364	4527
891.488	4596
891.611	4481
891.734	4542
891.857	4611
891.98	4554
892.103	4641
892.226	4550
892.349	4535
892.471	4470
892.594	4596
892.717	4588
892.839	4596
892.962	4554
893.085	4645
893.207	4622
893.33	4508
893.452	4519
893.575	4664
893.697	4615
893.819	4831
893.941	4820
894.064	4744
894.186	4592
894.308	4569
894.43	4755
894.552	4816
894.674	4782
894.796	4504
894.918	4580
895.04	4569
895.161	4736
895.283	4664
895.405	4634
895.526	4653
895.648	4653
895.769	4706
895.891	4660
896.012	4763
896.134	4702
896.255	4691
896.376	4653
896.498	4618
896.619	4611
896.74	4618
896.861	4607
896.982	4911
897.103	5079
897.224	4801
897.345	4744
897.466	4656
897.587	4675
897.708	4805
897.828	4774
897.949	4668
898.07	4561
898.19	4679
898.311	4870
898.431	4698
898.552	4733
898.672	4816
898.792	4771
898.913	4729
899.033	4626
899.153	4504
899.273	4443
899.393	4512
899.513	4561
899.633	4577
899.753	4527
899.873	4500
899.993	4569
900.113	4527
900.232	4599
900.352	4523
900.472	4500
900.591	4443
900.711	4493
900.83	4466
900.95	4622
901.069	4660
901.189	4527
901.308	4379
901.427	4325
901.546	4371
901.665	4497
901.784	4474
901.904	4402
902.023	4341
902.141	4204
902.26	4169
902.379	4318
902.498	4284
902.617	4249
902.735	4424
902.854	4379
902.973	4402
903.091	4215
903.21	4242
903.328	4341
903.446	4303
903.565	4261
903.683	4291
903.801	4268
903.919	4402
904.038	4443
904.156	4329
904.274	4466
904.392	4352
904.51	4424
904.627	4481
904.745	4538
904.863	4645
904.981	4421
905.098	4318
905.216	4325
905.334	4417
905.451	4424
905.569	4500
905.686	4516
905.803	4592
905.921	4421
906.038	4558
906.155	4462
906.272	4436
906.389	4478
906.506	4325
906.623	4379
906.74	4402
906.857	4322
906.974	4394
907.091	4588
907.208	4672
907.324	4546
907.441	4500
907.557	4348
907.674	4325
907.79	4306
907.907	4432
908.023	4466
908.139	4474
908.256	4447
908.372	4508
908.488	4466
908.604	4367
908.72	4333
908.836	4367
908.952	4390
909.068	4413
909.184	4596
909.3	4497
909.415	4630
909.531	4569
909.647	4375
909.762	4322
909.878	4348
909.993	4440
910.108	4402
910.224	4440
910.339	4443
910.454	4356
910.57	4367
910.685	4276
910.8	4679
910.915	4569
911.03	4474
911.145	4325
911.259	4322
911.374	4383
911.489	4299
911.604	4287
911.718	4173
911.833	4204
911.947	4090
912.062	4032
912.176	4253
912.291	4234
912.405	4230
912.519	4466
912.633	4516
912.748	4386
912.862	4333
912.976	4150
913.09	4078
913.204	4181
913.318	4238
913.431	4360
913.545	4344
913.659	4474
913.772	4367
913.886	4284
914	4204
914.113	4348
914.226	4398
914.34	4367
914.453	4200
914.566	4402
914.68	4284
914.793	4356
914.906	4177
915.019	4131
915.132	4116
915.245	4188
915.358	4204
915.47	4207
915.583	4295
915.696	4284
915.809	4394
915.921	4436
916.034	4227
916.146	4284
916.259	4249
916.371	4398
916.483	4356
916.595	4265
916.708	4322
916.82	4322
916.932	4318
917.044	4352
917.156	4291
917.268	4223
917.38	4337
917.491	4299
917.603	4348
917.715	4417
917.826	4432
917.938	4360
918.049	4219
918.161	4363
918.272	4550
918.384	4523
918.495	4489
918.606	4303
918.717	4257
918.828	4337
918.939	4367
919.05	4280
919.161	4295
919.272	4131
919.383	4219
919.494	4417
919.604	4664
919.715	4443
919.826	4375
919.936	4409
920.047	4512
920.157	4451
920.267	4706
920.378	4512
920.488	4497
920.598	4714
920.708	4870
920.818	4759
920.928	4763
921.038	4957
921.148	4946
921.258	4611
921.368	4538
921.477	4519
921.587	4455
921.697	4383
921.806	4561
921.916	4470
922.025	4287
922.134	4242
922.244	4246
922.353	4344
922.462	4177
922.571	4128
922.68	3998
922.789	3983
922.898	4021
923.007	4021
923.116	4093
923.224	4097
923.333	4067
923.442	3998
923.55	4025
923.659	4048
923.767	4097
923.876	3949
923.984	4120
924.092	3972
924.201	4112
924.309	4067
924.417	4112
924.525	4032
924.633	4116
924.741	5033
924.849	3918
924.956	4143
925.064	3903
925.172	3918
925.279	3918
925.387	4021
925.494	4048
925.602	4211
925.709	4169
925.816	4044
925.924	4188
926.031	4188
926.138	4211
926.245	4185
926.352	4074
926.459	4253
926.566	4314
926.673	4147
926.779	4101
926.886	4124
926.993	3953
927.099	4010
927.206	3994
927.312	3907
927.419	4082
927.525	4036
927.631	4090
927.737	3930
927.843	3926
927.95	3816
928.056	3937
928.162	3949
928.267	4067
928.373	4698
928.479	4063
928.585	3888
928.69	3998
928.796	4078
928.901	3930
929.007	3838
929.112	4006
929.218	3998
929.323	3960
929.428	3930
929.533	4093
929.638	3896
929.743	3968
929.848	4044
929.953	3987
930.058	3888
930.163	3743
930.267	3789
930.372	3941
930.477	3819
930.581	4109
930.685	3907
930.79	3797
930.894	3884
930.998	3854
931.103	4006
931.207	3720
931.311	3671
931.415	3679
931.519	3515
931.623	3576
