Data from test_V78500241_1222.txt Node
Date: Fri Mar 25 16:57:29 CST 2022
User: usil
Spectrometer: V785-0024
Trigger mode: 0
Integration Time (sec): 4.000000E-1
Scans to average: 1
Nonlinearity correction enabled: false
Boxcar width: 0
Storing dark spectrum: false
XAxis mode: Wavelengths
Number of Pixels in Spectrum: 1024
>>>>>Begin Spectral Data<<<<<
801.071	8088
801.214	8005
801.356	7890
801.499	7849
801.641	7750
801.783	7830
801.926	7970
802.068	7883
802.211	7906
802.353	7925
802.496	7887
802.638	7833
802.78	7913
802.923	7906
803.065	7841
803.208	7803
803.35	7890
803.492	8031
803.635	8145
803.777	8081
803.919	8172
804.061	8419
804.204	8187
804.346	8077
804.488	7974
804.63	8103
804.773	7940
804.915	8016
805.057	8320
805.199	8100
805.341	8126
805.483	8229
805.626	8168
805.768	8123
805.91	8206
806.052	8195
806.194	8134
806.336	8282
806.478	8084
806.62	8046
806.762	8164
806.904	8271
807.046	8533
807.188	8305
807.33	8233
807.472	8199
807.614	8130
807.756	8115
807.898	7974
808.04	7849
808.182	7944
808.324	7921
808.465	7909
808.607	8088
808.749	8046
808.891	8229
809.033	8271
809.174	8168
809.316	8069
809.458	8031
809.6	8020
809.741	8016
809.883	8027
810.025	8100
810.166	8043
810.308	8016
810.45	7982
810.591	7902
810.733	7738
810.875	7643
811.016	7510
811.158	7468
811.299	7609
811.441	7731
811.582	7651
811.724	7563
811.865	7480
812.007	7563
812.148	7613
812.29	7616
812.431	7670
812.573	7868
812.714	7944
812.855	8153
812.997	8138
813.138	8286
813.279	8183
813.421	8065
813.562	7967
813.703	7856
813.845	7704
813.986	7388
814.127	7228
814.268	7171
814.41	7179
814.551	7145
814.692	7206
814.833	7072
814.974	7095
815.115	7034
815.256	6962
815.397	6840
815.539	6882
815.68	6814
815.821	6753
815.962	6818
816.103	6760
816.244	6791
816.385	6604
816.526	6563
816.666	6448
816.807	6205
816.948	6403
817.089	6506
817.23	6403
817.371	6388
817.512	6391
817.653	6357
817.793	6391
817.934	6433
818.075	6452
818.216	6391
818.356	6418
818.497	6254
818.638	6117
818.778	6182
818.919	6148
819.06	6140
819.2	6270
819.341	6361
819.481	6323
819.622	6494
819.762	6722
819.903	6616
820.043	6604
820.184	6563
820.324	6521
820.465	6662
820.605	6658
820.746	6574
820.886	6483
821.026	6593
821.167	6696
821.307	6783
821.447	6730
821.588	6604
821.728	6570
821.868	6441
822.008	6277
822.149	6323
822.289	6334
822.429	6167
822.569	6117
822.709	6060
822.849	5912
822.99	5847
823.13	5935
823.27	5927
823.41	5851
823.55	5802
823.69	5764
823.83	5798
823.97	5627
824.11	5459
824.25	5482
824.389	5551
824.529	5585
824.669	5535
824.809	5604
824.949	5608
825.089	5577
825.228	5505
825.368	5383
825.508	5296
825.648	5307
825.787	5452
825.927	5383
826.067	5326
826.206	5288
826.346	5376
826.485	5372
826.625	5417
826.765	5490
826.904	5440
827.044	5265
827.183	5258
827.323	5136
827.462	5242
827.601	5143
827.741	5143
827.88	5235
828.02	5124
828.159	5227
828.298	5288
828.437	5353
828.577	5246
828.716	5467
828.855	5269
828.994	5147
829.134	5151
829.273	5220
829.412	5170
829.551	5102
829.69	5151
829.829	5220
829.968	5383
830.107	5277
830.246	5292
830.385	5121
830.524	5060
830.663	5041
830.802	4991
830.941	4934
831.08	4809
831.219	4995
831.357	4995
831.496	5102
831.635	4923
831.774	4843
831.913	4782
832.051	4805
832.19	4702
832.329	4858
832.467	4721
832.606	4615
832.744	4664
832.883	4691
833.022	4710
833.16	4797
833.299	4793
833.437	4835
833.576	4793
833.714	4850
833.852	4850
833.991	4839
834.129	4915
834.267	4923
834.406	4889
834.544	4946
834.682	4949
834.821	4999
834.959	5128
835.097	4915
835.235	5162
835.373	5052
835.511	5022
835.65	4991
835.788	4923
835.926	4820
836.064	4877
836.202	4866
836.34	5136
836.478	5212
836.615	5143
836.753	5178
836.891	5280
837.029	5223
837.167	5140
837.305	5155
837.443	5105
837.58	5060
837.718	5239
837.856	5140
837.993	5143
838.131	5181
838.269	5136
838.406	5193
838.544	5204
838.681	4991
838.819	4995
838.956	4885
839.094	4889
839.231	4984
839.369	5056
839.506	5444
839.643	5231
839.781	5048
839.918	5018
840.055	5105
840.193	5071
840.33	5109
840.467	5147
840.604	5185
840.742	5376
840.879	5056
841.016	5048
841.153	5140
841.29	5341
841.427	5307
841.564	5334
841.701	5379
841.838	5258
841.975	5212
842.112	5208
842.249	5185
842.385	5067
842.522	5296
842.659	5159
842.796	5105
842.933	5193
843.069	5113
843.206	5140
843.343	5261
843.479	5220
843.616	5178
843.752	5025
843.889	4995
844.025	5242
844.162	4987
844.298	5197
844.435	5052
844.571	5041
844.708	5151
844.844	5296
844.98	5315
845.117	5193
845.253	5117
845.389	5064
845.525	5136
845.661	5086
845.798	4995
845.934	5117
846.07	5056
846.206	5227
846.342	5239
846.478	5193
846.614	5010
846.75	4949
846.886	4930
847.022	5140
847.158	5033
847.294	5083
847.429	5079
847.565	5064
847.701	5345
847.837	4862
847.972	4847
848.108	4984
848.244	4961
848.379	4793
848.515	4752
848.65	4771
848.786	4759
848.921	4755
849.057	4828
849.192	4953
849.328	4767
849.463	4835
849.598	4797
849.734	4759
849.869	4702
850.004	4626
850.14	4672
850.275	4637
850.41	4569
850.545	4565
850.68	4603
850.815	4618
850.95	4649
851.085	4839
851.22	4763
851.355	4717
851.49	4630
851.625	4626
851.76	4664
851.895	4565
852.03	4558
852.165	4687
852.299	4668
852.434	4820
852.569	4778
852.703	4820
852.838	4911
852.973	4972
853.107	4915
853.242	4805
853.376	4641
853.511	4569
853.645	4618
853.78	4847
853.914	4702
854.048	4717
854.183	4603
854.317	4687
854.451	4866
854.585	4725
854.72	4672
854.854	4782
854.988	4630
855.122	4649
855.256	4535
855.39	4691
855.524	4793
855.658	4744
855.792	4729
855.926	4736
856.06	4752
856.194	4797
856.327	4725
856.461	4687
856.595	4672
856.729	4717
856.862	4778
856.996	4755
857.13	4752
857.263	4759
857.397	4786
857.53	4694
857.664	4763
857.797	4793
857.931	4824
858.064	4835
858.197	4748
858.331	4710
858.464	4630
858.597	4535
858.731	4694
858.864	4706
858.997	4641
859.13	4683
859.263	4679
859.396	4706
859.529	4607
859.662	4580
859.795	4626
859.928	4679
860.061	4782
860.194	4801
860.327	4630
860.46	4653
860.592	4790
860.725	4725
860.858	4752
860.99	4611
861.123	4535
861.256	4565
861.388	4653
861.521	5357
861.653	4531
861.786	4504
861.918	4519
862.05	4493
862.183	4584
862.315	4584
862.447	4664
862.58	4580
862.712	4413
862.844	4367
862.976	4538
863.108	4504
863.24	4908
863.372	4322
863.504	4466
863.636	4440
863.768	4535
863.9	4470
864.032	4379
864.164	4417
864.296	4497
864.428	4573
864.559	4603
864.691	4565
864.823	4531
864.954	4500
865.086	4504
865.217	4500
865.349	4379
865.48	4497
865.612	4500
865.743	4611
865.875	4493
866.006	4421
866.137	4470
866.269	4451
866.4	4459
866.531	4428
866.662	4379
866.793	4413
866.924	4440
867.055	4516
867.186	4447
867.317	4440
867.448	4424
867.579	4367
867.71	4390
867.841	4367
867.972	4493
868.103	4474
868.233	4466
868.364	4474
868.495	4527
868.625	4725
868.756	4774
868.886	4626
869.017	4607
869.147	4790
869.278	4771
869.408	4664
869.539	4653
869.669	4759
869.799	4729
869.929	4752
870.06	4793
870.19	4995
870.32	4961
870.45	4965
870.58	5113
870.71	5090
870.84	5140
870.97	4908
871.1	4942
871.23	5178
871.36	5181
871.489	5098
871.619	5140
871.749	5124
871.879	5124
872.008	5193
872.138	5079
872.267	5048
872.397	4881
872.526	4843
872.656	4763
872.785	4805
872.915	4965
873.044	5037
873.173	4938
873.303	4995
873.432	4972
873.561	4953
873.69	4911
873.819	4835
873.948	4972
874.077	4854
874.206	4752
874.335	4816
874.464	4968
874.593	5083
874.722	5003
874.851	5128
874.979	5109
875.108	5075
875.237	4995
875.365	4877
875.494	4892
875.623	5025
875.751	4847
875.88	4877
876.008	5014
876.136	5045
876.265	5189
876.393	5330
876.521	5284
876.65	5246
876.778	5201
876.906	5132
877.034	5064
877.162	5060
877.29	4999
877.418	5094
877.546	5048
877.674	5064
877.802	5048
877.93	5041
878.058	4965
878.185	4850
878.313	4987
878.441	4919
878.568	4854
878.696	4892
878.824	4946
878.951	4999
879.079	5124
879.206	5326
879.333	5102
879.461	4999
879.588	5018
879.715	5128
879.842	5227
879.97	5006
880.097	4828
880.224	4763
880.351	4809
880.478	4816
880.605	4843
880.732	4801
880.859	5075
880.986	4927
881.112	4915
881.239	4786
881.366	4679
881.493	4603
881.619	4599
881.746	4634
881.872	4672
881.999	4618
882.125	4672
882.252	4812
882.378	4839
882.505	4995
882.631	4831
882.757	4725
882.883	4755
883.01	4752
883.136	4683
883.262	4637
883.388	4622
883.514	4816
883.64	4877
883.766	4809
883.892	4675
884.018	4736
884.143	4927
884.269	5048
884.395	4752
884.52	4611
884.646	4664
884.772	4569
884.897	4542
885.023	4675
885.148	4782
885.274	4873
885.399	4797
885.524	4744
885.65	4691
885.775	4744
885.9	4736
886.025	4854
886.15	4839
886.275	4714
886.4	4710
886.525	4752
886.65	4687
886.775	4672
886.9	4927
887.025	5064
887.149	4812
887.274	4672
887.399	4599
887.523	4607
887.648	4637
887.773	4607
887.897	4812
888.021	4744
888.146	4668
888.27	4866
888.395	4908
888.519	4824
888.643	4801
888.767	4847
888.891	4721
889.015	4645
889.139	4710
889.263	4634
889.387	4748
889.511	4923
889.635	4828
889.759	4660
889.883	4634
890.006	4714
890.13	4892
890.254	4630
890.377	4687
890.501	4485
890.624	4497
890.748	4634
890.871	4523
890.995	4466
891.118	4402
891.241	4531
891.364	4577
891.488	4683
891.611	4580
891.734	4535
891.857	4622
891.98	4596
892.103	4672
892.226	4603
892.349	4569
892.471	4451
892.594	4542
892.717	4672
892.839	4550
892.962	4649
893.085	4637
893.207	4615
893.33	4485
893.452	4508
893.575	4694
893.697	4580
893.819	4858
893.941	4870
894.064	4793
894.186	4592
894.308	4618
894.43	4733
894.552	4824
894.674	4721
894.796	4550
894.918	4592
895.04	4622
895.161	4687
895.283	4649
895.405	4611
895.526	4694
895.648	4698
895.769	4656
895.891	4740
896.012	4752
896.134	4748
896.255	4660
896.376	4675
896.498	4634
896.619	4649
896.74	4618
896.861	4687
896.982	4946
897.103	5094
897.224	4881
897.345	4721
897.466	4630
897.587	4702
897.708	4892
897.828	4774
897.949	4698
898.07	4622
898.19	4592
898.311	4805
898.431	4706
898.552	4763
898.672	4854
898.792	4835
898.913	4710
899.033	4599
899.153	4508
899.273	4421
899.393	4531
899.513	4523
899.633	4573
899.753	4607
899.873	4546
899.993	4584
900.113	4561
900.232	4561
900.352	4554
900.472	4535
900.591	4398
900.711	4508
900.83	4459
900.95	4554
901.069	4683
901.189	4516
901.308	4405
901.427	4333
901.546	4310
901.665	4455
901.784	4546
901.904	4417
902.023	4344
902.141	4227
902.26	4204
902.379	4280
902.498	4227
902.617	4166
902.735	4402
902.854	4405
902.973	4375
903.091	4276
903.21	4234
903.328	4303
903.446	4291
903.565	4238
903.683	4383
903.801	4303
903.919	4428
904.038	4432
904.156	4383
904.274	4443
904.392	4402
904.51	4451
904.627	4489
904.745	4592
904.863	4607
904.981	4379
905.098	4299
905.216	4348
905.334	4440
905.451	4432
905.569	4466
905.686	4523
905.803	4592
905.921	4409
906.038	4542
906.155	4440
906.272	4394
906.389	4504
906.506	4314
906.623	4383
906.74	4409
906.857	4310
906.974	4363
907.091	4580
907.208	4733
907.324	4596
907.441	4508
907.557	4402
907.674	4341
907.79	4341
907.907	4409
908.023	4474
908.139	4470
908.256	4440
908.372	4493
908.488	4462
908.604	4337
908.72	4352
908.836	4394
908.952	4337
909.068	4432
909.184	4565
909.3	4497
909.415	4618
909.531	4573
909.647	4390
909.762	4383
909.878	4344
909.993	4451
910.108	4402
910.224	4436
910.339	4485
910.454	4436
910.57	4360
910.685	4318
910.8	4660
910.915	4622
911.03	4500
911.145	4352
911.259	4306
911.374	4360
911.489	4344
911.604	4318
911.718	4177
911.833	4173
911.947	4067
912.062	4048
912.176	4238
912.291	4268
912.405	4249
912.519	4508
912.633	4527
912.748	4367
912.862	4352
912.976	4219
913.09	4097
913.204	4147
913.318	4227
913.431	4379
913.545	4360
913.659	4440
913.772	4367
913.886	4261
914	4223
914.113	4398
914.226	4383
914.34	4405
914.453	4200
914.566	4424
914.68	4344
914.793	4314
914.906	4158
915.019	4173
915.132	4097
915.245	4177
915.358	4223
915.47	4265
915.583	4291
915.696	4299
915.809	4428
915.921	4417
916.034	4257
916.146	4280
916.259	4207
916.371	4386
916.483	4424
916.595	4322
916.708	4356
916.82	4379
916.932	4352
917.044	4409
917.156	4325
917.268	4272
917.38	4295
917.491	4287
917.603	4398
917.715	4443
917.826	4462
917.938	4375
918.049	4261
918.161	4421
918.272	4615
918.384	4615
918.495	4527
918.606	4333
918.717	4291
918.828	4344
918.939	4405
919.05	4318
919.161	4360
919.272	4192
919.383	4265
919.494	4500
919.604	4664
919.715	4481
919.826	4405
919.936	4459
920.047	4603
920.157	4538
920.267	4736
920.378	4577
920.488	4550
920.598	4771
920.708	4949
920.818	4748
920.928	4797
921.038	4987
921.148	4961
921.258	4672
921.368	4558
921.477	4497
921.587	4462
921.697	4402
921.806	4603
921.916	4459
922.025	4284
922.134	4295
922.244	4299
922.353	4352
922.462	4215
922.571	4166
922.68	4055
922.789	4025
922.898	4097
923.007	3991
923.116	4128
923.224	4112
923.333	4139
923.442	4032
923.55	4021
923.659	4051
923.767	4135
923.876	4021
923.984	4192
924.092	4017
924.201	4082
924.309	4135
924.417	4143
924.525	4063
924.633	4101
924.741	5090
924.849	3987
924.956	4200
925.064	3953
925.172	3930
925.279	4059
925.387	4093
925.494	4109
925.602	4219
925.709	4238
925.816	4074
925.924	4124
926.031	4303
926.138	4204
926.245	4280
926.352	4147
926.459	4272
926.566	4329
926.673	4200
926.779	4086
926.886	4169
926.993	3983
927.099	4021
927.206	3964
927.312	3968
927.419	4071
927.525	4105
927.631	4071
927.737	4013
927.843	3968
927.95	3892
928.056	4006
928.162	4029
928.267	4105
928.373	4664
928.479	4131
928.585	3907
928.69	4059
928.796	4112
928.901	4036
929.007	3888
929.112	4044
929.218	4044
929.323	3960
929.428	3975
929.533	4139
929.638	3926
929.743	3979
929.848	4086
929.953	4051
930.058	3911
930.163	3831
930.267	3854
930.372	4010
930.477	3846
930.581	4109
930.685	3972
930.79	3876
930.894	3907
930.998	3842
931.103	4074
931.207	3766
931.311	3732
931.415	3679
931.519	3606
931.623	3564
