Data from test_V78500241_1242.txt Node
Date: Fri Mar 25 16:57:38 CST 2022
User: usil
Spectrometer: V785-0024
Trigger mode: 0
Integration Time (sec): 4.000000E-1
Scans to average: 1
Nonlinearity correction enabled: false
Boxcar width: 0
Storing dark spectrum: false
XAxis mode: Wavelengths
Number of Pixels in Spectrum: 1024
>>>>>Begin Spectral Data<<<<<
801.071	8062
801.214	7986
801.356	7955
801.499	7803
801.641	7811
801.783	7841
801.926	7909
802.068	7925
802.211	7951
802.353	7944
802.496	7845
802.638	7864
802.78	7913
802.923	7940
803.065	7944
803.208	7860
803.35	8027
803.492	8062
803.635	8115
803.777	7997
803.919	8157
804.061	8465
804.204	8164
804.346	8027
804.488	7936
804.63	8020
804.773	8027
804.915	8123
805.057	8317
805.199	8142
805.341	8237
805.483	8263
805.626	8225
805.768	8134
805.91	8202
806.052	8172
806.194	8062
806.336	8294
806.478	8103
806.62	8050
806.762	8161
806.904	8279
807.046	8476
807.188	8351
807.33	8225
807.472	8313
807.614	8187
807.756	8073
807.898	8001
808.04	7875
808.182	7925
808.324	7906
808.465	7959
808.607	8058
808.749	8130
808.891	8225
809.033	8320
809.174	8164
809.316	7959
809.458	8077
809.6	8039
809.741	7997
809.883	8062
810.025	8088
810.166	8031
810.308	8012
810.45	7951
810.591	7845
810.733	7738
810.875	7662
811.016	7582
811.158	7510
811.299	7578
811.441	7708
811.582	7666
811.724	7578
811.865	7521
812.007	7518
812.148	7601
812.29	7616
812.431	7670
812.573	7902
812.714	7967
812.855	8096
812.997	8195
813.138	8336
813.279	8195
813.421	8062
813.562	7932
813.703	7799
813.845	7753
813.986	7453
814.127	7251
814.268	7209
814.41	7209
814.551	7171
814.692	7133
814.833	7072
814.974	7046
815.115	7091
815.256	6970
815.397	6913
815.539	6943
815.68	6760
815.821	6734
815.962	6825
816.103	6825
816.244	6696
816.385	6673
816.526	6593
816.666	6479
816.807	6315
816.948	6448
817.089	6433
817.23	6437
817.371	6369
817.512	6361
817.653	6346
817.793	6346
817.934	6448
818.075	6456
818.216	6372
818.356	6361
818.497	6201
818.638	6053
818.778	6148
818.919	6155
819.06	6163
819.2	6342
819.341	6281
819.481	6338
819.622	6528
819.762	6711
819.903	6673
820.043	6635
820.184	6506
820.324	6540
820.465	6654
820.605	6692
820.746	6585
820.886	6418
821.026	6627
821.167	6658
821.307	6730
821.447	6741
821.588	6700
821.728	6517
821.868	6490
822.008	6289
822.149	6372
822.289	6315
822.429	6125
822.569	5996
822.709	6098
822.849	5832
822.99	5866
823.13	5904
823.27	5946
823.41	5775
823.55	5783
823.69	5748
823.83	5726
823.97	5703
824.11	5520
824.25	5532
824.389	5570
824.529	5577
824.669	5524
824.809	5653
824.949	5657
825.089	5630
825.228	5570
825.368	5414
825.508	5345
825.648	5357
825.787	5406
825.927	5387
826.067	5311
826.206	5277
826.346	5387
826.485	5376
826.625	5368
826.765	5592
826.904	5429
827.044	5322
827.183	5170
827.323	5216
827.462	5235
827.601	5143
827.741	5216
827.88	5208
828.02	5113
828.159	5212
828.298	5265
828.437	5311
828.577	5242
828.716	5433
828.855	5273
828.994	5136
829.134	5124
829.273	5181
829.412	5159
829.551	5121
829.69	5201
829.829	5239
829.968	5391
830.107	5239
830.246	5220
830.385	5212
830.524	5105
830.663	5090
830.802	5037
830.941	4896
831.08	4824
831.219	4980
831.357	4949
831.496	5151
831.635	4923
831.774	4828
831.913	4889
832.051	4691
832.19	4736
832.329	4828
832.467	4706
832.606	4603
832.744	4683
832.883	4683
833.022	4664
833.16	4801
833.299	4786
833.437	4801
833.576	4812
833.714	4866
833.852	4862
833.991	4839
834.129	4942
834.267	4904
834.406	4881
834.544	4968
834.682	4987
834.821	4915
834.959	5166
835.097	4938
835.235	5109
835.373	5025
835.511	5132
835.65	5037
835.788	5010
835.926	4843
836.064	4847
836.202	4908
836.34	5166
836.478	5178
836.615	5140
836.753	5174
836.891	5250
837.029	5204
837.167	5178
837.305	5124
837.443	5132
837.58	5086
837.718	5250
837.856	5204
837.993	5113
838.131	5235
838.269	5204
838.406	5185
838.544	5178
838.681	5003
838.819	4995
838.956	4911
839.094	4896
839.231	4972
839.369	5098
839.506	5398
839.643	5277
839.781	5109
839.918	5037
840.055	5143
840.193	5147
840.33	5079
840.467	5128
840.604	5178
840.742	5410
840.879	5037
841.016	5067
841.153	5189
841.29	5414
841.427	5349
841.564	5322
841.701	5360
841.838	5265
841.975	5181
842.112	5273
842.249	5113
842.385	5136
842.522	5330
842.659	5159
842.796	5147
842.933	5208
843.069	5159
843.206	5147
843.343	5303
843.479	5235
843.616	5220
843.752	5006
843.889	5022
844.025	5204
844.162	5037
844.298	5178
844.435	5056
844.571	5064
844.708	5204
844.844	5311
844.98	5353
845.117	5273
845.253	5132
845.389	5056
845.525	5162
845.661	5132
845.798	5037
845.934	5132
846.07	5029
846.206	5193
846.342	5280
846.478	5159
846.614	4968
846.75	4957
846.886	4957
847.022	5086
847.158	4987
847.294	5090
847.429	5094
847.565	5022
847.701	5326
847.837	4858
847.972	4828
848.108	4965
848.244	4965
848.379	4824
848.515	4710
848.65	4706
848.786	4698
848.921	4763
849.057	4801
849.192	4908
849.328	4828
849.463	4816
849.598	4793
849.734	4801
849.869	4653
850.004	4615
850.14	4660
850.275	4599
850.41	4516
850.545	4569
850.68	4580
850.815	4592
850.95	4607
851.085	4873
851.22	4736
851.355	4710
851.49	4656
851.625	4615
851.76	4588
851.895	4481
852.03	4550
852.165	4615
852.299	4683
852.434	4748
852.569	4733
852.703	4763
852.838	4854
852.973	4881
853.107	4889
853.242	4717
853.376	4637
853.511	4573
853.645	4580
853.78	4793
853.914	4675
854.048	4668
854.183	4649
854.317	4653
854.451	4824
854.585	4637
854.72	4618
854.854	4687
854.988	4561
855.122	4615
855.256	4512
855.39	4653
855.524	4748
855.658	4744
855.792	4721
855.926	4698
856.06	4774
856.194	4793
856.327	4710
856.461	4561
856.595	4634
856.729	4626
856.862	4694
856.996	4660
857.13	4679
857.263	4710
857.397	4824
857.53	4626
857.664	4710
857.797	4729
857.931	4778
858.064	4679
858.197	4748
858.331	4580
858.464	4538
858.597	4489
858.731	4584
858.864	4588
858.997	4599
859.13	4664
859.263	4649
859.396	4683
859.529	4531
859.662	4565
859.795	4489
859.928	4588
860.061	4721
860.194	4752
860.327	4580
860.46	4542
860.592	4702
860.725	4698
860.858	4691
860.99	4546
861.123	4508
861.256	4500
861.388	4569
861.521	5273
861.653	4485
861.786	4447
861.918	4447
862.05	4565
862.183	4516
862.315	4592
862.447	4622
862.58	4542
862.712	4375
862.844	4291
862.976	4432
863.108	4432
863.24	4889
863.372	4337
863.504	4398
863.636	4390
863.768	4489
863.9	4409
864.032	4303
864.164	4402
864.296	4443
864.428	4512
864.559	4554
864.691	4497
864.823	4542
864.954	4455
865.086	4481
865.217	4459
865.349	4383
865.48	4447
865.612	4462
865.743	4630
865.875	4489
866.006	4455
866.137	4474
866.269	4424
866.4	4424
866.531	4405
866.662	4390
866.793	4402
866.924	4402
867.055	4497
867.186	4424
867.317	4409
867.448	4348
867.579	4360
867.71	4363
867.841	4333
867.972	4459
868.103	4466
868.233	4447
868.364	4455
868.495	4481
868.625	4656
868.756	4771
868.886	4519
869.017	4580
869.147	4683
869.278	4767
869.408	4599
869.539	4607
869.669	4698
869.799	4660
869.929	4706
870.06	4706
870.19	4938
870.32	4885
870.45	4942
870.58	5025
870.71	5102
870.84	5121
870.97	4934
871.1	4831
871.23	5098
871.36	5090
871.489	5094
871.619	5033
871.749	5083
871.879	5109
872.008	5170
872.138	4991
872.267	4930
872.397	4831
872.526	4797
872.656	4714
872.785	4831
872.915	4923
873.044	5006
873.173	4896
873.303	4930
873.432	4980
873.561	4908
873.69	4835
873.819	4847
873.948	4896
874.077	4835
874.206	4714
874.335	4812
874.464	4881
874.593	5102
874.722	4999
874.851	5071
874.979	5102
875.108	4987
875.237	4892
875.365	4809
875.494	4843
875.623	4946
875.751	4812
875.88	4858
876.008	4946
876.136	5041
876.265	5227
876.393	5292
876.521	5288
876.65	5212
876.778	5174
876.906	5079
877.034	5033
877.162	5033
877.29	4999
877.418	5033
877.546	5052
877.674	5014
877.802	5048
877.93	5045
878.058	4900
878.185	4839
878.313	4934
878.441	4965
878.568	4828
878.696	4854
878.824	4934
878.951	4999
879.079	5124
879.206	5265
879.333	5124
879.461	4934
879.588	5003
879.715	5090
879.842	5242
879.97	5006
880.097	4744
880.224	4733
880.351	4831
880.478	4816
880.605	4729
880.732	4729
880.859	5090
880.986	4900
881.112	4927
881.239	4828
881.366	4660
881.493	4542
881.619	4626
881.746	4603
881.872	4653
881.999	4641
882.125	4649
882.252	4793
882.378	4759
882.505	4949
882.631	4809
882.757	4664
882.883	4691
883.01	4683
883.136	4687
883.262	4554
883.388	4538
883.514	4816
883.64	4831
883.766	4812
883.892	4668
884.018	4672
884.143	4908
884.269	5006
884.395	4675
884.52	4615
884.646	4675
884.772	4561
884.897	4561
885.023	4664
885.148	4774
885.274	4904
885.399	4782
885.524	4725
885.65	4645
885.775	4778
885.9	4763
886.025	4862
886.15	4793
886.275	4729
886.4	4694
886.525	4729
886.65	4618
886.775	4683
886.9	4900
887.025	4987
887.149	4778
887.274	4611
887.399	4573
887.523	4622
887.648	4580
887.773	4603
887.897	4805
888.021	4763
888.146	4660
888.27	4767
888.395	4904
888.519	4797
888.643	4767
888.767	4831
888.891	4637
889.015	4656
889.139	4679
889.263	4626
889.387	4752
889.511	4831
889.635	4801
889.759	4637
889.883	4653
890.006	4714
890.13	4843
890.254	4649
890.377	4679
890.501	4531
890.624	4519
890.748	4596
890.871	4470
890.995	4417
891.118	4405
891.241	4538
891.364	4558
891.488	4592
891.611	4516
891.734	4554
891.857	4615
891.98	4531
892.103	4622
892.226	4561
892.349	4478
892.471	4428
892.594	4504
892.717	4596
892.839	4554
892.962	4561
893.085	4668
893.207	4580
893.33	4466
893.452	4493
893.575	4672
893.697	4599
893.819	4816
893.941	4801
894.064	4786
894.186	4573
894.308	4558
894.43	4698
894.552	4816
894.674	4721
894.796	4535
894.918	4611
895.04	4569
895.161	4660
895.283	4653
895.405	4561
895.526	4649
895.648	4702
895.769	4698
895.891	4744
896.012	4675
896.134	4725
896.255	4649
896.376	4599
896.498	4626
896.619	4706
896.74	4603
896.861	4634
896.982	4870
897.103	5090
897.224	4873
897.345	4733
897.466	4653
897.587	4725
897.708	4847
897.828	4786
897.949	4622
898.07	4546
898.19	4599
898.311	4809
898.431	4637
898.552	4736
898.672	4793
898.792	4790
898.913	4702
899.033	4599
899.153	4508
899.273	4428
899.393	4481
899.513	4485
899.633	4538
899.753	4531
899.873	4485
899.993	4584
900.113	4558
900.232	4554
900.352	4527
900.472	4474
900.591	4421
900.711	4470
900.83	4383
900.95	4580
901.069	4653
901.189	4523
901.308	4341
901.427	4306
901.546	4348
901.665	4478
901.784	4497
901.904	4424
902.023	4322
902.141	4204
902.26	4177
902.379	4306
902.498	4223
902.617	4211
902.735	4363
902.854	4375
902.973	4356
903.091	4223
903.21	4192
903.328	4287
903.446	4299
903.565	4253
903.683	4337
903.801	4227
903.919	4386
904.038	4413
904.156	4352
904.274	4383
904.392	4383
904.51	4428
904.627	4371
904.745	4546
904.863	4637
904.981	4428
905.098	4318
905.216	4341
905.334	4409
905.451	4402
905.569	4405
905.686	4558
905.803	4546
905.921	4390
906.038	4523
906.155	4455
906.272	4341
906.389	4409
906.506	4363
906.623	4276
906.74	4432
906.857	4276
906.974	4363
907.091	4531
907.208	4672
907.324	4565
907.441	4428
907.557	4272
907.674	4337
907.79	4318
907.907	4360
908.023	4466
908.139	4413
908.256	4421
908.372	4474
908.488	4413
908.604	4333
908.72	4249
908.836	4356
908.952	4402
909.068	4360
909.184	4497
909.3	4493
909.415	4538
909.531	4519
909.647	4295
909.762	4314
909.878	4337
909.993	4409
910.108	4421
910.224	4371
910.339	4481
910.454	4383
910.57	4356
910.685	4276
910.8	4634
910.915	4542
911.03	4493
911.145	4325
911.259	4322
911.374	4352
911.489	4303
911.604	4280
911.718	4135
911.833	4177
911.947	4059
912.062	4048
912.176	4192
912.291	4246
912.405	4227
912.519	4489
912.633	4504
912.748	4375
912.862	4306
912.976	4204
913.09	4063
913.204	4181
913.318	4265
913.431	4360
913.545	4375
913.659	4443
913.772	4363
913.886	4261
914	4261
914.113	4436
914.226	4424
914.34	4383
914.453	4284
914.566	4466
914.68	4303
914.793	4325
914.906	4215
915.019	4185
915.132	4071
915.245	4204
915.358	4211
915.47	4234
915.583	4287
915.696	4322
915.809	4474
915.921	4455
916.034	4310
916.146	4284
916.259	4230
916.371	4413
916.483	4451
916.595	4276
916.708	4341
916.82	4363
916.932	4402
917.044	4375
917.156	4379
917.268	4287
917.38	4344
917.491	4322
917.603	4367
917.715	4470
917.826	4421
917.938	4367
918.049	4284
918.161	4375
918.272	4580
918.384	4519
918.495	4462
918.606	4371
918.717	4272
918.828	4394
918.939	4352
919.05	4284
919.161	4360
919.272	4181
919.383	4238
919.494	4485
919.604	4649
919.715	4440
919.826	4386
919.936	4413
920.047	4588
920.157	4554
920.267	4763
920.378	4569
920.488	4523
920.598	4740
920.708	4919
920.818	4793
920.928	4782
921.038	5003
921.148	4930
921.258	4668
921.368	4573
921.477	4519
921.587	4512
921.697	4440
921.806	4558
921.916	4417
922.025	4272
922.134	4257
922.244	4291
922.353	4352
922.462	4192
922.571	4185
922.68	4017
922.789	4006
922.898	4067
923.007	4010
923.116	4116
923.224	4093
923.333	4051
923.442	3998
923.55	4013
923.659	4055
923.767	4135
923.876	4048
923.984	4173
924.092	3987
924.201	4097
924.309	4101
924.417	4162
924.525	4074
924.633	4112
924.741	5090
924.849	3960
924.956	4143
925.064	4017
925.172	3979
925.279	3975
925.387	4040
925.494	4116
925.602	4204
925.709	4223
925.816	4032
925.924	4185
926.031	4295
926.138	4192
926.245	4230
926.352	4135
926.459	4303
926.566	4348
926.673	4166
926.779	4109
926.886	4135
926.993	4002
927.099	4013
927.206	3960
927.312	3960
927.419	4036
927.525	4044
927.631	4139
927.737	4010
927.843	3953
927.95	3850
928.056	3975
928.162	4002
928.267	4101
928.373	4740
928.479	4169
928.585	3934
928.69	4021
928.796	4131
928.901	3975
929.007	3873
929.112	4010
929.218	3983
929.323	3915
929.428	3964
929.533	4120
929.638	3949
929.743	3987
929.848	4105
929.953	4025
930.058	3945
930.163	3785
930.267	3831
930.372	4010
930.477	3861
930.581	4143
930.685	3922
930.79	3819
930.894	3934
930.998	3850
931.103	4063
931.207	3778
931.311	3690
931.415	3648
931.519	3549
931.623	3572
