Data from test_V78500241_339.txt Node
Date: Fri Mar 25 16:51:21 CST 2022
User: usil
Spectrometer: V785-0024
Trigger mode: 0
Integration Time (sec): 4.000000E-1
Scans to average: 1
Nonlinearity correction enabled: false
Boxcar width: 0
Storing dark spectrum: false
XAxis mode: Wavelengths
Number of Pixels in Spectrum: 1024
>>>>>Begin Spectral Data<<<<<
801.071	8073
801.214	8005
801.356	7909
801.499	7887
801.641	7875
801.783	7906
801.926	7978
802.068	7906
802.211	8008
802.353	7997
802.496	7967
802.638	7906
802.78	7944
802.923	7963
803.065	7845
803.208	7852
803.35	7940
803.492	8149
803.635	8081
803.777	8001
803.919	8191
804.061	8484
804.204	8142
804.346	8081
804.488	8005
804.63	8138
804.773	8016
804.915	8073
805.057	8279
805.199	8164
805.341	8172
805.483	8313
805.626	8153
805.768	8065
805.91	8157
806.052	8221
806.194	8153
806.336	8286
806.478	8161
806.62	8111
806.762	8161
806.904	8271
807.046	8503
807.188	8393
807.33	8290
807.472	8256
807.614	8130
807.756	8157
807.898	8012
808.04	7841
808.182	7940
808.324	7913
808.465	7921
808.607	8081
808.749	8092
808.891	8237
809.033	8301
809.174	8206
809.316	8039
809.458	8058
809.6	8012
809.741	8035
809.883	8035
810.025	8088
810.166	8191
810.308	8058
810.45	8054
810.591	7864
810.733	7715
810.875	7609
811.016	7548
811.158	7491
811.299	7632
811.441	7776
811.582	7788
811.724	7636
811.865	7628
812.007	7628
812.148	7582
812.29	7586
812.431	7761
812.573	7887
812.714	7974
812.855	8142
812.997	8229
813.138	8301
813.279	8218
813.421	8103
813.562	8043
813.703	7928
813.845	7780
813.986	7518
814.127	7285
814.268	7320
814.41	7209
814.551	7190
814.692	7251
814.833	7152
814.974	7099
815.115	7129
815.256	6947
815.397	6958
815.539	6901
815.68	6852
815.821	6738
815.962	6894
816.103	6844
816.244	6802
816.385	6597
816.526	6639
816.666	6498
816.807	6323
816.948	6471
817.089	6471
817.23	6414
817.371	6414
817.512	6380
817.653	6388
817.793	6395
817.934	6388
818.075	6433
818.216	6437
818.356	6494
818.497	6292
818.638	6136
818.778	6152
818.919	6163
819.06	6121
819.2	6338
819.341	6342
819.481	6342
819.622	6570
819.762	6825
819.903	6734
820.043	6612
820.184	6582
820.324	6627
820.465	6658
820.605	6669
820.746	6585
820.886	6555
821.026	6665
821.167	6753
821.307	6818
821.447	6783
821.588	6753
821.728	6623
821.868	6521
822.008	6365
822.149	6422
822.289	6422
822.429	6228
822.569	6163
822.709	6213
822.849	5988
822.99	6019
823.13	6015
823.27	5939
823.41	5882
823.55	5828
823.69	5840
823.83	5771
823.97	5741
824.11	5577
824.25	5577
824.389	5615
824.529	5608
824.669	5516
824.809	5691
824.949	5710
825.089	5649
825.228	5608
825.368	5414
825.508	5383
825.648	5406
825.787	5455
825.927	5433
826.067	5341
826.206	5299
826.346	5440
826.485	5482
826.625	5444
826.765	5649
826.904	5558
827.044	5292
827.183	5261
827.323	5220
827.462	5307
827.601	5216
827.741	5220
827.88	5265
828.02	5185
828.159	5288
828.298	5326
828.437	5376
828.577	5280
828.716	5535
828.855	5406
828.994	5261
829.134	5227
829.273	5204
829.412	5223
829.551	5193
829.69	5223
829.829	5261
829.968	5448
830.107	5360
830.246	5337
830.385	5246
830.524	5162
830.663	5075
830.802	5003
830.941	4889
831.08	4953
831.219	5029
831.357	5018
831.496	5227
831.635	4968
831.774	4915
831.913	4911
832.051	4759
832.19	4831
832.329	4938
832.467	4733
832.606	4668
832.744	4812
832.883	4774
833.022	4710
833.16	4858
833.299	4866
833.437	4866
833.576	4843
833.714	4881
833.852	4896
833.991	4900
834.129	4968
834.267	4999
834.406	4957
834.544	5048
834.682	5010
834.821	5022
834.959	5201
835.097	5037
835.235	5178
835.373	5094
835.511	5170
835.65	5064
835.788	5067
835.926	4972
836.064	4904
836.202	4949
836.34	5140
836.478	5235
836.615	5136
836.753	5254
836.891	5334
837.029	5307
837.167	5261
837.305	5204
837.443	5143
837.58	5113
837.718	5299
837.856	5277
837.993	5185
838.131	5311
838.269	5254
838.406	5208
838.544	5201
838.681	5090
838.819	5060
838.956	4930
839.094	4892
839.231	4999
839.369	5105
839.506	5448
839.643	5349
839.781	5136
839.918	5025
840.055	5113
840.193	5178
840.33	5201
840.467	5174
840.604	5239
840.742	5478
840.879	5109
841.016	5151
841.153	5216
841.29	5387
841.427	5387
841.564	5376
841.701	5417
841.838	5341
841.975	5273
842.112	5318
842.249	5174
842.385	5197
842.522	5410
842.659	5212
842.796	5235
842.933	5223
843.069	5189
843.206	5197
843.343	5337
843.479	5299
843.616	5364
843.752	5098
843.889	4999
844.025	5181
844.162	5056
844.298	5246
844.435	5132
844.571	5109
844.708	5193
844.844	5387
844.98	5345
845.117	5334
845.253	5231
845.389	5113
845.525	5242
845.661	5201
845.798	5109
845.934	5193
846.07	5113
846.206	5212
846.342	5280
846.478	5220
846.614	5075
846.75	5033
846.886	4980
847.022	5166
847.158	5060
847.294	5102
847.429	5143
847.565	5048
847.701	5383
847.837	4923
847.972	4831
848.108	5006
848.244	4957
848.379	4835
848.515	4771
848.65	4786
848.786	4812
848.921	4816
849.057	4896
849.192	4965
849.328	4889
849.463	4835
849.598	4782
849.734	4767
849.869	4714
850.004	4664
850.14	4774
850.275	4637
850.41	4542
850.545	4588
850.68	4675
850.815	4691
850.95	4603
851.085	4885
851.22	4755
851.355	4687
851.49	4679
851.625	4679
851.76	4653
851.895	4565
852.03	4592
852.165	4740
852.299	4759
852.434	4831
852.569	4763
852.703	4866
852.838	4881
852.973	4957
853.107	4972
853.242	4816
853.376	4702
853.511	4615
853.645	4691
853.78	4854
853.914	4710
854.048	4664
854.183	4668
854.317	4733
854.451	4911
854.585	4706
854.72	4702
854.854	4755
854.988	4637
855.122	4645
855.256	4580
855.39	4675
855.524	4816
855.658	4748
855.792	4660
855.926	4774
856.06	4816
856.194	4820
856.327	4733
856.461	4630
856.595	4630
856.729	4683
856.862	4790
856.996	4717
857.13	4744
857.263	4793
857.397	4843
857.53	4714
857.664	4714
857.797	4801
857.931	4820
858.064	4733
858.197	4782
858.331	4702
858.464	4641
858.597	4584
858.731	4618
858.864	4645
858.997	4649
859.13	4679
859.263	4725
859.396	4675
859.529	4603
859.662	4653
859.795	4561
859.928	4672
860.061	4748
860.194	4828
860.327	4618
860.46	4584
860.592	4763
860.725	4786
860.858	4786
860.99	4565
861.123	4584
861.256	4519
861.388	4649
861.521	5376
861.653	4554
861.786	4485
861.918	4500
862.05	4554
862.183	4558
862.315	4611
862.447	4714
862.58	4634
862.712	4455
862.844	4394
862.976	4485
863.108	4500
863.24	4793
863.372	4344
863.504	4474
863.636	4428
863.768	4493
863.9	4466
864.032	4398
864.164	4443
864.296	4474
864.428	4573
864.559	4615
864.691	4584
864.823	4531
864.954	4565
865.086	4531
865.217	4497
865.349	4455
865.48	4527
865.612	4523
865.743	4687
865.875	4523
866.006	4462
866.137	4485
866.269	4436
866.4	4516
866.531	4474
866.662	4432
866.793	4379
866.924	4424
867.055	4512
867.186	4462
867.317	4428
867.448	4421
867.579	4436
867.71	4386
867.841	4428
867.972	4451
868.103	4497
868.233	4470
868.364	4478
868.495	4531
868.625	4706
868.756	4778
868.886	4561
869.017	4694
869.147	4752
869.278	4786
869.408	4691
869.539	4683
869.669	4759
869.799	4694
869.929	4782
870.06	4809
870.19	4999
870.32	4938
870.45	4987
870.58	5048
870.71	5132
870.84	5094
870.97	4972
871.1	4927
871.23	5128
871.36	5151
871.489	5033
871.619	5136
871.749	5113
871.879	5105
872.008	5143
872.138	5083
872.267	5010
872.397	4911
872.526	4816
872.656	4736
872.785	4850
872.915	4938
873.044	5045
873.173	4927
873.303	5025
873.432	4919
873.561	4980
873.69	4896
873.819	4870
873.948	4968
874.077	4885
874.206	4801
874.335	4793
874.464	5006
874.593	5090
874.722	5022
874.851	5151
874.979	5124
875.108	5037
875.237	4938
875.365	4896
875.494	4900
875.623	5029
875.751	4820
875.88	4934
876.008	4980
876.136	5041
876.265	5250
876.393	5311
876.521	5288
876.65	5227
876.778	5174
876.906	5109
877.034	5060
877.162	5041
877.29	4987
877.418	5086
877.546	5083
877.674	5064
877.802	5041
877.93	5056
878.058	4976
878.185	4885
878.313	4968
878.441	4957
878.568	4866
878.696	4946
878.824	4957
878.951	5052
879.079	5159
879.206	5311
879.333	5132
879.461	4968
879.588	5018
879.715	5159
879.842	5227
879.97	4995
880.097	4790
880.224	4790
880.351	4812
880.478	4839
880.605	4835
880.732	4812
880.859	5128
880.986	4908
881.112	4904
881.239	4790
881.366	4717
881.493	4637
881.619	4607
881.746	4679
881.872	4653
881.999	4615
882.125	4706
882.252	4774
882.378	4862
882.505	4980
882.631	4797
882.757	4668
882.883	4736
883.01	4752
883.136	4675
883.262	4645
883.388	4622
883.514	4850
883.64	4923
883.766	4835
883.892	4729
884.018	4748
884.143	4885
884.269	4980
884.395	4706
884.52	4622
884.646	4675
884.772	4649
884.897	4546
885.023	4683
885.148	4790
885.274	4870
885.399	4835
885.524	4786
885.65	4717
885.775	4748
885.9	4729
886.025	4854
886.15	4797
886.275	4691
886.4	4679
886.525	4725
886.65	4744
886.775	4725
886.9	4934
887.025	4995
887.149	4854
887.274	4645
887.399	4634
887.523	4615
887.648	4580
887.773	4622
887.897	4793
888.021	4790
888.146	4668
888.27	4835
888.395	4930
888.519	4850
888.643	4774
888.767	4854
888.891	4694
889.015	4679
889.139	4691
889.263	4611
889.387	4748
889.511	4873
889.635	4812
889.759	4653
889.883	4660
890.006	4736
890.13	4850
890.254	4592
890.377	4675
890.501	4565
890.624	4542
890.748	4630
890.871	4550
890.995	4451
891.118	4451
891.241	4512
891.364	4523
891.488	4626
891.611	4535
891.734	4527
891.857	4626
891.98	4554
892.103	4630
892.226	4569
892.349	4565
892.471	4440
892.594	4592
892.717	4634
892.839	4573
892.962	4573
893.085	4683
893.207	4599
893.33	4474
893.452	4584
893.575	4618
893.697	4580
893.819	4850
893.941	4877
894.064	4786
894.186	4599
894.308	4531
894.43	4660
894.552	4831
894.674	4816
894.796	4580
894.918	4592
895.04	4573
895.161	4782
895.283	4672
895.405	4618
895.526	4687
895.648	4729
895.769	4691
895.891	4736
896.012	4752
896.134	4729
896.255	4717
896.376	4630
896.498	4565
896.619	4702
896.74	4675
896.861	4668
896.982	4942
897.103	5079
897.224	4915
897.345	4782
897.466	4668
897.587	4733
897.708	4923
897.828	4824
897.949	4725
898.07	4584
898.19	4615
898.311	4862
898.431	4721
898.552	4733
898.672	4881
898.792	4835
898.913	4706
899.033	4668
899.153	4561
899.273	4478
899.393	4538
899.513	4569
899.633	4550
899.753	4550
899.873	4504
899.993	4554
900.113	4523
900.232	4599
900.352	4519
900.472	4493
900.591	4409
900.711	4523
900.83	4459
900.95	4622
901.069	4717
901.189	4527
901.308	4360
901.427	4348
901.546	4386
901.665	4478
901.784	4542
901.904	4424
902.023	4367
902.141	4253
902.26	4162
902.379	4295
902.498	4242
902.617	4257
902.735	4409
902.854	4375
902.973	4379
903.091	4230
903.21	4249
903.328	4352
903.446	4257
903.565	4284
903.683	4375
903.801	4318
903.919	4424
904.038	4451
904.156	4344
904.274	4413
904.392	4455
904.51	4478
904.627	4504
904.745	4546
904.863	4611
904.981	4363
905.098	4272
905.216	4333
905.334	4424
905.451	4470
905.569	4413
905.686	4512
905.803	4592
905.921	4493
906.038	4596
906.155	4508
906.272	4413
906.389	4500
906.506	4329
906.623	4390
906.74	4417
906.857	4287
906.974	4383
907.091	4561
907.208	4714
907.324	4596
907.441	4504
907.557	4337
907.674	4310
907.79	4291
907.907	4424
908.023	4485
908.139	4508
908.256	4462
908.372	4489
908.488	4421
908.604	4367
908.72	4322
908.836	4379
908.952	4386
909.068	4451
909.184	4535
909.3	4497
909.415	4607
909.531	4527
909.647	4352
909.762	4344
909.878	4329
909.993	4421
910.108	4424
910.224	4398
910.339	4485
910.454	4398
910.57	4394
910.685	4318
910.8	4611
910.915	4611
911.03	4508
911.145	4352
911.259	4333
911.374	4383
911.489	4291
911.604	4295
911.718	4150
911.833	4207
911.947	4097
912.062	4048
912.176	4196
912.291	4246
912.405	4265
912.519	4447
912.633	4538
912.748	4379
912.862	4329
912.976	4257
913.09	4090
913.204	4162
913.318	4261
913.431	4405
913.545	4402
913.659	4470
913.772	4386
913.886	4257
914	4223
914.113	4363
914.226	4462
914.34	4371
914.453	4204
914.566	4447
914.68	4325
914.793	4329
914.906	4177
915.019	4135
915.132	4109
915.245	4211
915.358	4207
915.47	4246
915.583	4314
915.696	4314
915.809	4451
915.921	4398
916.034	4322
916.146	4257
916.259	4234
916.371	4402
916.483	4386
916.595	4257
916.708	4295
916.82	4344
916.932	4310
917.044	4337
917.156	4295
917.268	4268
917.38	4276
917.491	4280
917.603	4383
917.715	4428
917.826	4466
917.938	4348
918.049	4261
918.161	4394
918.272	4527
918.384	4535
918.495	4428
918.606	4295
918.717	4253
918.828	4314
918.939	4398
919.05	4249
919.161	4344
919.272	4192
919.383	4242
919.494	4447
919.604	4599
919.715	4402
919.826	4379
919.936	4413
920.047	4500
920.157	4527
920.267	4714
920.378	4584
920.488	4516
920.598	4744
920.708	4915
920.818	4801
920.928	4744
921.038	4953
921.148	4919
921.258	4664
921.368	4535
921.477	4531
921.587	4455
921.697	4432
921.806	4542
921.916	4459
922.025	4257
922.134	4276
922.244	4204
922.353	4352
922.462	4154
922.571	4139
922.68	3994
922.789	3975
922.898	4067
923.007	3964
923.116	4124
923.224	4013
923.333	4120
923.442	4021
923.55	3987
923.659	4071
923.767	4090
923.876	4044
923.984	4101
924.092	3994
924.201	4017
924.309	4105
924.417	4169
924.525	4112
924.633	4128
924.741	4858
924.849	3911
924.956	4162
925.064	3968
925.172	3915
925.279	3991
925.387	4051
925.494	4063
925.602	4253
925.709	4166
925.816	4032
925.924	4124
926.031	4246
926.138	4177
926.245	4196
926.352	4128
926.459	4257
926.566	4348
926.673	4154
926.779	4078
926.886	4067
926.993	4051
927.099	3930
927.206	3922
927.312	3953
927.419	4116
927.525	3987
927.631	4086
927.737	3979
927.843	3953
927.95	3880
928.056	3975
928.162	4021
928.267	4078
928.373	4603
928.479	4139
928.585	3854
928.69	4010
928.796	4078
928.901	3998
929.007	3831
929.112	4029
929.218	3987
929.323	3964
929.428	3945
929.533	4154
929.638	3907
929.743	4006
929.848	4078
929.953	4048
930.058	3945
930.163	3766
930.267	3842
930.372	3998
930.477	3808
930.581	4059
930.685	3960
930.79	3861
930.894	3873
930.998	3854
931.103	4044
931.207	3717
931.311	3679
931.415	3667
931.519	3515
931.623	3504
