Data from test_V78500241_2703.txt Node
Date: Fri Mar 25 17:07:47 CST 2022
User: usil
Spectrometer: V785-0024
Trigger mode: 0
Integration Time (sec): 4.000000E-1
Scans to average: 1
Nonlinearity correction enabled: false
Boxcar width: 0
Storing dark spectrum: false
XAxis mode: Wavelengths
Number of Pixels in Spectrum: 1024
>>>>>Begin Spectral Data<<<<<
801.071	8065
801.214	8008
801.356	7826
801.499	7845
801.641	7788
801.783	7765
801.926	7951
802.068	7959
802.211	7947
802.353	8005
802.496	7852
802.638	7940
802.78	7928
802.923	7951
803.065	7894
803.208	7894
803.35	7970
803.492	8096
803.635	8168
803.777	8134
803.919	8161
804.061	8400
804.204	8130
804.346	8103
804.488	7978
804.63	8024
804.773	8058
804.915	8103
805.057	8328
805.199	8130
805.341	8229
805.483	8221
805.626	8195
805.768	8153
805.91	8263
806.052	8221
806.194	8119
806.336	8309
806.478	8161
806.62	8012
806.762	8176
806.904	8256
807.046	8415
807.188	8434
807.33	8381
807.472	8362
807.614	8187
807.756	8168
807.898	8005
808.04	7887
808.182	7879
808.324	7944
808.465	7947
808.607	8039
808.749	8199
808.891	8218
809.033	8282
809.174	8240
809.316	8050
809.458	8027
809.6	7974
809.741	7986
809.883	8008
810.025	8103
810.166	8062
810.308	7997
810.45	8001
810.591	7902
810.733	7731
810.875	7670
811.016	7533
811.158	7460
811.299	7586
811.441	7746
811.582	7723
811.724	7613
811.865	7582
812.007	7609
812.148	7548
812.29	7677
812.431	7826
812.573	7887
812.714	8039
812.855	8172
812.997	8210
813.138	8301
813.279	8233
813.421	8100
813.562	7982
813.703	7921
813.845	7780
813.986	7487
814.127	7251
814.268	7236
814.41	7175
814.551	7133
814.692	7133
814.833	7031
814.974	7053
815.115	7114
815.256	6958
815.397	6951
815.539	6947
815.68	6852
815.821	6840
815.962	6875
816.103	6844
816.244	6696
816.385	6650
816.526	6585
816.666	6540
816.807	6327
816.948	6407
817.089	6540
817.23	6525
817.371	6372
817.512	6319
817.653	6365
817.793	6372
817.934	6376
818.075	6456
818.216	6452
818.356	6418
818.497	6178
818.638	6083
818.778	6155
818.919	6148
819.06	6144
819.2	6365
819.341	6304
819.481	6327
819.622	6559
819.762	6677
819.903	6753
820.043	6623
820.184	6616
820.324	6547
820.465	6677
820.605	6654
820.746	6608
820.886	6513
821.026	6681
821.167	6692
821.307	6768
821.447	6798
821.588	6646
821.728	6589
821.868	6464
822.008	6315
822.149	6365
822.289	6369
822.429	6140
822.569	6102
822.709	6117
822.849	5916
822.99	5912
823.13	5942
823.27	5920
823.41	5809
823.55	5805
823.69	5745
823.83	5805
823.97	5608
824.11	5516
824.25	5524
824.389	5547
824.529	5573
824.669	5596
824.809	5608
824.949	5661
825.089	5566
825.228	5539
825.368	5436
825.508	5349
825.648	5341
825.787	5334
825.927	5391
826.067	5330
826.206	5292
826.346	5372
826.485	5414
826.625	5372
826.765	5554
826.904	5471
827.044	5239
827.183	5201
827.323	5159
827.462	5239
827.601	5197
827.741	5216
827.88	5223
828.02	5075
828.159	5197
828.298	5280
828.437	5376
828.577	5246
828.716	5455
828.855	5265
828.994	5197
829.134	5140
829.273	5204
829.412	5098
829.551	5121
829.69	5181
829.829	5220
829.968	5402
830.107	5242
830.246	5261
830.385	5170
830.524	5121
830.663	5109
830.802	5010
830.941	4900
831.08	4854
831.219	5010
831.357	4987
831.496	5143
831.635	4934
831.774	4870
831.913	4866
832.051	4744
832.19	4729
832.329	4831
832.467	4630
832.606	4679
832.744	4729
832.883	4736
833.022	4694
833.16	4790
833.299	4850
833.437	4809
833.576	4801
833.714	4805
833.852	4870
833.991	4862
834.129	4968
834.267	4980
834.406	4839
834.544	4965
834.682	4984
834.821	4949
834.959	5155
835.097	5006
835.235	5162
835.373	5033
835.511	5086
835.65	5067
835.788	4999
835.926	4904
836.064	4870
836.202	4923
836.34	5166
836.478	5181
836.615	5117
836.753	5178
836.891	5269
837.029	5254
837.167	5155
837.305	5159
837.443	5117
837.58	5064
837.718	5269
837.856	5246
837.993	5071
838.131	5223
838.269	5235
838.406	5174
838.544	5155
838.681	5025
838.819	4999
838.956	4892
839.094	4911
839.231	4991
839.369	5124
839.506	5402
839.643	5261
839.781	5071
839.918	5006
840.055	5109
840.193	5086
840.33	5132
840.467	5113
840.604	5185
840.742	5448
840.879	5124
841.016	5094
841.153	5151
841.29	5360
841.427	5326
841.564	5280
841.701	5387
841.838	5307
841.975	5220
842.112	5254
842.249	5201
842.385	5117
842.522	5292
842.659	5162
842.796	5166
842.933	5193
843.069	5121
843.206	5124
843.343	5288
843.479	5280
843.616	5242
843.752	4957
843.889	5025
844.025	5189
844.162	5037
844.298	5189
844.435	5098
844.571	5075
844.708	5185
844.844	5292
844.98	5292
845.117	5318
845.253	5105
845.389	5056
845.525	5113
845.661	5143
845.798	5025
845.934	5102
846.07	5060
846.206	5193
846.342	5353
846.478	5159
846.614	4995
846.75	4972
846.886	4938
847.022	5083
847.158	5018
847.294	5025
847.429	5117
847.565	5041
847.701	5307
847.837	4896
847.972	4805
848.108	4934
848.244	4953
848.379	4763
848.515	4717
848.65	4740
848.786	4698
848.921	4786
849.057	4896
849.192	4896
849.328	4824
849.463	4870
849.598	4793
849.734	4740
849.869	4714
850.004	4649
850.14	4683
850.275	4550
850.41	4493
850.545	4569
850.68	4584
850.815	4622
850.95	4656
851.085	4809
851.22	4755
851.355	4660
851.49	4615
851.625	4656
851.76	4626
851.895	4542
852.03	4523
852.165	4592
852.299	4767
852.434	4805
852.569	4748
852.703	4767
852.838	4828
852.973	4965
853.107	4877
853.242	4672
853.376	4660
853.511	4565
853.645	4596
853.78	4759
853.914	4702
854.048	4653
854.183	4645
854.317	4691
854.451	4816
854.585	4672
854.72	4618
854.854	4771
854.988	4626
855.122	4668
855.256	4516
855.39	4683
855.524	4767
855.658	4694
855.792	4679
855.926	4725
856.06	4748
856.194	4820
856.327	4672
856.461	4580
856.595	4653
856.729	4611
856.862	4740
856.996	4694
857.13	4755
857.263	4736
857.397	4786
857.53	4656
857.664	4763
857.797	4744
857.931	4759
858.064	4683
858.197	4710
858.331	4660
858.464	4588
858.597	4542
858.731	4588
858.864	4653
858.997	4607
859.13	4660
859.263	4687
859.396	4683
859.529	4615
859.662	4561
859.795	4527
859.928	4596
860.061	4748
860.194	4740
860.327	4596
860.46	4588
860.592	4710
860.725	4725
860.858	4717
860.99	4561
861.123	4592
861.256	4512
861.388	4569
861.521	5299
861.653	4459
861.786	4440
861.918	4413
862.05	4546
862.183	4542
862.315	4622
862.447	4630
862.58	4527
862.712	4417
862.844	4291
862.976	4462
863.108	4462
863.24	4790
863.372	4322
863.504	4405
863.636	4398
863.768	4421
863.9	4451
864.032	4360
864.164	4402
864.296	4504
864.428	4512
864.559	4542
864.691	4497
864.823	4470
864.954	4497
865.086	4466
865.217	4436
865.349	4432
865.48	4451
865.612	4504
865.743	4607
865.875	4421
866.006	4470
866.137	4470
866.269	4386
866.4	4440
866.531	4424
866.662	4375
866.793	4356
866.924	4398
867.055	4519
867.186	4443
867.317	4386
867.448	4417
867.579	4413
867.71	4363
867.841	4272
867.972	4459
868.103	4462
868.233	4462
868.364	4447
868.495	4493
868.625	4656
868.756	4763
868.886	4554
869.017	4626
869.147	4733
869.278	4774
869.408	4679
869.539	4679
869.669	4767
869.799	4687
869.929	4843
870.06	4691
870.19	4984
870.32	4923
870.45	4938
870.58	5006
870.71	5140
870.84	5105
870.97	4949
871.1	4885
871.23	5140
871.36	5128
871.489	5045
871.619	5071
871.749	5128
871.879	5185
872.008	5204
872.138	5083
872.267	5006
872.397	4843
872.526	4847
872.656	4752
872.785	4812
872.915	4984
873.044	5075
873.173	4938
873.303	4999
873.432	4961
873.561	5006
873.69	4934
873.819	4870
873.948	4930
874.077	4854
874.206	4828
874.335	4835
874.464	4919
874.593	5159
874.722	5018
874.851	5083
874.979	5056
875.108	5086
875.237	4938
875.365	4889
875.494	4968
875.623	5018
875.751	4866
875.88	4972
876.008	4972
876.136	5143
876.265	5280
876.393	5406
876.521	5311
876.65	5208
876.778	5181
876.906	5086
877.034	5041
877.162	5121
877.29	5052
877.418	5102
877.546	5060
877.674	5060
877.802	5109
877.93	5083
878.058	4953
878.185	4927
878.313	4995
878.441	4949
878.568	4839
878.696	4927
878.824	5029
878.951	5090
879.079	5212
879.206	5318
879.333	5117
879.461	4968
879.588	5037
879.715	5136
879.842	5269
879.97	4991
880.097	4843
880.224	4782
880.351	4831
880.478	4854
880.605	4858
880.732	4774
880.859	5151
880.986	4957
881.112	4965
881.239	4812
881.366	4702
881.493	4672
881.619	4626
881.746	4694
881.872	4706
881.999	4714
882.125	4687
882.252	4820
882.378	4866
882.505	4995
882.631	4831
882.757	4721
882.883	4793
883.01	4752
883.136	4687
883.262	4641
883.388	4679
883.514	4866
883.64	4877
883.766	4831
883.892	4687
884.018	4782
884.143	4984
884.269	5022
884.395	4759
884.52	4656
884.646	4660
884.772	4603
884.897	4558
885.023	4656
885.148	4831
885.274	4923
885.399	4858
885.524	4774
885.65	4679
885.775	4755
885.9	4744
886.025	4900
886.15	4847
886.275	4740
886.4	4694
886.525	4759
886.65	4717
886.775	4721
886.9	4908
887.025	5094
887.149	4835
887.274	4714
887.399	4630
887.523	4607
887.648	4603
887.773	4637
887.897	4797
888.021	4801
888.146	4679
888.27	4816
888.395	4934
888.519	4839
888.643	4820
888.767	4843
888.891	4687
889.015	4656
889.139	4664
889.263	4615
889.387	4805
889.511	4919
889.635	4850
889.759	4698
889.883	4702
890.006	4714
890.13	4877
890.254	4702
890.377	4717
890.501	4542
890.624	4546
890.748	4664
890.871	4500
890.995	4462
891.118	4375
891.241	4531
891.364	4599
891.488	4664
891.611	4512
891.734	4565
891.857	4664
891.98	4558
892.103	4679
892.226	4660
892.349	4580
892.471	4421
892.594	4637
892.717	4592
892.839	4592
892.962	4656
893.085	4675
893.207	4630
893.33	4462
893.452	4565
893.575	4740
893.697	4645
893.819	4839
893.941	4839
894.064	4759
894.186	4588
894.308	4630
894.43	4801
894.552	4805
894.674	4801
894.796	4584
894.918	4599
895.04	4611
895.161	4771
895.283	4687
895.405	4596
895.526	4664
895.648	4763
895.769	4710
895.891	4778
896.012	4782
896.134	4763
896.255	4725
896.376	4641
896.498	4615
896.619	4694
896.74	4679
896.861	4714
896.982	4972
897.103	5117
897.224	4900
897.345	4790
897.466	4706
897.587	4759
897.708	4828
897.828	4862
897.949	4702
898.07	4599
898.19	4664
898.311	4877
898.431	4660
898.552	4752
898.672	4862
898.792	4847
898.913	4790
899.033	4679
899.153	4527
899.273	4508
899.393	4580
899.513	4577
899.633	4573
899.753	4592
899.873	4577
899.993	4653
900.113	4558
900.232	4634
900.352	4569
900.472	4550
900.591	4459
900.711	4493
900.83	4470
900.95	4637
901.069	4729
901.189	4531
901.308	4421
901.427	4344
901.546	4379
901.665	4531
901.784	4569
901.904	4398
902.023	4299
902.141	4207
902.26	4223
902.379	4352
902.498	4249
902.617	4249
902.735	4390
902.854	4443
902.973	4386
903.091	4257
903.21	4280
903.328	4310
903.446	4284
903.565	4329
903.683	4363
903.801	4341
903.919	4447
904.038	4538
904.156	4344
904.274	4485
904.392	4413
904.51	4421
904.627	4474
904.745	4599
904.863	4691
904.981	4474
905.098	4356
905.216	4348
905.334	4455
905.451	4485
905.569	4474
905.686	4569
905.803	4599
905.921	4436
906.038	4569
906.155	4531
906.272	4405
906.389	4519
906.506	4371
906.623	4413
906.74	4371
906.857	4375
906.974	4424
907.091	4588
907.208	4645
907.324	4607
907.441	4519
907.557	4371
907.674	4375
907.79	4341
907.907	4413
908.023	4531
908.139	4500
908.256	4455
908.372	4459
908.488	4500
908.604	4402
908.72	4360
908.836	4394
908.952	4386
909.068	4424
909.184	4584
909.3	4527
909.415	4637
909.531	4573
909.647	4360
909.762	4390
909.878	4341
909.993	4417
910.108	4447
910.224	4428
910.339	4535
910.454	4466
910.57	4360
910.685	4318
910.8	4683
910.915	4615
911.03	4550
911.145	4329
911.259	4371
911.374	4375
911.489	4325
911.604	4265
911.718	4242
911.833	4246
911.947	4112
912.062	4078
912.176	4234
912.291	4276
912.405	4303
912.519	4516
912.633	4523
912.748	4398
912.862	4325
912.976	4223
913.09	4143
913.204	4200
913.318	4261
913.431	4451
913.545	4398
913.659	4432
913.772	4428
913.886	4257
914	4227
914.113	4421
914.226	4447
914.34	4443
914.453	4268
914.566	4455
914.68	4337
914.793	4325
914.906	4139
915.019	4109
915.132	4101
915.245	4177
915.358	4207
915.47	4272
915.583	4314
915.696	4314
915.809	4428
915.921	4428
916.034	4303
916.146	4272
916.259	4227
916.371	4432
916.483	4360
916.595	4299
916.708	4303
916.82	4379
916.932	4344
917.044	4348
917.156	4348
917.268	4230
917.38	4272
917.491	4322
917.603	4394
917.715	4428
917.826	4489
917.938	4375
918.049	4249
918.161	4455
918.272	4516
918.384	4550
918.495	4443
918.606	4348
918.717	4230
918.828	4394
918.939	4402
919.05	4265
919.161	4303
919.272	4143
919.383	4234
919.494	4466
919.604	4656
919.715	4432
919.826	4379
919.936	4421
920.047	4527
920.157	4542
920.267	4759
920.378	4546
920.488	4523
920.598	4706
920.708	4934
920.818	4824
920.928	4774
921.038	4968
921.148	5006
921.258	4698
921.368	4584
921.477	4527
921.587	4478
921.697	4386
921.806	4554
921.916	4455
922.025	4287
922.134	4299
922.244	4268
922.353	4367
922.462	4188
922.571	4158
922.68	4002
922.789	3994
922.898	4032
923.007	4055
923.116	4116
923.224	4109
923.333	4093
923.442	4002
923.55	4010
923.659	4059
923.767	4120
923.876	4059
923.984	4112
924.092	3983
924.201	4131
924.309	4116
924.417	4162
924.525	4154
924.633	4147
924.741	5079
924.849	3949
924.956	4131
925.064	3991
925.172	3911
925.279	3998
925.387	4086
925.494	4063
925.602	4299
925.709	4166
925.816	4044
925.924	4215
926.031	4234
926.138	4185
926.245	4223
926.352	4078
926.459	4284
926.566	4314
926.673	4166
926.779	4086
926.886	4063
926.993	3994
927.099	3956
927.206	3934
927.312	3941
927.419	4071
927.525	4074
927.631	4120
927.737	3949
927.843	3956
927.95	3876
928.056	3953
928.162	4025
928.267	4025
928.373	4584
928.479	4143
928.585	3907
928.69	3994
928.796	4086
928.901	3968
929.007	3873
929.112	3994
929.218	3968
929.323	3956
929.428	3941
929.533	4128
929.638	3968
929.743	4013
929.848	4017
929.953	3979
930.058	3972
930.163	3781
930.267	3846
930.372	3994
930.477	3804
930.581	4063
930.685	3956
930.79	3800
930.894	3884
930.998	3812
931.103	4025
931.207	3724
931.311	3709
931.415	3679
931.519	3534
931.623	3549
