Data from test_V78500241_1063.txt Node
Date: Fri Mar 25 16:56:23 CST 2022
User: usil
Spectrometer: V785-0024
Trigger mode: 0
Integration Time (sec): 4.000000E-1
Scans to average: 1
Nonlinearity correction enabled: false
Boxcar width: 0
Storing dark spectrum: false
XAxis mode: Wavelengths
Number of Pixels in Spectrum: 1024
>>>>>Begin Spectral Data<<<<<
801.071	8016
801.214	8043
801.356	7932
801.499	7902
801.641	7746
801.783	7822
801.926	7947
802.068	7944
802.211	8016
802.353	7955
802.496	7807
802.638	7841
802.78	7928
802.923	7917
803.065	7833
803.208	7852
803.35	8081
803.492	8050
803.635	8134
803.777	8031
803.919	8103
804.061	8431
804.204	8176
804.346	8027
804.488	7944
804.63	8123
804.773	8050
804.915	8039
805.057	8256
805.199	8092
805.341	8233
805.483	8237
805.626	8214
805.768	8145
805.91	8176
806.052	8195
806.194	8050
806.336	8328
806.478	8020
806.62	8077
806.762	8176
806.904	8225
807.046	8469
807.188	8381
807.33	8248
807.472	8343
807.614	8176
807.756	8088
807.898	7909
808.04	7883
808.182	7936
808.324	7951
808.465	7925
808.607	8065
808.749	8088
808.891	8191
809.033	8267
809.174	8180
809.316	8081
809.458	7989
809.6	7921
809.741	7993
809.883	8039
810.025	8031
810.166	8050
810.308	8027
810.45	8050
810.591	7909
810.733	7769
810.875	7628
811.016	7502
811.158	7453
811.299	7628
811.441	7704
811.582	7632
811.724	7616
811.865	7502
812.007	7521
812.148	7620
812.29	7571
812.431	7750
812.573	7841
812.714	8024
812.855	8164
812.997	8088
813.138	8324
813.279	8191
813.421	8100
813.562	8024
813.703	7826
813.845	7761
813.986	7403
814.127	7202
814.268	7183
814.41	7190
814.551	7141
814.692	7133
814.833	7019
814.974	7015
815.115	7042
815.256	6954
815.397	6901
815.539	6996
815.68	6833
815.821	6783
815.962	6840
816.103	6837
816.244	6692
816.385	6662
816.526	6612
816.666	6502
816.807	6289
816.948	6388
817.089	6540
817.23	6475
817.371	6414
817.512	6414
817.653	6426
817.793	6380
817.934	6460
818.075	6509
818.216	6369
818.356	6357
818.497	6205
818.638	6114
818.778	6091
818.919	6148
819.06	6201
819.2	6281
819.341	6270
819.481	6304
819.622	6521
819.762	6700
819.903	6688
820.043	6574
820.184	6612
820.324	6570
820.465	6722
820.605	6681
820.746	6635
820.886	6448
821.026	6650
821.167	6646
821.307	6738
821.447	6772
821.588	6616
821.728	6536
821.868	6475
822.008	6304
822.149	6380
822.289	6270
822.429	6133
822.569	6091
822.709	6140
822.849	5912
822.99	5882
823.13	5916
823.27	5935
823.41	5752
823.55	5764
823.69	5745
823.83	5767
823.97	5642
824.11	5562
824.25	5535
824.389	5589
824.529	5558
824.669	5482
824.809	5627
824.949	5699
825.089	5558
825.228	5497
825.368	5387
825.508	5337
825.648	5349
825.787	5334
825.927	5379
826.067	5269
826.206	5269
826.346	5391
826.485	5364
826.625	5436
826.765	5554
826.904	5505
827.044	5242
827.183	5136
827.323	5105
827.462	5254
827.601	5132
827.741	5204
827.88	5193
828.02	5128
828.159	5231
828.298	5261
828.437	5425
828.577	5265
828.716	5482
828.855	5307
828.994	5128
829.134	5151
829.273	5189
829.412	5109
829.551	5090
829.69	5178
829.829	5220
829.968	5364
830.107	5246
830.246	5299
830.385	5208
830.524	5159
830.663	5041
830.802	4991
830.941	4881
831.08	4904
831.219	4999
831.357	5003
831.496	5162
831.635	4892
831.774	4816
831.913	4831
832.051	4706
832.19	4733
832.329	4805
832.467	4691
832.606	4596
832.744	4744
832.883	4687
833.022	4691
833.16	4725
833.299	4805
833.437	4816
833.576	4839
833.714	4870
833.852	4870
833.991	4866
834.129	5003
834.267	4904
834.406	4896
834.544	4976
834.682	4972
834.821	4987
834.959	5132
835.097	4942
835.235	5143
835.373	5060
835.511	5083
835.65	4976
835.788	5018
835.926	4885
836.064	4839
836.202	4919
836.34	5140
836.478	5220
836.615	5140
836.753	5242
836.891	5265
837.029	5212
837.167	5181
837.305	5155
837.443	5117
837.58	5064
837.718	5166
837.856	5193
837.993	5159
838.131	5201
838.269	5197
838.406	5170
838.544	5189
838.681	5029
838.819	5041
838.956	4908
839.094	4858
839.231	4957
839.369	5045
839.506	5414
839.643	5239
839.781	5086
839.918	5041
840.055	5109
840.193	5105
840.33	5162
840.467	5105
840.604	5162
840.742	5444
840.879	5079
841.016	5041
841.153	5143
841.29	5368
841.427	5292
841.564	5258
841.701	5337
841.838	5227
841.975	5197
842.112	5204
842.249	5090
842.385	5067
842.522	5349
842.659	5197
842.796	5075
842.933	5162
843.069	5155
843.206	5170
843.343	5307
843.479	5223
843.616	5296
843.752	5014
843.889	4991
844.025	5220
844.162	4984
844.298	5185
844.435	5045
844.571	5025
844.708	5174
844.844	5318
844.98	5296
845.117	5258
845.253	5117
845.389	5060
845.525	5102
845.661	5170
845.798	5022
845.934	5090
846.07	5018
846.206	5193
846.342	5246
846.478	5151
846.614	4995
846.75	4915
846.886	4934
847.022	5128
847.158	5029
847.294	5060
847.429	5109
847.565	5018
847.701	5280
847.837	4831
847.972	4759
848.108	4953
848.244	4885
848.379	4752
848.515	4725
848.65	4687
848.786	4755
848.921	4759
849.057	4858
849.192	4911
849.328	4801
849.463	4847
849.598	4759
849.734	4782
849.869	4672
850.004	4626
850.14	4672
850.275	4615
850.41	4519
850.545	4531
850.68	4569
850.815	4592
850.95	4584
851.085	4812
851.22	4710
851.355	4672
851.49	4599
851.625	4573
851.76	4615
851.895	4527
852.03	4546
852.165	4641
852.299	4714
852.434	4786
852.569	4717
852.703	4771
852.838	4839
852.973	4946
853.107	4896
853.242	4714
853.376	4637
853.511	4512
853.645	4599
853.78	4782
853.914	4702
854.048	4702
854.183	4603
854.317	4679
854.451	4850
854.585	4664
854.72	4626
854.854	4771
854.988	4588
855.122	4630
855.256	4565
855.39	4630
855.524	4717
855.658	4679
855.792	4637
855.926	4694
856.06	4702
856.194	4790
856.327	4653
856.461	4611
856.595	4577
856.729	4577
856.862	4706
856.996	4664
857.13	4698
857.263	4714
857.397	4771
857.53	4611
857.664	4660
857.797	4721
857.931	4755
858.064	4649
858.197	4755
858.331	4618
858.464	4599
858.597	4535
858.731	4607
858.864	4656
858.997	4577
859.13	4649
859.263	4668
859.396	4645
859.529	4565
859.662	4561
859.795	4500
859.928	4641
860.061	4717
860.194	4767
860.327	4554
860.46	4531
860.592	4675
860.725	4733
860.858	4767
860.99	4561
861.123	4516
861.256	4535
861.388	4592
861.521	5322
861.653	4462
861.786	4451
861.918	4470
862.05	4481
862.183	4535
862.315	4561
862.447	4634
862.58	4550
862.712	4405
862.844	4363
862.976	4447
863.108	4432
863.24	4850
863.372	4325
863.504	4390
863.636	4386
863.768	4478
863.9	4390
864.032	4291
864.164	4383
864.296	4424
864.428	4542
864.559	4580
864.691	4516
864.823	4478
864.954	4493
865.086	4489
865.217	4428
865.349	4386
865.48	4409
865.612	4474
865.743	4615
865.875	4455
866.006	4390
866.137	4398
866.269	4459
866.4	4417
866.531	4363
866.662	4344
866.793	4413
866.924	4424
867.055	4436
867.186	4402
867.317	4428
867.448	4360
867.579	4394
867.71	4356
867.841	4360
867.972	4367
868.103	4409
868.233	4417
868.364	4375
868.495	4489
868.625	4607
868.756	4786
868.886	4550
869.017	4618
869.147	4793
869.278	4778
869.408	4611
869.539	4626
869.669	4702
869.799	4645
869.929	4778
870.06	4717
870.19	4885
870.32	4927
870.45	4923
870.58	4972
870.71	5056
870.84	5056
870.97	4908
871.1	4850
871.23	5155
871.36	5128
871.489	5041
871.619	5025
871.749	5037
871.879	5071
872.008	5136
872.138	5033
872.267	4991
872.397	4862
872.526	4805
872.656	4675
872.785	4786
872.915	4892
873.044	4999
873.173	4942
873.303	4930
873.432	4976
873.561	4942
873.69	4870
873.819	4839
873.948	4873
874.077	4805
874.206	4824
874.335	4755
874.464	4873
874.593	5003
874.722	4949
874.851	5045
874.979	4980
875.108	5025
875.237	4915
875.365	4873
875.494	4892
875.623	4923
875.751	4835
875.88	4824
876.008	4919
876.136	5048
876.265	5181
876.393	5273
876.521	5212
876.65	5212
876.778	5094
876.906	5033
877.034	5018
877.162	5010
877.29	4965
877.418	5033
877.546	4991
877.674	4957
877.802	5014
877.93	4984
878.058	4915
878.185	4885
878.313	4877
878.441	4946
878.568	4767
878.696	4828
878.824	4965
878.951	4961
879.079	5086
879.206	5208
879.333	5022
879.461	4957
879.588	4961
879.715	5124
879.842	5143
879.97	5041
880.097	4752
880.224	4653
880.351	4759
880.478	4843
880.605	4786
880.732	4801
880.859	5064
880.986	4900
881.112	4885
881.239	4755
881.366	4675
881.493	4599
881.619	4584
881.746	4618
881.872	4672
881.999	4679
882.125	4668
882.252	4767
882.378	4809
882.505	4938
882.631	4812
882.757	4687
882.883	4717
883.01	4774
883.136	4668
883.262	4596
883.388	4634
883.514	4801
883.64	4904
883.766	4847
883.892	4694
884.018	4812
884.143	4942
884.269	5056
884.395	4725
884.52	4683
884.646	4653
884.772	4615
884.897	4599
885.023	4641
885.148	4786
885.274	4930
885.399	4850
885.524	4755
885.65	4740
885.775	4801
885.9	4744
886.025	4873
886.15	4805
886.275	4710
886.4	4729
886.525	4752
886.65	4740
886.775	4706
886.9	4961
887.025	5045
887.149	4828
887.274	4672
887.399	4653
887.523	4618
887.648	4641
887.773	4622
887.897	4797
888.021	4801
888.146	4687
888.27	4839
888.395	4923
888.519	4816
888.643	4866
888.767	4839
888.891	4717
889.015	4668
889.139	4679
889.263	4622
889.387	4805
889.511	4927
889.635	4816
889.759	4634
889.883	4660
890.006	4759
890.13	4828
890.254	4634
890.377	4691
890.501	4558
890.624	4542
890.748	4656
890.871	4516
890.995	4466
891.118	4394
891.241	4504
891.364	4542
891.488	4672
891.611	4516
891.734	4519
891.857	4618
891.98	4615
892.103	4672
892.226	4592
892.349	4531
892.471	4413
892.594	4618
892.717	4615
892.839	4577
892.962	4630
893.085	4714
893.207	4630
893.33	4489
893.452	4569
893.575	4649
893.697	4645
893.819	4816
893.941	4828
894.064	4797
894.186	4596
894.308	4569
894.43	4759
894.552	4843
894.674	4771
894.796	4569
894.918	4592
895.04	4592
895.161	4702
895.283	4687
895.405	4569
895.526	4664
895.648	4694
895.769	4691
895.891	4740
896.012	4755
896.134	4748
896.255	4683
896.376	4603
896.498	4679
896.619	4736
896.74	4630
896.861	4675
896.982	4919
897.103	5117
897.224	4816
897.345	4786
897.466	4721
897.587	4782
897.708	4870
897.828	4828
897.949	4736
898.07	4588
898.19	4656
898.311	4839
898.431	4721
898.552	4752
898.672	4854
898.792	4801
898.913	4736
899.033	4649
899.153	4531
899.273	4440
899.393	4516
899.513	4527
899.633	4542
899.753	4561
899.873	4504
899.993	4603
900.113	4565
900.232	4630
900.352	4580
900.472	4459
900.591	4417
900.711	4500
900.83	4424
900.95	4618
901.069	4714
901.189	4531
901.308	4367
901.427	4360
901.546	4375
901.665	4485
901.784	4546
901.904	4428
902.023	4360
902.141	4188
902.26	4234
902.379	4329
902.498	4299
902.617	4257
902.735	4459
902.854	4386
902.973	4428
903.091	4169
903.21	4253
903.328	4356
903.446	4303
903.565	4249
903.683	4348
903.801	4329
903.919	4405
904.038	4470
904.156	4363
904.274	4459
904.392	4474
904.51	4451
904.627	4500
904.745	4649
904.863	4660
904.981	4409
905.098	4318
905.216	4375
905.334	4424
905.451	4436
905.569	4474
905.686	4573
905.803	4607
905.921	4424
906.038	4615
906.155	4489
906.272	4428
906.389	4462
906.506	4356
906.623	4405
906.74	4428
906.857	4303
906.974	4413
907.091	4580
907.208	4691
907.324	4573
907.441	4493
907.557	4360
907.674	4367
907.79	4333
907.907	4379
908.023	4500
908.139	4455
908.256	4432
908.372	4489
908.488	4462
908.604	4379
908.72	4341
908.836	4409
908.952	4371
909.068	4409
909.184	4607
909.3	4512
909.415	4599
909.531	4569
909.647	4333
909.762	4367
909.878	4344
909.993	4519
910.108	4360
910.224	4417
910.339	4508
910.454	4417
910.57	4409
910.685	4287
910.8	4702
910.915	4675
911.03	4466
911.145	4341
911.259	4367
911.374	4329
911.489	4310
911.604	4314
911.718	4181
911.833	4257
911.947	4078
912.062	4063
912.176	4227
912.291	4253
912.405	4253
912.519	4489
912.633	4535
912.748	4371
912.862	4333
912.976	4268
913.09	4120
913.204	4188
913.318	4303
913.431	4356
913.545	4367
913.659	4504
913.772	4409
913.886	4276
914	4246
914.113	4356
914.226	4462
914.34	4421
914.453	4299
914.566	4485
914.68	4329
914.793	4310
914.906	4166
915.019	4139
915.132	4112
915.245	4169
915.358	4253
915.47	4230
915.583	4360
915.696	4325
915.809	4451
915.921	4405
916.034	4287
916.146	4284
916.259	4234
916.371	4405
916.483	4333
916.595	4291
916.708	4329
916.82	4356
916.932	4348
917.044	4322
917.156	4363
917.268	4246
917.38	4333
917.491	4284
917.603	4386
917.715	4436
917.826	4440
917.938	4386
918.049	4253
918.161	4409
918.272	4512
918.384	4596
918.495	4478
918.606	4325
918.717	4234
918.828	4360
918.939	4348
919.05	4272
919.161	4402
919.272	4169
919.383	4211
919.494	4402
919.604	4626
919.715	4489
919.826	4363
919.936	4436
920.047	4561
920.157	4531
920.267	4744
920.378	4588
920.488	4531
920.598	4729
920.708	4866
920.818	4755
920.928	4755
921.038	4946
921.148	4961
921.258	4664
921.368	4599
921.477	4535
921.587	4489
921.697	4398
921.806	4565
921.916	4436
922.025	4276
922.134	4329
922.244	4261
922.353	4356
922.462	4150
922.571	4131
922.68	4002
922.789	3983
922.898	4044
923.007	4006
923.116	4147
923.224	4101
923.333	4124
923.442	4017
923.55	4048
923.659	4025
923.767	4116
923.876	4036
923.984	4093
924.092	4010
924.201	4097
924.309	4120
924.417	4147
924.525	4071
924.633	4120
924.741	5033
924.849	3975
924.956	4169
925.064	3987
925.172	3907
925.279	3964
925.387	4051
925.494	4021
925.602	4223
925.709	4188
925.816	4055
925.924	4097
926.031	4207
926.138	4207
926.245	4181
926.352	4124
926.459	4242
926.566	4337
926.673	4192
926.779	4086
926.886	4059
926.993	3983
927.099	3960
927.206	3979
927.312	3983
927.419	4082
927.525	4063
927.631	4128
927.737	4010
927.843	3956
927.95	3835
928.056	3979
928.162	3968
928.267	4093
928.373	4698
928.479	4120
928.585	3930
928.69	4101
928.796	4093
928.901	3975
929.007	3865
929.112	4086
929.218	4032
929.323	3987
929.428	3991
929.533	4124
929.638	3884
929.743	4010
929.848	4082
929.953	4021
930.058	3941
930.163	3766
930.267	3827
930.372	3994
930.477	3800
930.581	4071
930.685	3975
930.79	3846
930.894	3911
930.998	3861
931.103	4040
931.207	3717
931.311	3732
931.415	3690
931.519	3568
931.623	3542
