Data from test_V78500241_1028.txt Node
Date: Fri Mar 25 16:56:09 CST 2022
User: usil
Spectrometer: V785-0024
Trigger mode: 0
Integration Time (sec): 4.000000E-1
Scans to average: 1
Nonlinearity correction enabled: false
Boxcar width: 0
Storing dark spectrum: false
XAxis mode: Wavelengths
Number of Pixels in Spectrum: 1024
>>>>>Begin Spectral Data<<<<<
801.071	8100
801.214	8046
801.356	7887
801.499	7818
801.641	7757
801.783	7826
801.926	7932
802.068	7909
802.211	7963
802.353	7978
802.496	7811
802.638	7845
802.78	7944
802.923	7959
803.065	7875
803.208	7864
803.35	8043
803.492	8111
803.635	8142
803.777	8012
803.919	8161
804.061	8438
804.204	8183
804.346	8001
804.488	8027
804.63	8065
804.773	7967
804.915	8046
805.057	8237
805.199	8115
805.341	8244
805.483	8191
805.626	8191
805.768	8176
805.91	8218
806.052	8202
806.194	8081
806.336	8298
806.478	8119
806.62	8027
806.762	8161
806.904	8221
807.046	8446
807.188	8271
807.33	8233
807.472	8347
807.614	8065
807.756	8126
807.898	7989
808.04	7833
808.182	7955
808.324	7898
808.465	7883
808.607	8020
808.749	8084
808.891	8187
809.033	8256
809.174	8168
809.316	8058
809.458	8008
809.6	7944
809.741	7970
809.883	8005
810.025	8050
810.166	8008
810.308	8043
810.45	8008
810.591	7902
810.733	7776
810.875	7639
811.016	7544
811.158	7480
811.299	7582
811.441	7723
811.582	7677
811.724	7537
811.865	7533
812.007	7571
812.148	7605
812.29	7624
812.431	7708
812.573	7871
812.714	7936
812.855	8050
812.997	8168
813.138	8282
813.279	8138
813.421	8084
813.562	8024
813.703	7841
813.845	7772
813.986	7464
814.127	7263
814.268	7232
814.41	7168
814.551	7152
814.692	7152
814.833	7004
814.974	7114
815.115	7095
815.256	6947
815.397	6890
815.539	6966
815.68	6848
815.821	6779
815.962	6837
816.103	6806
816.244	6715
816.385	6654
816.526	6646
816.666	6475
816.807	6262
816.948	6380
817.089	6494
817.23	6414
817.371	6395
817.512	6365
817.653	6395
817.793	6395
817.934	6414
818.075	6437
818.216	6426
818.356	6357
818.497	6213
818.638	6117
818.778	6133
818.919	6106
819.06	6117
819.2	6296
819.341	6384
819.481	6311
819.622	6483
819.762	6673
819.903	6711
820.043	6650
820.184	6532
820.324	6582
820.465	6730
820.605	6631
820.746	6646
820.886	6506
821.026	6627
821.167	6684
821.307	6730
821.447	6688
821.588	6639
821.728	6555
821.868	6479
822.008	6338
822.149	6365
822.289	6296
822.429	6178
822.569	6068
822.709	6114
822.849	5866
822.99	5912
823.13	5855
823.27	5920
823.41	5771
823.55	5767
823.69	5752
823.83	5771
823.97	5653
824.11	5543
824.25	5535
824.389	5551
824.529	5547
824.669	5512
824.809	5608
824.949	5657
825.089	5581
825.228	5551
825.368	5379
825.508	5345
825.648	5341
825.787	5417
825.927	5341
826.067	5277
826.206	5299
826.346	5364
826.485	5395
826.625	5398
826.765	5493
826.904	5436
827.044	5280
827.183	5159
827.323	5060
827.462	5227
827.601	5147
827.741	5174
827.88	5212
828.02	5105
828.159	5189
828.298	5345
828.437	5364
828.577	5246
828.716	5490
828.855	5311
828.994	5178
829.134	5143
829.273	5159
829.412	5086
829.551	5117
829.69	5197
829.829	5216
829.968	5398
830.107	5250
830.246	5235
830.385	5197
830.524	5079
830.663	5033
830.802	4934
830.941	4889
831.08	4892
831.219	5003
831.357	4965
831.496	5193
831.635	4873
831.774	4858
831.913	4816
832.051	4694
832.19	4744
832.329	4862
832.467	4691
832.606	4569
832.744	4672
832.883	4660
833.022	4744
833.16	4782
833.299	4793
833.437	4828
833.576	4850
833.714	4847
833.852	4820
833.991	4919
834.129	5006
834.267	4930
834.406	4889
834.544	4927
834.682	4976
834.821	4957
834.959	5121
835.097	4991
835.235	5109
835.373	5098
835.511	5128
835.65	5006
835.788	5010
835.926	4885
836.064	4900
836.202	4877
836.34	5136
836.478	5223
836.615	5128
836.753	5159
836.891	5296
837.029	5212
837.167	5159
837.305	5170
837.443	5155
837.58	5121
837.718	5197
837.856	5151
837.993	5113
838.131	5220
838.269	5174
838.406	5201
838.544	5185
838.681	4984
838.819	4957
838.956	4866
839.094	4908
839.231	4938
839.369	5025
839.506	5349
839.643	5265
839.781	5025
839.918	4980
840.055	5041
840.193	5098
840.33	5079
840.467	5102
840.604	5147
840.742	5398
840.879	5098
841.016	5109
841.153	5075
841.29	5353
841.427	5334
841.564	5284
841.701	5372
841.838	5250
841.975	5250
842.112	5185
842.249	5113
842.385	5147
842.522	5357
842.659	5178
842.796	5113
842.933	5220
843.069	5136
843.206	5151
843.343	5292
843.479	5284
843.616	5220
843.752	5014
843.889	5056
844.025	5223
844.162	5052
844.298	5155
844.435	5094
844.571	5048
844.708	5162
844.844	5315
844.98	5345
845.117	5280
845.253	5105
845.389	5098
845.525	5166
845.661	5109
845.798	4957
845.934	5132
846.07	5022
846.206	5159
846.342	5280
846.478	5121
846.614	4987
846.75	4961
846.886	4938
847.022	5132
847.158	5010
847.294	5056
847.429	5086
847.565	5098
847.701	5273
847.837	4850
847.972	4790
848.108	4957
848.244	4930
848.379	4740
848.515	4736
848.65	4733
848.786	4668
848.921	4714
849.057	4843
849.192	4873
849.328	4805
849.463	4870
849.598	4812
849.734	4740
849.869	4687
850.004	4626
850.14	4706
850.275	4584
850.41	4470
850.545	4519
850.68	4634
850.815	4626
850.95	4626
851.085	4801
851.22	4771
851.355	4672
851.49	4618
851.625	4630
851.76	4622
851.895	4538
852.03	4535
852.165	4641
852.299	4683
852.434	4752
852.569	4767
852.703	4698
852.838	4793
852.973	4923
853.107	4946
853.242	4694
853.376	4622
853.511	4546
853.645	4622
853.78	4733
853.914	4630
854.048	4660
854.183	4672
854.317	4687
854.451	4847
854.585	4653
854.72	4668
854.854	4748
854.988	4546
855.122	4622
855.256	4466
855.39	4641
855.524	4755
855.658	4721
855.792	4698
855.926	4656
856.06	4733
856.194	4812
856.327	4664
856.461	4584
856.595	4611
856.729	4637
856.862	4744
856.996	4698
857.13	4752
857.263	4729
857.397	4755
857.53	4649
857.664	4687
857.797	4717
857.931	4759
858.064	4717
858.197	4717
858.331	4630
858.464	4588
858.597	4489
858.731	4622
858.864	4618
858.997	4538
859.13	4660
859.263	4698
859.396	4653
859.529	4527
859.662	4550
859.795	4516
859.928	4596
860.061	4767
860.194	4740
860.327	4611
860.46	4546
860.592	4691
860.725	4679
860.858	4694
860.99	4542
861.123	4504
861.256	4519
861.388	4569
861.521	5280
861.653	4478
861.786	4447
861.918	4481
862.05	4474
862.183	4519
862.315	4550
862.447	4668
862.58	4554
862.712	4394
862.844	4299
862.976	4481
863.108	4424
863.24	4847
863.372	4322
863.504	4405
863.636	4421
863.768	4466
863.9	4386
864.032	4322
864.164	4371
864.296	4459
864.428	4516
864.559	4535
864.691	4489
864.823	4542
864.954	4493
865.086	4485
865.217	4447
865.349	4386
865.48	4451
865.612	4493
865.743	4603
865.875	4459
866.006	4417
866.137	4459
866.269	4462
866.4	4436
866.531	4386
866.662	4367
866.793	4367
866.924	4379
867.055	4519
867.186	4432
867.317	4390
867.448	4371
867.579	4390
867.71	4379
867.841	4337
867.972	4440
868.103	4440
868.233	4394
868.364	4402
868.495	4462
868.625	4630
868.756	4763
868.886	4519
869.017	4618
869.147	4717
869.278	4793
869.408	4603
869.539	4558
869.669	4733
869.799	4599
869.929	4736
870.06	4721
870.19	4923
870.32	4870
870.45	4923
870.58	4972
870.71	5109
870.84	5079
870.97	4965
871.1	4870
871.23	5178
871.36	5071
871.489	4991
871.619	5067
871.749	5109
871.879	5121
872.008	5181
872.138	5041
872.267	4961
872.397	4831
872.526	4774
872.656	4706
872.785	4790
872.915	4915
873.044	5029
873.173	4915
873.303	5003
873.432	4957
873.561	4927
873.69	4877
873.819	4778
873.948	4934
874.077	4790
874.206	4778
874.335	4733
874.464	4911
874.593	4984
874.722	4987
874.851	5117
874.979	5052
875.108	4991
875.237	4919
875.365	4854
875.494	4881
875.623	4949
875.751	4786
875.88	4881
876.008	4991
876.136	5064
876.265	5181
876.393	5318
876.521	5216
876.65	5178
876.778	5124
876.906	5094
877.034	5006
877.162	5029
877.29	4949
877.418	5052
877.546	5029
877.674	5033
877.802	5048
877.93	5003
878.058	4881
878.185	4881
878.313	4896
878.441	4927
878.568	4748
878.696	4847
878.824	4965
878.951	4991
879.079	5140
879.206	5284
879.333	5094
879.461	4984
879.588	4911
879.715	5060
879.842	5208
879.97	5003
880.097	4767
880.224	4752
880.351	4820
880.478	4801
880.605	4748
880.732	4721
880.859	5052
880.986	4858
881.112	4877
881.239	4805
881.366	4683
881.493	4554
881.619	4573
881.746	4660
881.872	4645
881.999	4645
882.125	4668
882.252	4744
882.378	4843
882.505	4987
882.631	4767
882.757	4630
882.883	4717
883.01	4740
883.136	4637
883.262	4630
883.388	4618
883.514	4793
883.64	4805
883.766	4744
883.892	4615
884.018	4679
884.143	4873
884.269	5033
884.395	4672
884.52	4622
884.646	4649
884.772	4580
884.897	4565
885.023	4592
885.148	4793
885.274	4835
885.399	4752
885.524	4698
885.65	4687
885.775	4714
885.9	4710
886.025	4812
886.15	4801
886.275	4702
886.4	4618
886.525	4664
886.65	4668
886.775	4626
886.9	4881
887.025	4991
887.149	4786
887.274	4622
887.399	4618
887.523	4634
887.648	4592
887.773	4596
887.897	4759
888.021	4755
888.146	4660
888.27	4790
888.395	4877
888.519	4771
888.643	4835
888.767	4797
888.891	4656
889.015	4637
889.139	4607
889.263	4542
889.387	4744
889.511	4862
889.635	4782
889.759	4630
889.883	4637
890.006	4710
890.13	4809
890.254	4618
890.377	4622
890.501	4554
890.624	4455
890.748	4569
890.871	4508
890.995	4360
891.118	4341
891.241	4474
891.364	4527
891.488	4611
891.611	4493
891.734	4538
891.857	4542
891.98	4607
892.103	4656
892.226	4599
892.349	4523
892.471	4405
892.594	4523
892.717	4577
892.839	4580
892.962	4561
893.085	4649
893.207	4542
893.33	4428
893.452	4466
893.575	4630
893.697	4573
893.819	4839
893.941	4816
894.064	4767
894.186	4497
894.308	4558
894.43	4672
894.552	4767
894.674	4752
894.796	4508
894.918	4596
895.04	4565
895.161	4687
895.283	4622
895.405	4573
895.526	4630
895.648	4687
895.769	4668
895.891	4675
896.012	4786
896.134	4721
896.255	4637
896.376	4618
896.498	4588
896.619	4645
896.74	4596
896.861	4641
896.982	4930
897.103	5033
897.224	4850
897.345	4744
897.466	4637
897.587	4679
897.708	4831
897.828	4748
897.949	4656
898.07	4527
898.19	4664
898.311	4748
898.431	4653
898.552	4740
898.672	4759
898.792	4782
898.913	4668
899.033	4599
899.153	4497
899.273	4462
899.393	4531
899.513	4504
899.633	4550
899.753	4550
899.873	4550
899.993	4584
900.113	4497
900.232	4565
900.352	4531
900.472	4455
900.591	4409
900.711	4455
900.83	4413
900.95	4630
901.069	4675
901.189	4561
901.308	4386
901.427	4276
901.546	4322
901.665	4481
901.784	4550
901.904	4360
902.023	4287
902.141	4200
902.26	4158
902.379	4344
902.498	4211
902.617	4257
902.735	4390
902.854	4394
902.973	4344
903.091	4227
903.21	4246
903.328	4284
903.446	4287
903.565	4257
903.683	4360
903.801	4249
903.919	4363
904.038	4394
904.156	4303
904.274	4421
904.392	4363
904.51	4436
904.627	4481
904.745	4519
904.863	4637
904.981	4409
905.098	4306
905.216	4348
905.334	4405
905.451	4375
905.569	4447
905.686	4538
905.803	4573
905.921	4363
906.038	4508
906.155	4470
906.272	4352
906.389	4470
906.506	4356
906.623	4360
906.74	4390
906.857	4341
906.974	4390
907.091	4561
907.208	4683
907.324	4573
907.441	4493
907.557	4337
907.674	4322
907.79	4310
907.907	4356
908.023	4436
908.139	4466
908.256	4455
908.372	4447
908.488	4489
908.604	4360
908.72	4280
908.836	4371
908.952	4322
909.068	4417
909.184	4565
909.3	4459
909.415	4599
909.531	4508
909.647	4329
909.762	4363
909.878	4329
909.993	4428
910.108	4447
910.224	4424
910.339	4478
910.454	4360
910.57	4303
910.685	4299
910.8	4664
910.915	4561
911.03	4466
911.145	4287
911.259	4314
911.374	4367
911.489	4249
911.604	4249
911.718	4154
911.833	4120
911.947	4067
912.062	4006
912.176	4188
912.291	4227
912.405	4204
912.519	4436
912.633	4527
912.748	4386
912.862	4234
912.976	4223
913.09	4124
913.204	4162
913.318	4227
913.431	4367
913.545	4398
913.659	4428
913.772	4337
913.886	4185
914	4223
914.113	4386
914.226	4409
914.34	4409
914.453	4257
914.566	4466
914.68	4325
914.793	4303
914.906	4147
915.019	4143
915.132	4071
915.245	4185
915.358	4196
915.47	4196
915.583	4299
915.696	4322
915.809	4405
915.921	4394
916.034	4215
916.146	4238
916.259	4219
916.371	4333
916.483	4360
916.595	4181
916.708	4306
916.82	4306
916.932	4314
917.044	4344
917.156	4314
917.268	4223
917.38	4295
917.491	4230
917.603	4344
917.715	4413
917.826	4409
917.938	4367
918.049	4211
918.161	4394
918.272	4523
918.384	4527
918.495	4459
918.606	4276
918.717	4261
918.828	4344
918.939	4379
919.05	4303
919.161	4295
919.272	4150
919.383	4219
919.494	4428
919.604	4622
919.715	4417
919.826	4310
919.936	4360
920.047	4535
920.157	4481
920.267	4683
920.378	4504
920.488	4523
920.598	4706
920.708	4892
920.818	4797
920.928	4710
921.038	4953
921.148	4870
921.258	4649
921.368	4493
921.477	4470
921.587	4440
921.697	4341
921.806	4554
921.916	4398
922.025	4265
922.134	4246
922.244	4215
922.353	4360
922.462	4173
922.571	4097
922.68	3994
922.789	3934
922.898	4013
923.007	3972
923.116	4048
923.224	4029
923.333	4040
923.442	3983
923.55	3968
923.659	3979
923.767	4112
923.876	3972
923.984	4105
924.092	3953
924.201	4044
924.309	4082
924.417	4124
924.525	4044
924.633	4120
924.741	5014
924.849	3884
924.956	4109
925.064	3930
925.172	3896
925.279	3941
925.387	4040
925.494	4063
925.602	4230
925.709	4162
925.816	4051
925.924	4120
926.031	4207
926.138	4200
926.245	4192
926.352	4055
926.459	4238
926.566	4291
926.673	4166
926.779	4074
926.886	4097
926.993	3968
927.099	3945
927.206	3975
927.312	3937
927.419	4067
927.525	4002
927.631	4090
927.737	3937
927.843	3922
927.95	3861
928.056	3960
928.162	3998
928.267	4021
928.373	4687
928.479	4105
928.585	3888
928.69	4013
928.796	4067
928.901	3945
929.007	3869
929.112	4013
929.218	3941
929.323	3979
929.428	3983
929.533	4120
929.638	3915
929.743	3945
929.848	4093
929.953	3998
930.058	3960
930.163	3781
930.267	3838
930.372	4006
930.477	3774
930.581	4078
930.685	3926
930.79	3778
930.894	3850
930.998	3831
931.103	4017
931.207	3686
931.311	3679
931.415	3671
931.519	3504
931.623	3542
