Data from test_V78500241_1005.txt Node
Date: Fri Mar 25 16:55:59 CST 2022
User: usil
Spectrometer: V785-0024
Trigger mode: 0
Integration Time (sec): 4.000000E-1
Scans to average: 1
Nonlinearity correction enabled: false
Boxcar width: 0
Storing dark spectrum: false
XAxis mode: Wavelengths
Number of Pixels in Spectrum: 1024
>>>>>Begin Spectral Data<<<<<
801.071	8077
801.214	7982
801.356	7906
801.499	7864
801.641	7792
801.783	7860
801.926	7913
802.068	7868
802.211	7986
802.353	7951
802.496	7837
802.638	7849
802.78	7932
802.923	7940
803.065	7894
803.208	7879
803.35	8012
803.492	8065
803.635	8172
803.777	7959
803.919	8183
804.061	8438
804.204	8172
804.346	8077
804.488	7951
804.63	8073
804.773	8024
804.915	8084
805.057	8244
805.199	8191
805.341	8187
805.483	8309
805.626	8153
805.768	8119
805.91	8237
806.052	8176
806.194	8119
806.336	8263
806.478	8130
806.62	7967
806.762	8115
806.904	8237
807.046	8438
807.188	8370
807.33	8275
807.472	8408
807.614	8199
807.756	8103
807.898	7978
808.04	7913
808.182	7871
808.324	7913
808.465	7909
808.607	8088
808.749	8138
808.891	8233
809.033	8309
809.174	8145
809.316	8077
809.458	8046
809.6	7989
809.741	8073
809.883	7993
810.025	8092
810.166	8035
810.308	8001
810.45	7955
810.591	7898
810.733	7746
810.875	7655
811.016	7544
811.158	7491
811.299	7563
811.441	7727
811.582	7700
811.724	7552
811.865	7537
812.007	7571
812.148	7616
812.29	7597
812.431	7708
812.573	7849
812.714	7970
812.855	8142
812.997	8176
813.138	8294
813.279	8199
813.421	8084
813.562	7986
813.703	7932
813.845	7761
813.986	7411
814.127	7263
814.268	7335
814.41	7206
814.551	7160
814.692	7099
814.833	7061
814.974	7099
815.115	7129
815.256	7027
815.397	6916
815.539	6916
815.68	6810
815.821	6783
815.962	6943
816.103	6878
816.244	6730
816.385	6669
816.526	6616
816.666	6502
816.807	6327
816.948	6471
817.089	6437
817.23	6486
817.371	6426
817.512	6407
817.653	6376
817.793	6395
817.934	6365
818.075	6509
818.216	6403
818.356	6388
818.497	6258
818.638	6136
818.778	6136
818.919	6140
819.06	6171
819.2	6308
819.341	6296
819.481	6346
819.622	6521
819.762	6757
819.903	6711
820.043	6646
820.184	6555
820.324	6570
820.465	6669
820.605	6700
820.746	6585
820.886	6547
821.026	6551
821.167	6665
821.307	6760
821.447	6757
821.588	6650
821.728	6585
821.868	6464
822.008	6433
822.149	6361
822.289	6342
822.429	6155
822.569	6079
822.709	6133
822.849	5935
822.99	5939
823.13	5977
823.27	5893
823.41	5775
823.55	5775
823.69	5821
823.83	5805
823.97	5714
824.11	5490
824.25	5493
824.389	5600
824.529	5547
824.669	5570
824.809	5581
824.949	5649
825.089	5554
825.228	5558
825.368	5376
825.508	5341
825.648	5322
825.787	5398
825.927	5406
826.067	5265
826.206	5296
826.346	5376
826.485	5433
826.625	5414
826.765	5543
826.904	5520
827.044	5269
827.183	5189
827.323	5109
827.462	5258
827.601	5189
827.741	5140
827.88	5189
828.02	5098
828.159	5242
828.298	5311
828.437	5357
828.577	5292
828.716	5436
828.855	5303
828.994	5159
829.134	5121
829.273	5231
829.412	5147
829.551	5147
829.69	5098
829.829	5277
829.968	5368
830.107	5265
830.246	5258
830.385	5170
830.524	5170
830.663	5083
830.802	5018
830.941	4881
831.08	4866
831.219	4980
831.357	5003
831.496	5159
831.635	4965
831.774	4824
831.913	4908
832.051	4717
832.19	4717
832.329	4801
832.467	4698
832.606	4573
832.744	4733
832.883	4694
833.022	4748
833.16	4759
833.299	4805
833.437	4881
833.576	4797
833.714	4835
833.852	4870
833.991	4885
834.129	4976
834.267	4919
834.406	4900
834.544	4984
834.682	4949
834.821	4972
834.959	5189
835.097	4972
835.235	5124
835.373	5064
835.511	5033
835.65	5010
835.788	5052
835.926	4900
836.064	4870
836.202	4927
836.34	5147
836.478	5231
836.615	5064
836.753	5212
836.891	5296
837.029	5239
837.167	5193
837.305	5083
837.443	5159
837.58	5083
837.718	5277
837.856	5147
837.993	5109
838.131	5254
838.269	5212
838.406	5159
838.544	5185
838.681	5067
838.819	5018
838.956	4923
839.094	4923
839.231	4957
839.369	5094
839.506	5360
839.643	5269
839.781	5083
839.918	5003
840.055	5083
840.193	5094
840.33	5105
840.467	5151
840.604	5201
840.742	5421
840.879	5064
841.016	5090
841.153	5181
841.29	5410
841.427	5322
841.564	5337
841.701	5368
841.838	5269
841.975	5193
842.112	5246
842.249	5102
842.385	5132
842.522	5315
842.659	5143
842.796	5109
842.933	5151
843.069	5147
843.206	5147
843.343	5246
843.479	5223
843.616	5185
843.752	4991
843.889	4995
844.025	5166
844.162	5033
844.298	5189
844.435	5079
844.571	5025
844.708	5212
844.844	5318
844.98	5353
845.117	5307
845.253	5147
845.389	5090
845.525	5170
845.661	5109
845.798	5033
845.934	5098
846.07	5037
846.206	5166
846.342	5261
846.478	5178
846.614	4995
846.75	4968
846.886	4984
847.022	5174
847.158	5037
847.294	5048
847.429	5102
847.565	5045
847.701	5341
847.837	4847
847.972	4790
848.108	4953
848.244	4892
848.379	4752
848.515	4786
848.65	4645
848.786	4725
848.921	4763
849.057	4877
849.192	4911
849.328	4793
849.463	4850
849.598	4744
849.734	4782
849.869	4683
850.004	4634
850.14	4634
850.275	4603
850.41	4474
850.545	4550
850.68	4618
850.815	4573
850.95	4607
851.085	4816
851.22	4706
851.355	4660
851.49	4596
851.625	4653
851.76	4672
851.895	4550
852.03	4554
852.165	4615
852.299	4740
852.434	4774
852.569	4656
852.703	4786
852.838	4850
852.973	4896
853.107	4911
853.242	4683
853.376	4634
853.511	4512
853.645	4645
853.78	4797
853.914	4714
854.048	4664
854.183	4660
854.317	4653
854.451	4847
854.585	4664
854.72	4668
854.854	4778
854.988	4542
855.122	4607
855.256	4538
855.39	4649
855.524	4755
855.658	4748
855.792	4702
855.926	4740
856.06	4755
856.194	4797
856.327	4687
856.461	4626
856.595	4622
856.729	4611
856.862	4748
856.996	4710
857.13	4717
857.263	4748
857.397	4790
857.53	4672
857.664	4706
857.797	4729
857.931	4748
858.064	4698
858.197	4733
858.331	4645
858.464	4603
858.597	4478
858.731	4596
858.864	4618
858.997	4615
859.13	4645
859.263	4634
859.396	4702
859.529	4538
859.662	4558
859.795	4550
859.928	4660
860.061	4736
860.194	4767
860.327	4584
860.46	4523
860.592	4698
860.725	4733
860.858	4691
860.99	4519
861.123	4504
861.256	4504
861.388	4611
861.521	5201
861.653	4493
861.786	4462
861.918	4436
862.05	4462
862.183	4535
862.315	4584
862.447	4683
862.58	4531
862.712	4371
862.844	4306
862.976	4474
863.108	4443
863.24	4877
863.372	4318
863.504	4363
863.636	4383
863.768	4489
863.9	4394
864.032	4352
864.164	4428
864.296	4466
864.428	4519
864.559	4519
864.691	4462
864.823	4478
864.954	4508
865.086	4519
865.217	4447
865.349	4417
865.48	4428
865.612	4440
865.743	4561
865.875	4478
866.006	4402
866.137	4440
866.269	4428
866.4	4417
866.531	4398
866.662	4428
866.793	4417
866.924	4462
867.055	4474
867.186	4440
867.317	4402
867.448	4337
867.579	4390
867.71	4352
867.841	4371
867.972	4466
868.103	4470
868.233	4500
868.364	4443
868.495	4489
868.625	4675
868.756	4736
868.886	4550
869.017	4596
869.147	4698
869.278	4748
869.408	4668
869.539	4634
869.669	4710
869.799	4656
869.929	4710
870.06	4767
870.19	4938
870.32	4881
870.45	5003
870.58	4957
870.71	5083
870.84	5052
870.97	4942
871.1	4919
871.23	5105
871.36	5121
871.489	4999
871.619	5033
871.749	5064
871.879	5102
872.008	5128
872.138	5041
872.267	4927
872.397	4847
872.526	4759
872.656	4664
872.785	4793
872.915	4900
873.044	4976
873.173	4942
873.303	4919
873.432	4900
873.561	4930
873.69	4889
873.819	4904
873.948	4870
874.077	4824
874.206	4698
874.335	4740
874.464	4866
874.593	5056
874.722	4946
874.851	5086
874.979	5048
875.108	5052
875.237	4908
875.365	4873
875.494	4915
875.623	4980
875.751	4805
875.88	4877
876.008	4999
876.136	4972
876.265	5170
876.393	5265
876.521	5231
876.65	5242
876.778	5170
876.906	5052
877.034	4968
877.162	5014
877.29	4949
877.418	5010
877.546	5083
877.674	4976
877.802	4976
877.93	5037
878.058	4980
878.185	4850
878.313	4919
878.441	4938
878.568	4809
878.696	4824
878.824	4881
878.951	5018
879.079	5102
879.206	5246
879.333	5048
879.461	4980
879.588	4942
879.715	5098
879.842	5227
879.97	5014
880.097	4755
880.224	4694
880.351	4774
880.478	4805
880.605	4797
880.732	4797
880.859	5048
880.986	4877
881.112	4919
881.239	4744
881.366	4656
881.493	4584
881.619	4618
881.746	4630
881.872	4634
881.999	4656
882.125	4687
882.252	4767
882.378	4820
882.505	4942
882.631	4790
882.757	4706
882.883	4679
883.01	4714
883.136	4615
883.262	4554
883.388	4561
883.514	4812
883.64	4816
883.766	4778
883.892	4675
884.018	4729
884.143	4904
884.269	5029
884.395	4687
884.52	4649
884.646	4630
884.772	4580
884.897	4577
885.023	4656
885.148	4771
885.274	4835
885.399	4759
885.524	4664
885.65	4710
885.775	4755
885.9	4672
886.025	4816
886.15	4797
886.275	4763
886.4	4668
886.525	4706
886.65	4672
886.775	4710
886.9	4900
887.025	4987
887.149	4812
887.274	4645
887.399	4607
887.523	4569
887.648	4599
887.773	4596
887.897	4691
888.021	4771
888.146	4634
888.27	4752
888.395	4892
888.519	4771
888.643	4793
888.767	4771
888.891	4611
889.015	4603
889.139	4656
889.263	4577
889.387	4744
889.511	4835
889.635	4805
889.759	4588
889.883	4622
890.006	4725
890.13	4793
890.254	4645
890.377	4653
890.501	4527
890.624	4485
890.748	4588
890.871	4516
890.995	4466
891.118	4394
891.241	4516
891.364	4546
891.488	4660
891.611	4489
891.734	4516
891.857	4599
891.98	4538
892.103	4607
892.226	4607
892.349	4527
892.471	4455
892.594	4538
892.717	4565
892.839	4611
892.962	4550
893.085	4645
893.207	4584
893.33	4485
893.452	4497
893.575	4607
893.697	4577
893.819	4774
893.941	4835
894.064	4748
894.186	4596
894.308	4542
894.43	4809
894.552	4767
894.674	4714
894.796	4577
894.918	4584
895.04	4516
895.161	4672
895.283	4637
895.405	4531
895.526	4592
895.648	4672
895.769	4694
895.891	4710
896.012	4672
896.134	4721
896.255	4637
896.376	4660
896.498	4592
896.619	4672
896.74	4592
896.861	4653
896.982	4892
897.103	5052
897.224	4805
897.345	4801
897.466	4664
897.587	4687
897.708	4839
897.828	4725
897.949	4706
898.07	4558
898.19	4660
898.311	4797
898.431	4664
898.552	4721
898.672	4782
898.792	4763
898.913	4721
899.033	4569
899.153	4527
899.273	4432
899.393	4489
899.513	4516
899.633	4474
899.753	4538
899.873	4531
899.993	4535
900.113	4519
900.232	4561
900.352	4565
900.472	4398
900.591	4398
900.711	4462
900.83	4394
900.95	4580
901.069	4664
901.189	4519
901.308	4375
901.427	4333
901.546	4383
901.665	4432
901.784	4478
901.904	4284
902.023	4348
902.141	4181
902.26	4154
902.379	4272
902.498	4204
902.617	4230
902.735	4337
902.854	4371
902.973	4325
903.091	4211
903.21	4219
903.328	4303
903.446	4249
903.565	4230
903.683	4360
903.801	4299
903.919	4428
904.038	4402
904.156	4333
904.274	4455
904.392	4337
904.51	4451
904.627	4455
904.745	4588
904.863	4611
904.981	4367
905.098	4322
905.216	4409
905.334	4375
905.451	4402
905.569	4443
905.686	4565
905.803	4550
905.921	4424
906.038	4474
906.155	4428
906.272	4375
906.389	4508
906.506	4348
906.623	4344
906.74	4390
906.857	4295
906.974	4341
907.091	4592
907.208	4641
907.324	4573
907.441	4516
907.557	4314
907.674	4344
907.79	4299
907.907	4363
908.023	4497
908.139	4481
908.256	4398
908.372	4470
908.488	4462
908.604	4383
908.72	4352
908.836	4341
908.952	4325
909.068	4436
909.184	4538
909.3	4493
909.415	4603
909.531	4531
909.647	4360
909.762	4390
909.878	4325
909.993	4447
910.108	4383
910.224	4424
910.339	4493
910.454	4390
910.57	4295
910.685	4329
910.8	4649
910.915	4607
911.03	4497
911.145	4318
911.259	4325
911.374	4352
911.489	4299
911.604	4249
911.718	4139
911.833	4204
911.947	4048
912.062	4021
912.176	4196
912.291	4211
912.405	4230
912.519	4462
912.633	4500
912.748	4367
912.862	4337
912.976	4238
913.09	4044
913.204	4166
913.318	4234
913.431	4333
913.545	4383
913.659	4417
913.772	4394
913.886	4230
914	4230
914.113	4371
914.226	4417
914.34	4383
914.453	4246
914.566	4421
914.68	4268
914.793	4329
914.906	4177
915.019	4078
915.132	4097
915.245	4154
915.358	4173
915.47	4230
915.583	4204
915.696	4287
915.809	4379
915.921	4398
916.034	4272
916.146	4261
916.259	4204
916.371	4367
916.483	4344
916.595	4272
916.708	4306
916.82	4280
916.932	4322
917.044	4318
917.156	4272
917.268	4211
917.38	4219
917.491	4246
917.603	4337
917.715	4436
917.826	4398
917.938	4284
918.049	4280
918.161	4386
918.272	4535
918.384	4565
918.495	4436
918.606	4299
918.717	4215
918.828	4322
918.939	4363
919.05	4249
919.161	4303
919.272	4139
919.383	4291
919.494	4409
919.604	4615
919.715	4436
919.826	4363
919.936	4390
920.047	4485
920.157	4466
920.267	4672
920.378	4565
920.488	4516
920.598	4672
920.708	4892
920.818	4774
920.928	4790
921.038	4949
921.148	4957
921.258	4577
921.368	4565
921.477	4519
921.587	4462
921.697	4386
921.806	4558
921.916	4432
922.025	4268
922.134	4265
922.244	4287
922.353	4348
922.462	4150
922.571	4120
922.68	3975
922.789	3941
922.898	3979
923.007	3972
923.116	4086
923.224	4097
923.333	4082
923.442	3998
923.55	3983
923.659	4010
923.767	4109
923.876	3964
923.984	4139
924.092	3964
924.201	4105
924.309	4082
924.417	4059
924.525	4010
924.633	4109
924.741	5052
924.849	3899
924.956	4128
925.064	3979
925.172	3903
925.279	3983
925.387	4032
925.494	4059
925.602	4200
925.709	4188
925.816	4006
925.924	4120
926.031	4181
926.138	4207
926.245	4192
926.352	4067
926.459	4215
926.566	4287
926.673	4169
926.779	4067
926.886	4071
926.993	3987
927.099	3964
927.206	3896
927.312	3983
927.419	4063
927.525	4013
927.631	4112
927.737	3960
927.843	3994
927.95	3846
928.056	3960
928.162	3972
928.267	4074
928.373	4653
928.479	4147
928.585	3865
928.69	3956
928.796	4048
928.901	3968
929.007	3804
929.112	4002
929.218	3945
929.323	3964
929.428	3945
929.533	4074
929.638	3903
929.743	3956
929.848	4021
929.953	3941
930.058	3941
930.163	3827
930.267	3865
930.372	3979
930.477	3797
930.581	4067
930.685	3972
930.79	3759
930.894	3857
930.998	3907
931.103	4071
931.207	3743
931.311	3686
931.415	3698
931.519	3526
931.623	3553
