Data from test_V78500241_597.txt Node
Date: Fri Mar 25 16:53:09 CST 2022
User: usil
Spectrometer: V785-0024
Trigger mode: 0
Integration Time (sec): 4.000000E-1
Scans to average: 1
Nonlinearity correction enabled: false
Boxcar width: 0
Storing dark spectrum: false
XAxis mode: Wavelengths
Number of Pixels in Spectrum: 1024
>>>>>Begin Spectral Data<<<<<
801.071	7944
801.214	7970
801.356	7887
801.499	7814
801.641	7734
801.783	7852
801.926	8039
802.068	7970
802.211	8027
802.353	8012
802.496	7814
802.638	7932
802.78	7913
802.923	7925
803.065	7803
803.208	7875
803.35	8005
803.492	8073
803.635	8145
803.777	8046
803.919	8100
804.061	8393
804.204	8134
804.346	8005
804.488	7913
804.63	8088
804.773	8016
804.915	8126
805.057	8282
805.199	8187
805.341	8187
805.483	8221
805.626	8221
805.768	8130
805.91	8100
806.052	8191
806.194	8005
806.336	8362
806.478	8100
806.62	8107
806.762	8046
806.904	8214
807.046	8450
807.188	8377
807.33	8275
807.472	8259
807.614	8126
807.756	8164
807.898	7955
808.04	7826
808.182	7864
808.324	7936
808.465	7902
808.607	7947
808.749	8088
808.891	8271
809.033	8195
809.174	8187
809.316	7982
809.458	8031
809.6	7974
809.741	8046
809.883	7997
810.025	8065
810.166	8077
810.308	8024
810.45	7936
810.591	7837
810.733	7696
810.875	7696
811.016	7476
811.158	7529
811.299	7647
811.441	7738
811.582	7643
811.724	7552
811.865	7453
812.007	7624
812.148	7605
812.29	7639
812.431	7738
812.573	7871
812.714	7993
812.855	8077
812.997	8225
813.138	8362
813.279	8286
813.421	8069
813.562	8069
813.703	7849
813.845	7780
813.986	7434
814.127	7335
814.268	7255
814.41	7209
814.551	7190
814.692	7137
814.833	7110
814.974	7080
815.115	7080
815.256	6909
815.397	6954
815.539	6890
815.68	6833
815.821	6779
815.962	6867
816.103	6814
816.244	6745
816.385	6631
816.526	6608
816.666	6467
816.807	6331
816.948	6483
817.089	6437
817.23	6395
817.371	6372
817.512	6380
817.653	6407
817.793	6372
817.934	6410
818.075	6456
818.216	6350
818.356	6384
818.497	6251
818.638	6110
818.778	6155
818.919	6098
819.06	6129
819.2	6289
819.341	6342
819.481	6323
819.622	6525
819.762	6764
819.903	6703
820.043	6532
820.184	6574
820.324	6547
820.465	6601
820.605	6616
820.746	6642
820.886	6433
821.026	6631
821.167	6669
821.307	6745
821.447	6745
821.588	6635
821.728	6566
821.868	6509
822.008	6289
822.149	6357
822.289	6384
822.429	6125
822.569	6106
822.709	6106
822.849	5863
822.99	5923
823.13	5927
823.27	5885
823.41	5786
823.55	5779
823.69	5764
823.83	5767
823.97	5672
824.11	5562
824.25	5539
824.389	5581
824.529	5558
824.669	5512
824.809	5672
824.949	5661
825.089	5676
825.228	5535
825.368	5387
825.508	5353
825.648	5349
825.787	5364
825.927	5349
826.067	5322
826.206	5284
826.346	5357
826.485	5410
826.625	5364
826.765	5581
826.904	5478
827.044	5212
827.183	5189
827.323	5117
827.462	5242
827.601	5216
827.741	5151
827.88	5136
828.02	5018
828.159	5181
828.298	5318
828.437	5345
828.577	5250
828.716	5463
828.855	5296
828.994	5185
829.134	5117
829.273	5208
829.412	5071
829.551	5136
829.69	5166
829.829	5242
829.968	5379
830.107	5216
830.246	5220
830.385	5166
830.524	5098
830.663	5037
830.802	4949
830.941	4881
831.08	4843
831.219	4976
831.357	5006
831.496	5208
831.635	4987
831.774	4877
831.913	4870
832.051	4675
832.19	4717
832.329	4801
832.467	4691
832.606	4607
832.744	4755
832.883	4683
833.022	4694
833.16	4763
833.299	4752
833.437	4801
833.576	4835
833.714	4774
833.852	4843
833.991	4831
834.129	4953
834.267	4911
834.406	4904
834.544	5003
834.682	4949
834.821	5014
834.959	5140
835.097	4972
835.235	5140
835.373	5090
835.511	5083
835.65	4995
835.788	4984
835.926	4915
836.064	4881
836.202	4908
836.34	5128
836.478	5254
836.615	5140
836.753	5220
836.891	5258
837.029	5231
837.167	5189
837.305	5189
837.443	5140
837.58	5022
837.718	5193
837.856	5162
837.993	5155
838.131	5239
838.269	5220
838.406	5204
838.544	5216
838.681	5014
838.819	5025
838.956	4934
839.094	4915
839.231	4980
839.369	5151
839.506	5414
839.643	5250
839.781	5045
839.918	5064
840.055	5181
840.193	5075
840.33	5140
840.467	5162
840.604	5193
840.742	5444
840.879	5162
841.016	5147
841.153	5178
841.29	5372
841.427	5379
841.564	5330
841.701	5357
841.838	5341
841.975	5235
842.112	5250
842.249	5151
842.385	5208
842.522	5345
842.659	5212
842.796	5216
842.933	5220
843.069	5201
843.206	5204
843.343	5364
843.479	5258
843.616	5303
843.752	5037
843.889	5086
844.025	5277
844.162	5060
844.298	5235
844.435	5136
844.571	5140
844.708	5242
844.844	5372
844.98	5383
845.117	5326
845.253	5178
845.389	5121
845.525	5140
845.661	5170
845.798	5143
845.934	5155
846.07	5071
846.206	5239
846.342	5330
846.478	5201
846.614	5041
846.75	4995
846.886	4942
847.022	5147
847.158	4999
847.294	5102
847.429	5128
847.565	5147
847.701	5322
847.837	4885
847.972	4892
848.108	5010
848.244	4961
848.379	4854
848.515	4797
848.65	4782
848.786	4778
848.921	4797
849.057	4927
849.192	4942
849.328	4900
849.463	4873
849.598	4816
849.734	4786
849.869	4755
850.004	4694
850.14	4691
850.275	4634
850.41	4569
850.545	4588
850.68	4622
850.815	4653
850.95	4668
851.085	4858
851.22	4801
851.355	4725
851.49	4660
851.625	4611
851.76	4656
851.895	4588
852.03	4542
852.165	4656
852.299	4702
852.434	4843
852.569	4809
852.703	4763
852.838	4885
852.973	5006
853.107	4934
853.242	4767
853.376	4714
853.511	4542
853.645	4634
853.78	4824
853.914	4698
854.048	4706
854.183	4683
854.317	4717
854.451	4839
854.585	4694
854.72	4622
854.854	4786
854.988	4615
855.122	4698
855.256	4584
855.39	4706
855.524	4793
855.658	4782
855.792	4706
855.926	4733
856.06	4782
856.194	4828
856.327	4714
856.461	4653
856.595	4637
856.729	4664
856.862	4782
856.996	4702
857.13	4736
857.263	4774
857.397	4824
857.53	4656
857.664	4717
857.797	4763
857.931	4805
858.064	4668
858.197	4771
858.331	4672
858.464	4653
858.597	4558
858.731	4622
858.864	4691
858.997	4607
859.13	4733
859.263	4664
859.396	4714
859.529	4668
859.662	4573
859.795	4538
859.928	4691
860.061	4801
860.194	4771
860.327	4622
860.46	4626
860.592	4744
860.725	4763
860.858	4763
860.99	4603
861.123	4550
861.256	4538
861.388	4649
861.521	5459
861.653	4519
861.786	4455
861.918	4497
862.05	4554
862.183	4546
862.315	4599
862.447	4733
862.58	4584
862.712	4413
862.844	4337
862.976	4535
863.108	4466
863.24	4934
863.372	4356
863.504	4466
863.636	4424
863.768	4531
863.9	4478
864.032	4379
864.164	4405
864.296	4508
864.428	4573
864.559	4618
864.691	4584
864.823	4516
864.954	4489
865.086	4554
865.217	4485
865.349	4485
865.48	4424
865.612	4519
865.743	4706
865.875	4516
866.006	4459
866.137	4478
866.269	4481
866.4	4470
866.531	4485
866.662	4451
866.793	4413
866.924	4424
867.055	4535
867.186	4481
867.317	4417
867.448	4432
867.579	4432
867.71	4451
867.841	4409
867.972	4478
868.103	4497
868.233	4504
868.364	4466
868.495	4550
868.625	4679
868.756	4831
868.886	4599
869.017	4641
869.147	4831
869.278	4801
869.408	4687
869.539	4649
869.669	4752
869.799	4656
869.929	4736
870.06	4733
870.19	5045
870.32	4953
870.45	4961
870.58	5033
870.71	5147
870.84	5121
870.97	4980
871.1	4911
871.23	5147
871.36	5151
871.489	5079
871.619	5113
871.749	5124
871.879	5128
872.008	5201
872.138	5113
872.267	5003
872.397	4877
872.526	4786
872.656	4778
872.785	4850
872.915	4984
873.044	5056
873.173	4949
873.303	4942
873.432	5018
873.561	4930
873.69	4938
873.819	4919
873.948	4953
874.077	4870
874.206	4809
874.335	4809
874.464	5018
874.593	5060
874.722	5003
874.851	5132
874.979	5048
875.108	5064
875.237	4934
875.365	4908
875.494	4881
875.623	4972
875.751	4881
875.88	4911
876.008	5003
876.136	5086
876.265	5204
876.393	5360
876.521	5307
876.65	5242
876.778	5193
876.906	5083
877.034	5018
877.162	5098
877.29	5033
877.418	5071
877.546	5056
877.674	5060
877.802	5041
877.93	5014
878.058	4946
878.185	4919
878.313	4949
878.441	4957
878.568	4843
878.696	4900
878.824	4930
878.951	4984
879.079	5174
879.206	5292
879.333	5140
879.461	5014
879.588	5041
879.715	5109
879.842	5189
879.97	5022
880.097	4786
880.224	4736
880.351	4824
880.478	4847
880.605	4839
880.732	4786
880.859	5079
880.986	4915
881.112	4919
881.239	4828
881.366	4668
881.493	4691
881.619	4615
881.746	4668
881.872	4645
881.999	4645
882.125	4698
882.252	4790
882.378	4904
882.505	4934
882.631	4782
882.757	4687
882.883	4771
883.01	4786
883.136	4649
883.262	4649
883.388	4649
883.514	4793
883.64	4835
883.766	4793
883.892	4698
884.018	4740
884.143	4938
884.269	5003
884.395	4694
884.52	4653
884.646	4698
884.772	4565
884.897	4626
885.023	4672
885.148	4786
885.274	4892
885.399	4904
885.524	4774
885.65	4748
885.775	4752
885.9	4729
886.025	4870
886.15	4809
886.275	4782
886.4	4656
886.525	4771
886.65	4721
886.775	4664
886.9	4961
887.025	5022
887.149	4866
887.274	4683
887.399	4603
887.523	4664
887.648	4580
887.773	4611
887.897	4809
888.021	4778
888.146	4679
888.27	4839
888.395	4885
888.519	4835
888.643	4816
888.767	4854
888.891	4702
889.015	4603
889.139	4702
889.263	4634
889.387	4771
889.511	4930
889.635	4767
889.759	4683
889.883	4679
890.006	4793
890.13	4885
890.254	4603
890.377	4706
890.501	4561
890.624	4523
890.748	4702
890.871	4497
890.995	4466
891.118	4390
891.241	4535
891.364	4577
891.488	4641
891.611	4531
891.734	4512
891.857	4603
891.98	4599
892.103	4710
892.226	4645
892.349	4546
892.471	4500
892.594	4546
892.717	4615
892.839	4592
892.962	4603
893.085	4675
893.207	4573
893.33	4531
893.452	4584
893.575	4679
893.697	4656
893.819	4812
893.941	4812
894.064	4812
894.186	4622
894.308	4565
894.43	4717
894.552	4877
894.674	4729
894.796	4603
894.918	4607
895.04	4558
895.161	4740
895.283	4653
895.405	4607
895.526	4634
895.648	4748
895.769	4679
895.891	4668
896.012	4714
896.134	4733
896.255	4683
896.376	4672
896.498	4630
896.619	4710
896.74	4653
896.861	4660
896.982	4908
897.103	5037
897.224	4835
897.345	4759
897.466	4698
897.587	4736
897.708	4850
897.828	4778
897.949	4725
898.07	4577
898.19	4664
898.311	4831
898.431	4721
898.552	4729
898.672	4858
898.792	4820
898.913	4767
899.033	4660
899.153	4542
899.273	4424
899.393	4527
899.513	4542
899.633	4546
899.753	4546
899.873	4565
899.993	4630
900.113	4558
900.232	4573
900.352	4580
900.472	4531
900.591	4402
900.711	4451
900.83	4497
900.95	4637
901.069	4710
901.189	4584
901.308	4398
901.427	4360
901.546	4386
901.665	4478
901.784	4542
901.904	4424
902.023	4352
902.141	4188
902.26	4196
902.379	4314
902.498	4284
902.617	4234
902.735	4379
902.854	4413
902.973	4394
903.091	4268
903.21	4261
903.328	4318
903.446	4287
903.565	4276
903.683	4394
903.801	4341
903.919	4432
904.038	4447
904.156	4295
904.274	4417
904.392	4398
904.51	4440
904.627	4481
904.745	4588
904.863	4626
904.981	4409
905.098	4325
905.216	4360
905.334	4424
905.451	4424
905.569	4459
905.686	4580
905.803	4561
905.921	4443
906.038	4550
906.155	4459
906.272	4424
906.389	4485
906.506	4394
906.623	4375
906.74	4390
906.857	4329
906.974	4371
907.091	4569
907.208	4656
907.324	4588
907.441	4527
907.557	4329
907.674	4383
907.79	4322
907.907	4440
908.023	4493
908.139	4500
908.256	4462
908.372	4516
908.488	4470
908.604	4409
908.72	4352
908.836	4417
908.952	4375
909.068	4432
909.184	4615
909.3	4500
909.415	4569
909.531	4588
909.647	4363
909.762	4383
909.878	4341
909.993	4474
910.108	4447
910.224	4436
910.339	4519
910.454	4440
910.57	4371
910.685	4306
910.8	4660
910.915	4607
911.03	4459
911.145	4363
911.259	4306
911.374	4360
911.489	4360
911.604	4379
911.718	4177
911.833	4207
911.947	4086
912.062	4067
912.176	4265
912.291	4249
912.405	4291
912.519	4451
912.633	4569
912.748	4386
912.862	4367
912.976	4253
913.09	4173
913.204	4230
913.318	4303
913.431	4417
913.545	4436
913.659	4462
913.772	4394
913.886	4261
914	4291
914.113	4455
914.226	4485
914.34	4455
914.453	4303
914.566	4451
914.68	4360
914.793	4398
914.906	4207
915.019	4181
915.132	4135
915.245	4223
915.358	4219
915.47	4310
915.583	4352
915.696	4329
915.809	4485
915.921	4451
916.034	4280
916.146	4299
916.259	4276
916.371	4421
916.483	4360
916.595	4333
916.708	4383
916.82	4390
916.932	4367
917.044	4386
917.156	4413
917.268	4272
917.38	4284
917.491	4329
917.603	4383
917.715	4413
917.826	4512
917.938	4386
918.049	4249
918.161	4440
918.272	4538
918.384	4554
918.495	4512
918.606	4325
918.717	4265
918.828	4352
918.939	4451
919.05	4303
919.161	4394
919.272	4192
919.383	4310
919.494	4489
919.604	4694
919.715	4493
919.826	4417
919.936	4443
920.047	4607
920.157	4523
920.267	4763
920.378	4592
920.488	4531
920.598	4752
920.708	4949
920.818	4771
920.928	4816
921.038	4961
921.148	4938
921.258	4714
921.368	4592
921.477	4519
921.587	4508
921.697	4451
921.806	4542
921.916	4462
922.025	4341
922.134	4325
922.244	4219
922.353	4363
922.462	4253
922.571	4158
922.68	4048
922.789	4006
922.898	4029
923.007	4017
923.116	4097
923.224	4109
923.333	4154
923.442	4025
923.55	4010
923.659	4055
923.767	4150
923.876	4051
923.984	4162
924.092	4017
924.201	4150
924.309	4173
924.417	4135
924.525	4105
924.633	4116
924.741	5090
924.849	3960
924.956	4185
925.064	4002
925.172	3934
925.279	4013
925.387	4078
925.494	4055
925.602	4276
925.709	4169
925.816	4040
925.924	4166
926.031	4280
926.138	4227
926.245	4196
926.352	4120
926.459	4261
926.566	4333
926.673	4147
926.779	4097
926.886	4116
926.993	4040
927.099	4017
927.206	3953
927.312	3998
927.419	4074
927.525	4097
927.631	4147
927.737	4025
927.843	3960
927.95	3911
928.056	3956
928.162	4048
928.267	4074
928.373	4725
928.479	4135
928.585	3941
928.69	4029
928.796	4109
928.901	3983
929.007	3911
929.112	4059
929.218	3983
929.323	3998
929.428	3979
929.533	4116
929.638	3975
929.743	4006
929.848	4036
929.953	4032
930.058	3941
930.163	3861
930.267	3888
930.372	4017
930.477	3800
930.581	4097
930.685	3949
930.79	3865
930.894	3945
930.998	3922
931.103	4059
931.207	3766
931.311	3724
931.415	3720
931.519	3568
931.623	3576
