Data from test_V78500241_1160.txt Node
Date: Fri Mar 25 16:57:04 CST 2022
User: usil
Spectrometer: V785-0024
Trigger mode: 0
Integration Time (sec): 4.000000E-1
Scans to average: 1
Nonlinearity correction enabled: false
Boxcar width: 0
Storing dark spectrum: false
XAxis mode: Wavelengths
Number of Pixels in Spectrum: 1024
>>>>>Begin Spectral Data<<<<<
801.071	7993
801.214	8024
801.356	7940
801.499	7822
801.641	7704
801.783	7792
801.926	7894
802.068	7921
802.211	7951
802.353	7974
802.496	7784
802.638	7890
802.78	7887
802.923	7989
803.065	7879
803.208	7837
803.35	7986
803.492	8069
803.635	8161
803.777	8039
803.919	8176
804.061	8427
804.204	8195
804.346	8069
804.488	7947
804.63	8126
804.773	8001
804.915	8062
805.057	8324
805.199	8115
805.341	8305
805.483	8256
805.626	8240
805.768	8164
805.91	8195
806.052	8210
806.194	8073
806.336	8290
806.478	8043
806.62	8031
806.762	8134
806.904	8256
807.046	8442
807.188	8301
807.33	8267
807.472	8332
807.614	8123
807.756	8161
807.898	7967
808.04	7909
808.182	7856
808.324	7898
808.465	7947
808.607	8043
808.749	8069
808.891	8183
809.033	8343
809.174	8240
809.316	8092
809.458	8065
809.6	7997
809.741	8035
809.883	8016
810.025	8035
810.166	8043
810.308	8020
810.45	7978
810.591	7890
810.733	7727
810.875	7620
811.016	7586
811.158	7430
811.299	7609
811.441	7708
811.582	7696
811.724	7597
811.865	7540
812.007	7552
812.148	7525
812.29	7677
812.431	7727
812.573	7856
812.714	8001
812.855	8145
812.997	8168
813.138	8355
813.279	8202
813.421	8043
813.562	8050
813.703	7868
813.845	7727
813.986	7373
814.127	7270
814.268	7274
814.41	7213
814.551	7175
814.692	7187
814.833	7038
814.974	7004
815.115	7137
815.256	6989
815.397	6932
815.539	6947
815.68	6779
815.821	6814
815.962	6890
816.103	6806
816.244	6776
816.385	6612
816.526	6589
816.666	6437
816.807	6308
816.948	6490
817.089	6486
817.23	6395
817.371	6380
817.512	6422
817.653	6407
817.793	6418
817.934	6407
818.075	6467
818.216	6479
818.356	6353
818.497	6235
818.638	6144
818.778	6144
818.919	6178
819.06	6167
819.2	6292
819.341	6296
819.481	6346
819.622	6544
819.762	6776
819.903	6620
820.043	6585
820.184	6544
820.324	6601
820.465	6665
820.605	6642
820.746	6593
820.886	6490
821.026	6665
821.167	6673
821.307	6715
821.447	6684
821.588	6665
821.728	6593
821.868	6475
822.008	6315
822.149	6304
822.289	6289
822.429	6186
822.569	6015
822.709	6098
822.849	5904
822.99	5908
823.13	5855
823.27	5969
823.41	5745
823.55	5756
823.69	5745
823.83	5741
823.97	5676
824.11	5516
824.25	5471
824.389	5497
824.529	5562
824.669	5532
824.809	5657
824.949	5638
825.089	5608
825.228	5520
825.368	5421
825.508	5330
825.648	5353
825.787	5368
825.927	5337
826.067	5258
826.206	5364
826.346	5349
826.485	5376
826.625	5372
826.765	5573
826.904	5448
827.044	5292
827.183	5216
827.323	5086
827.462	5280
827.601	5151
827.741	5201
827.88	5204
828.02	5060
828.159	5254
828.298	5292
828.437	5349
828.577	5235
828.716	5444
828.855	5277
828.994	5151
829.134	5121
829.273	5216
829.412	5098
829.551	5128
829.69	5113
829.829	5208
829.968	5326
830.107	5235
830.246	5269
830.385	5113
830.524	5132
830.663	5048
830.802	4987
830.941	4881
831.08	4881
831.219	4946
831.357	5018
831.496	5117
831.635	4911
831.774	4805
831.913	4847
832.051	4702
832.19	4771
832.329	4854
832.467	4675
832.606	4588
832.744	4763
832.883	4691
833.022	4702
833.16	4816
833.299	4778
833.437	4850
833.576	4854
833.714	4850
833.852	4835
833.991	4900
834.129	4900
834.267	4919
834.406	4923
834.544	4946
834.682	4957
834.821	4908
834.959	5185
835.097	4976
835.235	5155
835.373	5098
835.511	5094
835.65	4995
835.788	4995
835.926	4881
836.064	4831
836.202	4900
836.34	5105
836.478	5204
836.615	5056
836.753	5208
836.891	5269
837.029	5227
837.167	5201
837.305	5117
837.443	5102
837.58	5090
837.718	5204
837.856	5197
837.993	5136
838.131	5162
838.269	5185
838.406	5178
838.544	5132
838.681	5010
838.819	4919
838.956	4870
839.094	4934
839.231	4953
839.369	5056
839.506	5368
839.643	5227
839.781	5052
839.918	4999
840.055	5090
840.193	5090
840.33	5102
840.467	5056
840.604	5181
840.742	5448
840.879	5025
841.016	5067
841.153	5090
841.29	5364
841.427	5273
841.564	5288
841.701	5307
841.838	5284
841.975	5223
842.112	5227
842.249	5109
842.385	5086
842.522	5326
842.659	5204
842.796	5105
842.933	5151
843.069	5147
843.206	5113
843.343	5296
843.479	5189
843.616	5239
843.752	5037
843.889	4968
844.025	5170
844.162	5010
844.298	5204
844.435	5067
844.571	5014
844.708	5201
844.844	5273
844.98	5303
845.117	5220
845.253	5143
845.389	5060
845.525	5181
845.661	5117
845.798	5033
845.934	5124
846.07	5010
846.206	5201
846.342	5223
846.478	5140
846.614	4999
846.75	4915
846.886	4919
847.022	5090
847.158	5014
847.294	5037
847.429	5090
847.565	5041
847.701	5322
847.837	4885
847.972	4809
848.108	4961
848.244	4968
848.379	4771
848.515	4706
848.65	4717
848.786	4744
848.921	4744
849.057	4854
849.192	4896
849.328	4850
849.463	4828
849.598	4797
849.734	4733
849.869	4694
850.004	4618
850.14	4702
850.275	4630
850.41	4554
850.545	4584
850.68	4584
850.815	4637
850.95	4653
851.085	4850
851.22	4721
851.355	4698
851.49	4645
851.625	4702
851.76	4672
851.895	4592
852.03	4565
852.165	4698
852.299	4733
852.434	4820
852.569	4782
852.703	4805
852.838	4858
852.973	4927
853.107	4980
853.242	4759
853.376	4687
853.511	4634
853.645	4607
853.78	4824
853.914	4721
854.048	4725
854.183	4687
854.317	4774
854.451	4850
854.585	4725
854.72	4714
854.854	4786
854.988	4596
855.122	4683
855.256	4588
855.39	4660
855.524	4778
855.658	4767
855.792	4733
855.926	4702
856.06	4774
856.194	4812
856.327	4694
856.461	4622
856.595	4622
856.729	4645
856.862	4824
856.996	4778
857.13	4759
857.263	4797
857.397	4877
857.53	4710
857.664	4767
857.797	4805
857.931	4805
858.064	4774
858.197	4820
858.331	4691
858.464	4641
858.597	4584
858.731	4668
858.864	4694
858.997	4637
859.13	4672
859.263	4706
859.396	4740
859.529	4580
859.662	4584
859.795	4550
859.928	4618
860.061	4740
860.194	4805
860.327	4611
860.46	4577
860.592	4710
860.725	4725
860.858	4752
860.99	4618
861.123	4546
861.256	4569
861.388	4634
861.521	5284
861.653	4508
861.786	4497
861.918	4485
862.05	4535
862.183	4550
862.315	4630
862.447	4649
862.58	4550
862.712	4440
862.844	4352
862.976	4493
863.108	4504
863.24	4896
863.372	4363
863.504	4443
863.636	4424
863.768	4493
863.9	4413
864.032	4421
864.164	4390
864.296	4489
864.428	4573
864.559	4580
864.691	4596
864.823	4565
864.954	4577
865.086	4527
865.217	4485
865.349	4421
865.48	4535
865.612	4508
865.743	4626
865.875	4481
866.006	4417
866.137	4436
866.269	4443
866.4	4451
866.531	4386
866.662	4440
866.793	4451
866.924	4436
867.055	4500
867.186	4500
867.317	4470
867.448	4417
867.579	4386
867.71	4394
867.841	4398
867.972	4447
868.103	4508
868.233	4462
868.364	4485
868.495	4508
868.625	4675
868.756	4790
868.886	4584
869.017	4630
869.147	4801
869.278	4755
869.408	4656
869.539	4630
869.669	4698
869.799	4660
869.929	4763
870.06	4755
870.19	4984
870.32	4915
870.45	4923
870.58	4987
870.71	5079
870.84	5102
870.97	4980
871.1	4930
871.23	5147
871.36	5083
871.489	5029
871.619	5075
871.749	5121
871.879	5113
872.008	5204
872.138	5113
872.267	4972
872.397	4843
872.526	4809
872.656	4740
872.785	4831
872.915	4987
873.044	5060
873.173	4953
873.303	5014
873.432	4980
873.561	5010
873.69	4889
873.819	4927
873.948	4885
874.077	4828
874.206	4725
874.335	4797
874.464	4919
874.593	5041
874.722	4995
874.851	5162
874.979	5086
875.108	5067
875.237	4911
875.365	4984
875.494	4881
875.623	4949
875.751	4850
875.88	4927
876.008	4968
876.136	5056
876.265	5235
876.393	5364
876.521	5284
876.65	5223
876.778	5162
876.906	5098
877.034	5048
877.162	5064
877.29	4984
877.418	5083
877.546	5033
877.674	5071
877.802	5105
877.93	5048
878.058	4961
878.185	4892
878.313	4930
878.441	4976
878.568	4858
878.696	4896
878.824	4991
878.951	4984
879.079	5204
879.206	5341
879.333	5140
879.461	4942
879.588	5010
879.715	5136
879.842	5223
879.97	4995
880.097	4831
880.224	4740
880.351	4847
880.478	4892
880.605	4805
880.732	4812
880.859	5048
880.986	4911
881.112	4915
881.239	4824
881.366	4687
881.493	4622
881.619	4618
881.746	4649
881.872	4649
881.999	4694
882.125	4664
882.252	4805
882.378	4847
882.505	4968
882.631	4831
882.757	4725
882.883	4752
883.01	4801
883.136	4691
883.262	4637
883.388	4634
883.514	4801
883.64	4900
883.766	4805
883.892	4721
884.018	4733
884.143	4850
884.269	5067
884.395	4683
884.52	4615
884.646	4641
884.772	4637
884.897	4577
885.023	4660
885.148	4790
885.274	4908
885.399	4782
885.524	4793
885.65	4675
885.775	4755
885.9	4675
886.025	4847
886.15	4812
886.275	4744
886.4	4683
886.525	4736
886.65	4729
886.775	4736
886.9	4892
887.025	5003
887.149	4866
887.274	4679
887.399	4653
887.523	4634
887.648	4550
887.773	4622
887.897	4778
888.021	4801
888.146	4752
888.27	4805
888.395	4987
888.519	4820
888.643	4805
888.767	4858
888.891	4740
889.015	4615
889.139	4660
889.263	4630
889.387	4755
889.511	4885
889.635	4774
889.759	4641
889.883	4675
890.006	4736
890.13	4839
890.254	4660
890.377	4660
890.501	4569
890.624	4546
890.748	4687
890.871	4561
890.995	4417
891.118	4394
891.241	4550
891.364	4599
891.488	4672
891.611	4512
891.734	4531
891.857	4641
891.98	4588
892.103	4668
892.226	4569
892.349	4523
892.471	4436
892.594	4565
892.717	4634
892.839	4565
892.962	4603
893.085	4687
893.207	4626
893.33	4478
893.452	4565
893.575	4687
893.697	4622
893.819	4835
893.941	4835
894.064	4790
894.186	4592
894.308	4588
894.43	4721
894.552	4824
894.674	4790
894.796	4618
894.918	4672
895.04	4554
895.161	4755
895.283	4687
895.405	4584
895.526	4653
895.648	4725
895.769	4691
895.891	4748
896.012	4801
896.134	4694
896.255	4664
896.376	4637
896.498	4603
896.619	4683
896.74	4630
896.861	4752
896.982	4889
897.103	5083
897.224	4908
897.345	4740
897.466	4675
897.587	4759
897.708	4854
897.828	4774
897.949	4664
898.07	4554
898.19	4660
898.311	4839
898.431	4698
898.552	4736
898.672	4782
898.792	4801
898.913	4786
899.033	4641
899.153	4531
899.273	4462
899.393	4504
899.513	4497
899.633	4531
899.753	4489
899.873	4516
899.993	4558
900.113	4500
900.232	4607
900.352	4558
900.472	4493
900.591	4413
900.711	4516
900.83	4447
900.95	4607
901.069	4725
901.189	4596
901.308	4421
901.427	4329
901.546	4402
901.665	4500
901.784	4584
901.904	4322
902.023	4322
902.141	4215
902.26	4173
902.379	4310
902.498	4276
902.617	4234
902.735	4363
902.854	4432
902.973	4333
903.091	4223
903.21	4196
903.328	4337
903.446	4276
903.565	4303
903.683	4383
903.801	4325
903.919	4371
904.038	4459
904.156	4325
904.274	4470
904.392	4417
904.51	4436
904.627	4512
904.745	4622
904.863	4626
904.981	4421
905.098	4329
905.216	4394
905.334	4443
905.451	4462
905.569	4440
905.686	4527
905.803	4550
905.921	4428
906.038	4519
906.155	4481
906.272	4398
906.389	4451
906.506	4356
906.623	4402
906.74	4409
906.857	4325
906.974	4386
907.091	4592
907.208	4668
907.324	4565
907.441	4481
907.557	4363
907.674	4322
907.79	4337
907.907	4371
908.023	4538
908.139	4493
908.256	4470
908.372	4470
908.488	4493
908.604	4394
908.72	4360
908.836	4390
908.952	4379
909.068	4428
909.184	4542
909.3	4527
909.415	4596
909.531	4516
909.647	4367
909.762	4421
909.878	4398
909.993	4478
910.108	4428
910.224	4398
910.339	4493
910.454	4409
910.57	4352
910.685	4337
910.8	4660
910.915	4622
911.03	4527
911.145	4329
911.259	4322
911.374	4356
911.489	4276
911.604	4280
911.718	4219
911.833	4227
911.947	4074
912.062	4013
912.176	4230
912.291	4242
912.405	4238
912.519	4481
912.633	4504
912.748	4390
912.862	4344
912.976	4173
913.09	4105
913.204	4177
913.318	4303
913.431	4405
913.545	4379
913.659	4424
913.772	4375
913.886	4291
914	4261
914.113	4398
914.226	4470
914.34	4390
914.453	4227
914.566	4432
914.68	4306
914.793	4318
914.906	4120
915.019	4101
915.132	4078
915.245	4207
915.358	4185
915.47	4234
915.583	4246
915.696	4318
915.809	4383
915.921	4383
916.034	4272
916.146	4261
916.259	4219
916.371	4394
916.483	4337
916.595	4306
916.708	4352
916.82	4325
916.932	4356
917.044	4325
917.156	4352
917.268	4280
917.38	4299
917.491	4280
917.603	4398
917.715	4394
917.826	4489
917.938	4341
918.049	4253
918.161	4428
918.272	4538
918.384	4573
918.495	4481
918.606	4325
918.717	4261
918.828	4383
918.939	4417
919.05	4284
919.161	4360
919.272	4177
919.383	4265
919.494	4504
919.604	4664
919.715	4497
919.826	4394
919.936	4405
920.047	4561
920.157	4516
920.267	4714
920.378	4649
920.488	4527
920.598	4744
920.708	4938
920.818	4797
920.928	4763
921.038	5018
921.148	4991
921.258	4637
921.368	4577
921.477	4508
921.587	4497
921.697	4409
921.806	4607
921.916	4451
922.025	4303
922.134	4310
922.244	4287
922.353	4386
922.462	4192
922.571	4173
922.68	4032
922.789	4029
922.898	4055
923.007	4059
923.116	4169
923.224	4082
923.333	4131
923.442	4051
923.55	4029
923.659	4055
923.767	4131
923.876	3987
923.984	4154
924.092	4036
924.201	4112
924.309	4154
924.417	4150
924.525	4105
924.633	4150
924.741	5060
924.849	3937
924.956	4162
925.064	4006
925.172	3949
925.279	4006
925.387	4101
925.494	4131
925.602	4234
925.709	4234
925.816	4090
925.924	4177
926.031	4227
926.138	4234
926.245	4257
926.352	4105
926.459	4230
926.566	4337
926.673	4181
926.779	4158
926.886	4101
926.993	4002
927.099	3941
927.206	3975
927.312	3991
927.419	4105
927.525	4055
927.631	4120
927.737	4006
927.843	3975
927.95	3869
928.056	3956
928.162	4036
928.267	4139
928.373	4706
928.479	4120
928.585	3922
928.69	4097
928.796	4059
928.901	3994
929.007	3857
929.112	4055
929.218	4029
929.323	3979
929.428	3983
929.533	4131
929.638	3945
929.743	3998
929.848	4135
929.953	4013
930.058	3930
930.163	3838
930.267	3854
930.372	4006
930.477	3838
930.581	4139
930.685	3979
930.79	3857
930.894	3926
930.998	3896
931.103	4078
931.207	3705
931.311	3724
931.415	3698
931.519	3534
931.623	3584
