Data from test_V78500241_921.txt Node
Date: Fri Mar 25 16:55:24 CST 2022
User: usil
Spectrometer: V785-0024
Trigger mode: 0
Integration Time (sec): 4.000000E-1
Scans to average: 1
Nonlinearity correction enabled: false
Boxcar width: 0
Storing dark spectrum: false
XAxis mode: Wavelengths
Number of Pixels in Spectrum: 1024
>>>>>Begin Spectral Data<<<<<
801.071	8020
801.214	8024
801.356	7928
801.499	7849
801.641	7757
801.783	7837
801.926	8084
802.068	7932
802.211	7906
802.353	7951
802.496	7860
802.638	7887
802.78	7978
802.923	7879
803.065	7849
803.208	7921
803.35	8024
803.492	8145
803.635	8233
803.777	8008
803.919	8130
804.061	8415
804.204	8081
804.346	7978
804.488	7890
804.63	8054
804.773	8043
804.915	8001
805.057	8218
805.199	8164
805.341	8214
805.483	8267
805.626	8145
805.768	8107
805.91	8172
806.052	8202
806.194	8065
806.336	8259
806.478	8161
806.62	8031
806.762	8164
806.904	8218
807.046	8442
807.188	8328
807.33	8298
807.472	8301
807.614	8145
807.756	8115
807.898	7963
808.04	7902
808.182	7845
808.324	7826
808.465	7925
808.607	7986
808.749	8149
808.891	8267
809.033	8279
809.174	8180
809.316	8058
809.458	8008
809.6	7940
809.741	8058
809.883	8001
810.025	8107
810.166	8035
810.308	7970
810.45	7978
810.591	7845
810.733	7750
810.875	7651
811.016	7510
811.158	7430
811.299	7632
811.441	7715
811.582	7693
811.724	7601
811.865	7529
812.007	7578
812.148	7571
812.29	7578
812.431	7727
812.573	7830
812.714	7871
812.855	8088
812.997	8191
813.138	8282
813.279	8202
813.421	8069
813.562	8039
813.703	7811
813.845	7723
813.986	7457
814.127	7320
814.268	7240
814.41	7179
814.551	7103
814.692	7141
814.833	7046
814.974	7084
815.115	7050
815.256	6943
815.397	6993
815.539	6951
815.68	6897
815.821	6779
815.962	6833
816.103	6825
816.244	6715
816.385	6658
816.526	6665
816.666	6448
816.807	6239
816.948	6426
817.089	6464
817.23	6433
817.371	6380
817.512	6384
817.653	6395
817.793	6403
817.934	6323
818.075	6456
818.216	6464
818.356	6418
818.497	6232
818.638	6091
818.778	6129
818.919	6144
819.06	6083
819.2	6296
819.341	6296
819.481	6361
819.622	6464
819.762	6688
819.903	6715
820.043	6616
820.184	6585
820.324	6559
820.465	6623
820.605	6612
820.746	6593
820.886	6525
821.026	6597
821.167	6707
821.307	6768
821.447	6760
821.588	6650
821.728	6578
821.868	6498
822.008	6254
822.149	6433
822.289	6350
822.429	6114
822.569	6079
822.709	6034
822.849	5935
822.99	5882
823.13	5874
823.27	5889
823.41	5733
823.55	5756
823.69	5786
823.83	5752
823.97	5676
824.11	5490
824.25	5535
824.389	5532
824.529	5520
824.669	5402
824.809	5608
824.949	5668
825.089	5547
825.228	5535
825.368	5387
825.508	5284
825.648	5360
825.787	5376
825.927	5337
826.067	5299
826.206	5269
826.346	5398
826.485	5372
826.625	5364
826.765	5478
826.904	5452
827.044	5330
827.183	5216
827.323	5102
827.462	5197
827.601	5121
827.741	5140
827.88	5227
828.02	5147
828.159	5220
828.298	5322
828.437	5341
828.577	5277
828.716	5444
828.855	5307
828.994	5159
829.134	5155
829.273	5223
829.412	5143
829.551	5113
829.69	5128
829.829	5193
829.968	5391
830.107	5235
830.246	5246
830.385	5151
830.524	5121
830.663	5022
830.802	4999
830.941	4881
831.08	4889
831.219	4968
831.357	5006
831.496	5136
831.635	4892
831.774	4824
831.913	4854
832.051	4717
832.19	4771
832.329	4801
832.467	4691
832.606	4580
832.744	4687
832.883	4679
833.022	4702
833.16	4774
833.299	4782
833.437	4847
833.576	4862
833.714	4801
833.852	4850
833.991	4885
834.129	4976
834.267	4934
834.406	4847
834.544	4923
834.682	4961
834.821	4957
834.959	5159
835.097	4999
835.235	5128
835.373	5037
835.511	5090
835.65	5041
835.788	4999
835.926	4927
836.064	4828
836.202	4885
836.34	5174
836.478	5193
836.615	5147
836.753	5159
836.891	5258
837.029	5223
837.167	5170
837.305	5174
837.443	5162
837.58	5056
837.718	5220
837.856	5143
837.993	5094
838.131	5212
838.269	5231
838.406	5132
838.544	5124
838.681	5060
838.819	4991
838.956	4934
839.094	4866
839.231	4980
839.369	5041
839.506	5398
839.643	5227
839.781	5075
839.918	4995
840.055	5048
840.193	5094
840.33	5029
840.467	5132
840.604	5185
840.742	5463
840.879	5071
841.016	5033
841.153	5121
841.29	5357
841.427	5296
841.564	5239
841.701	5322
841.838	5242
841.975	5223
842.112	5250
842.249	5140
842.385	5102
842.522	5284
842.659	5197
842.796	5102
842.933	5193
843.069	5178
843.206	5170
843.343	5250
843.479	5189
843.616	5269
843.752	4987
843.889	5025
844.025	5197
844.162	5010
844.298	5197
844.435	5060
844.571	5033
844.708	5208
844.844	5269
844.98	5315
845.117	5261
845.253	5147
845.389	5067
845.525	5117
845.661	5098
845.798	4980
845.934	5151
846.07	5029
846.206	5178
846.342	5250
846.478	5121
846.614	4987
846.75	4965
846.886	4946
847.022	5121
847.158	4991
847.294	5064
847.429	5121
847.565	5083
847.701	5318
847.837	4847
847.972	4809
848.108	4927
848.244	4911
848.379	4767
848.515	4694
848.65	4672
848.786	4725
848.921	4786
849.057	4839
849.192	4889
849.328	4812
849.463	4847
849.598	4805
849.734	4729
849.869	4672
850.004	4611
850.14	4649
850.275	4615
850.41	4478
850.545	4516
850.68	4599
850.815	4592
850.95	4618
851.085	4850
851.22	4778
851.355	4645
851.49	4645
851.625	4664
851.76	4668
851.895	4538
852.03	4504
852.165	4641
852.299	4675
852.434	4748
852.569	4721
852.703	4771
852.838	4816
852.973	4866
853.107	4881
853.242	4740
853.376	4672
853.511	4519
853.645	4573
853.78	4816
853.914	4698
854.048	4672
854.183	4584
854.317	4721
854.451	4866
854.585	4668
854.72	4622
854.854	4736
854.988	4573
855.122	4649
855.256	4504
855.39	4664
855.524	4767
855.658	4744
855.792	4717
855.926	4714
856.06	4759
856.194	4774
856.327	4702
856.461	4569
856.595	4580
856.729	4607
856.862	4706
856.996	4691
857.13	4710
857.263	4729
857.397	4793
857.53	4645
857.664	4717
857.797	4755
857.931	4714
858.064	4649
858.197	4778
858.331	4630
858.464	4580
858.597	4546
858.731	4569
858.864	4653
858.997	4588
859.13	4668
859.263	4675
859.396	4653
859.529	4584
859.662	4588
859.795	4523
859.928	4599
860.061	4721
860.194	4733
860.327	4618
860.46	4565
860.592	4710
860.725	4691
860.858	4725
860.99	4577
861.123	4485
861.256	4500
861.388	4599
861.521	5124
861.653	4447
861.786	4443
861.918	4402
862.05	4493
862.183	4577
862.315	4584
862.447	4630
862.58	4508
862.712	4379
862.844	4299
862.976	4466
863.108	4428
863.24	4740
863.372	4325
863.504	4398
863.636	4386
863.768	4489
863.9	4432
864.032	4348
864.164	4402
864.296	4470
864.428	4538
864.559	4542
864.691	4481
864.823	4497
864.954	4474
865.086	4500
865.217	4447
865.349	4451
865.48	4417
865.612	4466
865.743	4641
865.875	4428
866.006	4386
866.137	4466
866.269	4413
866.4	4421
866.531	4428
866.662	4413
866.793	4390
866.924	4451
867.055	4512
867.186	4466
867.317	4405
867.448	4390
867.579	4424
867.71	4390
867.841	4367
867.972	4459
868.103	4470
868.233	4440
868.364	4405
868.495	4462
868.625	4649
868.756	4740
868.886	4531
869.017	4634
869.147	4790
869.278	4767
869.408	4649
869.539	4630
869.669	4691
869.799	4683
869.929	4725
870.06	4714
870.19	4987
870.32	4911
870.45	4968
870.58	4980
870.71	5098
870.84	5071
870.97	4889
871.1	4900
871.23	5109
871.36	5124
871.489	5041
871.619	5060
871.749	5090
871.879	5067
872.008	5246
872.138	5045
872.267	4961
872.397	4820
872.526	4778
872.656	4725
872.785	4801
872.915	4923
873.044	4972
873.173	4881
873.303	4927
873.432	4892
873.561	4946
873.69	4843
873.819	4854
873.948	4885
874.077	4854
874.206	4763
874.335	4778
874.464	4889
874.593	4995
874.722	4976
874.851	5128
874.979	5052
875.108	4987
875.237	4885
875.365	4847
875.494	4835
875.623	4896
875.751	4831
875.88	4850
876.008	4938
876.136	5045
876.265	5265
876.393	5311
876.521	5261
876.65	5201
876.778	5140
876.906	5033
877.034	4972
877.162	5045
877.29	4953
877.418	5064
877.546	5052
877.674	5006
877.802	5025
877.93	4995
878.058	4930
878.185	4854
878.313	4949
878.441	4995
878.568	4831
878.696	4850
878.824	4934
878.951	4987
879.079	5109
879.206	5220
879.333	5128
879.461	4930
879.588	4946
879.715	5086
879.842	5189
879.97	4995
880.097	4725
880.224	4763
880.351	4797
880.478	4782
880.605	4778
880.732	4824
880.859	5037
880.986	4889
881.112	4927
881.239	4767
881.366	4634
881.493	4599
881.619	4588
881.746	4626
881.872	4584
881.999	4660
882.125	4645
882.252	4782
882.378	4812
882.505	4946
882.631	4763
882.757	4649
882.883	4706
883.01	4706
883.136	4645
883.262	4580
883.388	4577
883.514	4763
883.64	4866
883.766	4778
883.892	4687
884.018	4740
884.143	4862
884.269	5014
884.395	4637
884.52	4668
884.646	4611
884.772	4558
884.897	4565
885.023	4573
885.148	4729
885.274	4862
885.399	4767
885.524	4694
885.65	4668
885.775	4736
885.9	4702
886.025	4847
886.15	4805
886.275	4736
886.4	4668
886.525	4725
886.65	4668
886.775	4691
886.9	4904
887.025	5075
887.149	4721
887.274	4656
887.399	4569
887.523	4554
887.648	4599
887.773	4500
887.897	4710
888.021	4763
888.146	4687
888.27	4755
888.395	4866
888.519	4824
888.643	4828
888.767	4843
888.891	4683
889.015	4615
889.139	4622
889.263	4615
889.387	4725
889.511	4812
889.635	4767
889.759	4626
889.883	4637
890.006	4744
890.13	4820
890.254	4554
890.377	4660
890.501	4538
890.624	4519
890.748	4668
890.871	4474
890.995	4379
891.118	4375
891.241	4504
891.364	4516
891.488	4694
891.611	4474
891.734	4519
891.857	4573
891.98	4577
892.103	4611
892.226	4538
892.349	4508
892.471	4409
892.594	4558
892.717	4607
892.839	4523
892.962	4599
893.085	4634
893.207	4577
893.33	4455
893.452	4455
893.575	4653
893.697	4596
893.819	4793
893.941	4793
894.064	4736
894.186	4569
894.308	4538
894.43	4706
894.552	4809
894.674	4672
894.796	4546
894.918	4558
895.04	4584
895.161	4721
895.283	4645
895.405	4558
895.526	4596
895.648	4683
895.769	4698
895.891	4694
896.012	4675
896.134	4710
896.255	4634
896.376	4615
896.498	4611
896.619	4683
896.74	4607
896.861	4641
896.982	4949
897.103	5037
897.224	4816
897.345	4763
897.466	4641
897.587	4664
897.708	4755
897.828	4736
897.949	4687
898.07	4550
898.19	4630
898.311	4805
898.431	4675
898.552	4660
898.672	4763
898.792	4771
898.913	4691
899.033	4622
899.153	4504
899.273	4432
899.393	4451
899.513	4478
899.633	4436
899.753	4531
899.873	4508
899.993	4565
900.113	4459
900.232	4584
900.352	4527
900.472	4424
900.591	4371
900.711	4451
900.83	4432
900.95	4596
901.069	4656
901.189	4554
901.308	4344
901.427	4341
901.546	4363
901.665	4455
901.784	4462
901.904	4356
902.023	4280
902.141	4185
902.26	4188
902.379	4261
902.498	4227
902.617	4131
902.735	4352
902.854	4383
902.973	4356
903.091	4162
903.21	4215
903.328	4291
903.446	4234
903.565	4242
903.683	4314
903.801	4268
903.919	4390
904.038	4428
904.156	4253
904.274	4383
904.392	4363
904.51	4428
904.627	4455
904.745	4626
904.863	4584
904.981	4371
905.098	4295
905.216	4344
905.334	4409
905.451	4379
905.569	4443
905.686	4500
905.803	4519
905.921	4390
906.038	4531
906.155	4459
906.272	4375
906.389	4424
906.506	4299
906.623	4371
906.74	4413
906.857	4265
906.974	4348
907.091	4519
907.208	4649
907.324	4550
907.441	4497
907.557	4333
907.674	4337
907.79	4303
907.907	4394
908.023	4508
908.139	4478
908.256	4466
908.372	4481
908.488	4447
908.604	4329
908.72	4367
908.836	4409
908.952	4402
909.068	4466
909.184	4618
909.3	4481
909.415	4603
909.531	4565
909.647	4398
909.762	4341
909.878	4371
909.993	4485
910.108	4451
910.224	4383
910.339	4497
910.454	4436
910.57	4413
910.685	4299
910.8	4626
910.915	4656
911.03	4462
911.145	4356
911.259	4360
911.374	4405
911.489	4337
911.604	4291
911.718	4204
911.833	4223
911.947	4131
912.062	4051
912.176	4265
912.291	4265
912.405	4249
912.519	4478
912.633	4577
912.748	4424
912.862	4371
912.976	4177
913.09	4128
913.204	4234
913.318	4295
913.431	4386
913.545	4447
913.659	4474
913.772	4375
913.886	4265
914	4257
914.113	4424
914.226	4462
914.34	4451
914.453	4253
914.566	4432
914.68	4310
914.793	4367
914.906	4173
915.019	4139
915.132	4101
915.245	4211
915.358	4280
915.47	4284
915.583	4280
915.696	4310
915.809	4432
915.921	4462
916.034	4325
916.146	4287
916.259	4242
916.371	4474
916.483	4436
916.595	4268
916.708	4337
916.82	4356
916.932	4386
917.044	4352
917.156	4352
917.268	4261
917.38	4337
917.491	4276
917.603	4352
917.715	4474
917.826	4443
917.938	4367
918.049	4276
918.161	4390
918.272	4554
918.384	4588
918.495	4500
918.606	4280
918.717	4322
918.828	4398
918.939	4371
919.05	4265
919.161	4383
919.272	4192
919.383	4318
919.494	4455
919.604	4691
919.715	4481
919.826	4371
919.936	4443
920.047	4535
920.157	4554
920.267	4759
920.378	4561
920.488	4512
920.598	4748
920.708	4911
920.818	4759
920.928	4801
921.038	4984
921.148	4919
921.258	4622
921.368	4565
921.477	4554
921.587	4447
921.697	4417
921.806	4599
921.916	4451
922.025	4314
922.134	4268
922.244	4261
922.353	4375
922.462	4192
922.571	4162
922.68	4025
922.789	4044
922.898	4093
923.007	4048
923.116	4116
923.224	4128
923.333	4055
923.442	4017
923.55	3956
923.659	4090
923.767	4131
923.876	3991
923.984	4116
924.092	4063
924.201	4067
924.309	4131
924.417	4139
924.525	4048
924.633	4154
924.741	4908
924.849	3960
924.956	4135
925.064	3983
925.172	3934
925.279	4010
925.387	4067
925.494	4082
925.602	4238
925.709	4227
925.816	4040
925.924	4173
926.031	4257
926.138	4188
926.245	4188
926.352	4135
926.459	4299
926.566	4325
926.673	4196
926.779	4143
926.886	4071
926.993	4036
927.099	4006
927.206	3987
927.312	3998
927.419	4055
927.525	4059
927.631	4154
927.737	3979
927.843	3979
927.95	3899
928.056	3983
928.162	3998
928.267	4059
928.373	4569
928.479	4112
928.585	3915
928.69	4010
928.796	4082
928.901	4017
929.007	3854
929.112	4021
929.218	4036
929.323	3918
929.428	3968
929.533	4162
929.638	3918
929.743	3979
929.848	4063
929.953	4006
930.058	3983
930.163	3823
930.267	3861
930.372	4040
930.477	3823
930.581	4135
930.685	3998
930.79	3842
930.894	3918
930.998	3911
931.103	4051
931.207	3755
931.311	3728
931.415	3705
931.519	3538
931.623	3603
