Data from test_V78500241_2349.txt Node
Date: Fri Mar 25 17:05:20 CST 2022
User: usil
Spectrometer: V785-0024
Trigger mode: 0
Integration Time (sec): 4.000000E-1
Scans to average: 1
Nonlinearity correction enabled: false
Boxcar width: 0
Storing dark spectrum: false
XAxis mode: Wavelengths
Number of Pixels in Spectrum: 1024
>>>>>Begin Spectral Data<<<<<
801.071	8027
801.214	7932
801.356	7769
801.499	7826
801.641	7765
801.783	7822
801.926	7967
802.068	7955
802.211	8005
802.353	7967
802.496	7860
802.638	7875
802.78	7879
802.923	7887
803.065	7849
803.208	7807
803.35	7978
803.492	8039
803.635	8183
803.777	8035
803.919	8123
804.061	8431
804.204	8157
804.346	8050
804.488	7982
804.63	7993
804.773	7974
804.915	8096
805.057	8286
805.199	8172
805.341	8240
805.483	8259
805.626	8202
805.768	8065
805.91	8206
806.052	8164
806.194	8084
806.336	8301
806.478	8069
806.62	8088
806.762	8142
806.904	8256
807.046	8480
807.188	8328
807.33	8324
807.472	8320
807.614	8161
807.756	8164
807.898	8062
808.04	7928
808.182	7887
808.324	7860
808.465	7833
808.607	8046
808.749	8084
808.891	8176
809.033	8233
809.174	8225
809.316	8157
809.458	8096
809.6	8043
809.741	8069
809.883	7993
810.025	8088
810.166	8001
810.308	8020
810.45	7989
810.591	7860
810.733	7753
810.875	7700
811.016	7575
811.158	7422
811.299	7563
811.441	7704
811.582	7632
811.724	7594
811.865	7533
812.007	7594
812.148	7559
812.29	7643
812.431	7772
812.573	7909
812.714	7986
812.855	8142
812.997	8176
813.138	8370
813.279	8229
813.421	8084
813.562	7951
813.703	7875
813.845	7731
813.986	7441
814.127	7301
814.268	7190
814.41	7217
814.551	7171
814.692	7202
814.833	7091
814.974	7103
815.115	7103
815.256	6909
815.397	6909
815.539	6973
815.68	6840
815.821	6776
815.962	6920
816.103	6825
816.244	6696
816.385	6620
816.526	6616
816.666	6483
816.807	6315
816.948	6429
817.089	6483
817.23	6506
817.371	6395
817.512	6365
817.653	6350
817.793	6353
817.934	6448
818.075	6441
818.216	6437
818.356	6437
818.497	6194
818.638	6171
818.778	6148
818.919	6098
819.06	6178
819.2	6319
819.341	6384
819.481	6357
819.622	6570
819.762	6776
819.903	6730
820.043	6566
820.184	6593
820.324	6593
820.465	6700
820.605	6665
820.746	6631
820.886	6525
821.026	6722
821.167	6741
821.307	6856
821.447	6738
821.588	6639
821.728	6593
821.868	6475
822.008	6369
822.149	6433
822.289	6334
822.429	6129
822.569	6117
822.709	6178
822.849	5927
822.99	5916
823.13	5923
823.27	5980
823.41	5809
823.55	5802
823.69	5752
823.83	5752
823.97	5688
824.11	5509
824.25	5493
824.389	5573
824.529	5604
824.669	5516
824.809	5638
824.949	5726
825.089	5646
825.228	5566
825.368	5398
825.508	5322
825.648	5349
825.787	5406
825.927	5448
826.067	5322
826.206	5273
826.346	5429
826.485	5452
826.625	5417
826.765	5585
826.904	5543
827.044	5265
827.183	5204
827.323	5155
827.462	5204
827.601	5220
827.741	5258
827.88	5265
828.02	5132
828.159	5223
828.298	5353
828.437	5376
828.577	5330
828.716	5547
828.855	5379
828.994	5227
829.134	5166
829.273	5223
829.412	5208
829.551	5223
829.69	5208
829.829	5299
829.968	5406
830.107	5307
830.246	5288
830.385	5227
830.524	5170
830.663	5151
830.802	5033
830.941	4927
831.08	4938
831.219	5041
831.357	5014
831.496	5155
831.635	5014
831.774	4915
831.913	4953
832.051	4824
832.19	4801
832.329	4870
832.467	4755
832.606	4714
832.744	4809
832.883	4805
833.022	4797
833.16	4820
833.299	4870
833.437	4881
833.576	4892
833.714	4904
833.852	4896
833.991	4934
834.129	5029
834.267	5006
834.406	4957
834.544	5010
834.682	5083
834.821	4972
834.959	5216
835.097	5041
835.235	5147
835.373	5079
835.511	5124
835.65	5060
835.788	5056
835.926	4877
836.064	4946
836.202	4999
836.34	5208
836.478	5311
836.615	5178
836.753	5220
836.891	5284
837.029	5242
837.167	5261
837.305	5151
837.443	5178
837.58	5117
837.718	5284
837.856	5204
837.993	5178
838.131	5277
838.269	5242
838.406	5227
838.544	5227
838.681	5064
838.819	5079
838.956	4892
839.094	4911
839.231	5037
839.369	5113
839.506	5512
839.643	5246
839.781	5140
839.918	5041
840.055	5155
840.193	5151
840.33	5147
840.467	5155
840.604	5178
840.742	5421
840.879	5098
841.016	5140
841.153	5204
841.29	5398
841.427	5433
841.564	5349
841.701	5429
841.838	5284
841.975	5212
842.112	5254
842.249	5185
842.385	5109
842.522	5387
842.659	5197
842.796	5193
842.933	5216
843.069	5201
843.206	5162
843.343	5360
843.479	5296
843.616	5296
843.752	5052
843.889	5056
844.025	5235
844.162	5052
844.298	5220
844.435	5132
844.571	5067
844.708	5212
844.844	5322
844.98	5349
845.117	5284
845.253	5162
845.389	5090
845.525	5181
845.661	5273
845.798	5064
845.934	5159
846.07	5048
846.206	5201
846.342	5296
846.478	5231
846.614	5045
846.75	4984
846.886	5022
847.022	5155
847.158	5003
847.294	5102
847.429	5143
847.565	5094
847.701	5307
847.837	4896
847.972	4858
848.108	4976
848.244	4934
848.379	4755
848.515	4771
848.65	4771
848.786	4710
848.921	4850
849.057	4892
849.192	4923
849.328	4790
849.463	4858
849.598	4831
849.734	4820
849.869	4729
850.004	4637
850.14	4675
850.275	4668
850.41	4561
850.545	4588
850.68	4641
850.815	4664
850.95	4668
851.085	4870
851.22	4778
851.355	4691
851.49	4592
851.625	4672
851.76	4694
851.895	4554
852.03	4542
852.165	4740
852.299	4752
852.434	4820
852.569	4767
852.703	4797
852.838	4885
852.973	4980
853.107	4911
853.242	4744
853.376	4717
853.511	4577
853.645	4641
853.78	4839
853.914	4721
854.048	4744
854.183	4653
854.317	4748
854.451	4934
854.585	4698
854.72	4679
854.854	4767
854.988	4618
855.122	4664
855.256	4508
855.39	4660
855.524	4870
855.658	4714
855.792	4744
855.926	4744
856.06	4793
856.194	4858
856.327	4706
856.461	4618
856.595	4656
856.729	4649
856.862	4790
856.996	4733
857.13	4744
857.263	4843
857.397	4862
857.53	4626
857.664	4733
857.797	4797
857.931	4835
858.064	4702
858.197	4801
858.331	4714
858.464	4641
858.597	4558
858.731	4664
858.864	4710
858.997	4607
859.13	4641
859.263	4710
859.396	4755
859.529	4603
859.662	4558
859.795	4580
859.928	4694
860.061	4786
860.194	4809
860.327	4664
860.46	4588
860.592	4752
860.725	4782
860.858	4733
860.99	4577
861.123	4603
861.256	4577
861.388	4641
861.521	5326
861.653	4481
861.786	4504
861.918	4500
862.05	4546
862.183	4577
862.315	4622
862.447	4634
862.58	4577
862.712	4462
862.844	4363
862.976	4493
863.108	4493
863.24	4911
863.372	4375
863.504	4451
863.636	4451
863.768	4535
863.9	4462
864.032	4413
864.164	4417
864.296	4519
864.428	4596
864.559	4599
864.691	4554
864.823	4573
864.954	4519
865.086	4504
865.217	4508
865.349	4417
865.48	4478
865.612	4447
865.743	4618
865.875	4519
866.006	4455
866.137	4527
866.269	4447
866.4	4428
866.531	4447
866.662	4436
866.793	4432
866.924	4421
867.055	4497
867.186	4523
867.317	4459
867.448	4405
867.579	4413
867.71	4371
867.841	4379
867.972	4504
868.103	4474
868.233	4443
868.364	4493
868.495	4489
868.625	4691
868.756	4717
868.886	4584
869.017	4694
869.147	4805
869.278	4790
869.408	4702
869.539	4660
869.669	4740
869.799	4675
869.929	4793
870.06	4809
870.19	4991
870.32	5003
870.45	4911
870.58	5056
870.71	5117
870.84	5128
870.97	4972
871.1	4942
871.23	5147
871.36	5056
871.489	5067
871.619	5083
871.749	5113
871.879	5147
872.008	5216
872.138	5105
872.267	5006
872.397	4870
872.526	4862
872.656	4729
872.785	4854
872.915	4987
873.044	5060
873.173	5006
873.303	5003
873.432	4976
873.561	4987
873.69	4927
873.819	4892
873.948	4915
874.077	4839
874.206	4771
874.335	4820
874.464	4972
874.593	5083
874.722	4987
874.851	5140
874.979	5121
875.108	5071
875.237	4957
875.365	4862
875.494	4919
875.623	4995
875.751	4866
875.88	4923
876.008	5029
876.136	5060
876.265	5242
876.393	5364
876.521	5277
876.65	5235
876.778	5174
876.906	5094
877.034	5060
877.162	5033
877.29	5022
877.418	5136
877.546	5052
877.674	5067
877.802	5025
877.93	5067
878.058	4972
878.185	4866
878.313	4976
878.441	4930
878.568	4812
878.696	4911
878.824	4995
878.951	5048
879.079	5147
879.206	5341
879.333	5162
879.461	5033
879.588	5014
879.715	5121
879.842	5273
879.97	5014
880.097	4793
880.224	4752
880.351	4904
880.478	4812
880.605	4870
880.732	4786
880.859	5128
880.986	4949
881.112	4984
881.239	4782
881.366	4706
881.493	4603
881.619	4637
881.746	4611
881.872	4691
881.999	4653
882.125	4702
882.252	4828
882.378	4881
882.505	4999
882.631	4854
882.757	4694
882.883	4778
883.01	4748
883.136	4725
883.262	4611
883.388	4607
883.514	4805
883.64	4828
883.766	4854
883.892	4668
884.018	4721
884.143	4900
884.269	4968
884.395	4710
884.52	4626
884.646	4694
884.772	4584
884.897	4565
885.023	4725
885.148	4801
885.274	4858
885.399	4801
885.524	4744
885.65	4691
885.775	4733
885.9	4736
886.025	4862
886.15	4790
886.275	4706
886.4	4717
886.525	4733
886.65	4748
886.775	4721
886.9	4961
887.025	5010
887.149	4839
887.274	4637
887.399	4626
887.523	4615
887.648	4588
887.773	4630
887.897	4748
888.021	4835
888.146	4717
888.27	4835
888.395	4942
888.519	4805
888.643	4778
888.767	4824
888.891	4698
889.015	4577
889.139	4656
889.263	4649
889.387	4740
889.511	4892
889.635	4843
889.759	4653
889.883	4664
890.006	4702
890.13	4820
890.254	4641
890.377	4691
890.501	4535
890.624	4546
890.748	4694
890.871	4554
890.995	4481
891.118	4440
891.241	4519
891.364	4569
891.488	4645
891.611	4481
891.734	4584
891.857	4573
891.98	4573
892.103	4645
892.226	4588
892.349	4523
892.471	4436
892.594	4516
892.717	4596
892.839	4592
892.962	4618
893.085	4675
893.207	4592
893.33	4466
893.452	4531
893.575	4683
893.697	4615
893.819	4812
893.941	4854
894.064	4748
894.186	4630
894.308	4584
894.43	4706
894.552	4835
894.674	4759
894.796	4569
894.918	4641
895.04	4599
895.161	4687
895.283	4687
895.405	4580
895.526	4660
895.648	4721
895.769	4744
895.891	4679
896.012	4725
896.134	4702
896.255	4687
896.376	4668
896.498	4584
896.619	4710
896.74	4641
896.861	4710
896.982	4968
897.103	5071
897.224	4843
897.345	4763
897.466	4691
897.587	4687
897.708	4843
897.828	4774
897.949	4668
898.07	4546
898.19	4603
898.311	4877
898.431	4683
898.552	4725
898.672	4797
898.792	4763
898.913	4744
899.033	4649
899.153	4512
899.273	4443
899.393	4531
899.513	4538
899.633	4519
899.753	4546
899.873	4478
899.993	4592
900.113	4607
900.232	4573
900.352	4592
900.472	4489
900.591	4402
900.711	4466
900.83	4424
900.95	4653
901.069	4694
901.189	4580
901.308	4383
901.427	4379
901.546	4363
901.665	4481
901.784	4527
901.904	4405
902.023	4333
902.141	4207
902.26	4215
902.379	4284
902.498	4234
902.617	4287
902.735	4383
902.854	4440
902.973	4383
903.091	4246
903.21	4230
903.328	4306
903.446	4295
903.565	4242
903.683	4398
903.801	4291
903.919	4383
904.038	4428
904.156	4310
904.274	4474
904.392	4436
904.51	4474
904.627	4451
904.745	4550
904.863	4660
904.981	4390
905.098	4280
905.216	4379
905.334	4443
905.451	4466
905.569	4459
905.686	4603
905.803	4546
905.921	4417
906.038	4546
906.155	4500
906.272	4409
906.389	4459
906.506	4360
906.623	4367
906.74	4383
906.857	4314
906.974	4409
907.091	4558
907.208	4679
907.324	4554
907.441	4497
907.557	4428
907.674	4325
907.79	4299
907.907	4375
908.023	4527
908.139	4512
908.256	4375
908.372	4485
908.488	4455
908.604	4379
908.72	4356
908.836	4394
908.952	4386
909.068	4432
909.184	4546
909.3	4508
909.415	4615
909.531	4588
909.647	4379
909.762	4409
909.878	4352
909.993	4478
910.108	4386
910.224	4413
910.339	4440
910.454	4394
910.57	4348
910.685	4337
910.8	4656
910.915	4626
911.03	4546
911.145	4314
911.259	4348
911.374	4367
911.489	4325
911.604	4325
911.718	4154
911.833	4192
911.947	4074
912.062	4036
912.176	4238
912.291	4249
912.405	4261
912.519	4440
912.633	4531
912.748	4390
912.862	4318
912.976	4242
913.09	4112
913.204	4196
913.318	4234
913.431	4402
913.545	4367
913.659	4455
913.772	4341
913.886	4253
914	4227
914.113	4390
914.226	4443
914.34	4386
914.453	4227
914.566	4470
914.68	4333
914.793	4363
914.906	4181
915.019	4150
915.132	4101
915.245	4207
915.358	4234
915.47	4227
915.583	4318
915.696	4310
915.809	4443
915.921	4421
916.034	4249
916.146	4234
916.259	4196
916.371	4360
916.483	4367
916.595	4291
916.708	4303
916.82	4329
916.932	4314
917.044	4303
917.156	4348
917.268	4227
917.38	4295
917.491	4287
917.603	4341
917.715	4451
917.826	4417
917.938	4344
918.049	4253
918.161	4371
918.272	4554
918.384	4554
918.495	4481
918.606	4261
918.717	4253
918.828	4318
918.939	4379
919.05	4242
919.161	4318
919.272	4135
919.383	4253
919.494	4478
919.604	4672
919.715	4432
919.826	4344
919.936	4432
920.047	4523
920.157	4470
920.267	4736
920.378	4523
920.488	4558
920.598	4721
920.708	4919
920.818	4763
920.928	4725
921.038	4965
921.148	4923
921.258	4599
921.368	4569
921.477	4535
921.587	4512
921.697	4402
921.806	4569
921.916	4383
922.025	4249
922.134	4268
922.244	4230
922.353	4295
922.462	4204
922.571	4188
922.68	4025
922.789	4002
922.898	4074
923.007	4013
923.116	4128
923.224	4071
923.333	4101
923.442	3991
923.55	3994
923.659	4055
923.767	4090
923.876	4017
923.984	4112
924.092	4029
924.201	4109
924.309	4116
924.417	4128
924.525	4097
924.633	4120
924.741	5037
924.849	3930
924.956	4112
925.064	4017
925.172	3899
925.279	3972
925.387	4032
925.494	4093
925.602	4227
925.709	4150
925.816	4048
925.924	4124
926.031	4253
926.138	4181
926.245	4204
926.352	4093
926.459	4268
926.566	4303
926.673	4131
926.779	4090
926.886	4139
926.993	3956
927.099	3953
927.206	3945
927.312	3968
927.419	4032
927.525	4055
927.631	4093
927.737	4013
927.843	3953
927.95	3808
928.056	3922
928.162	3972
928.267	4063
928.373	4615
928.479	4120
928.585	3892
928.69	3998
928.796	4097
928.901	3956
929.007	3873
929.112	4017
929.218	3998
929.323	3953
929.428	3975
929.533	4097
929.638	3915
929.743	3956
929.848	4071
929.953	3994
930.058	3899
930.163	3785
930.267	3816
930.372	3998
930.477	3804
930.581	4109
930.685	3937
930.79	3854
930.894	3880
930.998	3873
931.103	4032
931.207	3728
931.311	3728
931.415	3652
931.519	3545
931.623	3599
