Data from test_V78500241_1418.txt Node
Date: Fri Mar 25 16:58:51 CST 2022
User: usil
Spectrometer: V785-0024
Trigger mode: 0
Integration Time (sec): 4.000000E-1
Scans to average: 1
Nonlinearity correction enabled: false
Boxcar width: 0
Storing dark spectrum: false
XAxis mode: Wavelengths
Number of Pixels in Spectrum: 1024
>>>>>Begin Spectral Data<<<<<
801.071	7993
801.214	7963
801.356	7890
801.499	7864
801.641	7795
801.783	7860
801.926	7909
802.068	7871
802.211	8001
802.353	7887
802.496	7826
802.638	7807
802.78	7928
802.923	7906
803.065	7860
803.208	7818
803.35	7909
803.492	8088
803.635	8183
803.777	8027
803.919	8103
804.061	8423
804.204	8183
804.346	8016
804.488	7909
804.63	8107
804.773	8039
804.915	8081
805.057	8313
805.199	8176
805.341	8218
805.483	8282
805.626	8214
805.768	8092
805.91	8168
806.052	8187
806.194	8103
806.336	8282
806.478	8062
806.62	8043
806.762	8062
806.904	8180
807.046	8469
807.188	8355
807.33	8336
807.472	8294
807.614	8153
807.756	8081
807.898	7986
808.04	7925
808.182	7845
808.324	7868
808.465	7917
808.607	8088
808.749	8145
808.891	8187
809.033	8301
809.174	8157
809.316	8058
809.458	8046
809.6	7925
809.741	8069
809.883	7982
810.025	8081
810.166	8024
810.308	8073
810.45	8039
810.591	7928
810.733	7719
810.875	7586
811.016	7514
811.158	7533
811.299	7597
811.441	7723
811.582	7677
811.724	7544
811.865	7518
812.007	7525
812.148	7620
812.29	7651
812.431	7704
812.573	7871
812.714	7944
812.855	8115
812.997	8153
813.138	8377
813.279	8149
813.421	8077
813.562	7925
813.703	7917
813.845	7742
813.986	7441
814.127	7266
814.268	7194
814.41	7228
814.551	7141
814.692	7206
814.833	7061
814.974	7099
815.115	7122
815.256	6935
815.397	6958
815.539	6951
815.68	6818
815.821	6795
815.962	6856
816.103	6798
816.244	6741
816.385	6623
816.526	6547
816.666	6509
816.807	6315
816.948	6414
817.089	6448
817.23	6441
817.371	6384
817.512	6323
817.653	6338
817.793	6292
817.934	6437
818.075	6414
818.216	6410
818.356	6338
818.497	6216
818.638	6064
818.778	6102
818.919	6102
819.06	6216
819.2	6331
819.341	6350
819.481	6414
819.622	6509
819.762	6684
819.903	6719
820.043	6608
820.184	6582
820.324	6536
820.465	6726
820.605	6662
820.746	6631
820.886	6471
821.026	6665
821.167	6665
821.307	6783
821.447	6707
821.588	6696
821.728	6563
821.868	6559
822.008	6300
822.149	6353
822.289	6323
822.429	6121
822.569	6095
822.709	6106
822.849	5916
822.99	5874
823.13	5946
823.27	5935
823.41	5775
823.55	5764
823.69	5729
823.83	5790
823.97	5638
824.11	5493
824.25	5448
824.389	5551
824.529	5592
824.669	5532
824.809	5627
824.949	5611
825.089	5619
825.228	5577
825.368	5402
825.508	5303
825.648	5330
825.787	5368
825.927	5398
826.067	5341
826.206	5242
826.346	5379
826.485	5402
826.625	5395
826.765	5482
826.904	5455
827.044	5197
827.183	5227
827.323	5147
827.462	5231
827.601	5140
827.741	5216
827.88	5227
828.02	5155
828.159	5208
828.298	5307
828.437	5353
828.577	5231
828.716	5471
828.855	5296
828.994	5151
829.134	5159
829.273	5223
829.412	5113
829.551	5090
829.69	5166
829.829	5258
829.968	5318
830.107	5292
830.246	5261
830.385	5105
830.524	5136
830.663	5052
830.802	4934
830.941	4873
831.08	4824
831.219	4995
831.357	4946
831.496	5143
831.635	4934
831.774	4847
831.913	4862
832.051	4717
832.19	4717
832.329	4854
832.467	4710
832.606	4683
832.744	4706
832.883	4675
833.022	4714
833.16	4752
833.299	4759
833.437	4820
833.576	4801
833.714	4870
833.852	4862
833.991	4866
834.129	4919
834.267	4923
834.406	4984
834.544	4923
834.682	4961
834.821	4991
834.959	5113
835.097	4976
835.235	5162
835.373	5117
835.511	5048
835.65	5052
835.788	5048
835.926	4850
836.064	4881
836.202	4908
836.34	5147
836.478	5185
836.615	5105
836.753	5124
836.891	5242
837.029	5204
837.167	5201
837.305	5155
837.443	5109
837.58	5018
837.718	5216
837.856	5140
837.993	5166
838.131	5273
838.269	5235
838.406	5174
838.544	5151
838.681	5048
838.819	5025
838.956	4930
839.094	4930
839.231	4957
839.369	5048
839.506	5402
839.643	5261
839.781	5045
839.918	5014
840.055	5098
840.193	5048
840.33	5079
840.467	5083
840.604	5239
840.742	5406
840.879	5067
841.016	5083
841.153	5189
841.29	5345
841.427	5334
841.564	5292
841.701	5357
841.838	5265
841.975	5212
842.112	5288
842.249	5098
842.385	5094
842.522	5318
842.659	5132
842.796	5124
842.933	5159
843.069	5117
843.206	5136
843.343	5280
843.479	5227
843.616	5242
843.752	5033
843.889	4999
844.025	5155
844.162	4991
844.298	5178
844.435	4995
844.571	5067
844.708	5227
844.844	5277
844.98	5299
845.117	5235
845.253	5113
845.389	5102
845.525	5128
845.661	5174
845.798	5022
845.934	5128
846.07	5052
846.206	5208
846.342	5284
846.478	5178
846.614	5022
846.75	4984
846.886	4896
847.022	5181
847.158	5003
847.294	5033
847.429	5094
847.565	5071
847.701	5265
847.837	4847
847.972	4835
848.108	4934
848.244	4850
848.379	4786
848.515	4706
848.65	4691
848.786	4725
848.921	4763
849.057	4889
849.192	4900
849.328	4786
849.463	4835
849.598	4774
849.734	4752
849.869	4687
850.004	4630
850.14	4653
850.275	4546
850.41	4497
850.545	4550
850.68	4527
850.815	4649
850.95	4641
851.085	4816
851.22	4748
851.355	4615
851.49	4615
851.625	4599
851.76	4656
851.895	4573
852.03	4577
852.165	4672
852.299	4664
852.434	4805
852.569	4740
852.703	4774
852.838	4854
852.973	4946
853.107	4915
853.242	4748
853.376	4687
853.511	4558
853.645	4622
853.78	4824
853.914	4679
854.048	4710
854.183	4626
854.317	4668
854.451	4767
854.585	4675
854.72	4615
854.854	4691
854.988	4622
855.122	4611
855.256	4497
855.39	4630
855.524	4759
855.658	4729
855.792	4710
855.926	4679
856.06	4748
856.194	4759
856.327	4729
856.461	4599
856.595	4592
856.729	4588
856.862	4694
856.996	4702
857.13	4698
857.263	4702
857.397	4771
857.53	4637
857.664	4672
857.797	4740
857.931	4812
858.064	4679
858.197	4694
858.331	4626
858.464	4645
858.597	4550
858.731	4588
858.864	4691
858.997	4592
859.13	4584
859.263	4618
859.396	4691
859.529	4561
859.662	4580
859.795	4516
859.928	4622
860.061	4752
860.194	4694
860.327	4580
860.46	4538
860.592	4710
860.725	4672
860.858	4729
860.99	4596
861.123	4546
861.256	4542
861.388	4626
861.521	5429
861.653	4466
861.786	4421
861.918	4443
862.05	4561
862.183	4573
862.315	4573
862.447	4664
862.58	4527
862.712	4322
862.844	4314
862.976	4447
863.108	4432
863.24	4900
863.372	4352
863.504	4451
863.636	4375
863.768	4538
863.9	4466
864.032	4341
864.164	4413
864.296	4470
864.428	4558
864.559	4538
864.691	4504
864.823	4527
864.954	4504
865.086	4466
865.217	4443
865.349	4371
865.48	4455
865.612	4497
865.743	4607
865.875	4474
866.006	4432
866.137	4466
866.269	4367
866.4	4459
866.531	4474
866.662	4398
866.793	4390
866.924	4428
867.055	4424
867.186	4428
867.317	4421
867.448	4398
867.579	4337
867.71	4348
867.841	4348
867.972	4462
868.103	4436
868.233	4474
868.364	4459
868.495	4497
868.625	4653
868.756	4782
868.886	4584
869.017	4645
869.147	4771
869.278	4786
869.408	4637
869.539	4664
869.669	4706
869.799	4637
869.929	4736
870.06	4774
870.19	4949
870.32	4927
870.45	4900
870.58	5006
870.71	5109
870.84	5113
870.97	4900
871.1	4904
871.23	5121
871.36	5105
871.489	4965
871.619	5060
871.749	5041
871.879	5124
872.008	5147
872.138	5071
872.267	4949
872.397	4858
872.526	4782
872.656	4740
872.785	4782
872.915	4923
873.044	5003
873.173	4919
873.303	4976
873.432	4877
873.561	4995
873.69	4889
873.819	4854
873.948	4862
874.077	4805
874.206	4771
874.335	4809
874.464	4911
874.593	5037
874.722	4942
874.851	5098
874.979	5037
875.108	4976
875.237	4953
875.365	4850
875.494	4862
875.623	4957
875.751	4828
875.88	4873
876.008	4942
876.136	4984
876.265	5170
876.393	5322
876.521	5269
876.65	5223
876.778	5193
876.906	5079
877.034	4991
877.162	5086
877.29	5025
877.418	5064
877.546	5048
877.674	5102
877.802	5094
877.93	4987
878.058	4911
878.185	4862
878.313	4984
878.441	4904
878.568	4820
878.696	4915
878.824	4961
878.951	4984
879.079	5083
879.206	5296
879.333	5079
879.461	4965
879.588	5014
879.715	5159
879.842	5220
879.97	4965
880.097	4763
880.224	4736
880.351	4786
880.478	4805
880.605	4850
880.732	4805
880.859	5075
880.986	4923
881.112	4904
881.239	4786
881.366	4679
881.493	4596
881.619	4573
881.746	4611
881.872	4683
881.999	4660
882.125	4675
882.252	4801
882.378	4805
882.505	4953
882.631	4828
882.757	4649
882.883	4679
883.01	4748
883.136	4660
883.262	4569
883.388	4607
883.514	4816
883.64	4866
883.766	4801
883.892	4634
884.018	4675
884.143	4877
884.269	4961
884.395	4683
884.52	4649
884.646	4626
884.772	4577
884.897	4542
885.023	4698
885.148	4782
885.274	4831
885.399	4790
885.524	4717
885.65	4664
885.775	4664
885.9	4672
886.025	4854
886.15	4733
886.275	4698
886.4	4565
886.525	4710
886.65	4664
886.775	4672
886.9	4919
887.025	4987
887.149	4763
887.274	4645
887.399	4569
887.523	4565
887.648	4569
887.773	4550
887.897	4752
888.021	4771
888.146	4630
888.27	4790
888.395	4828
888.519	4778
888.643	4839
888.767	4850
888.891	4653
889.015	4660
889.139	4698
889.263	4596
889.387	4702
889.511	4858
889.635	4744
889.759	4630
889.883	4660
890.006	4698
890.13	4820
890.254	4630
890.377	4637
890.501	4519
890.624	4565
890.748	4626
890.871	4535
890.995	4398
891.118	4383
891.241	4500
891.364	4531
891.488	4611
891.611	4519
891.734	4550
891.857	4611
891.98	4512
892.103	4637
892.226	4596
892.349	4542
892.471	4379
892.594	4493
892.717	4599
892.839	4573
892.962	4603
893.085	4668
893.207	4592
893.33	4459
893.452	4504
893.575	4607
893.697	4584
893.819	4763
893.941	4790
894.064	4771
894.186	4561
894.308	4538
894.43	4660
894.552	4805
894.674	4744
894.796	4546
894.918	4596
895.04	4508
895.161	4664
895.283	4672
895.405	4546
895.526	4618
895.648	4694
895.769	4649
895.891	4679
896.012	4752
896.134	4725
896.255	4691
896.376	4630
896.498	4580
896.619	4668
896.74	4588
896.861	4649
896.982	4923
897.103	5105
897.224	4797
897.345	4752
897.466	4660
897.587	4736
897.708	4839
897.828	4778
897.949	4645
898.07	4565
898.19	4664
898.311	4774
898.431	4649
898.552	4740
898.672	4786
898.792	4778
898.913	4675
899.033	4622
899.153	4493
899.273	4470
899.393	4504
899.513	4527
899.633	4489
899.753	4550
899.873	4519
899.993	4596
900.113	4535
900.232	4565
900.352	4535
900.472	4466
900.591	4417
900.711	4497
900.83	4409
900.95	4622
901.069	4675
901.189	4558
901.308	4360
901.427	4284
901.546	4341
901.665	4451
901.784	4504
901.904	4390
902.023	4356
902.141	4192
902.26	4150
902.379	4303
902.498	4238
902.617	4265
902.735	4383
902.854	4390
902.973	4341
903.091	4268
903.21	4223
903.328	4280
903.446	4261
903.565	4223
903.683	4390
903.801	4272
903.919	4402
904.038	4459
904.156	4265
904.274	4443
904.392	4409
904.51	4371
904.627	4478
904.745	4535
904.863	4630
904.981	4398
905.098	4314
905.216	4352
905.334	4405
905.451	4417
905.569	4424
905.686	4500
905.803	4538
905.921	4386
906.038	4504
906.155	4504
906.272	4421
906.389	4443
906.506	4360
906.623	4363
906.74	4402
906.857	4284
906.974	4367
907.091	4538
907.208	4664
907.324	4577
907.441	4512
907.557	4325
907.674	4337
907.79	4291
907.907	4421
908.023	4443
908.139	4470
908.256	4440
908.372	4523
908.488	4440
908.604	4383
908.72	4306
908.836	4371
908.952	4341
909.068	4455
909.184	4550
909.3	4470
909.415	4630
909.531	4523
909.647	4333
909.762	4390
909.878	4306
909.993	4409
910.108	4390
910.224	4386
910.339	4466
910.454	4402
910.57	4371
910.685	4329
910.8	4634
910.915	4569
911.03	4451
911.145	4341
911.259	4249
911.374	4386
911.489	4272
911.604	4280
911.718	4188
911.833	4181
911.947	4093
912.062	4021
912.176	4204
912.291	4219
912.405	4234
912.519	4447
912.633	4523
912.748	4409
912.862	4310
912.976	4158
913.09	4086
913.204	4192
913.318	4242
913.431	4371
913.545	4390
913.659	4451
913.772	4306
913.886	4211
914	4268
914.113	4356
914.226	4383
914.34	4398
914.453	4223
914.566	4394
914.68	4287
914.793	4367
914.906	4139
915.019	4131
915.132	4093
915.245	4200
915.358	4238
915.47	4257
915.583	4257
915.696	4322
915.809	4409
915.921	4409
916.034	4242
916.146	4265
916.259	4223
916.371	4360
916.483	4341
916.595	4261
916.708	4291
916.82	4322
916.932	4295
917.044	4314
917.156	4325
917.268	4272
917.38	4287
917.491	4257
917.603	4363
917.715	4398
917.826	4466
917.938	4325
918.049	4223
918.161	4394
918.272	4512
918.384	4523
918.495	4409
918.606	4268
918.717	4207
918.828	4318
918.939	4341
919.05	4265
919.161	4284
919.272	4105
919.383	4223
919.494	4409
919.604	4630
919.715	4432
919.826	4314
919.936	4405
920.047	4512
920.157	4504
920.267	4694
920.378	4542
920.488	4474
920.598	4717
920.708	4900
920.818	4752
920.928	4797
921.038	4900
921.148	4858
921.258	4603
921.368	4561
921.477	4535
921.587	4432
921.697	4367
921.806	4577
921.916	4470
922.025	4284
922.134	4287
922.244	4215
922.353	4333
922.462	4223
922.571	4131
922.68	4006
922.789	3934
922.898	4044
923.007	3983
923.116	4071
923.224	4032
923.333	4059
923.442	3983
923.55	3964
923.659	3998
923.767	4082
923.876	3998
923.984	4112
924.092	3979
924.201	4067
924.309	4101
924.417	4082
924.525	4059
924.633	4124
924.741	5014
924.849	3930
924.956	4105
925.064	3979
925.172	3915
925.279	3972
925.387	4044
925.494	4071
925.602	4200
925.709	4181
925.816	4055
925.924	4120
926.031	4192
926.138	4101
926.245	4185
926.352	4067
926.459	4230
926.566	4291
926.673	4143
926.779	4112
926.886	4071
926.993	3960
927.099	3979
927.206	3899
927.312	3937
927.419	4055
927.525	3991
927.631	4059
927.737	3968
927.843	3960
927.95	3819
928.056	3869
928.162	3960
928.267	4071
928.373	4554
928.479	4105
928.585	3861
928.69	4017
928.796	4055
928.901	3949
929.007	3842
929.112	3998
929.218	3983
929.323	3960
929.428	3922
929.533	4074
929.638	3903
929.743	3968
929.848	4002
929.953	3960
930.058	3915
930.163	3812
930.267	3835
930.372	3956
930.477	3778
930.581	4055
930.685	3930
930.79	3812
930.894	3903
930.998	3827
931.103	4044
931.207	3690
931.311	3717
931.415	3694
931.519	3515
931.623	3557
