Data from test_V78500241_740.txt Node
Date: Fri Mar 25 16:54:08 CST 2022
User: usil
Spectrometer: V785-0024
Trigger mode: 0
Integration Time (sec): 4.000000E-1
Scans to average: 1
Nonlinearity correction enabled: false
Boxcar width: 0
Storing dark spectrum: false
XAxis mode: Wavelengths
Number of Pixels in Spectrum: 1024
>>>>>Begin Spectral Data<<<<<
801.071	8016
801.214	7959
801.356	7864
801.499	7818
801.641	7784
801.783	7833
801.926	7986
802.068	7928
802.211	7997
802.353	7963
802.496	7830
802.638	7883
802.78	7909
802.923	7894
803.065	7868
803.208	7871
803.35	8005
803.492	8107
803.635	8164
803.777	7970
803.919	8069
804.061	8389
804.204	8145
804.346	7944
804.488	7932
804.63	8157
804.773	8050
804.915	8062
805.057	8263
805.199	8153
805.341	8218
805.483	8267
805.626	8180
805.768	8119
805.91	8164
806.052	8183
806.194	8103
806.336	8320
806.478	8081
806.62	8039
806.762	8103
806.904	8225
807.046	8427
807.188	8336
807.33	8366
807.472	8294
807.614	8153
807.756	8168
807.898	7982
808.04	7849
808.182	7883
808.324	7852
808.465	7909
808.607	7986
808.749	7989
808.891	8191
809.033	8343
809.174	8202
809.316	7997
809.458	8069
809.6	7928
809.741	8050
809.883	8012
810.025	8043
810.166	8043
810.308	8039
810.45	8024
810.591	7871
810.733	7727
810.875	7666
811.016	7529
811.158	7480
811.299	7502
811.441	7719
811.582	7708
811.724	7582
811.865	7502
812.007	7578
812.148	7567
812.29	7559
812.431	7719
812.573	7818
812.714	7963
812.855	8115
812.997	8138
813.138	8332
813.279	8145
813.421	8046
813.562	8039
813.703	7887
813.845	7761
813.986	7476
814.127	7282
814.268	7293
814.41	7145
814.551	7164
814.692	7160
814.833	6996
814.974	7034
815.115	7084
815.256	6993
815.397	6935
815.539	7015
815.68	6844
815.821	6798
815.962	6806
816.103	6776
816.244	6696
816.385	6623
816.526	6578
816.666	6486
816.807	6300
816.948	6410
817.089	6498
817.23	6471
817.371	6331
817.512	6384
817.653	6361
817.793	6327
817.934	6422
818.075	6452
818.216	6391
818.356	6353
818.497	6178
818.638	6106
818.778	6152
818.919	6171
819.06	6167
819.2	6315
819.341	6296
819.481	6350
819.622	6506
819.762	6662
819.903	6623
820.043	6566
820.184	6570
820.324	6585
820.465	6639
820.605	6677
820.746	6616
820.886	6479
821.026	6612
821.167	6677
821.307	6753
821.447	6730
821.588	6604
821.728	6525
821.868	6475
822.008	6380
822.149	6380
822.289	6346
822.429	6110
822.569	6102
822.709	6068
822.849	5935
822.99	5859
823.13	5855
823.27	5859
823.41	5779
823.55	5729
823.69	5767
823.83	5764
823.97	5676
824.11	5455
824.25	5528
824.389	5524
824.529	5562
824.669	5493
824.809	5611
824.949	5668
825.089	5638
825.228	5539
825.368	5402
825.508	5330
825.648	5326
825.787	5345
825.927	5395
826.067	5280
826.206	5235
826.346	5360
826.485	5379
826.625	5353
826.765	5532
826.904	5474
827.044	5246
827.183	5185
827.323	5064
827.462	5208
827.601	5197
827.741	5178
827.88	5216
828.02	5102
828.159	5246
828.298	5265
828.437	5337
828.577	5189
828.716	5505
828.855	5303
828.994	5147
829.134	5132
829.273	5197
829.412	5094
829.551	5098
829.69	5147
829.829	5220
829.968	5383
830.107	5212
830.246	5239
830.385	5094
830.524	5094
830.663	5075
830.802	4995
830.941	4843
831.08	4850
831.219	4908
831.357	4949
831.496	5136
831.635	4915
831.774	4790
831.913	4885
832.051	4733
832.19	4714
832.329	4828
832.467	4683
832.606	4630
832.744	4763
832.883	4698
833.022	4679
833.16	4763
833.299	4801
833.437	4835
833.576	4820
833.714	4858
833.852	4885
833.991	4889
834.129	4938
834.267	4961
834.406	4904
834.544	4991
834.682	4930
834.821	4961
834.959	5151
835.097	4961
835.235	5128
835.373	5041
835.511	5155
835.65	4976
835.788	4995
835.926	4896
836.064	4896
836.202	4900
836.34	5128
836.478	5220
836.615	5102
836.753	5193
836.891	5280
837.029	5231
837.167	5174
837.305	5155
837.443	5143
837.58	5071
837.718	5227
837.856	5174
837.993	5155
838.131	5166
838.269	5231
838.406	5159
838.544	5208
838.681	5045
838.819	5071
838.956	4889
839.094	4854
839.231	4972
839.369	5029
839.506	5425
839.643	5322
839.781	5075
839.918	5018
840.055	5060
840.193	5079
840.33	5086
840.467	5098
840.604	5212
840.742	5429
840.879	5083
841.016	5121
841.153	5147
841.29	5353
841.427	5345
841.564	5258
841.701	5307
841.838	5231
841.975	5258
842.112	5284
842.249	5223
842.385	5083
842.522	5284
842.659	5166
842.796	5094
842.933	5212
843.069	5102
843.206	5193
843.343	5299
843.479	5239
843.616	5242
843.752	5025
843.889	5037
844.025	5231
844.162	5071
844.298	5227
844.435	5086
844.571	5018
844.708	5170
844.844	5231
844.98	5311
845.117	5235
845.253	5155
845.389	5067
845.525	5147
845.661	5090
845.798	5018
845.934	5121
846.07	5037
846.206	5185
846.342	5235
846.478	5155
846.614	5010
846.75	4961
846.886	4927
847.022	5132
847.158	4999
847.294	5075
847.429	5094
847.565	4968
847.701	5334
847.837	4881
847.972	4809
848.108	4961
848.244	4934
848.379	4752
848.515	4706
848.65	4691
848.786	4793
848.921	4790
849.057	4866
849.192	4919
849.328	4797
849.463	4805
849.598	4790
849.734	4714
849.869	4687
850.004	4561
850.14	4649
850.275	4641
850.41	4569
850.545	4569
850.68	4611
850.815	4611
850.95	4615
851.085	4816
851.22	4820
851.355	4668
851.49	4607
851.625	4634
851.76	4630
851.895	4577
852.03	4531
852.165	4626
852.299	4683
852.434	4729
852.569	4691
852.703	4721
852.838	4892
852.973	4885
853.107	4904
853.242	4717
853.376	4664
853.511	4573
853.645	4603
853.78	4786
853.914	4622
854.048	4592
854.183	4599
854.317	4694
854.451	4793
854.585	4668
854.72	4618
854.854	4771
854.988	4611
855.122	4668
855.256	4535
855.39	4672
855.524	4793
855.658	4733
855.792	4683
855.926	4702
856.06	4763
856.194	4755
856.327	4683
856.461	4634
856.595	4630
856.729	4592
856.862	4755
856.996	4733
857.13	4714
857.263	4771
857.397	4835
857.53	4588
857.664	4698
857.797	4759
857.931	4801
858.064	4691
858.197	4763
858.331	4603
858.464	4592
858.597	4569
858.731	4622
858.864	4611
858.997	4584
859.13	4634
859.263	4668
859.396	4698
859.529	4535
859.662	4554
859.795	4584
859.928	4599
860.061	4691
860.194	4782
860.327	4599
860.46	4561
860.592	4702
860.725	4687
860.858	4714
860.99	4580
861.123	4512
861.256	4538
861.388	4622
861.521	5379
861.653	4462
861.786	4481
861.918	4405
862.05	4519
862.183	4550
862.315	4611
862.447	4668
862.58	4550
862.712	4417
862.844	4344
862.976	4451
863.108	4443
863.24	4919
863.372	4310
863.504	4424
863.636	4394
863.768	4478
863.9	4417
864.032	4367
864.164	4402
864.296	4417
864.428	4531
864.559	4546
864.691	4535
864.823	4451
864.954	4478
865.086	4504
865.217	4455
865.349	4424
865.48	4455
865.612	4508
865.743	4649
865.875	4481
866.006	4424
866.137	4440
866.269	4455
866.4	4451
866.531	4379
866.662	4390
866.793	4375
866.924	4402
867.055	4519
867.186	4508
867.317	4409
867.448	4390
867.579	4417
867.71	4405
867.841	4344
867.972	4451
868.103	4436
868.233	4398
868.364	4474
868.495	4474
868.625	4615
868.756	4744
868.886	4577
869.017	4618
869.147	4729
869.278	4763
869.408	4672
869.539	4679
869.669	4714
869.799	4645
869.929	4755
870.06	4736
870.19	4961
870.32	4930
870.45	4930
870.58	5033
870.71	5128
870.84	5060
870.97	4991
871.1	4904
871.23	5098
871.36	5128
871.489	4995
871.619	5113
871.749	5064
871.879	5132
872.008	5181
872.138	5045
872.267	4934
872.397	4889
872.526	4797
872.656	4725
872.785	4793
872.915	5003
873.044	5033
873.173	4892
873.303	4881
873.432	4930
873.561	4934
873.69	4877
873.819	4881
873.948	4938
874.077	4812
874.206	4748
874.335	4725
874.464	4968
874.593	5067
874.722	4923
874.851	5056
874.979	5045
875.108	5006
875.237	4911
875.365	4900
875.494	4873
875.623	5003
875.751	4809
875.88	4828
876.008	4984
876.136	5075
876.265	5151
876.393	5315
876.521	5288
876.65	5246
876.778	5212
876.906	5048
877.034	4999
877.162	5105
877.29	5037
877.418	5056
877.546	4999
877.674	4972
877.802	4995
877.93	4968
878.058	4961
878.185	4850
878.313	4972
878.441	4927
878.568	4793
878.696	4896
878.824	4991
878.951	4984
879.079	5189
879.206	5265
879.333	5064
879.461	4942
879.588	5018
879.715	5128
879.842	5189
879.97	4999
880.097	4797
880.224	4786
880.351	4793
880.478	4847
880.605	4790
880.732	4831
880.859	5109
880.986	4900
881.112	4862
881.239	4786
881.366	4675
881.493	4573
881.619	4626
881.746	4626
881.872	4637
881.999	4603
882.125	4702
882.252	4809
882.378	4862
882.505	4957
882.631	4755
882.757	4687
882.883	4729
883.01	4694
883.136	4653
883.262	4584
883.388	4660
883.514	4767
883.64	4812
883.766	4786
883.892	4672
884.018	4752
884.143	4915
884.269	4999
884.395	4691
884.52	4603
884.646	4618
884.772	4607
884.897	4577
885.023	4683
885.148	4812
885.274	4816
885.399	4774
885.524	4706
885.65	4706
885.775	4721
885.9	4733
886.025	4839
886.15	4790
886.275	4725
886.4	4687
886.525	4687
886.65	4698
886.775	4675
886.9	4892
887.025	5014
887.149	4778
887.274	4630
887.399	4538
887.523	4569
887.648	4634
887.773	4573
887.897	4767
888.021	4812
888.146	4668
888.27	4790
888.395	4942
888.519	4839
888.643	4809
888.767	4801
888.891	4668
889.015	4668
889.139	4618
889.263	4580
889.387	4759
889.511	4847
889.635	4847
889.759	4607
889.883	4607
890.006	4752
890.13	4831
890.254	4588
890.377	4702
890.501	4519
890.624	4558
890.748	4580
890.871	4508
890.995	4447
891.118	4417
891.241	4508
891.364	4504
891.488	4611
891.611	4500
891.734	4596
891.857	4622
891.98	4538
892.103	4645
892.226	4588
892.349	4596
892.471	4481
892.594	4577
892.717	4588
892.839	4569
892.962	4569
893.085	4630
893.207	4592
893.33	4489
893.452	4466
893.575	4626
893.697	4584
893.819	4805
893.941	4828
894.064	4744
894.186	4565
894.308	4565
894.43	4725
894.552	4828
894.674	4748
894.796	4535
894.918	4611
895.04	4550
895.161	4733
895.283	4607
895.405	4584
895.526	4618
895.648	4660
895.769	4672
895.891	4733
896.012	4717
896.134	4733
896.255	4649
896.376	4656
896.498	4653
896.619	4634
896.74	4611
896.861	4656
896.982	4892
897.103	5033
897.224	4828
897.345	4717
897.466	4672
897.587	4691
897.708	4908
897.828	4797
897.949	4683
898.07	4588
898.19	4626
898.311	4797
898.431	4679
898.552	4763
898.672	4790
898.792	4820
898.913	4793
899.033	4607
899.153	4531
899.273	4398
899.393	4489
899.513	4527
899.633	4504
899.753	4561
899.873	4531
899.993	4573
900.113	4558
900.232	4603
900.352	4538
900.472	4451
900.591	4428
900.711	4481
900.83	4447
900.95	4615
901.069	4664
901.189	4538
901.308	4390
901.427	4329
901.546	4356
901.665	4447
901.784	4500
901.904	4402
902.023	4341
902.141	4196
902.26	4173
902.379	4287
902.498	4268
902.617	4249
902.735	4394
902.854	4409
902.973	4306
903.091	4223
903.21	4227
903.328	4322
903.446	4246
903.565	4204
903.683	4344
903.801	4249
903.919	4398
904.038	4447
904.156	4306
904.274	4390
904.392	4417
904.51	4417
904.627	4424
904.745	4508
904.863	4668
904.981	4398
905.098	4265
905.216	4348
905.334	4424
905.451	4474
905.569	4386
905.686	4531
905.803	4550
905.921	4383
906.038	4512
906.155	4451
906.272	4390
906.389	4459
906.506	4337
906.623	4386
906.74	4398
906.857	4287
906.974	4413
907.091	4481
907.208	4710
907.324	4550
907.441	4478
907.557	4318
907.674	4344
907.79	4310
907.907	4375
908.023	4466
908.139	4440
908.256	4459
908.372	4466
908.488	4455
908.604	4329
908.72	4291
908.836	4363
908.952	4383
909.068	4432
909.184	4584
909.3	4440
909.415	4607
909.531	4546
909.647	4329
909.762	4337
909.878	4341
909.993	4413
910.108	4421
910.224	4394
910.339	4500
910.454	4413
910.57	4310
910.685	4306
910.8	4668
910.915	4580
911.03	4478
911.145	4314
911.259	4344
911.374	4367
911.489	4306
911.604	4299
911.718	4173
911.833	4219
911.947	4101
912.062	4006
912.176	4188
912.291	4238
912.405	4265
912.519	4440
912.633	4538
912.748	4367
912.862	4284
912.976	4268
913.09	4097
913.204	4177
913.318	4257
913.431	4360
913.545	4352
913.659	4447
913.772	4383
913.886	4215
914	4246
914.113	4341
914.226	4432
914.34	4367
914.453	4268
914.566	4459
914.68	4344
914.793	4291
914.906	4105
915.019	4124
915.132	4063
915.245	4181
915.358	4173
915.47	4227
915.583	4265
915.696	4325
915.809	4409
915.921	4417
916.034	4207
916.146	4299
916.259	4234
916.371	4409
916.483	4337
916.595	4265
916.708	4325
916.82	4318
916.932	4295
917.044	4318
917.156	4333
917.268	4227
917.38	4284
917.491	4257
917.603	4322
917.715	4428
917.826	4466
917.938	4348
918.049	4295
918.161	4371
918.272	4497
918.384	4527
918.495	4489
918.606	4325
918.717	4200
918.828	4310
918.939	4421
919.05	4276
919.161	4280
919.272	4147
919.383	4188
919.494	4459
919.604	4611
919.715	4485
919.826	4333
919.936	4409
920.047	4500
920.157	4455
920.267	4721
920.378	4519
920.488	4504
920.598	4740
920.708	4900
920.818	4740
920.928	4702
921.038	4942
921.148	4908
921.258	4664
921.368	4565
921.477	4481
921.587	4436
921.697	4398
921.806	4512
921.916	4428
922.025	4215
922.134	4249
922.244	4246
922.353	4352
922.462	4154
922.571	4128
922.68	3987
922.789	3983
922.898	4021
923.007	3983
923.116	4116
923.224	4082
923.333	4086
923.442	3975
923.55	3956
923.659	4032
923.767	4101
923.876	3953
923.984	4116
924.092	4036
924.201	4097
924.309	4051
924.417	4120
924.525	4051
924.633	4090
924.741	4877
924.849	3907
924.956	4147
925.064	3899
925.172	3903
925.279	3953
925.387	4063
925.494	4063
925.602	4211
925.709	4143
925.816	4044
925.924	4112
926.031	4204
926.138	4116
926.245	4192
926.352	4082
926.459	4257
926.566	4295
926.673	4143
926.779	4082
926.886	4078
926.993	3949
927.099	3964
927.206	3934
927.312	3968
927.419	4032
927.525	4021
927.631	4124
927.737	3964
927.843	3941
927.95	3884
928.056	3911
928.162	3979
928.267	4021
928.373	4660
928.479	4082
928.585	3838
928.69	4025
928.796	4067
928.901	3968
929.007	3838
929.112	4025
929.218	4063
929.323	3930
929.428	3937
929.533	4097
929.638	3907
929.743	3926
929.848	4051
929.953	4021
930.058	3937
930.163	3766
930.267	3831
930.372	3994
930.477	3827
930.581	4074
930.685	3987
930.79	3827
930.894	3857
930.998	3846
931.103	4040
931.207	3732
931.311	3705
931.415	3679
931.519	3488
931.623	3526
