Data from test_V78500241_2463.txt Node
Date: Fri Mar 25 17:06:07 CST 2022
User: usil
Spectrometer: V785-0024
Trigger mode: 0
Integration Time (sec): 4.000000E-1
Scans to average: 1
Nonlinearity correction enabled: false
Boxcar width: 0
Storing dark spectrum: false
XAxis mode: Wavelengths
Number of Pixels in Spectrum: 1024
>>>>>Begin Spectral Data<<<<<
801.071	7959
801.214	8008
801.356	7890
801.499	7849
801.641	7784
801.783	7822
801.926	7932
802.068	7982
802.211	7913
802.353	8039
802.496	7852
802.638	7875
802.78	7887
802.923	7906
803.065	7868
803.208	7845
803.35	7925
803.492	8035
803.635	8130
803.777	7986
803.919	8168
804.061	8438
804.204	8191
804.346	8046
804.488	7932
804.63	8043
804.773	8058
804.915	8084
805.057	8298
805.199	8100
805.341	8221
805.483	8301
805.626	8237
805.768	8145
805.91	8172
806.052	8256
806.194	8081
806.336	8279
806.478	8107
806.62	8119
806.762	8123
806.904	8290
807.046	8423
807.188	8324
807.33	8324
807.472	8225
807.614	8142
807.756	8126
807.898	8096
808.04	7875
808.182	7936
808.324	7856
808.465	7826
808.607	8126
808.749	8035
808.891	8240
809.033	8358
809.174	8199
809.316	8134
809.458	8069
809.6	7986
809.741	8024
809.883	8016
810.025	8084
810.166	8084
810.308	7986
810.45	7997
810.591	7921
810.733	7693
810.875	7674
811.016	7540
811.158	7438
811.299	7620
811.441	7715
811.582	7685
811.724	7563
811.865	7483
812.007	7639
812.148	7525
812.29	7616
812.431	7795
812.573	7849
812.714	7936
812.855	8100
812.997	8218
813.138	8225
813.279	8202
813.421	8065
813.562	8008
813.703	7883
813.845	7761
813.986	7457
814.127	7194
814.268	7175
814.41	7198
814.551	7168
814.692	7179
814.833	7072
814.974	6981
815.115	7095
815.256	6954
815.397	6954
815.539	6916
815.68	6802
815.821	6802
815.962	6844
816.103	6753
816.244	6654
816.385	6650
816.526	6601
816.666	6506
816.807	6327
816.948	6384
817.089	6494
817.23	6422
817.371	6353
817.512	6391
817.653	6410
817.793	6372
817.934	6433
818.075	6509
818.216	6388
818.356	6464
818.497	6251
818.638	6136
818.778	6133
818.919	6117
819.06	6167
819.2	6327
819.341	6372
819.481	6395
819.622	6536
819.762	6757
819.903	6734
820.043	6570
820.184	6627
820.324	6650
820.465	6760
820.605	6715
820.746	6665
820.886	6582
821.026	6673
821.167	6662
821.307	6932
821.447	6856
821.588	6726
821.728	6582
821.868	6490
822.008	6308
822.149	6445
822.289	6346
822.429	6167
822.569	6110
822.709	6152
822.849	5946
822.99	5950
823.13	5999
823.27	6015
823.41	5824
823.55	5790
823.69	5824
823.83	5897
823.97	5718
824.11	5543
824.25	5512
824.389	5615
824.529	5600
824.669	5573
824.809	5688
824.949	5722
825.089	5680
825.228	5581
825.368	5421
825.508	5387
825.648	5383
825.787	5383
825.927	5429
826.067	5376
826.206	5280
826.346	5376
826.485	5414
826.625	5459
826.765	5619
826.904	5562
827.044	5296
827.183	5254
827.323	5181
827.462	5311
827.601	5204
827.741	5273
827.88	5273
828.02	5162
828.159	5254
828.298	5391
828.437	5410
828.577	5360
828.716	5528
828.855	5421
828.994	5223
829.134	5181
829.273	5204
829.412	5208
829.551	5181
829.69	5178
829.829	5307
829.968	5406
830.107	5318
830.246	5315
830.385	5242
830.524	5113
830.663	5094
830.802	4942
830.941	4908
831.08	4915
831.219	5003
831.357	5018
831.496	5227
831.635	4995
831.774	4854
831.913	4934
832.051	4744
832.19	4752
832.329	4847
832.467	4740
832.606	4702
832.744	4721
832.883	4721
833.022	4736
833.16	4809
833.299	4843
833.437	4873
833.576	4873
833.714	4892
833.852	4930
833.991	4946
834.129	5003
834.267	4938
834.406	4930
834.544	5029
834.682	5048
834.821	4995
834.959	5197
835.097	4968
835.235	5220
835.373	5113
835.511	5178
835.65	5025
835.788	5075
835.926	4919
836.064	4881
836.202	4946
836.34	5227
836.478	5318
836.615	5140
836.753	5216
836.891	5337
837.029	5288
837.167	5220
837.305	5197
837.443	5204
837.58	5109
837.718	5288
837.856	5223
837.993	5239
838.131	5299
838.269	5231
838.406	5269
838.544	5178
838.681	5086
838.819	5048
838.956	4927
839.094	4942
839.231	5025
839.369	5140
839.506	5471
839.643	5307
839.781	5102
839.918	5010
840.055	5140
840.193	5189
840.33	5159
840.467	5109
840.604	5231
840.742	5463
840.879	5124
841.016	5162
841.153	5117
841.29	5421
841.427	5364
841.564	5372
841.701	5421
841.838	5372
841.975	5216
842.112	5284
842.249	5178
842.385	5117
842.522	5345
842.659	5185
842.796	5170
842.933	5231
843.069	5147
843.206	5197
843.343	5345
843.479	5322
843.616	5330
843.752	5041
843.889	5018
844.025	5242
844.162	5052
844.298	5250
844.435	5098
844.571	5117
844.708	5216
844.844	5318
844.98	5337
845.117	5330
845.253	5159
845.389	5155
845.525	5166
845.661	5162
845.798	5071
845.934	5174
846.07	5064
846.206	5231
846.342	5311
846.478	5201
846.614	5067
846.75	4999
846.886	4984
847.022	5185
847.158	5029
847.294	5098
847.429	5143
847.565	5086
847.701	5360
847.837	4873
847.972	4850
848.108	5014
848.244	4980
848.379	4828
848.515	4729
848.65	4740
848.786	4755
848.921	4809
849.057	4889
849.192	4953
849.328	4835
849.463	4900
849.598	4797
849.734	4774
849.869	4710
850.004	4672
850.14	4687
850.275	4618
850.41	4538
850.545	4599
850.68	4622
850.815	4653
850.95	4649
851.085	4835
851.22	4828
851.355	4759
851.49	4672
851.625	4714
851.76	4691
851.895	4599
852.03	4599
852.165	4691
852.299	4714
852.434	4839
852.569	4793
852.703	4816
852.838	4866
852.973	4953
853.107	5022
853.242	4786
853.376	4687
853.511	4565
853.645	4672
853.78	4812
853.914	4748
854.048	4672
854.183	4668
854.317	4664
854.451	4839
854.585	4694
854.72	4683
854.854	4763
854.988	4649
855.122	4714
855.256	4558
855.39	4698
855.524	4805
855.658	4729
855.792	4740
855.926	4767
856.06	4797
856.194	4847
856.327	4748
856.461	4634
856.595	4649
856.729	4691
856.862	4805
856.996	4698
857.13	4752
857.263	4748
857.397	4870
857.53	4702
857.664	4786
857.797	4812
857.931	4828
858.064	4740
858.197	4771
858.331	4725
858.464	4637
858.597	4584
858.731	4611
858.864	4637
858.997	4637
859.13	4649
859.263	4679
859.396	4759
859.529	4618
859.662	4569
859.795	4573
859.928	4603
860.061	4755
860.194	4778
860.327	4641
860.46	4577
860.592	4721
860.725	4748
860.858	4744
860.99	4592
861.123	4531
861.256	4577
861.388	4660
861.521	5265
861.653	4481
861.786	4455
861.918	4443
862.05	4542
862.183	4546
862.315	4580
862.447	4637
862.58	4546
862.712	4440
862.844	4318
862.976	4512
863.108	4466
863.24	4927
863.372	4371
863.504	4440
863.636	4455
863.768	4512
863.9	4481
864.032	4386
864.164	4409
864.296	4508
864.428	4618
864.559	4580
864.691	4561
864.823	4535
864.954	4459
865.086	4558
865.217	4474
865.349	4466
865.48	4500
865.612	4542
865.743	4660
865.875	4497
866.006	4478
866.137	4481
866.269	4478
866.4	4474
866.531	4443
866.662	4481
866.793	4459
866.924	4436
867.055	4497
867.186	4497
867.317	4481
867.448	4390
867.579	4402
867.71	4424
867.841	4383
867.972	4500
868.103	4466
868.233	4478
868.364	4493
868.495	4485
868.625	4683
868.756	4767
868.886	4569
869.017	4645
869.147	4797
869.278	4782
869.408	4672
869.539	4660
869.669	4767
869.799	4660
869.929	4778
870.06	4771
870.19	4972
870.32	4946
870.45	4968
870.58	5037
870.71	5132
870.84	5151
870.97	4942
871.1	4923
871.23	5193
871.36	5193
871.489	5056
871.619	5098
871.749	5098
871.879	5143
872.008	5193
872.138	5071
872.267	5006
872.397	4885
872.526	4809
872.656	4755
872.785	4889
872.915	4957
873.044	5029
873.173	4976
873.303	4946
873.432	5029
873.561	4965
873.69	4828
873.819	4877
873.948	4923
874.077	4847
874.206	4755
874.335	4759
874.464	4934
874.593	5105
874.722	5006
874.851	5071
874.979	5071
875.108	5094
875.237	4870
875.365	4900
875.494	4927
875.623	4987
875.751	4850
875.88	4900
876.008	4999
876.136	5098
876.265	5178
876.393	5353
876.521	5269
876.65	5292
876.778	5223
876.906	5090
877.034	5010
877.162	5060
877.29	5083
877.418	5048
877.546	5022
877.674	5075
877.802	5052
877.93	5003
878.058	4972
878.185	4892
878.313	4972
878.441	4987
878.568	4866
878.696	4908
878.824	5022
878.951	4991
879.079	5143
879.206	5330
879.333	5117
879.461	5014
879.588	5098
879.715	5113
879.842	5242
879.97	5033
880.097	4790
880.224	4774
880.351	4843
880.478	4843
880.605	4805
880.732	4824
880.859	5132
880.986	4889
881.112	4881
881.239	4805
881.366	4706
881.493	4603
881.619	4626
881.746	4668
881.872	4641
881.999	4656
882.125	4717
882.252	4793
882.378	4843
882.505	4934
882.631	4835
882.757	4653
882.883	4748
883.01	4736
883.136	4721
883.262	4626
883.388	4630
883.514	4820
883.64	4885
883.766	4763
883.892	4668
884.018	4782
884.143	4862
884.269	5037
884.395	4721
884.52	4683
884.646	4660
884.772	4584
884.897	4573
885.023	4656
885.148	4763
885.274	4847
885.399	4866
885.524	4740
885.65	4691
885.775	4710
885.9	4675
886.025	4873
886.15	4801
886.275	4691
886.4	4691
886.525	4793
886.65	4721
886.775	4634
886.9	4957
887.025	5102
887.149	4816
887.274	4687
887.399	4577
887.523	4588
887.648	4565
887.773	4596
887.897	4809
888.021	4809
888.146	4714
888.27	4812
888.395	4923
888.519	4801
888.643	4831
888.767	4820
888.891	4679
889.015	4573
889.139	4637
889.263	4592
889.387	4752
889.511	4862
889.635	4801
889.759	4649
889.883	4645
890.006	4774
890.13	4816
890.254	4607
890.377	4687
890.501	4588
890.624	4538
890.748	4653
890.871	4542
890.995	4417
891.118	4402
891.241	4527
891.364	4516
891.488	4668
891.611	4516
891.734	4535
891.857	4634
891.98	4554
892.103	4672
892.226	4569
892.349	4523
892.471	4462
892.594	4481
892.717	4607
892.839	4580
892.962	4596
893.085	4668
893.207	4607
893.33	4421
893.452	4558
893.575	4668
893.697	4561
893.819	4812
893.941	4824
894.064	4733
894.186	4546
894.308	4565
894.43	4736
894.552	4816
894.674	4767
894.796	4577
894.918	4618
895.04	4554
895.161	4729
895.283	4668
895.405	4637
895.526	4641
895.648	4653
895.769	4691
895.891	4714
896.012	4740
896.134	4698
896.255	4656
896.376	4653
896.498	4599
896.619	4691
896.74	4679
896.861	4691
896.982	4957
897.103	5094
897.224	4862
897.345	4778
897.466	4717
897.587	4752
897.708	4862
897.828	4793
897.949	4660
898.07	4611
898.19	4660
898.311	4824
898.431	4637
898.552	4710
898.672	4793
898.792	4812
898.913	4717
899.033	4618
899.153	4527
899.273	4424
899.393	4523
899.513	4538
899.633	4516
899.753	4546
899.873	4455
899.993	4561
900.113	4546
900.232	4641
900.352	4535
900.472	4542
900.591	4447
900.711	4535
900.83	4474
900.95	4588
901.069	4660
901.189	4535
901.308	4371
901.427	4363
901.546	4440
901.665	4440
901.784	4497
901.904	4402
902.023	4329
902.141	4188
902.26	4230
902.379	4337
902.498	4223
902.617	4223
902.735	4379
902.854	4474
902.973	4356
903.091	4246
903.21	4261
903.328	4276
903.446	4234
903.565	4280
903.683	4360
903.801	4246
903.919	4371
904.038	4447
904.156	4356
904.274	4440
904.392	4436
904.51	4440
904.627	4485
904.745	4558
904.863	4641
904.981	4379
905.098	4295
905.216	4367
905.334	4447
905.451	4462
905.569	4474
905.686	4542
905.803	4565
905.921	4394
906.038	4550
906.155	4519
906.272	4379
906.389	4485
906.506	4367
906.623	4367
906.74	4424
906.857	4242
906.974	4394
907.091	4527
907.208	4698
907.324	4569
907.441	4516
907.557	4333
907.674	4375
907.79	4280
907.907	4390
908.023	4485
908.139	4447
908.256	4409
908.372	4443
908.488	4478
908.604	4375
908.72	4360
908.836	4394
908.952	4432
909.068	4390
909.184	4599
909.3	4481
909.415	4588
909.531	4588
909.647	4383
909.762	4390
909.878	4318
909.993	4447
910.108	4474
910.224	4470
910.339	4451
910.454	4394
910.57	4375
910.685	4284
910.8	4653
910.915	4573
911.03	4493
911.145	4325
911.259	4352
911.374	4325
911.489	4348
911.604	4287
911.718	4219
911.833	4169
911.947	4093
912.062	4067
912.176	4219
912.291	4211
912.405	4265
912.519	4432
912.633	4523
912.748	4371
912.862	4322
912.976	4192
913.09	4093
913.204	4219
913.318	4276
913.431	4356
913.545	4367
913.659	4455
913.772	4356
913.886	4246
914	4238
914.113	4386
914.226	4462
914.34	4424
914.453	4268
914.566	4424
914.68	4291
914.793	4329
914.906	4169
915.019	4112
915.132	4071
915.245	4185
915.358	4192
915.47	4287
915.583	4314
915.696	4257
915.809	4383
915.921	4455
916.034	4211
916.146	4246
916.259	4234
916.371	4371
916.483	4344
916.595	4272
916.708	4344
916.82	4367
916.932	4337
917.044	4303
917.156	4295
917.268	4234
917.38	4257
917.491	4306
917.603	4333
917.715	4421
917.826	4428
917.938	4329
918.049	4276
918.161	4333
918.272	4554
918.384	4550
918.495	4485
918.606	4325
918.717	4207
918.828	4363
918.939	4386
919.05	4215
919.161	4310
919.272	4131
919.383	4223
919.494	4390
919.604	4641
919.715	4421
919.826	4356
919.936	4417
920.047	4535
920.157	4470
920.267	4698
920.378	4538
920.488	4497
920.598	4706
920.708	4870
920.818	4717
920.928	4790
921.038	4961
921.148	4911
921.258	4626
921.368	4577
921.477	4538
921.587	4519
921.697	4379
921.806	4546
921.916	4436
922.025	4268
922.134	4246
922.244	4230
922.353	4314
922.462	4154
922.571	4150
922.68	4002
922.789	3987
922.898	4063
923.007	4017
923.116	4071
923.224	4032
923.333	4071
923.442	3998
923.55	4010
923.659	4021
923.767	4093
923.876	4013
923.984	4112
924.092	3998
924.201	4101
924.309	4090
924.417	4086
924.525	4063
924.633	4112
924.741	5083
924.849	3918
924.956	4101
925.064	3911
925.172	3915
925.279	3979
925.387	4036
925.494	4055
925.602	4227
925.709	4177
925.816	4055
925.924	4109
926.031	4223
926.138	4150
926.245	4192
926.352	4086
926.459	4249
926.566	4314
926.673	4158
926.779	4078
926.886	4048
926.993	4044
927.099	3934
927.206	3930
927.312	3983
927.419	4063
927.525	3991
927.631	4116
927.737	3945
927.843	3968
927.95	3873
928.056	3991
928.162	3975
928.267	4010
928.373	4664
928.479	4150
928.585	3854
928.69	3983
928.796	4029
928.901	3964
929.007	3842
929.112	3975
929.218	4017
929.323	3930
929.428	3934
929.533	4124
929.638	3915
929.743	3983
929.848	4048
929.953	3964
930.058	3896
930.163	3797
930.267	3835
930.372	3991
930.477	3793
930.581	4082
930.685	3972
930.79	3812
930.894	3861
930.998	3892
931.103	4025
931.207	3728
931.311	3663
931.415	3660
931.519	3557
931.623	3576
