Data from test_V78500241_2805.txt Node
Date: Fri Mar 25 17:08:30 CST 2022
User: usil
Spectrometer: V785-0024
Trigger mode: 0
Integration Time (sec): 4.000000E-1
Scans to average: 1
Nonlinearity correction enabled: false
Boxcar width: 0
Storing dark spectrum: false
XAxis mode: Wavelengths
Number of Pixels in Spectrum: 1024
>>>>>Begin Spectral Data<<<<<
801.071	8005
801.214	7963
801.356	7917
801.499	7849
801.641	7833
801.783	7803
801.926	7932
802.068	7875
802.211	8069
802.353	7963
802.496	7826
802.638	7906
802.78	7906
802.923	7928
803.065	7879
803.208	7845
803.35	7951
803.492	8168
803.635	8218
803.777	8062
803.919	8145
804.061	8427
804.204	8149
804.346	8043
804.488	7963
804.63	8138
804.773	8092
804.915	8096
805.057	8332
805.199	8161
805.341	8202
805.483	8244
805.626	8240
805.768	8157
805.91	8164
806.052	8199
806.194	8054
806.336	8263
806.478	8164
806.62	8005
806.762	8081
806.904	8237
807.046	8404
807.188	8396
807.33	8339
807.472	8301
807.614	8202
807.756	8157
807.898	8024
808.04	7875
808.182	7906
808.324	7879
808.465	7925
808.607	8069
808.749	8145
808.891	8301
809.033	8366
809.174	8233
809.316	8103
809.458	8054
809.6	8035
809.741	8024
809.883	8069
810.025	8168
810.166	8081
810.308	8050
810.45	7982
810.591	7906
810.733	7712
810.875	7685
811.016	7499
811.158	7525
811.299	7616
811.441	7776
811.582	7738
811.724	7601
811.865	7537
812.007	7620
812.148	7643
812.29	7616
812.431	7772
812.573	7852
812.714	7947
812.855	8115
812.997	8210
813.138	8286
813.279	8218
813.421	8180
813.562	8039
813.703	7871
813.845	7757
813.986	7426
814.127	7301
814.268	7225
814.41	7251
814.551	7206
814.692	7175
814.833	7050
814.974	7088
815.115	7110
815.256	6958
815.397	6939
815.539	6856
815.68	6806
815.821	6791
815.962	6859
816.103	6844
816.244	6764
816.385	6646
816.526	6646
816.666	6517
816.807	6342
816.948	6445
817.089	6441
817.23	6429
817.371	6399
817.512	6353
817.653	6403
817.793	6342
817.934	6403
818.075	6429
818.216	6395
818.356	6456
818.497	6232
818.638	6148
818.778	6114
818.919	6155
819.06	6121
819.2	6308
819.341	6327
819.481	6437
819.622	6540
819.762	6719
819.903	6662
820.043	6673
820.184	6627
820.324	6540
820.465	6745
820.605	6688
820.746	6696
820.886	6502
821.026	6658
821.167	6711
821.307	6833
821.447	6760
821.588	6696
821.728	6601
821.868	6464
822.008	6292
822.149	6338
822.289	6369
822.429	6140
822.569	6133
822.709	6125
822.849	5942
822.99	5874
823.13	5912
823.27	5893
823.41	5817
823.55	5767
823.69	5737
823.83	5771
823.97	5718
824.11	5573
824.25	5589
824.389	5535
824.529	5570
824.669	5573
824.809	5619
824.949	5627
825.089	5596
825.228	5604
825.368	5433
825.508	5387
825.648	5383
825.787	5414
825.927	5398
826.067	5376
826.206	5269
826.346	5360
826.485	5448
826.625	5406
826.765	5604
826.904	5539
827.044	5254
827.183	5246
827.323	5227
827.462	5261
827.601	5185
827.741	5239
827.88	5239
828.02	5178
828.159	5235
828.298	5345
828.437	5364
828.577	5315
828.716	5516
828.855	5307
828.994	5212
829.134	5166
829.273	5277
829.412	5140
829.551	5208
829.69	5178
829.829	5288
829.968	5436
830.107	5273
830.246	5341
830.385	5254
830.524	5193
830.663	5128
830.802	4999
830.941	4900
831.08	4934
831.219	5033
831.357	5052
831.496	5166
831.635	5003
831.774	4850
831.913	4877
832.051	4774
832.19	4820
832.329	4900
832.467	4729
832.606	4672
832.744	4790
832.883	4752
833.022	4752
833.16	4820
833.299	4881
833.437	4820
833.576	4900
833.714	4877
833.852	4900
833.991	4911
834.129	5025
834.267	4972
834.406	4942
834.544	5003
834.682	5075
834.821	5060
834.959	5235
835.097	5048
835.235	5170
835.373	5102
835.511	5113
835.65	5060
835.788	5048
835.926	4911
836.064	4927
836.202	4946
836.34	5178
836.478	5265
836.615	5162
836.753	5254
836.891	5349
837.029	5277
837.167	5246
837.305	5220
837.443	5132
837.58	5121
837.718	5254
837.856	5239
837.993	5166
838.131	5280
838.269	5258
838.406	5242
838.544	5212
838.681	5121
838.819	5048
838.956	4927
839.094	4900
839.231	5029
839.369	5098
839.506	5444
839.643	5330
839.781	5086
839.918	5041
840.055	5132
840.193	5140
840.33	5124
840.467	5113
840.604	5220
840.742	5516
840.879	5113
841.016	5086
841.153	5223
841.29	5444
841.427	5318
841.564	5357
841.701	5417
841.838	5311
841.975	5315
842.112	5296
842.249	5162
842.385	5117
842.522	5387
842.659	5204
842.796	5140
842.933	5242
843.069	5204
843.206	5189
843.343	5387
843.479	5246
843.616	5280
843.752	5056
843.889	5071
844.025	5235
844.162	5045
844.298	5227
844.435	5155
844.571	5090
844.708	5193
844.844	5337
844.98	5448
845.117	5307
845.253	5178
845.389	5128
845.525	5132
845.661	5132
845.798	5113
845.934	5170
846.07	5117
846.206	5231
846.342	5292
846.478	5239
846.614	5041
846.75	5033
846.886	4938
847.022	5189
847.158	5022
847.294	5132
847.429	5147
847.565	5094
847.701	5353
847.837	4892
847.972	4858
848.108	4953
848.244	4987
848.379	4847
848.515	4774
848.65	4729
848.786	4759
848.921	4812
849.057	4972
849.192	4957
849.328	4809
849.463	4889
849.598	4835
849.734	4774
849.869	4752
850.004	4637
850.14	4706
850.275	4626
850.41	4538
850.545	4611
850.68	4599
850.815	4626
850.95	4656
851.085	4873
851.22	4793
851.355	4717
851.49	4626
851.625	4622
851.76	4653
851.895	4664
852.03	4542
852.165	4683
852.299	4733
852.434	4748
852.569	4797
852.703	4828
852.838	4892
852.973	4976
853.107	4961
853.242	4797
853.376	4714
853.511	4618
853.645	4645
853.78	4831
853.914	4736
854.048	4710
854.183	4687
854.317	4752
854.451	4866
854.585	4691
854.72	4668
854.854	4782
854.988	4683
855.122	4679
855.256	4603
855.39	4691
855.524	4835
855.658	4698
855.792	4725
855.926	4748
856.06	4816
856.194	4839
856.327	4721
856.461	4603
856.595	4653
856.729	4691
856.862	4812
856.996	4710
857.13	4717
857.263	4725
857.397	4831
857.53	4691
857.664	4725
857.797	4816
857.931	4850
858.064	4698
858.197	4793
858.331	4649
858.464	4683
858.597	4573
858.731	4706
858.864	4710
858.997	4599
859.13	4691
859.263	4702
859.396	4717
859.529	4641
859.662	4626
859.795	4588
859.928	4649
860.061	4820
860.194	4809
860.327	4649
860.46	4603
860.592	4782
860.725	4748
860.858	4740
860.99	4637
861.123	4550
861.256	4538
861.388	4634
861.521	5315
861.653	4474
861.786	4512
861.918	4523
862.05	4550
862.183	4626
862.315	4626
862.447	4580
862.58	4588
862.712	4405
862.844	4337
862.976	4519
863.108	4512
863.24	4767
863.372	4363
863.504	4470
863.636	4451
863.768	4512
863.9	4447
864.032	4428
864.164	4402
864.296	4474
864.428	4611
864.559	4565
864.691	4569
864.823	4516
864.954	4504
865.086	4523
865.217	4508
865.349	4424
865.48	4455
865.612	4561
865.743	4622
865.875	4481
866.006	4451
866.137	4470
866.269	4443
866.4	4500
866.531	4383
866.662	4421
866.793	4417
866.924	4462
867.055	4538
867.186	4504
867.317	4436
867.448	4402
867.579	4459
867.71	4428
867.841	4432
867.972	4466
868.103	4493
868.233	4485
868.364	4489
868.495	4485
868.625	4721
868.756	4782
868.886	4584
869.017	4649
869.147	4801
869.278	4771
869.408	4687
869.539	4664
869.669	4767
869.799	4664
869.929	4786
870.06	4752
870.19	5014
870.32	4942
870.45	4930
870.58	5094
870.71	5090
870.84	5121
870.97	4965
871.1	4930
871.23	5151
871.36	5170
871.489	5041
871.619	5105
871.749	5113
871.879	5132
872.008	5155
872.138	5136
872.267	5029
872.397	4866
872.526	4820
872.656	4736
872.785	4858
872.915	5022
873.044	5075
873.173	4972
873.303	4976
873.432	5014
873.561	4984
873.69	4934
873.819	4820
873.948	4938
874.077	4809
874.206	4809
874.335	4828
874.464	4900
874.593	5113
874.722	4968
874.851	5098
874.979	5052
875.108	5045
875.237	4923
875.365	4908
875.494	4915
875.623	4908
875.751	4889
875.88	4938
876.008	5048
876.136	5064
876.265	5197
876.393	5364
876.521	5318
876.65	5235
876.778	5189
876.906	5113
877.034	5067
877.162	5022
877.29	5041
877.418	5147
877.546	5045
877.674	5052
877.802	5022
877.93	5071
878.058	4927
878.185	4934
878.313	4927
878.441	4991
878.568	4820
878.696	4900
878.824	4961
878.951	5018
879.079	5140
879.206	5341
879.333	5147
879.461	5003
879.588	5003
879.715	5166
879.842	5239
879.97	5048
880.097	4828
880.224	4759
880.351	4797
880.478	4839
880.605	4843
880.732	4793
880.859	5124
880.986	4934
881.112	4980
881.239	4774
881.366	4691
881.493	4653
881.619	4588
881.746	4649
881.872	4656
881.999	4691
882.125	4706
882.252	4790
882.378	4824
882.505	5022
882.631	4790
882.757	4656
882.883	4717
883.01	4733
883.136	4706
883.262	4656
883.388	4565
883.514	4797
883.64	4904
883.766	4805
883.892	4683
884.018	4778
884.143	4896
884.269	5045
884.395	4702
884.52	4637
884.646	4687
884.772	4618
884.897	4577
885.023	4694
885.148	4767
885.274	4885
885.399	4835
885.524	4683
885.65	4706
885.775	4752
885.9	4752
886.025	4911
886.15	4809
886.275	4717
886.4	4645
886.525	4759
886.65	4675
886.775	4717
886.9	4949
887.025	5090
887.149	4820
887.274	4691
887.399	4653
887.523	4660
887.648	4634
887.773	4626
887.897	4797
888.021	4771
888.146	4691
888.27	4801
888.395	4949
888.519	4862
888.643	4805
888.767	4839
888.891	4683
889.015	4660
889.139	4637
889.263	4599
889.387	4820
889.511	4896
889.635	4854
889.759	4706
889.883	4736
890.006	4725
890.13	4889
890.254	4702
890.377	4694
890.501	4550
890.624	4550
890.748	4668
890.871	4523
890.995	4417
891.118	4409
891.241	4504
891.364	4599
891.488	4630
891.611	4523
891.734	4577
891.857	4577
891.98	4554
892.103	4656
892.226	4577
892.349	4565
892.471	4455
892.594	4584
892.717	4641
892.839	4588
892.962	4588
893.085	4691
893.207	4603
893.33	4462
893.452	4538
893.575	4660
893.697	4607
893.819	4782
893.941	4835
894.064	4793
894.186	4565
894.308	4588
894.43	4725
894.552	4873
894.674	4771
894.796	4584
894.918	4592
895.04	4584
895.161	4698
895.283	4717
895.405	4596
895.526	4645
895.648	4687
895.769	4710
895.891	4763
896.012	4774
896.134	4740
896.255	4687
896.376	4649
896.498	4607
896.619	4691
896.74	4634
896.861	4694
896.982	4927
897.103	5105
897.224	4862
897.345	4744
897.466	4668
897.587	4729
897.708	4843
897.828	4790
897.949	4729
898.07	4561
898.19	4645
898.311	4835
898.431	4675
898.552	4771
898.672	4820
898.792	4824
898.913	4763
899.033	4645
899.153	4451
899.273	4485
899.393	4542
899.513	4542
899.633	4500
899.753	4554
899.873	4516
899.993	4618
900.113	4554
900.232	4615
900.352	4531
900.472	4497
900.591	4398
900.711	4504
900.83	4451
900.95	4615
901.069	4664
901.189	4531
901.308	4386
901.427	4310
901.546	4390
901.665	4500
901.784	4519
901.904	4402
902.023	4348
902.141	4169
902.26	4173
902.379	4303
902.498	4227
902.617	4242
902.735	4375
902.854	4455
902.973	4371
903.091	4234
903.21	4249
903.328	4322
903.446	4242
903.565	4261
903.683	4363
903.801	4284
903.919	4390
904.038	4443
904.156	4367
904.274	4451
904.392	4405
904.51	4417
904.627	4504
904.745	4577
904.863	4664
904.981	4379
905.098	4356
905.216	4421
905.334	4447
905.451	4462
905.569	4424
905.686	4554
905.803	4542
905.921	4436
906.038	4558
906.155	4538
906.272	4455
906.389	4421
906.506	4394
906.623	4367
906.74	4390
906.857	4337
906.974	4356
907.091	4580
907.208	4687
907.324	4569
907.441	4504
907.557	4360
907.674	4352
907.79	4344
907.907	4383
908.023	4512
908.139	4474
908.256	4455
908.372	4451
908.488	4470
908.604	4344
908.72	4314
908.836	4417
908.952	4371
909.068	4428
909.184	4523
909.3	4493
909.415	4607
909.531	4592
909.647	4363
909.762	4371
909.878	4375
909.993	4493
910.108	4360
910.224	4432
910.339	4459
910.454	4440
910.57	4402
910.685	4314
910.8	4668
910.915	4615
911.03	4516
911.145	4341
911.259	4367
911.374	4383
911.489	4276
911.604	4303
911.718	4181
911.833	4200
911.947	4090
912.062	4090
912.176	4238
912.291	4265
912.405	4246
912.519	4466
912.633	4489
912.748	4402
912.862	4322
912.976	4219
913.09	4097
913.204	4215
913.318	4284
913.431	4352
913.545	4379
913.659	4489
913.772	4383
913.886	4287
914	4238
914.113	4386
914.226	4440
914.34	4405
914.453	4284
914.566	4432
914.68	4306
914.793	4325
914.906	4139
915.019	4143
915.132	4071
915.245	4211
915.358	4204
915.47	4276
915.583	4261
915.696	4356
915.809	4417
915.921	4462
916.034	4265
916.146	4223
916.259	4265
916.371	4371
916.483	4325
916.595	4265
916.708	4341
916.82	4325
916.932	4310
917.044	4352
917.156	4348
917.268	4211
917.38	4318
917.491	4261
917.603	4371
917.715	4466
917.826	4459
917.938	4303
918.049	4215
918.161	4409
918.272	4592
918.384	4523
918.495	4474
918.606	4337
918.717	4219
918.828	4352
918.939	4390
919.05	4272
919.161	4333
919.272	4139
919.383	4234
919.494	4481
919.604	4599
919.715	4436
919.826	4356
919.936	4428
920.047	4508
920.157	4451
920.267	4733
920.378	4542
920.488	4466
920.598	4725
920.708	4892
920.818	4816
920.928	4843
921.038	4946
921.148	4953
921.258	4630
921.368	4531
921.477	4516
921.587	4481
921.697	4360
921.806	4531
921.916	4451
922.025	4265
922.134	4310
922.244	4261
922.353	4329
922.462	4234
922.571	4166
922.68	4048
922.789	4017
922.898	4036
923.007	4006
923.116	4147
923.224	4082
923.333	4097
923.442	3991
923.55	3998
923.659	4021
923.767	4086
923.876	4013
923.984	4124
924.092	4013
924.201	4067
924.309	4101
924.417	4131
924.525	4067
924.633	4166
924.741	4908
924.849	3892
924.956	4147
925.064	3945
925.172	3899
925.279	4002
925.387	4044
925.494	4040
925.602	4234
925.709	4234
925.816	4048
925.924	4154
926.031	4211
926.138	4192
926.245	4265
926.352	4109
926.459	4227
926.566	4310
926.673	4154
926.779	4090
926.886	4082
926.993	3991
927.099	3956
927.206	3956
927.312	3968
927.419	4082
927.525	4032
927.631	4120
927.737	3945
927.843	3983
927.95	3865
928.056	3991
928.162	4002
928.267	4112
928.373	4698
928.479	4128
928.585	3850
928.69	4017
928.796	4055
928.901	3949
929.007	3800
929.112	3991
929.218	3949
929.323	3968
929.428	3972
929.533	4158
929.638	3907
929.743	3991
929.848	3983
929.953	4017
930.058	3930
930.163	3770
930.267	3846
930.372	3987
930.477	3774
930.581	4055
930.685	3945
930.79	3823
930.894	3896
930.998	3873
931.103	4067
931.207	3728
931.311	3709
931.415	3656
931.519	3504
931.623	3564
