Data from test_V78500241_929.txt Node
Date: Fri Mar 25 16:55:27 CST 2022
User: usil
Spectrometer: V785-0024
Trigger mode: 0
Integration Time (sec): 4.000000E-1
Scans to average: 1
Nonlinearity correction enabled: false
Boxcar width: 0
Storing dark spectrum: false
XAxis mode: Wavelengths
Number of Pixels in Spectrum: 1024
>>>>>Begin Spectral Data<<<<<
801.071	8016
801.214	8069
801.356	7902
801.499	7890
801.641	7826
801.783	7811
801.926	7986
802.068	7959
802.211	8001
802.353	7860
802.496	7875
802.638	7936
802.78	7906
802.923	7986
803.065	7928
803.208	7849
803.35	8050
803.492	8164
803.635	8161
803.777	8107
803.919	8126
804.061	8480
804.204	8126
804.346	8077
804.488	8005
804.63	8164
804.773	7993
804.915	8145
805.057	8240
805.199	8164
805.341	8180
805.483	8252
805.626	8153
805.768	8107
805.91	8187
806.052	8214
806.194	8123
806.336	8282
806.478	8077
806.62	8073
806.762	8084
806.904	8298
807.046	8480
807.188	8290
807.33	8286
807.472	8320
807.614	8100
807.756	8187
807.898	8031
808.04	7894
808.182	7879
808.324	7898
808.465	7906
808.607	8058
808.749	8084
808.891	8176
809.033	8317
809.174	8237
809.316	8103
809.458	8031
809.6	7974
809.741	8035
809.883	8054
810.025	8123
810.166	8065
810.308	8016
810.45	8058
810.591	7887
810.733	7712
810.875	7643
811.016	7502
811.158	7464
811.299	7613
811.441	7757
811.582	7689
811.724	7636
811.865	7548
812.007	7613
812.148	7590
812.29	7624
812.431	7734
812.573	7902
812.714	8012
812.855	8039
812.997	8248
813.138	8385
813.279	8134
813.421	8065
813.562	8050
813.703	7932
813.845	7750
813.986	7491
814.127	7282
814.268	7247
814.41	7183
814.551	7194
814.692	7190
814.833	7012
814.974	7091
815.115	7065
815.256	6951
815.397	6962
815.539	7008
815.68	6821
815.821	6848
815.962	6935
816.103	6821
816.244	6642
816.385	6684
816.526	6635
816.666	6563
816.807	6296
816.948	6369
817.089	6506
817.23	6418
817.371	6357
817.512	6376
817.653	6407
817.793	6357
817.934	6471
818.075	6418
818.216	6407
818.356	6380
818.497	6251
818.638	6083
818.778	6064
818.919	6167
819.06	6190
819.2	6281
819.341	6331
819.481	6346
819.622	6456
819.762	6692
819.903	6681
820.043	6627
820.184	6601
820.324	6563
820.465	6639
820.605	6684
820.746	6654
820.886	6502
821.026	6623
821.167	6703
821.307	6814
821.447	6707
821.588	6673
821.728	6574
821.868	6509
822.008	6350
822.149	6433
822.289	6304
822.429	6167
822.569	6007
822.709	6114
822.849	5935
822.99	5977
823.13	5942
823.27	5954
823.41	5798
823.55	5748
823.69	5786
823.83	5840
823.97	5691
824.11	5505
824.25	5528
824.389	5516
824.529	5573
824.669	5566
824.809	5623
824.949	5676
825.089	5638
825.228	5497
825.368	5406
825.508	5345
825.648	5311
825.787	5364
825.927	5395
826.067	5330
826.206	5288
826.346	5345
826.485	5387
826.625	5429
826.765	5535
826.904	5497
827.044	5223
827.183	5181
827.323	5140
827.462	5246
827.601	5204
827.741	5223
827.88	5208
828.02	5094
828.159	5220
828.298	5242
828.437	5368
828.577	5277
828.716	5566
828.855	5330
828.994	5181
829.134	5124
829.273	5201
829.412	5117
829.551	5143
829.69	5170
829.829	5208
829.968	5395
830.107	5258
830.246	5299
830.385	5178
830.524	5143
830.663	5113
830.802	5029
830.941	4892
831.08	4927
831.219	4949
831.357	4980
831.496	5246
831.635	4877
831.774	4816
831.913	4797
832.051	4710
832.19	4729
832.329	4805
832.467	4706
832.606	4626
832.744	4706
832.883	4729
833.022	4755
833.16	4801
833.299	4786
833.437	4870
833.576	4790
833.714	4870
833.852	4866
833.991	4873
834.129	4961
834.267	4965
834.406	4900
834.544	4984
834.682	4953
834.821	5003
834.959	5143
835.097	5010
835.235	5143
835.373	5121
835.511	5151
835.65	5075
835.788	5014
835.926	4919
836.064	4873
836.202	4934
836.34	5181
836.478	5212
836.615	5113
836.753	5216
836.891	5277
837.029	5242
837.167	5193
837.305	5181
837.443	5124
837.58	5094
837.718	5265
837.856	5178
837.993	5147
838.131	5212
838.269	5170
838.406	5220
838.544	5178
838.681	5014
838.819	5018
838.956	4934
839.094	4858
839.231	5041
839.369	5071
839.506	5406
839.643	5280
839.781	5048
839.918	5037
840.055	5102
840.193	5079
840.33	5094
840.467	5147
840.604	5128
840.742	5440
840.879	5102
841.016	5090
841.153	5136
841.29	5357
841.427	5288
841.564	5307
841.701	5311
841.838	5269
841.975	5181
842.112	5254
842.249	5109
842.385	5067
842.522	5284
842.659	5235
842.796	5189
842.933	5223
843.069	5105
843.206	5166
843.343	5280
843.479	5231
843.616	5185
843.752	4972
843.889	5056
844.025	5235
844.162	4995
844.298	5201
844.435	5075
844.571	5037
844.708	5197
844.844	5334
844.98	5337
845.117	5280
845.253	5136
845.389	5086
845.525	5128
845.661	5140
845.798	5045
845.934	5166
846.07	5033
846.206	5197
846.342	5284
846.478	5193
846.614	5025
846.75	4896
846.886	4961
847.022	5128
847.158	5014
847.294	5086
847.429	5140
847.565	5041
847.701	5357
847.837	4820
847.972	4786
848.108	4942
848.244	4870
848.379	4774
848.515	4721
848.65	4717
848.786	4740
848.921	4755
849.057	4850
849.192	4858
849.328	4850
849.463	4896
849.598	4729
849.734	4763
849.869	4675
850.004	4645
850.14	4660
850.275	4615
850.41	4577
850.545	4577
850.68	4634
850.815	4626
850.95	4645
851.085	4847
851.22	4694
851.355	4687
851.49	4596
851.625	4607
851.76	4637
851.895	4523
852.03	4516
852.165	4607
852.299	4717
852.434	4767
852.569	4702
852.703	4793
852.838	4809
852.973	4885
853.107	4915
853.242	4767
853.376	4653
853.511	4558
853.645	4611
853.78	4824
853.914	4698
854.048	4679
854.183	4656
854.317	4710
854.451	4862
854.585	4702
854.72	4630
854.854	4736
854.988	4535
855.122	4622
855.256	4527
855.39	4687
855.524	4767
855.658	4778
855.792	4683
855.926	4721
856.06	4755
856.194	4793
856.327	4691
856.461	4554
856.595	4599
856.729	4615
856.862	4759
856.996	4687
857.13	4702
857.263	4729
857.397	4805
857.53	4675
857.664	4714
857.797	4740
857.931	4820
858.064	4637
858.197	4801
858.331	4649
858.464	4596
858.597	4516
858.731	4618
858.864	4626
858.997	4554
859.13	4656
859.263	4653
859.396	4702
859.529	4584
859.662	4535
859.795	4550
859.928	4592
860.061	4733
860.194	4729
860.327	4599
860.46	4565
860.592	4702
860.725	4702
860.858	4721
860.99	4561
861.123	4512
861.256	4485
861.388	4618
861.521	5113
861.653	4538
861.786	4409
861.918	4443
862.05	4569
862.183	4489
862.315	4535
862.447	4626
862.58	4542
862.712	4394
862.844	4284
862.976	4489
863.108	4440
863.24	4729
863.372	4341
863.504	4398
863.636	4405
863.768	4481
863.9	4432
864.032	4322
864.164	4379
864.296	4493
864.428	4535
864.559	4516
864.691	4474
864.823	4512
864.954	4481
865.086	4447
865.217	4421
865.349	4421
865.48	4478
865.612	4466
865.743	4596
865.875	4405
866.006	4417
866.137	4428
866.269	4447
866.4	4466
866.531	4443
866.662	4367
866.793	4367
866.924	4390
867.055	4478
867.186	4405
867.317	4375
867.448	4333
867.579	4363
867.71	4398
867.841	4337
867.972	4451
868.103	4474
868.233	4421
868.364	4413
868.495	4516
868.625	4653
868.756	4721
868.886	4527
869.017	4599
869.147	4774
869.278	4729
869.408	4611
869.539	4645
869.669	4694
869.799	4577
869.929	4733
870.06	4755
870.19	4896
870.32	4896
870.45	4930
870.58	5014
870.71	5048
870.84	5071
870.97	4980
871.1	4885
871.23	5067
871.36	5124
871.489	4980
871.619	5067
871.749	5094
871.879	5086
872.008	5197
872.138	5056
872.267	4957
872.397	4793
872.526	4816
872.656	4698
872.785	4790
872.915	4965
873.044	5056
873.173	4930
873.303	4980
873.432	4904
873.561	4946
873.69	4873
873.819	4877
873.948	4881
874.077	4797
874.206	4752
874.335	4786
874.464	4896
874.593	4999
874.722	4946
874.851	5128
874.979	5060
875.108	5048
875.237	4873
875.365	4847
875.494	4854
875.623	4904
875.751	4812
875.88	4892
876.008	4938
876.136	5079
876.265	5132
876.393	5337
876.521	5261
876.65	5197
876.778	5121
876.906	5037
877.034	5003
877.162	5052
877.29	5014
877.418	5037
877.546	5056
877.674	5003
877.802	5018
877.93	4987
878.058	4908
878.185	4873
878.313	4919
878.441	4873
878.568	4824
878.696	4839
878.824	4972
878.951	5018
879.079	5174
879.206	5265
879.333	5067
879.461	4965
879.588	5014
879.715	5086
879.842	5220
879.97	4965
880.097	4786
880.224	4748
880.351	4801
880.478	4774
880.605	4763
880.732	4755
880.859	5105
880.986	4908
881.112	4957
881.239	4744
881.366	4675
881.493	4599
881.619	4531
881.746	4588
881.872	4592
881.999	4656
882.125	4675
882.252	4721
882.378	4801
882.505	4934
882.631	4793
882.757	4656
882.883	4702
883.01	4714
883.136	4637
883.262	4603
883.388	4596
883.514	4782
883.64	4862
883.766	4782
883.892	4683
884.018	4675
884.143	4911
884.269	5029
884.395	4668
884.52	4603
884.646	4645
884.772	4584
884.897	4554
885.023	4698
885.148	4710
885.274	4881
885.399	4790
885.524	4679
885.65	4649
885.775	4755
885.9	4694
886.025	4820
886.15	4729
886.275	4698
886.4	4683
886.525	4717
886.65	4698
886.775	4691
886.9	4953
887.025	5022
887.149	4725
887.274	4660
887.399	4531
887.523	4611
887.648	4561
887.773	4558
887.897	4733
888.021	4763
888.146	4653
888.27	4805
888.395	4835
888.519	4793
888.643	4847
888.767	4850
888.891	4645
889.015	4592
889.139	4607
889.263	4592
889.387	4740
889.511	4835
889.635	4759
889.759	4653
889.883	4592
890.006	4733
890.13	4843
890.254	4626
890.377	4649
890.501	4504
890.624	4538
890.748	4645
890.871	4489
890.995	4394
891.118	4386
891.241	4535
891.364	4519
891.488	4588
891.611	4462
891.734	4523
891.857	4569
891.98	4538
892.103	4645
892.226	4565
892.349	4527
892.471	4447
892.594	4500
892.717	4596
892.839	4519
892.962	4554
893.085	4641
893.207	4603
893.33	4417
893.452	4523
893.575	4660
893.697	4588
893.819	4892
893.941	4858
894.064	4736
894.186	4573
894.308	4558
894.43	4744
894.552	4786
894.674	4736
894.796	4554
894.918	4634
895.04	4611
895.161	4660
895.283	4660
895.405	4588
895.526	4656
895.648	4649
895.769	4714
895.891	4672
896.012	4729
896.134	4694
896.255	4611
896.376	4599
896.498	4611
896.619	4641
896.74	4592
896.861	4630
896.982	4934
897.103	5060
897.224	4812
897.345	4714
897.466	4656
897.587	4714
897.708	4831
897.828	4778
897.949	4675
898.07	4504
898.19	4611
898.311	4816
898.431	4641
898.552	4725
898.672	4797
898.792	4790
898.913	4710
899.033	4603
899.153	4512
899.273	4466
899.393	4481
899.513	4546
899.633	4481
899.753	4519
899.873	4470
899.993	4573
900.113	4519
900.232	4603
900.352	4535
900.472	4466
900.591	4443
900.711	4504
900.83	4394
900.95	4611
901.069	4656
901.189	4535
901.308	4375
901.427	4325
901.546	4375
901.665	4443
901.784	4519
901.904	4337
902.023	4242
902.141	4181
902.26	4173
902.379	4280
902.498	4200
902.617	4215
902.735	4299
902.854	4348
902.973	4333
903.091	4234
903.21	4215
903.328	4318
903.446	4268
903.565	4272
903.683	4344
903.801	4295
903.919	4375
904.038	4409
904.156	4329
904.274	4451
904.392	4390
904.51	4436
904.627	4474
904.745	4538
904.863	4645
904.981	4440
905.098	4253
905.216	4367
905.334	4440
905.451	4443
905.569	4398
905.686	4523
905.803	4531
905.921	4383
906.038	4538
906.155	4478
906.272	4360
906.389	4447
906.506	4299
906.623	4379
906.74	4394
906.857	4314
906.974	4322
907.091	4535
907.208	4698
907.324	4580
907.441	4485
907.557	4356
907.674	4325
907.79	4310
907.907	4367
908.023	4512
908.139	4455
908.256	4470
908.372	4489
908.488	4421
908.604	4325
908.72	4276
908.836	4325
908.952	4348
909.068	4421
909.184	4565
909.3	4500
909.415	4554
909.531	4554
909.647	4333
909.762	4337
909.878	4329
909.993	4443
910.108	4398
910.224	4341
910.339	4413
910.454	4360
910.57	4363
910.685	4303
910.8	4637
910.915	4622
911.03	4474
911.145	4356
911.259	4276
911.374	4348
911.489	4261
911.604	4306
911.718	4147
911.833	4219
911.947	4086
912.062	4021
912.176	4230
912.291	4238
912.405	4272
912.519	4440
912.633	4535
912.748	4348
912.862	4318
912.976	4177
913.09	4112
913.204	4162
913.318	4276
913.431	4337
913.545	4383
913.659	4428
913.772	4371
913.886	4223
914	4185
914.113	4371
914.226	4379
914.34	4360
914.453	4196
914.566	4432
914.68	4265
914.793	4348
914.906	4150
915.019	4074
915.132	4105
915.245	4158
915.358	4257
915.47	4234
915.583	4295
915.696	4295
915.809	4436
915.921	4413
916.034	4234
916.146	4207
916.259	4204
916.371	4356
916.483	4310
916.595	4253
916.708	4337
916.82	4348
916.932	4303
917.044	4306
917.156	4325
917.268	4234
917.38	4268
917.491	4276
917.603	4344
917.715	4371
917.826	4417
917.938	4348
918.049	4253
918.161	4371
918.272	4500
918.384	4554
918.495	4436
918.606	4303
918.717	4230
918.828	4303
918.939	4383
919.05	4238
919.161	4310
919.272	4150
919.383	4287
919.494	4440
919.604	4622
919.715	4443
919.826	4348
919.936	4398
920.047	4523
920.157	4481
920.267	4679
920.378	4531
920.488	4508
920.598	4679
920.708	4847
920.818	4767
920.928	4710
921.038	4961
921.148	4900
921.258	4596
921.368	4546
921.477	4493
921.587	4402
921.697	4360
921.806	4542
921.916	4440
922.025	4265
922.134	4268
922.244	4242
922.353	4322
922.462	4150
922.571	4082
922.68	4017
922.789	3991
922.898	4071
923.007	4002
923.116	4090
923.224	4059
923.333	4112
923.442	3964
923.55	3953
923.659	4055
923.767	4116
923.876	3991
923.984	4101
924.092	3945
924.201	4051
924.309	4105
924.417	4105
924.525	4078
924.633	4093
924.741	5098
924.849	3911
924.956	4173
925.064	3960
925.172	3865
925.279	3972
925.387	4048
925.494	3994
925.602	4162
925.709	4154
925.816	4067
925.924	4131
926.031	4215
926.138	4158
926.245	4219
926.352	4090
926.459	4211
926.566	4280
926.673	4188
926.779	4082
926.886	4090
926.993	4025
927.099	3949
927.206	3907
927.312	3930
927.419	4025
927.525	4059
927.631	4093
927.737	3918
927.843	3926
927.95	3838
928.056	3960
928.162	3941
928.267	4048
928.373	4664
928.479	4116
928.585	3850
928.69	4032
928.796	4078
928.901	3991
929.007	3846
929.112	3987
929.218	3937
929.323	3896
929.428	3949
929.533	4139
929.638	3922
929.743	3945
929.848	4017
929.953	3953
930.058	3945
930.163	3808
930.267	3793
930.372	3979
930.477	3808
930.581	4074
930.685	3918
930.79	3804
930.894	3907
930.998	3869
931.103	4067
931.207	3686
931.311	3671
931.415	3648
931.519	3545
931.623	3557
