Data from test_V78500241_517.txt Node
Date: Fri Mar 25 16:52:35 CST 2022
User: usil
Spectrometer: V785-0024
Trigger mode: 0
Integration Time (sec): 4.000000E-1
Scans to average: 1
Nonlinearity correction enabled: false
Boxcar width: 0
Storing dark spectrum: false
XAxis mode: Wavelengths
Number of Pixels in Spectrum: 1024
>>>>>Begin Spectral Data<<<<<
801.071	8005
801.214	7974
801.356	7871
801.499	7860
801.641	7776
801.783	7883
801.926	8027
802.068	8054
802.211	7970
802.353	8084
802.496	7902
802.638	7909
802.78	7986
802.923	7898
803.065	7898
803.208	7879
803.35	7913
803.492	8058
803.635	8096
803.777	7989
803.919	8123
804.061	8484
804.204	8180
804.346	8058
804.488	7978
804.63	8107
804.773	7928
804.915	8092
805.057	8290
805.199	8240
805.341	8305
805.483	8301
805.626	8199
805.768	8111
805.91	8168
806.052	8199
806.194	8111
806.336	8248
806.478	8202
806.62	8130
806.762	8126
806.904	8286
807.046	8423
807.188	8305
807.33	8282
807.472	8336
807.614	8145
807.756	8183
807.898	8043
808.04	7917
808.182	8005
808.324	7970
808.465	7986
808.607	8027
808.749	8138
808.891	8214
809.033	8282
809.174	8199
809.316	8058
809.458	8054
809.6	8016
809.741	7982
809.883	8054
810.025	8084
810.166	8069
810.308	8024
810.45	8088
810.591	7902
810.733	7757
810.875	7674
811.016	7544
811.158	7472
811.299	7696
811.441	7772
811.582	7742
811.724	7636
811.865	7605
812.007	7605
812.148	7674
812.29	7693
812.431	7822
812.573	7951
812.714	8062
812.855	8187
812.997	8290
813.138	8362
813.279	8271
813.421	8240
813.562	8142
813.703	7970
813.845	7860
813.986	7552
814.127	7403
814.268	7373
814.41	7274
814.551	7301
814.692	7244
814.833	7069
814.974	7126
815.115	7152
815.256	7042
815.397	6973
815.539	7008
815.68	6863
815.821	6833
815.962	6913
816.103	6844
816.244	6764
816.385	6650
816.526	6726
816.666	6532
816.807	6372
816.948	6483
817.089	6589
817.23	6460
817.371	6384
817.512	6422
817.653	6414
817.793	6407
817.934	6452
818.075	6471
818.216	6429
818.356	6426
818.497	6289
818.638	6159
818.778	6163
818.919	6136
819.06	6079
819.2	6254
819.341	6372
819.481	6346
819.622	6597
819.762	6749
819.903	6722
820.043	6623
820.184	6547
820.324	6593
820.465	6658
820.605	6715
820.746	6662
820.886	6494
821.026	6635
821.167	6696
821.307	6894
821.447	6829
821.588	6665
821.728	6623
821.868	6502
822.008	6315
822.149	6357
822.289	6426
822.429	6205
822.569	6159
822.709	6125
822.849	5977
822.99	5992
823.13	5942
823.27	5893
823.41	5840
823.55	5748
823.69	5813
823.83	5817
823.97	5688
824.11	5589
824.25	5551
824.389	5589
824.529	5634
824.669	5562
824.809	5703
824.949	5688
825.089	5661
825.228	5608
825.368	5410
825.508	5368
825.648	5387
825.787	5406
825.927	5379
826.067	5322
826.206	5341
826.346	5452
826.485	5467
826.625	5421
826.765	5581
826.904	5493
827.044	5292
827.183	5235
827.323	5159
827.462	5254
827.601	5197
827.741	5220
827.88	5242
828.02	5159
828.159	5246
828.298	5349
828.437	5383
828.577	5261
828.716	5463
828.855	5341
828.994	5189
829.134	5121
829.273	5208
829.412	5197
829.551	5159
829.69	5162
829.829	5265
829.968	5368
830.107	5326
830.246	5303
830.385	5174
830.524	5124
830.663	5086
830.802	4980
830.941	4953
831.08	4896
831.219	5010
831.357	5006
831.496	5174
831.635	4946
831.774	4900
831.913	4904
832.051	4744
832.19	4774
832.329	4908
832.467	4664
832.606	4622
832.744	4778
832.883	4714
833.022	4774
833.16	4847
833.299	4881
833.437	4862
833.576	4866
833.714	4919
833.852	4915
833.991	4854
834.129	4984
834.267	4957
834.406	4900
834.544	4949
834.682	4999
834.821	5014
834.959	5174
835.097	4957
835.235	5147
835.373	5033
835.511	5121
835.65	5094
835.788	5048
835.926	4877
836.064	4930
836.202	4995
836.34	5231
836.478	5273
836.615	5197
836.753	5242
836.891	5303
837.029	5265
837.167	5193
837.305	5193
837.443	5204
837.58	5113
837.718	5231
837.856	5208
837.993	5159
838.131	5273
838.269	5181
838.406	5254
838.544	5265
838.681	5033
838.819	5029
838.956	4904
839.094	4953
839.231	5029
839.369	5113
839.506	5482
839.643	5250
839.781	5090
839.918	5033
840.055	5132
840.193	5117
840.33	5121
840.467	5189
840.604	5189
840.742	5448
840.879	5094
841.016	5113
841.153	5151
841.29	5433
841.427	5379
841.564	5337
841.701	5364
841.838	5258
841.975	5280
842.112	5299
842.249	5162
842.385	5109
842.522	5296
842.659	5189
842.796	5193
842.933	5181
843.069	5181
843.206	5204
843.343	5326
843.479	5242
843.616	5269
843.752	5041
843.889	5041
844.025	5201
844.162	5075
844.298	5239
844.435	5064
844.571	5067
844.708	5235
844.844	5273
844.98	5345
845.117	5349
845.253	5136
845.389	5105
845.525	5159
845.661	5151
845.798	5064
845.934	5216
846.07	5117
846.206	5193
846.342	5277
846.478	5204
846.614	5056
846.75	5029
846.886	4980
847.022	5143
847.158	4991
847.294	5094
847.429	5189
847.565	5064
847.701	5341
847.837	4862
847.972	4835
848.108	4961
848.244	4980
848.379	4850
848.515	4774
848.65	4729
848.786	4774
848.921	4824
849.057	4870
849.192	4915
849.328	4820
849.463	4835
849.598	4862
849.734	4759
849.869	4675
850.004	4618
850.14	4694
850.275	4641
850.41	4542
850.545	4584
850.68	4603
850.815	4637
850.95	4622
851.085	4847
851.22	4774
851.355	4683
851.49	4645
851.625	4660
851.76	4649
851.895	4603
852.03	4599
852.165	4698
852.299	4736
852.434	4866
852.569	4729
852.703	4801
852.838	4866
852.973	4980
853.107	4957
853.242	4790
853.376	4710
853.511	4592
853.645	4618
853.78	4828
853.914	4725
854.048	4717
854.183	4641
854.317	4721
854.451	4835
854.585	4755
854.72	4615
854.854	4771
854.988	4630
855.122	4649
855.256	4554
855.39	4675
855.524	4812
855.658	4694
855.792	4717
855.926	4744
856.06	4782
856.194	4835
856.327	4660
856.461	4611
856.595	4634
856.729	4645
856.862	4736
856.996	4710
857.13	4771
857.263	4740
857.397	4782
857.53	4675
857.664	4740
857.797	4748
857.931	4824
858.064	4717
858.197	4721
858.331	4637
858.464	4626
858.597	4577
858.731	4664
858.864	4622
858.997	4584
859.13	4687
859.263	4714
859.396	4733
859.529	4558
859.662	4599
859.795	4580
859.928	4668
860.061	4809
860.194	4828
860.327	4592
860.46	4569
860.592	4706
860.725	4778
860.858	4767
860.99	4596
861.123	4569
861.256	4531
861.388	4599
861.521	5444
861.653	4512
861.786	4428
861.918	4489
862.05	4565
862.183	4546
862.315	4622
862.447	4672
862.58	4588
862.712	4424
862.844	4299
862.976	4504
863.108	4470
863.24	4927
863.372	4322
863.504	4413
863.636	4443
863.768	4470
863.9	4485
864.032	4383
864.164	4409
864.296	4474
864.428	4493
864.559	4561
864.691	4565
864.823	4535
864.954	4512
865.086	4542
865.217	4443
865.349	4516
865.48	4470
865.612	4508
865.743	4653
865.875	4474
866.006	4428
866.137	4531
866.269	4455
866.4	4500
866.531	4455
866.662	4428
866.793	4398
866.924	4436
867.055	4497
867.186	4523
867.317	4466
867.448	4405
867.579	4455
867.71	4394
867.841	4375
867.972	4462
868.103	4489
868.233	4512
868.364	4466
868.495	4489
868.625	4691
868.756	4828
868.886	4558
869.017	4626
869.147	4790
869.278	4786
869.408	4698
869.539	4599
869.669	4721
869.799	4729
869.929	4755
870.06	4744
870.19	4968
870.32	4904
870.45	4953
870.58	4991
870.71	5094
870.84	5151
870.97	4965
871.1	4957
871.23	5181
871.36	5181
871.489	5064
871.619	5071
871.749	5075
871.879	5166
872.008	5185
872.138	5075
872.267	4968
872.397	4839
872.526	4847
872.656	4694
872.785	4843
872.915	4953
873.044	5003
873.173	4911
873.303	4968
873.432	4972
873.561	5006
873.69	4915
873.819	4847
873.948	4961
874.077	4850
874.206	4763
874.335	4812
874.464	4934
874.593	5052
874.722	4965
874.851	5086
874.979	5075
875.108	5010
875.237	4889
875.365	4866
875.494	4870
875.623	4991
875.751	4839
875.88	4908
876.008	4999
876.136	5014
876.265	5254
876.393	5379
876.521	5178
876.65	5208
876.778	5185
876.906	5113
877.034	5018
877.162	5086
877.29	5003
877.418	5041
877.546	5079
877.674	5048
877.802	5083
877.93	5056
878.058	4946
878.185	4850
878.313	4938
878.441	4976
878.568	4801
878.696	4896
878.824	5003
878.951	5052
879.079	5117
879.206	5311
879.333	5124
879.461	4991
879.588	5033
879.715	5105
879.842	5178
879.97	5006
880.097	4763
880.224	4778
880.351	4790
880.478	4850
880.605	4828
880.732	4797
880.859	5094
880.986	4904
881.112	4946
881.239	4774
881.366	4653
881.493	4641
881.619	4588
881.746	4706
881.872	4641
881.999	4630
882.125	4721
882.252	4763
882.378	4835
882.505	4980
882.631	4809
882.757	4710
882.883	4725
883.01	4744
883.136	4660
883.262	4630
883.388	4637
883.514	4797
883.64	4839
883.766	4858
883.892	4664
884.018	4733
884.143	4858
884.269	5010
884.395	4721
884.52	4668
884.646	4664
884.772	4580
884.897	4603
885.023	4679
885.148	4782
885.274	4892
885.399	4752
885.524	4736
885.65	4698
885.775	4790
885.9	4714
886.025	4812
886.15	4778
886.275	4763
886.4	4649
886.525	4706
886.65	4717
886.775	4664
886.9	4904
887.025	5060
887.149	4797
887.274	4656
887.399	4573
887.523	4637
887.648	4618
887.773	4626
887.897	4752
888.021	4752
888.146	4660
888.27	4862
888.395	4900
888.519	4828
888.643	4843
888.767	4835
888.891	4717
889.015	4637
889.139	4683
889.263	4641
889.387	4786
889.511	4839
889.635	4866
889.759	4592
889.883	4607
890.006	4759
890.13	4831
890.254	4622
890.377	4675
890.501	4516
890.624	4538
890.748	4618
890.871	4489
890.995	4436
891.118	4386
891.241	4516
891.364	4550
891.488	4683
891.611	4546
891.734	4535
891.857	4634
891.98	4626
892.103	4653
892.226	4603
892.349	4508
892.471	4402
892.594	4584
892.717	4607
892.839	4584
892.962	4565
893.085	4675
893.207	4580
893.33	4466
893.452	4527
893.575	4641
893.697	4596
893.819	4782
893.941	4862
894.064	4774
894.186	4546
894.308	4588
894.43	4698
894.552	4862
894.674	4714
894.796	4584
894.918	4599
895.04	4588
895.161	4675
895.283	4626
895.405	4599
895.526	4660
895.648	4691
895.769	4740
895.891	4694
896.012	4706
896.134	4721
896.255	4706
896.376	4653
896.498	4653
896.619	4675
896.74	4672
896.861	4641
896.982	4889
897.103	5048
897.224	4778
897.345	4736
897.466	4649
897.587	4714
897.708	4858
897.828	4740
897.949	4710
898.07	4584
898.19	4599
898.311	4877
898.431	4729
898.552	4694
898.672	4797
898.792	4797
898.913	4786
899.033	4584
899.153	4519
899.273	4466
899.393	4508
899.513	4462
899.633	4508
899.753	4523
899.873	4535
899.993	4580
900.113	4519
900.232	4588
900.352	4588
900.472	4500
900.591	4413
900.711	4508
900.83	4462
900.95	4615
901.069	4725
901.189	4516
901.308	4348
901.427	4371
901.546	4398
901.665	4470
901.784	4497
901.904	4379
902.023	4303
902.141	4230
902.26	4211
902.379	4303
902.498	4303
902.617	4249
902.735	4360
902.854	4390
902.973	4329
903.091	4215
903.21	4227
903.328	4299
903.446	4272
903.565	4238
903.683	4325
903.801	4284
903.919	4383
904.038	4462
904.156	4287
904.274	4474
904.392	4398
904.51	4398
904.627	4504
904.745	4596
904.863	4664
904.981	4405
905.098	4276
905.216	4360
905.334	4451
905.451	4413
905.569	4413
905.686	4611
905.803	4599
905.921	4447
906.038	4538
906.155	4489
906.272	4405
906.389	4519
906.506	4383
906.623	4436
906.74	4413
906.857	4322
906.974	4402
907.091	4592
907.208	4702
907.324	4634
907.441	4481
907.557	4337
907.674	4348
907.79	4341
907.907	4363
908.023	4497
908.139	4516
908.256	4436
908.372	4497
908.488	4447
908.604	4352
908.72	4329
908.836	4371
908.952	4367
909.068	4424
909.184	4561
909.3	4497
909.415	4607
909.531	4584
909.647	4375
909.762	4371
909.878	4341
909.993	4402
910.108	4466
910.224	4428
910.339	4474
910.454	4375
910.57	4348
910.685	4329
910.8	4656
910.915	4569
911.03	4474
911.145	4322
911.259	4344
911.374	4394
911.489	4291
911.604	4265
911.718	4162
911.833	4185
911.947	4105
912.062	4025
912.176	4215
912.291	4230
912.405	4268
912.519	4481
912.633	4504
912.748	4394
912.862	4318
912.976	4242
913.09	4086
913.204	4173
913.318	4253
913.431	4375
913.545	4341
913.659	4409
913.772	4333
913.886	4246
914	4223
914.113	4344
914.226	4428
914.34	4405
914.453	4257
914.566	4436
914.68	4333
914.793	4314
914.906	4150
915.019	4162
915.132	4124
915.245	4215
915.358	4200
915.47	4242
915.583	4276
915.696	4337
915.809	4394
915.921	4417
916.034	4196
916.146	4280
916.259	4223
916.371	4386
916.483	4405
916.595	4284
916.708	4314
916.82	4379
916.932	4325
917.044	4291
917.156	4318
917.268	4310
917.38	4295
917.491	4272
917.603	4375
917.715	4424
917.826	4478
917.938	4360
918.049	4249
918.161	4386
918.272	4577
918.384	4512
918.495	4462
918.606	4291
918.717	4234
918.828	4356
918.939	4348
919.05	4238
919.161	4310
919.272	4154
919.383	4234
919.494	4421
919.604	4588
919.715	4432
919.826	4379
919.936	4402
920.047	4512
920.157	4474
920.267	4698
920.378	4546
920.488	4462
920.598	4691
920.708	4881
920.818	4790
920.928	4778
921.038	4911
921.148	4938
921.258	4653
921.368	4554
921.477	4443
921.587	4489
921.697	4360
921.806	4546
921.916	4451
922.025	4287
922.134	4257
922.244	4211
922.353	4337
922.462	4169
922.571	4147
922.68	4040
922.789	3972
922.898	4048
923.007	3953
923.116	4090
923.224	4048
923.333	4150
923.442	3994
923.55	3998
923.659	4040
923.767	4116
923.876	3994
923.984	4116
924.092	3983
924.201	4090
924.309	4120
924.417	4147
924.525	4105
924.633	4150
924.741	5052
924.849	3930
924.956	4162
925.064	3964
925.172	3896
925.279	3960
925.387	4048
925.494	4074
925.602	4242
925.709	4143
925.816	4032
925.924	4147
926.031	4227
926.138	4143
926.245	4192
926.352	4086
926.459	4227
926.566	4284
926.673	4188
926.779	4097
926.886	4109
926.993	3956
927.099	3975
927.206	3922
927.312	3949
927.419	4063
927.525	4055
927.631	4101
927.737	3937
927.843	3949
927.95	3854
928.056	3956
928.162	3964
928.267	4074
928.373	4694
928.479	4109
928.585	3865
928.69	4017
928.796	4071
928.901	3960
929.007	3892
929.112	3975
929.218	3994
929.323	3949
929.428	3998
929.533	4112
929.638	3903
929.743	3941
929.848	4071
929.953	4036
930.058	3918
930.163	3743
930.267	3831
930.372	3979
930.477	3835
930.581	4051
930.685	3964
930.79	3789
930.894	3926
930.998	3846
931.103	4071
931.207	3720
931.311	3679
931.415	3720
931.519	3553
931.623	3568
