Data from test_V78500241_2700.txt Node
Date: Fri Mar 25 17:07:46 CST 2022
User: usil
Spectrometer: V785-0024
Trigger mode: 0
Integration Time (sec): 4.000000E-1
Scans to average: 1
Nonlinearity correction enabled: false
Boxcar width: 0
Storing dark spectrum: false
XAxis mode: Wavelengths
Number of Pixels in Spectrum: 1024
>>>>>Begin Spectral Data<<<<<
801.071	7959
801.214	7921
801.356	7826
801.499	7860
801.641	7845
801.783	7814
801.926	7993
802.068	7989
802.211	7970
802.353	8035
802.496	7864
802.638	7879
802.78	7940
802.923	7970
803.065	7909
803.208	7879
803.35	7959
803.492	8100
803.635	8180
803.777	8058
803.919	8149
804.061	8427
804.204	8157
804.346	8077
804.488	8027
804.63	8100
804.773	7986
804.915	8103
805.057	8301
805.199	8145
805.341	8153
805.483	8298
805.626	8309
805.768	8138
805.91	8195
806.052	8172
806.194	8138
806.336	8347
806.478	8119
806.62	8058
806.762	8134
806.904	8324
807.046	8377
807.188	8355
807.33	8320
807.472	8343
807.614	8206
807.756	8183
807.898	8039
808.04	7902
808.182	7868
808.324	7909
808.465	7947
808.607	8142
808.749	8100
808.891	8267
809.033	8320
809.174	8256
809.316	8088
809.458	8065
809.6	7982
809.741	7997
809.883	8005
810.025	8115
810.166	8092
810.308	7963
810.45	8073
810.591	7898
810.733	7746
810.875	7636
811.016	7578
811.158	7529
811.299	7597
811.441	7792
811.582	7715
811.724	7647
811.865	7495
812.007	7559
812.148	7575
812.29	7632
812.431	7742
812.573	7936
812.714	7932
812.855	8088
812.997	8279
813.138	8336
813.279	8161
813.421	8134
813.562	8008
813.703	7909
813.845	7780
813.986	7438
814.127	7232
814.268	7266
814.41	7168
814.551	7202
814.692	7141
814.833	7129
814.974	7122
815.115	7076
815.256	6901
815.397	6939
815.539	6924
815.68	6878
815.821	6757
815.962	6871
816.103	6875
816.244	6779
816.385	6639
816.526	6623
816.666	6502
816.807	6311
816.948	6464
817.089	6410
817.23	6448
817.371	6395
817.512	6331
817.653	6391
817.793	6399
817.934	6403
818.075	6456
818.216	6380
818.356	6391
818.497	6254
818.638	6091
818.778	6136
818.919	6106
819.06	6167
819.2	6281
819.341	6315
819.481	6369
819.622	6498
819.762	6757
819.903	6787
820.043	6566
820.184	6589
820.324	6597
820.465	6745
820.605	6703
820.746	6658
820.886	6623
821.026	6650
821.167	6760
821.307	6776
821.447	6833
821.588	6711
821.728	6604
821.868	6525
822.008	6353
822.149	6376
822.289	6357
822.429	6175
822.569	6190
822.709	6220
822.849	5961
822.99	5980
823.13	5935
823.27	5946
823.41	5779
823.55	5840
823.69	5817
823.83	5844
823.97	5722
824.11	5554
824.25	5551
824.389	5649
824.529	5627
824.669	5627
824.809	5676
824.949	5623
825.089	5642
825.228	5630
825.368	5398
825.508	5372
825.648	5395
825.787	5379
825.927	5436
826.067	5376
826.206	5341
826.346	5436
826.485	5459
826.625	5406
826.765	5566
826.904	5528
827.044	5280
827.183	5284
827.323	5223
827.462	5345
827.601	5220
827.741	5242
827.88	5337
828.02	5143
828.159	5246
828.298	5292
828.437	5364
828.577	5337
828.716	5532
828.855	5398
828.994	5193
829.134	5204
829.273	5250
829.412	5193
829.551	5159
829.69	5212
829.829	5292
829.968	5406
830.107	5307
830.246	5349
830.385	5239
830.524	5147
830.663	5067
830.802	5052
830.941	4930
831.08	4892
831.219	5022
831.357	5041
831.496	5170
831.635	4946
831.774	4904
831.913	4904
832.051	4786
832.19	4786
832.329	4904
832.467	4748
832.606	4687
832.744	4801
832.883	4831
833.022	4790
833.16	4812
833.299	4881
833.437	4858
833.576	4904
833.714	4904
833.852	4927
833.991	4923
834.129	5006
834.267	4961
834.406	4938
834.544	5029
834.682	4991
834.821	4972
834.959	5216
835.097	5010
835.235	5162
835.373	5128
835.511	5216
835.65	5025
835.788	5067
835.926	4968
836.064	4923
836.202	4961
836.34	5201
836.478	5261
836.615	5159
836.753	5273
836.891	5341
837.029	5299
837.167	5223
837.305	5208
837.443	5174
837.58	5132
837.718	5292
837.856	5261
837.993	5193
838.131	5250
838.269	5254
838.406	5265
838.544	5204
838.681	5064
838.819	5037
838.956	4961
839.094	4938
839.231	4987
839.369	5128
839.506	5436
839.643	5322
839.781	5102
839.918	5056
840.055	5143
840.193	5086
840.33	5124
840.467	5159
840.604	5204
840.742	5444
840.879	5136
841.016	5105
841.153	5174
841.29	5395
841.427	5349
841.564	5318
841.701	5360
841.838	5341
841.975	5288
842.112	5330
842.249	5220
842.385	5151
842.522	5353
842.659	5212
842.796	5216
842.933	5246
843.069	5201
843.206	5185
843.343	5288
843.479	5246
843.616	5273
843.752	5121
843.889	5041
844.025	5292
844.162	5067
844.298	5277
844.435	5098
844.571	5124
844.708	5193
844.844	5368
844.98	5349
845.117	5288
845.253	5128
845.389	5128
845.525	5162
845.661	5166
845.798	5083
845.934	5159
846.07	5117
846.206	5265
846.342	5322
846.478	5201
846.614	5060
846.75	4995
846.886	4957
847.022	5189
847.158	5014
847.294	5056
847.429	5143
847.565	5090
847.701	5387
847.837	4831
847.972	4862
848.108	5003
848.244	4961
848.379	4831
848.515	4729
848.65	4729
848.786	4771
848.921	4828
849.057	4942
849.192	4930
849.328	4824
849.463	4835
849.598	4812
849.734	4816
849.869	4710
850.004	4672
850.14	4710
850.275	4641
850.41	4588
850.545	4512
850.68	4592
850.815	4664
850.95	4687
851.085	4862
851.22	4790
851.355	4706
851.49	4668
851.625	4679
851.76	4687
851.895	4599
852.03	4531
852.165	4698
852.299	4774
852.434	4786
852.569	4771
852.703	4782
852.838	4866
852.973	5018
853.107	4923
853.242	4752
853.376	4736
853.511	4603
853.645	4664
853.78	4835
853.914	4691
854.048	4664
854.183	4672
854.317	4698
854.451	4873
854.585	4645
854.72	4668
854.854	4805
854.988	4672
855.122	4668
855.256	4546
855.39	4675
855.524	4786
855.658	4771
855.792	4729
855.926	4778
856.06	4782
856.194	4801
856.327	4748
856.461	4649
856.595	4668
856.729	4687
856.862	4812
856.996	4691
857.13	4752
857.263	4805
857.397	4885
857.53	4664
857.664	4740
857.797	4790
857.931	4771
858.064	4729
858.197	4767
858.331	4698
858.464	4626
858.597	4596
858.731	4679
858.864	4660
858.997	4630
859.13	4691
859.263	4683
859.396	4694
859.529	4580
859.662	4554
859.795	4527
859.928	4679
860.061	4755
860.194	4774
860.327	4653
860.46	4588
860.592	4740
860.725	4759
860.858	4736
860.99	4561
861.123	4531
861.256	4588
861.388	4645
861.521	5376
861.653	4474
861.786	4466
861.918	4459
862.05	4546
862.183	4596
862.315	4641
862.447	4683
862.58	4580
862.712	4409
862.844	4394
862.976	4462
863.108	4481
863.24	4763
863.372	4367
863.504	4462
863.636	4417
863.768	4519
863.9	4474
864.032	4394
864.164	4455
864.296	4466
864.428	4554
864.559	4554
864.691	4584
864.823	4535
864.954	4474
865.086	4497
865.217	4470
865.349	4485
865.48	4478
865.612	4500
865.743	4660
865.875	4451
866.006	4440
866.137	4561
866.269	4466
866.4	4466
866.531	4516
866.662	4409
866.793	4402
866.924	4500
867.055	4512
867.186	4535
867.317	4405
867.448	4421
867.579	4421
867.71	4451
867.841	4421
867.972	4493
868.103	4474
868.233	4455
868.364	4478
868.495	4474
868.625	4710
868.756	4790
868.886	4584
869.017	4645
869.147	4790
869.278	4774
869.408	4637
869.539	4653
869.669	4778
869.799	4710
869.929	4755
870.06	4759
870.19	4976
870.32	4965
870.45	4938
870.58	5090
870.71	5102
870.84	5128
870.97	5003
871.1	4934
871.23	5147
871.36	5193
871.489	5041
871.619	5113
871.749	5083
871.879	5197
872.008	5227
872.138	5071
872.267	5029
872.397	4862
872.526	4831
872.656	4782
872.785	4786
872.915	4968
873.044	5029
873.173	4934
873.303	5003
873.432	4976
873.561	4968
873.69	4930
873.819	4885
873.948	4934
874.077	4812
874.206	4820
874.335	4812
874.464	4938
874.593	5098
874.722	5014
874.851	5086
874.979	5075
875.108	5064
875.237	4927
875.365	4904
875.494	4923
875.623	5037
875.751	4809
875.88	4953
876.008	5003
876.136	5067
876.265	5212
876.393	5330
876.521	5250
876.65	5212
876.778	5227
876.906	5075
877.034	5018
877.162	5056
877.29	4995
877.418	5064
877.546	5067
877.674	5025
877.802	5056
877.93	5060
878.058	4972
878.185	4873
878.313	4976
878.441	4968
878.568	4835
878.696	4873
878.824	5014
878.951	5025
879.079	5086
879.206	5307
879.333	5132
879.461	5041
879.588	5037
879.715	5086
879.842	5223
879.97	5056
880.097	4828
880.224	4752
880.351	4733
880.478	4812
880.605	4797
880.732	4816
880.859	5052
880.986	4927
881.112	4915
881.239	4771
881.366	4740
881.493	4634
881.619	4607
881.746	4645
881.872	4645
881.999	4641
882.125	4710
882.252	4824
882.378	4847
882.505	5003
882.631	4843
882.757	4698
882.883	4710
883.01	4790
883.136	4675
883.262	4592
883.388	4554
883.514	4854
883.64	4900
883.766	4752
883.892	4725
884.018	4740
884.143	4889
884.269	4976
884.395	4683
884.52	4641
884.646	4618
884.772	4611
884.897	4596
885.023	4672
885.148	4774
885.274	4900
885.399	4835
885.524	4683
885.65	4683
885.775	4816
885.9	4748
886.025	4854
886.15	4786
886.275	4748
886.4	4717
886.525	4763
886.65	4763
886.775	4721
886.9	4900
887.025	5041
887.149	4850
887.274	4664
887.399	4630
887.523	4580
887.648	4558
887.773	4622
887.897	4801
888.021	4828
888.146	4672
888.27	4824
888.395	4904
888.519	4854
888.643	4839
888.767	4862
888.891	4763
889.015	4592
889.139	4672
889.263	4634
889.387	4782
889.511	4911
889.635	4835
889.759	4656
889.883	4672
890.006	4797
890.13	4881
890.254	4649
890.377	4691
890.501	4573
890.624	4508
890.748	4649
890.871	4474
890.995	4413
891.118	4432
891.241	4565
891.364	4535
891.488	4611
891.611	4561
891.734	4603
891.857	4653
891.98	4565
892.103	4645
892.226	4653
892.349	4535
892.471	4478
892.594	4565
892.717	4618
892.839	4592
892.962	4611
893.085	4641
893.207	4645
893.33	4504
893.452	4577
893.575	4691
893.697	4588
893.819	4774
893.941	4873
894.064	4797
894.186	4577
894.308	4599
894.43	4790
894.552	4831
894.674	4797
894.796	4584
894.918	4611
895.04	4546
895.161	4771
895.283	4675
895.405	4622
895.526	4622
895.648	4683
895.769	4679
895.891	4725
896.012	4786
896.134	4763
896.255	4740
896.376	4607
896.498	4599
896.619	4706
896.74	4584
896.861	4653
896.982	4942
897.103	5052
897.224	4854
897.345	4725
897.466	4664
897.587	4748
897.708	4873
897.828	4786
897.949	4660
898.07	4538
898.19	4645
898.311	4850
898.431	4698
898.552	4755
898.672	4782
898.792	4805
898.913	4744
899.033	4694
899.153	4512
899.273	4432
899.393	4512
899.513	4546
899.633	4565
899.753	4542
899.873	4516
899.993	4569
900.113	4550
900.232	4634
900.352	4546
900.472	4443
900.591	4344
900.711	4500
900.83	4451
900.95	4637
901.069	4717
901.189	4569
901.308	4360
901.427	4356
901.546	4440
901.665	4443
901.784	4561
901.904	4356
902.023	4356
902.141	4234
902.26	4200
902.379	4341
902.498	4215
902.617	4215
902.735	4405
902.854	4341
902.973	4348
903.091	4196
903.21	4227
903.328	4253
903.446	4284
903.565	4257
903.683	4337
903.801	4253
903.919	4417
904.038	4390
904.156	4287
904.274	4451
904.392	4363
904.51	4481
904.627	4508
904.745	4622
904.863	4637
904.981	4459
905.098	4303
905.216	4405
905.334	4405
905.451	4459
905.569	4478
905.686	4531
905.803	4565
905.921	4478
906.038	4535
906.155	4459
906.272	4470
906.389	4516
906.506	4375
906.623	4322
906.74	4402
906.857	4299
906.974	4352
907.091	4569
907.208	4683
907.324	4588
907.441	4455
907.557	4360
907.674	4390
907.79	4333
907.907	4413
908.023	4485
908.139	4512
908.256	4470
908.372	4436
908.488	4493
908.604	4360
908.72	4341
908.836	4417
908.952	4383
909.068	4424
909.184	4599
909.3	4508
909.415	4588
909.531	4565
909.647	4383
909.762	4394
909.878	4405
909.993	4447
910.108	4451
910.224	4421
910.339	4485
910.454	4402
910.57	4383
910.685	4341
910.8	4653
910.915	4599
911.03	4516
911.145	4352
911.259	4402
911.374	4322
911.489	4333
911.604	4223
911.718	4196
911.833	4219
911.947	4124
912.062	4093
912.176	4204
912.291	4249
912.405	4265
912.519	4443
912.633	4538
912.748	4421
912.862	4306
912.976	4234
913.09	4074
913.204	4200
913.318	4268
913.431	4371
913.545	4417
913.659	4402
913.772	4390
913.886	4246
914	4246
914.113	4360
914.226	4474
914.34	4421
914.453	4246
914.566	4409
914.68	4287
914.793	4303
914.906	4154
915.019	4090
915.132	4051
915.245	4188
915.358	4234
915.47	4230
915.583	4261
915.696	4344
915.809	4405
915.921	4436
916.034	4268
916.146	4230
916.259	4249
916.371	4367
916.483	4314
916.595	4284
916.708	4265
916.82	4341
916.932	4299
917.044	4341
917.156	4341
917.268	4230
917.38	4318
917.491	4299
917.603	4371
917.715	4417
917.826	4493
917.938	4371
918.049	4253
918.161	4402
918.272	4554
918.384	4550
918.495	4470
918.606	4310
918.717	4242
918.828	4310
918.939	4428
919.05	4299
919.161	4272
919.272	4139
919.383	4223
919.494	4447
919.604	4637
919.715	4394
919.826	4398
919.936	4413
920.047	4512
920.157	4519
920.267	4736
920.378	4573
920.488	4516
920.598	4733
920.708	4854
920.818	4744
920.928	4748
921.038	4984
921.148	4919
921.258	4637
921.368	4558
921.477	4485
921.587	4500
921.697	4348
921.806	4569
921.916	4428
922.025	4234
922.134	4227
922.244	4242
922.353	4318
922.462	4166
922.571	4162
922.68	4036
922.789	3956
922.898	4025
923.007	4044
923.116	4105
923.224	4101
923.333	4059
923.442	4029
923.55	3991
923.659	4029
923.767	4105
923.876	4029
923.984	4093
924.092	4002
924.201	4078
924.309	4093
924.417	4131
924.525	4051
924.633	4101
924.741	5022
924.849	3915
924.956	4090
925.064	3956
925.172	3896
925.279	3949
925.387	4090
925.494	4055
925.602	4238
925.709	4200
925.816	4051
925.924	4124
926.031	4230
926.138	4185
926.245	4192
926.352	4120
926.459	4215
926.566	4249
926.673	4158
926.779	4086
926.886	4071
926.993	4044
927.099	3972
927.206	3903
927.312	3930
927.419	4078
927.525	4059
927.631	4105
927.737	3983
927.843	3979
927.95	3854
928.056	4006
928.162	4002
928.267	4090
928.373	4569
928.479	4124
928.585	3846
928.69	4044
928.796	4044
928.901	3934
929.007	3804
929.112	4002
929.218	3960
929.323	3907
929.428	3907
929.533	4101
929.638	3915
929.743	3956
929.848	4078
929.953	3968
930.058	3884
930.163	3770
930.267	3831
930.372	3994
930.477	3842
930.581	4135
930.685	3941
930.79	3819
930.894	3899
930.998	3854
931.103	4044
931.207	3736
931.311	3736
931.415	3660
931.519	3496
931.623	3542
