Data from test_V78500241_2648.txt Node
Date: Fri Mar 25 17:07:24 CST 2022
User: usil
Spectrometer: V785-0024
Trigger mode: 0
Integration Time (sec): 4.000000E-1
Scans to average: 1
Nonlinearity correction enabled: false
Boxcar width: 0
Storing dark spectrum: false
XAxis mode: Wavelengths
Number of Pixels in Spectrum: 1024
>>>>>Begin Spectral Data<<<<<
801.071	8012
801.214	7986
801.356	7925
801.499	7875
801.641	7772
801.783	7803
801.926	8031
802.068	7932
802.211	8031
802.353	8058
802.496	7894
802.638	7970
802.78	7894
802.923	7974
803.065	7959
803.208	7887
803.35	7970
803.492	8084
803.635	8168
803.777	7989
803.919	8153
804.061	8473
804.204	8164
804.346	8027
804.488	7974
804.63	8084
804.773	8001
804.915	8123
805.057	8324
805.199	8115
805.341	8168
805.483	8362
805.626	8259
805.768	8176
805.91	8237
806.052	8210
806.194	8157
806.336	8298
806.478	8073
806.62	8069
806.762	8084
806.904	8252
807.046	8450
807.188	8351
807.33	8301
807.472	8347
807.614	8221
807.756	8084
807.898	8069
808.04	7894
808.182	7936
808.324	7909
808.465	7959
808.607	8123
808.749	8172
808.891	8275
809.033	8355
809.174	8237
809.316	8126
809.458	8035
809.6	8054
809.741	8084
809.883	8081
810.025	8164
810.166	8119
810.308	8058
810.45	8035
810.591	7898
810.733	7769
810.875	7795
811.016	7571
811.158	7445
811.299	7681
811.441	7750
811.582	7780
811.724	7658
811.865	7613
812.007	7662
812.148	7662
812.29	7632
812.431	7811
812.573	7887
812.714	7989
812.855	8126
812.997	8240
813.138	8351
813.279	8187
813.421	8027
813.562	7978
813.703	7875
813.845	7807
813.986	7521
814.127	7308
814.268	7232
814.41	7213
814.551	7187
814.692	7270
814.833	7137
814.974	7145
815.115	7133
815.256	6962
815.397	7000
815.539	6981
815.68	6875
815.821	6859
815.962	6863
816.103	6806
816.244	6757
816.385	6662
816.526	6654
816.666	6570
816.807	6311
816.948	6464
817.089	6490
817.23	6471
817.371	6467
817.512	6429
817.653	6391
817.793	6384
817.934	6445
818.075	6467
818.216	6456
818.356	6407
818.497	6266
818.638	6110
818.778	6190
818.919	6163
819.06	6201
819.2	6327
819.341	6445
819.481	6403
819.622	6654
819.762	6768
819.903	6700
820.043	6665
820.184	6582
820.324	6601
820.465	6757
820.605	6760
820.746	6681
820.886	6551
821.026	6677
821.167	6798
821.307	6844
821.447	6829
821.588	6696
821.728	6620
821.868	6574
822.008	6384
822.149	6384
822.289	6448
822.429	6209
822.569	6152
822.709	6144
822.849	5973
822.99	5935
823.13	6022
823.27	5988
823.41	5844
823.55	5790
823.69	5767
823.83	5809
823.97	5684
824.11	5566
824.25	5543
824.389	5604
824.529	5581
824.669	5547
824.809	5649
824.949	5649
825.089	5627
825.228	5577
825.368	5471
825.508	5444
825.648	5376
825.787	5398
825.927	5414
826.067	5360
826.206	5334
826.346	5421
826.485	5459
826.625	5429
826.765	5558
826.904	5505
827.044	5303
827.183	5185
827.323	5151
827.462	5280
827.601	5185
827.741	5212
827.88	5269
828.02	5113
828.159	5250
828.298	5307
828.437	5372
828.577	5288
828.716	5520
828.855	5349
828.994	5162
829.134	5174
829.273	5201
829.412	5201
829.551	5140
829.69	5239
829.829	5277
829.968	5474
830.107	5277
830.246	5288
830.385	5261
830.524	5181
830.663	5060
830.802	5048
830.941	4927
831.08	4892
831.219	5022
831.357	4942
831.496	5185
831.635	4972
831.774	4934
831.913	4862
832.051	4721
832.19	4782
832.329	4850
832.467	4733
832.606	4641
832.744	4740
832.883	4767
833.022	4771
833.16	4797
833.299	4820
833.437	4843
833.576	4885
833.714	4862
833.852	4930
833.991	4923
834.129	5014
834.267	4923
834.406	4919
834.544	4987
834.682	4968
834.821	4999
834.959	5185
835.097	5010
835.235	5162
835.373	5098
835.511	5086
835.65	5071
835.788	5037
835.926	4938
836.064	4938
836.202	4984
836.34	5197
836.478	5261
836.615	5185
836.753	5242
836.891	5337
837.029	5307
837.167	5220
837.305	5185
837.443	5185
837.58	5113
837.718	5242
837.856	5223
837.993	5193
838.131	5231
838.269	5212
838.406	5208
838.544	5197
838.681	5067
838.819	5090
838.956	4949
839.094	4976
839.231	5102
839.369	5113
839.506	5444
839.643	5330
839.781	5140
839.918	5060
840.055	5121
840.193	5117
840.33	5166
840.467	5140
840.604	5189
840.742	5497
840.879	5083
841.016	5174
841.153	5140
841.29	5429
841.427	5353
841.564	5299
841.701	5360
841.838	5303
841.975	5269
842.112	5288
842.249	5151
842.385	5132
842.522	5334
842.659	5178
842.796	5204
842.933	5216
843.069	5166
843.206	5174
843.343	5330
843.479	5277
843.616	5292
843.752	5090
843.889	5025
844.025	5220
844.162	5041
844.298	5220
844.435	5079
844.571	5079
844.708	5212
844.844	5311
844.98	5349
845.117	5345
845.253	5151
845.389	5064
845.525	5155
845.661	5193
845.798	5071
845.934	5166
846.07	5045
846.206	5204
846.342	5330
846.478	5147
846.614	5052
846.75	4999
846.886	4911
847.022	5197
847.158	5071
847.294	5071
847.429	5079
847.565	5056
847.701	5410
847.837	4850
847.972	4793
848.108	4987
848.244	4908
848.379	4835
848.515	4714
848.65	4721
848.786	4752
848.921	4790
849.057	4835
849.192	4915
849.328	4858
849.463	4843
849.598	4862
849.734	4786
849.869	4744
850.004	4630
850.14	4706
850.275	4596
850.41	4531
850.545	4599
850.68	4618
850.815	4660
850.95	4641
851.085	4866
851.22	4759
851.355	4675
851.49	4653
851.625	4664
851.76	4691
851.895	4573
852.03	4546
852.165	4660
852.299	4698
852.434	4805
852.569	4774
852.703	4828
852.838	4885
852.973	4938
853.107	4915
853.242	4721
853.376	4729
853.511	4535
853.645	4637
853.78	4805
853.914	4706
854.048	4698
854.183	4626
854.317	4736
854.451	4854
854.585	4698
854.72	4664
854.854	4805
854.988	4622
855.122	4653
855.256	4596
855.39	4710
855.524	4812
855.658	4748
855.792	4698
855.926	4729
856.06	4790
856.194	4847
856.327	4698
856.461	4584
856.595	4607
856.729	4603
856.862	4733
856.996	4694
857.13	4793
857.263	4793
857.397	4835
857.53	4656
857.664	4706
857.797	4801
857.931	4793
858.064	4721
858.197	4736
858.331	4698
858.464	4615
858.597	4538
858.731	4668
858.864	4637
858.997	4618
859.13	4702
859.263	4668
859.396	4691
859.529	4615
859.662	4603
859.795	4512
859.928	4569
860.061	4797
860.194	4744
860.327	4615
860.46	4565
860.592	4691
860.725	4740
860.858	4698
860.99	4622
861.123	4550
861.256	4527
861.388	4634
861.521	5425
861.653	4493
861.786	4493
861.918	4398
862.05	4554
862.183	4577
862.315	4565
862.447	4672
862.58	4580
862.712	4413
862.844	4402
862.976	4447
863.108	4504
863.24	4736
863.372	4329
863.504	4398
863.636	4440
863.768	4500
863.9	4417
864.032	4341
864.164	4436
864.296	4455
864.428	4584
864.559	4580
864.691	4569
864.823	4523
864.954	4535
865.086	4588
865.217	4504
865.349	4432
865.48	4478
865.612	4580
865.743	4645
865.875	4436
866.006	4443
866.137	4493
866.269	4440
866.4	4474
866.531	4455
866.662	4402
866.793	4455
866.924	4409
867.055	4478
867.186	4500
867.317	4462
867.448	4421
867.579	4421
867.71	4455
867.841	4390
867.972	4474
868.103	4485
868.233	4417
868.364	4440
868.495	4538
868.625	4656
868.756	4744
868.886	4546
869.017	4664
869.147	4778
869.278	4812
869.408	4710
869.539	4618
869.669	4694
869.799	4702
869.929	4771
870.06	4748
870.19	5025
870.32	4915
870.45	4908
870.58	5003
870.71	5094
870.84	5113
870.97	4976
871.1	4946
871.23	5128
871.36	5189
871.489	5006
871.619	5113
871.749	5136
871.879	5155
872.008	5204
872.138	5079
872.267	4976
872.397	4839
872.526	4755
872.656	4752
872.785	4809
872.915	4976
873.044	5086
873.173	4949
873.303	4953
873.432	4946
873.561	5003
873.69	4957
873.819	4824
873.948	4919
874.077	4847
874.206	4752
874.335	4809
874.464	4953
874.593	5090
874.722	5006
874.851	5117
874.979	5094
875.108	5067
875.237	4949
875.365	4908
875.494	4870
875.623	5022
875.751	4877
875.88	4850
876.008	4961
876.136	5025
876.265	5216
876.393	5349
876.521	5246
876.65	5197
876.778	5162
876.906	5083
877.034	5041
877.162	5006
877.29	5010
877.418	5052
877.546	5048
877.674	5037
877.802	5025
877.93	5006
878.058	4927
878.185	4904
878.313	4976
878.441	5003
878.568	4809
878.696	4862
878.824	4995
878.951	4995
879.079	5117
879.206	5288
879.333	5094
879.461	5022
879.588	5003
879.715	5105
879.842	5216
879.97	5018
880.097	4835
880.224	4733
880.351	4805
880.478	4881
880.605	4801
880.732	4771
880.859	5083
880.986	4908
881.112	4900
881.239	4786
881.366	4668
881.493	4603
881.619	4588
881.746	4634
881.872	4679
881.999	4679
882.125	4717
882.252	4774
882.378	4843
882.505	4991
882.631	4839
882.757	4672
882.883	4729
883.01	4721
883.136	4702
883.262	4599
883.388	4603
883.514	4790
883.64	4839
883.766	4755
883.892	4660
884.018	4721
884.143	4927
884.269	5010
884.395	4656
884.52	4592
884.646	4683
884.772	4584
884.897	4538
885.023	4710
885.148	4717
885.274	4881
885.399	4843
885.524	4710
885.65	4736
885.775	4786
885.9	4714
886.025	4862
886.15	4812
886.275	4702
886.4	4653
886.525	4774
886.65	4694
886.775	4744
886.9	4900
887.025	5025
887.149	4793
887.274	4687
887.399	4561
887.523	4622
887.648	4618
887.773	4584
887.897	4740
888.021	4774
888.146	4733
888.27	4805
888.395	4881
888.519	4835
888.643	4805
888.767	4866
888.891	4675
889.015	4603
889.139	4672
889.263	4599
889.387	4778
889.511	4885
889.635	4843
889.759	4672
889.883	4634
890.006	4725
890.13	4820
890.254	4675
890.377	4653
890.501	4550
890.624	4519
890.748	4637
890.871	4512
890.995	4428
891.118	4398
891.241	4519
891.364	4577
891.488	4611
891.611	4512
891.734	4542
891.857	4588
891.98	4535
892.103	4653
892.226	4599
892.349	4565
892.471	4470
892.594	4523
892.717	4554
892.839	4592
892.962	4588
893.085	4637
893.207	4603
893.33	4447
893.452	4508
893.575	4622
893.697	4542
893.819	4778
893.941	4820
894.064	4740
894.186	4603
894.308	4596
894.43	4736
894.552	4847
894.674	4759
894.796	4527
894.918	4599
895.04	4588
895.161	4649
895.283	4668
895.405	4584
895.526	4637
895.648	4698
895.769	4694
895.891	4748
896.012	4725
896.134	4774
896.255	4687
896.376	4641
896.498	4603
896.619	4618
896.74	4618
896.861	4637
896.982	4957
897.103	4995
897.224	4835
897.345	4714
897.466	4649
897.587	4717
897.708	4828
897.828	4763
897.949	4691
898.07	4577
898.19	4653
898.311	4801
898.431	4641
898.552	4725
898.672	4835
898.792	4801
898.913	4797
899.033	4603
899.153	4500
899.273	4478
899.393	4516
899.513	4542
899.633	4531
899.753	4561
899.873	4504
899.993	4588
900.113	4512
900.232	4611
900.352	4523
900.472	4481
900.591	4424
900.711	4512
900.83	4443
900.95	4637
901.069	4645
901.189	4550
901.308	4356
901.427	4303
901.546	4371
901.665	4462
901.784	4508
901.904	4398
902.023	4371
902.141	4188
902.26	4188
902.379	4280
902.498	4215
902.617	4238
902.735	4371
902.854	4390
902.973	4344
903.091	4230
903.21	4219
903.328	4329
903.446	4303
903.565	4253
903.683	4341
903.801	4261
903.919	4386
904.038	4390
904.156	4344
904.274	4424
904.392	4409
904.51	4417
904.627	4527
904.745	4554
904.863	4615
904.981	4417
905.098	4333
905.216	4379
905.334	4432
905.451	4451
905.569	4436
905.686	4531
905.803	4554
905.921	4417
906.038	4607
906.155	4466
906.272	4451
906.389	4478
906.506	4375
906.623	4356
906.74	4394
906.857	4310
906.974	4390
907.091	4523
907.208	4698
907.324	4561
907.441	4478
907.557	4322
907.674	4303
907.79	4299
907.907	4367
908.023	4481
908.139	4462
908.256	4440
908.372	4459
908.488	4413
908.604	4348
908.72	4287
908.836	4398
908.952	4318
909.068	4394
909.184	4626
909.3	4428
909.415	4603
909.531	4596
909.647	4348
909.762	4325
909.878	4333
909.993	4436
910.108	4394
910.224	4413
910.339	4447
910.454	4405
910.57	4375
910.685	4318
910.8	4607
910.915	4599
911.03	4516
911.145	4360
911.259	4314
911.374	4360
911.489	4291
911.604	4280
911.718	4147
911.833	4162
911.947	4116
912.062	4044
912.176	4211
912.291	4246
912.405	4204
912.519	4440
912.633	4519
912.748	4363
912.862	4318
912.976	4230
913.09	4131
913.204	4177
913.318	4268
913.431	4337
913.545	4371
913.659	4459
913.772	4383
913.886	4261
914	4215
914.113	4375
914.226	4405
914.34	4360
914.453	4234
914.566	4421
914.68	4310
914.793	4329
914.906	4162
915.019	4131
915.132	4093
915.245	4204
915.358	4166
915.47	4268
915.583	4238
915.696	4333
915.809	4394
915.921	4398
916.034	4261
916.146	4261
916.259	4234
916.371	4348
916.483	4341
916.595	4253
916.708	4333
916.82	4314
916.932	4371
917.044	4352
917.156	4303
917.268	4200
917.38	4303
917.491	4280
917.603	4310
917.715	4428
917.826	4424
917.938	4371
918.049	4227
918.161	4379
918.272	4546
918.384	4493
918.495	4409
918.606	4295
918.717	4230
918.828	4371
918.939	4405
919.05	4276
919.161	4318
919.272	4116
919.383	4246
919.494	4481
919.604	4626
919.715	4421
919.826	4383
919.936	4386
920.047	4508
920.157	4451
920.267	4702
920.378	4512
920.488	4474
920.598	4714
920.708	4881
920.818	4759
920.928	4729
921.038	4908
921.148	4877
921.258	4630
921.368	4535
921.477	4493
921.587	4470
921.697	4379
921.806	4577
921.916	4417
922.025	4287
922.134	4280
922.244	4207
922.353	4299
922.462	4150
922.571	4097
922.68	4090
922.789	3998
922.898	4082
923.007	3979
923.116	4067
923.224	4051
923.333	4071
923.442	3998
923.55	3960
923.659	4017
923.767	4101
923.876	4048
923.984	4116
924.092	3994
924.201	4044
924.309	4067
924.417	4116
924.525	4036
924.633	4090
924.741	5067
924.849	3907
924.956	4097
925.064	3934
925.172	3892
925.279	3941
925.387	4067
925.494	4021
925.602	4204
925.709	4162
925.816	4029
925.924	4082
926.031	4234
926.138	4169
926.245	4223
926.352	4090
926.459	4287
926.566	4325
926.673	4192
926.779	4074
926.886	4063
926.993	3960
927.099	3960
927.206	3930
927.312	3949
927.419	4036
927.525	4010
927.631	4040
927.737	4032
927.843	3934
927.95	3892
928.056	3953
928.162	3972
928.267	4059
928.373	4588
928.479	4105
928.585	3903
928.69	4017
928.796	4120
928.901	3964
929.007	3838
929.112	4017
929.218	3975
929.323	3934
929.428	3903
929.533	4101
929.638	3880
929.743	3994
929.848	4093
929.953	4021
930.058	3926
930.163	3774
930.267	3785
930.372	3949
930.477	3797
930.581	4097
930.685	3972
930.79	3797
930.894	3930
930.998	3846
931.103	4029
931.207	3724
931.311	3660
931.415	3686
931.519	3515
931.623	3587
