Data from test_V78500241_1521.txt Node
Date: Fri Mar 25 16:59:34 CST 2022
User: usil
Spectrometer: V785-0024
Trigger mode: 0
Integration Time (sec): 4.000000E-1
Scans to average: 1
Nonlinearity correction enabled: false
Boxcar width: 0
Storing dark spectrum: false
XAxis mode: Wavelengths
Number of Pixels in Spectrum: 1024
>>>>>Begin Spectral Data<<<<<
801.071	7986
801.214	8062
801.356	7932
801.499	7837
801.641	7807
801.783	7731
801.926	7902
802.068	7917
802.211	7997
802.353	7963
802.496	7852
802.638	7849
802.78	7906
802.923	7967
803.065	7864
803.208	7845
803.35	7898
803.492	8084
803.635	8077
803.777	8012
803.919	8081
804.061	8446
804.204	8149
804.346	7982
804.488	7967
804.63	8145
804.773	8001
804.915	8111
805.057	8237
805.199	8073
805.341	8183
805.483	8313
805.626	8183
805.768	8073
805.91	8244
806.052	8168
806.194	8050
806.336	8324
806.478	8180
806.62	8035
806.762	8145
806.904	8294
807.046	8438
807.188	8374
807.33	8275
807.472	8214
807.614	8084
807.756	8168
807.898	8008
808.04	7890
808.182	7860
808.324	7871
808.465	7871
808.607	8050
808.749	8187
808.891	8187
809.033	8320
809.174	8225
809.316	8027
809.458	8054
809.6	7993
809.741	8005
809.883	8016
810.025	8130
810.166	8073
810.308	8005
810.45	7947
810.591	7868
810.733	7731
810.875	7636
811.016	7525
811.158	7499
811.299	7575
811.441	7738
811.582	7708
811.724	7540
811.865	7540
812.007	7548
812.148	7578
812.29	7681
812.431	7765
812.573	7894
812.714	7978
812.855	8092
812.997	8202
813.138	8229
813.279	8256
813.421	8069
813.562	8024
813.703	7803
813.845	7784
813.986	7354
814.127	7324
814.268	7202
814.41	7209
814.551	7206
814.692	7251
814.833	7023
814.974	7065
815.115	7149
815.256	6966
815.397	6840
815.539	6943
815.68	6753
815.821	6764
815.962	6791
816.103	6810
816.244	6741
816.385	6547
816.526	6627
816.666	6486
816.807	6327
816.948	6414
817.089	6433
817.23	6391
817.371	6418
817.512	6410
817.653	6391
817.793	6407
817.934	6429
818.075	6429
818.216	6418
818.356	6384
818.497	6273
818.638	6060
818.778	6129
818.919	6098
819.06	6270
819.2	6365
819.341	6327
819.481	6353
819.622	6517
819.762	6696
819.903	6730
820.043	6601
820.184	6570
820.324	6620
820.465	6722
820.605	6673
820.746	6620
820.886	6513
821.026	6639
821.167	6738
821.307	6715
821.447	6730
821.588	6677
821.728	6570
821.868	6509
822.008	6304
822.149	6403
822.289	6300
822.429	6140
822.569	6079
822.709	6091
822.849	5931
822.99	5923
823.13	5920
823.27	5904
823.41	5767
823.55	5718
823.69	5805
823.83	5775
823.97	5619
824.11	5532
824.25	5455
824.389	5532
824.529	5589
824.669	5512
824.809	5630
824.949	5653
825.089	5539
825.228	5562
825.368	5376
825.508	5337
825.648	5337
825.787	5357
825.927	5353
826.067	5277
826.206	5299
826.346	5292
826.485	5395
826.625	5357
826.765	5516
826.904	5467
827.044	5220
827.183	5227
827.323	5079
827.462	5269
827.601	5220
827.741	5147
827.88	5231
828.02	5052
828.159	5269
828.298	5334
828.437	5318
828.577	5231
828.716	5505
828.855	5364
828.994	5113
829.134	5170
829.273	5159
829.412	5128
829.551	5098
829.69	5147
829.829	5258
829.968	5322
830.107	5265
830.246	5269
830.385	5140
830.524	5079
830.663	5060
830.802	4984
830.941	4900
831.08	4850
831.219	5029
831.357	4919
831.496	5113
831.635	4881
831.774	4828
831.913	4873
832.051	4694
832.19	4736
832.329	4797
832.467	4664
832.606	4649
832.744	4706
832.883	4694
833.022	4691
833.16	4771
833.299	4797
833.437	4824
833.576	4816
833.714	4854
833.852	4873
833.991	4816
834.129	4949
834.267	4934
834.406	4873
834.544	4934
834.682	4991
834.821	4911
834.959	5162
835.097	4934
835.235	5124
835.373	5060
835.511	5174
835.65	5025
835.788	5056
835.926	4873
836.064	4835
836.202	4942
836.34	5132
836.478	5246
836.615	5102
836.753	5151
836.891	5277
837.029	5273
837.167	5208
837.305	5201
837.443	5132
837.58	5117
837.718	5284
837.856	5162
837.993	5121
838.131	5201
838.269	5254
838.406	5178
838.544	5197
838.681	4999
838.819	4980
838.956	4885
839.094	4904
839.231	4942
839.369	5018
839.506	5368
839.643	5250
839.781	5010
839.918	5010
840.055	5071
840.193	5045
840.33	5094
840.467	5121
840.604	5189
840.742	5414
840.879	5117
841.016	5113
841.153	5124
841.29	5364
841.427	5379
841.564	5337
841.701	5349
841.838	5254
841.975	5201
842.112	5273
842.249	5109
842.385	5079
842.522	5341
842.659	5121
842.796	5151
842.933	5193
843.069	5090
843.206	5136
843.343	5269
843.479	5193
843.616	5277
843.752	5037
843.889	4961
844.025	5212
844.162	5003
844.298	5185
844.435	5056
844.571	5067
844.708	5197
844.844	5341
844.98	5368
845.117	5204
845.253	5121
845.389	5079
845.525	5174
845.661	5128
845.798	5006
845.934	5079
846.07	5052
846.206	5185
846.342	5269
846.478	5174
846.614	5045
846.75	4923
846.886	4908
847.022	5151
847.158	4957
847.294	5033
847.429	5083
847.565	5048
847.701	5265
847.837	4843
847.972	4793
848.108	4946
848.244	4938
848.379	4763
848.515	4710
848.65	4683
848.786	4733
848.921	4763
849.057	4831
849.192	4881
849.328	4801
849.463	4835
849.598	4744
849.734	4748
849.869	4683
850.004	4599
850.14	4656
850.275	4664
850.41	4550
850.545	4588
850.68	4584
850.815	4630
850.95	4622
851.085	4862
851.22	4752
851.355	4664
851.49	4592
851.625	4592
851.76	4634
851.895	4577
852.03	4493
852.165	4630
852.299	4706
852.434	4778
852.569	4729
852.703	4752
852.838	4854
852.973	4957
853.107	4915
853.242	4759
853.376	4672
853.511	4558
853.645	4554
853.78	4767
853.914	4672
854.048	4660
854.183	4618
854.317	4698
854.451	4778
854.585	4698
854.72	4641
854.854	4736
854.988	4516
855.122	4588
855.256	4508
855.39	4592
855.524	4782
855.658	4721
855.792	4691
855.926	4702
856.06	4748
856.194	4816
856.327	4729
856.461	4573
856.595	4656
856.729	4607
856.862	4725
856.996	4672
857.13	4710
857.263	4744
857.397	4801
857.53	4649
857.664	4683
857.797	4714
857.931	4797
858.064	4714
858.197	4748
858.331	4630
858.464	4615
858.597	4538
858.731	4596
858.864	4626
858.997	4523
859.13	4630
859.263	4683
859.396	4714
859.529	4565
859.662	4519
859.795	4500
859.928	4641
860.061	4752
860.194	4767
860.327	4611
860.46	4580
860.592	4729
860.725	4694
860.858	4733
860.99	4622
861.123	4535
861.256	4474
861.388	4626
861.521	5258
861.653	4459
861.786	4459
861.918	4413
862.05	4527
862.183	4538
862.315	4565
862.447	4645
862.58	4531
862.712	4383
862.844	4344
862.976	4489
863.108	4421
863.24	4809
863.372	4303
863.504	4360
863.636	4405
863.768	4443
863.9	4428
864.032	4363
864.164	4417
864.296	4462
864.428	4500
864.559	4558
864.691	4512
864.823	4497
864.954	4497
865.086	4519
865.217	4459
865.349	4474
865.48	4417
865.612	4516
865.743	4641
865.875	4481
866.006	4413
866.137	4478
866.269	4459
866.4	4428
866.531	4383
866.662	4379
866.793	4424
866.924	4402
867.055	4474
867.186	4409
867.317	4371
867.448	4310
867.579	4325
867.71	4394
867.841	4375
867.972	4455
868.103	4481
868.233	4447
868.364	4409
868.495	4497
868.625	4664
868.756	4717
868.886	4561
869.017	4588
869.147	4767
869.278	4759
869.408	4634
869.539	4668
869.669	4664
869.799	4664
869.929	4744
870.06	4691
870.19	4938
870.32	4885
870.45	4892
870.58	4987
870.71	5052
870.84	5071
870.97	4938
871.1	4911
871.23	5124
871.36	5083
871.489	4999
871.619	5086
871.749	5079
871.879	5143
872.008	5140
872.138	5048
872.267	4980
872.397	4847
872.526	4801
872.656	4736
872.785	4774
872.915	4949
873.044	5003
873.173	4915
873.303	4968
873.432	4919
873.561	4953
873.69	4839
873.819	4767
873.948	4911
874.077	4870
874.206	4729
874.335	4820
874.464	4957
874.593	5067
874.722	4972
874.851	5121
874.979	5048
875.108	5041
875.237	4870
875.365	4877
875.494	4862
875.623	4957
875.751	4805
875.88	4896
876.008	4980
876.136	5045
876.265	5193
876.393	5315
876.521	5208
876.65	5201
876.778	5159
876.906	5071
877.034	5003
877.162	5033
877.29	5029
877.418	4976
877.546	5033
877.674	5045
877.802	5033
877.93	4999
878.058	4930
878.185	4858
878.313	4908
878.441	4942
878.568	4812
878.696	4839
878.824	4961
878.951	5041
879.079	5147
879.206	5273
879.333	5102
879.461	4984
879.588	4968
879.715	5132
879.842	5197
879.97	4953
880.097	4809
880.224	4702
880.351	4771
880.478	4858
880.605	4793
880.732	4805
880.859	5056
880.986	4877
881.112	4843
881.239	4778
881.366	4679
881.493	4645
881.619	4611
881.746	4626
881.872	4660
881.999	4615
882.125	4668
882.252	4759
882.378	4839
882.505	4946
882.631	4828
882.757	4668
882.883	4740
883.01	4698
883.136	4664
883.262	4580
883.388	4611
883.514	4801
883.64	4866
883.766	4752
883.892	4641
884.018	4714
884.143	4896
884.269	4991
884.395	4634
884.52	4634
884.646	4641
884.772	4592
884.897	4569
885.023	4607
885.148	4767
885.274	4858
885.399	4755
885.524	4687
885.65	4679
885.775	4714
885.9	4710
886.025	4839
886.15	4752
886.275	4721
886.4	4653
886.525	4729
886.65	4687
886.775	4702
886.9	4843
887.025	4995
887.149	4755
887.274	4672
887.399	4550
887.523	4599
887.648	4561
887.773	4558
887.897	4809
888.021	4774
888.146	4687
888.27	4771
888.395	4915
888.519	4877
888.643	4824
888.767	4850
888.891	4653
889.015	4592
889.139	4653
889.263	4554
889.387	4740
889.511	4889
889.635	4782
889.759	4637
889.883	4622
890.006	4702
890.13	4847
890.254	4611
890.377	4679
890.501	4546
890.624	4516
890.748	4637
890.871	4485
890.995	4421
891.118	4379
891.241	4478
891.364	4531
891.488	4641
891.611	4474
891.734	4519
891.857	4573
891.98	4519
892.103	4668
892.226	4599
892.349	4565
892.471	4398
892.594	4497
892.717	4573
892.839	4599
892.962	4588
893.085	4618
893.207	4573
893.33	4455
893.452	4538
893.575	4637
893.697	4588
893.819	4793
893.941	4820
894.064	4717
894.186	4565
894.308	4554
894.43	4710
894.552	4816
894.674	4793
894.796	4554
894.918	4558
895.04	4535
895.161	4714
895.283	4672
895.405	4607
895.526	4607
895.648	4675
895.769	4675
895.891	4729
896.012	4717
896.134	4721
896.255	4660
896.376	4565
896.498	4622
896.619	4660
896.74	4622
896.861	4656
896.982	4934
897.103	5083
897.224	4778
897.345	4767
897.466	4641
897.587	4706
897.708	4858
897.828	4759
897.949	4668
898.07	4565
898.19	4626
898.311	4797
898.431	4717
898.552	4702
898.672	4850
898.792	4797
898.913	4702
899.033	4618
899.153	4508
899.273	4455
899.393	4455
899.513	4538
899.633	4512
899.753	4542
899.873	4516
899.993	4531
900.113	4531
900.232	4558
900.352	4561
900.472	4462
900.591	4371
900.711	4478
900.83	4447
900.95	4611
901.069	4675
901.189	4550
901.308	4379
901.427	4280
901.546	4386
901.665	4424
901.784	4516
901.904	4379
902.023	4341
902.141	4204
902.26	4143
902.379	4276
902.498	4223
902.617	4154
902.735	4409
902.854	4379
902.973	4341
903.091	4215
903.21	4242
903.328	4325
903.446	4299
903.565	4280
903.683	4402
903.801	4287
903.919	4424
904.038	4428
904.156	4295
904.274	4402
904.392	4367
904.51	4443
904.627	4481
904.745	4561
904.863	4622
904.981	4421
905.098	4306
905.216	4352
905.334	4443
905.451	4405
905.569	4371
905.686	4546
905.803	4554
905.921	4409
906.038	4558
906.155	4459
906.272	4432
906.389	4481
906.506	4337
906.623	4363
906.74	4413
906.857	4325
906.974	4367
907.091	4573
907.208	4675
907.324	4584
907.441	4481
907.557	4344
907.674	4348
907.79	4306
907.907	4375
908.023	4535
908.139	4462
908.256	4409
908.372	4451
908.488	4451
908.604	4337
908.72	4337
908.836	4402
908.952	4322
909.068	4402
909.184	4535
909.3	4489
909.415	4592
909.531	4569
909.647	4333
909.762	4383
909.878	4341
909.993	4455
910.108	4356
910.224	4375
910.339	4481
910.454	4447
910.57	4356
910.685	4333
910.8	4630
910.915	4641
911.03	4474
911.145	4318
911.259	4341
911.374	4421
911.489	4280
911.604	4280
911.718	4169
911.833	4238
911.947	4086
912.062	4048
912.176	4177
912.291	4230
912.405	4230
912.519	4436
912.633	4481
912.748	4329
912.862	4287
912.976	4230
913.09	4139
913.204	4147
913.318	4207
913.431	4363
913.545	4417
913.659	4428
913.772	4325
913.886	4253
914	4257
914.113	4390
914.226	4432
914.34	4383
914.453	4188
914.566	4383
914.68	4314
914.793	4325
914.906	4154
915.019	4139
915.132	4086
915.245	4177
915.358	4181
915.47	4276
915.583	4261
915.696	4310
915.809	4356
915.921	4386
916.034	4249
916.146	4234
916.259	4185
916.371	4310
916.483	4329
916.595	4246
916.708	4299
916.82	4325
916.932	4295
917.044	4360
917.156	4337
917.268	4219
917.38	4192
917.491	4246
917.603	4341
917.715	4443
917.826	4432
917.938	4341
918.049	4230
918.161	4363
918.272	4550
918.384	4596
918.495	4493
918.606	4295
918.717	4246
918.828	4325
918.939	4371
919.05	4261
919.161	4329
919.272	4135
919.383	4219
919.494	4443
919.604	4634
919.715	4386
919.826	4337
919.936	4417
920.047	4500
920.157	4459
920.267	4706
920.378	4531
920.488	4493
920.598	4706
920.708	4831
920.818	4752
920.928	4740
921.038	4965
921.148	4885
921.258	4565
921.368	4569
921.477	4542
921.587	4459
921.697	4371
921.806	4497
921.916	4443
922.025	4257
922.134	4272
922.244	4207
922.353	4299
922.462	4162
922.571	4135
922.68	4021
922.789	3998
922.898	4059
923.007	4021
923.116	4116
923.224	4048
923.333	4078
923.442	4002
923.55	3994
923.659	4063
923.767	4067
923.876	4017
923.984	4055
924.092	3949
924.201	4051
924.309	4101
924.417	4105
924.525	4036
924.633	4048
924.741	4805
924.849	3945
924.956	4120
925.064	3975
925.172	3888
925.279	3972
925.387	4029
925.494	4128
925.602	4204
925.709	4215
925.816	4021
925.924	4128
926.031	4207
926.138	4162
926.245	4234
926.352	4063
926.459	4196
926.566	4257
926.673	4128
926.779	4051
926.886	4086
926.993	3922
927.099	3934
927.206	3941
927.312	3953
927.419	4032
927.525	4010
927.631	4109
927.737	4006
927.843	3968
927.95	3876
928.056	4002
928.162	4013
928.267	4063
928.373	4550
928.479	4128
928.585	3907
928.69	3991
928.796	4059
928.901	4006
929.007	3869
929.112	3998
929.218	3979
929.323	3896
929.428	3964
929.533	4128
929.638	3903
929.743	3960
929.848	3998
929.953	3998
930.058	3975
930.163	3770
930.267	3812
930.372	3964
930.477	3804
930.581	4086
930.685	3956
930.79	3865
930.894	3869
930.998	3854
931.103	4010
931.207	3701
931.311	3694
931.415	3682
931.519	3473
931.623	3568
