Data from test_V78500241_1656.txt Node
Date: Fri Mar 25 17:00:31 CST 2022
User: usil
Spectrometer: V785-0024
Trigger mode: 0
Integration Time (sec): 4.000000E-1
Scans to average: 1
Nonlinearity correction enabled: false
Boxcar width: 0
Storing dark spectrum: false
XAxis mode: Wavelengths
Number of Pixels in Spectrum: 1024
>>>>>Begin Spectral Data<<<<<
801.071	8005
801.214	8001
801.356	7913
801.499	7875
801.641	7841
801.783	7826
801.926	7947
802.068	7928
802.211	7982
802.353	7982
802.496	7879
802.638	7894
802.78	7921
802.923	7932
803.065	7902
803.208	7947
803.35	7944
803.492	8058
803.635	8153
803.777	8027
803.919	8180
804.061	8454
804.204	8145
804.346	8016
804.488	7963
804.63	8096
804.773	8024
804.915	8130
805.057	8252
805.199	8168
805.341	8187
805.483	8244
805.626	8187
805.768	8142
805.91	8263
806.052	8237
806.194	8119
806.336	8237
806.478	8096
806.62	8039
806.762	8191
806.904	8313
807.046	8514
807.188	8446
807.33	8290
807.472	8332
807.614	8195
807.756	8084
807.898	7951
808.04	7944
808.182	7917
808.324	7894
808.465	7917
808.607	8126
808.749	8119
808.891	8237
809.033	8271
809.174	8256
809.316	8008
809.458	8081
809.6	8012
809.741	8050
809.883	8039
810.025	8084
810.166	8031
810.308	7921
810.45	8001
810.591	7788
810.733	7742
810.875	7712
811.016	7483
811.158	7544
811.299	7666
811.441	7715
811.582	7674
811.724	7578
811.865	7499
812.007	7658
812.148	7616
812.29	7636
812.431	7738
812.573	7879
812.714	7951
812.855	8214
812.997	8210
813.138	8305
813.279	8244
813.421	8103
813.562	7963
813.703	7772
813.845	7693
813.986	7426
814.127	7247
814.268	7244
814.41	7179
814.551	7183
814.692	7202
814.833	7114
814.974	7126
815.115	7046
815.256	6962
815.397	6890
815.539	6939
815.68	6814
815.821	6757
815.962	6856
816.103	6806
816.244	6677
816.385	6650
816.526	6585
816.666	6513
816.807	6323
816.948	6448
817.089	6471
817.23	6365
817.371	6395
817.512	6410
817.653	6437
817.793	6338
817.934	6388
818.075	6483
818.216	6433
818.356	6353
818.497	6243
818.638	6125
818.778	6155
818.919	6205
819.06	6167
819.2	6285
819.341	6315
819.481	6369
819.622	6559
819.762	6730
819.903	6665
820.043	6585
820.184	6540
820.324	6623
820.465	6608
820.605	6757
820.746	6677
820.886	6566
821.026	6688
821.167	6654
821.307	6783
821.447	6791
821.588	6646
821.728	6566
821.868	6464
822.008	6327
822.149	6331
822.289	6372
822.429	6102
822.569	6095
822.709	6060
822.849	5950
822.99	5923
823.13	5912
823.27	5885
823.41	5775
823.55	5764
823.69	5786
823.83	5745
823.97	5649
824.11	5493
824.25	5516
824.389	5592
824.529	5573
824.669	5471
824.809	5619
824.949	5707
825.089	5657
825.228	5551
825.368	5410
825.508	5376
825.648	5334
825.787	5379
825.927	5414
826.067	5280
826.206	5296
826.346	5357
826.485	5429
826.625	5433
826.765	5512
826.904	5463
827.044	5201
827.183	5246
827.323	5128
827.462	5258
827.601	5143
827.741	5250
827.88	5239
828.02	5075
828.159	5227
828.298	5296
828.437	5315
828.577	5258
828.716	5516
828.855	5357
828.994	5178
829.134	5174
829.273	5098
829.412	5155
829.551	5136
829.69	5159
829.829	5235
829.968	5341
830.107	5258
830.246	5284
830.385	5170
830.524	5128
830.663	5048
830.802	4972
830.941	4908
831.08	4866
831.219	4968
831.357	4965
831.496	5140
831.635	4938
831.774	4828
831.913	4786
832.051	4725
832.19	4759
832.329	4812
832.467	4649
832.606	4649
832.744	4725
832.883	4740
833.022	4729
833.16	4752
833.299	4854
833.437	4771
833.576	4824
833.714	4843
833.852	4835
833.991	4854
834.129	4961
834.267	4984
834.406	4949
834.544	4991
834.682	4904
834.821	4953
834.959	5159
835.097	4999
835.235	5128
835.373	5098
835.511	5143
835.65	5022
835.788	5048
835.926	4908
836.064	4850
836.202	4896
836.34	5151
836.478	5201
836.615	5132
836.753	5185
836.891	5261
837.029	5250
837.167	5189
837.305	5162
837.443	5105
837.58	5094
837.718	5265
837.856	5189
837.993	5140
838.131	5284
838.269	5189
838.406	5227
838.544	5204
838.681	5037
838.819	4991
838.956	4877
839.094	4930
839.231	4995
839.369	5079
839.506	5406
839.643	5261
839.781	5056
839.918	5048
840.055	5025
840.193	5071
840.33	5124
840.467	5090
840.604	5155
840.742	5391
840.879	5109
841.016	5079
841.153	5174
841.29	5341
841.427	5322
841.564	5284
841.701	5353
841.838	5223
841.975	5341
842.112	5223
842.249	5147
842.385	5117
842.522	5303
842.659	5128
842.796	5151
842.933	5181
843.069	5181
843.206	5121
843.343	5299
843.479	5239
843.616	5280
843.752	5041
843.889	4995
844.025	5201
844.162	4972
844.298	5174
844.435	5064
844.571	5022
844.708	5189
844.844	5250
844.98	5353
845.117	5315
845.253	5140
845.389	5056
845.525	5143
845.661	5094
845.798	4995
845.934	5166
846.07	5018
846.206	5239
846.342	5292
846.478	5132
846.614	4968
846.75	4965
846.886	4919
847.022	5124
847.158	5045
847.294	5048
847.429	5109
847.565	5029
847.701	5326
847.837	4835
847.972	4831
848.108	4938
848.244	4915
848.379	4748
848.515	4752
848.65	4729
848.786	4740
848.921	4786
849.057	4839
849.192	4919
849.328	4801
849.463	4801
849.598	4809
849.734	4771
849.869	4710
850.004	4641
850.14	4664
850.275	4653
850.41	4512
850.545	4569
850.68	4554
850.815	4558
850.95	4580
851.085	4824
851.22	4740
851.355	4694
851.49	4580
851.625	4618
851.76	4622
851.895	4538
852.03	4531
852.165	4653
852.299	4759
852.434	4759
852.569	4744
852.703	4778
852.838	4801
852.973	4999
853.107	4900
853.242	4717
853.376	4660
853.511	4538
853.645	4558
853.78	4820
853.914	4641
854.048	4656
854.183	4656
854.317	4622
854.451	4835
854.585	4656
854.72	4641
854.854	4710
854.988	4626
855.122	4603
855.256	4519
855.39	4664
855.524	4771
855.658	4740
855.792	4694
855.926	4706
856.06	4771
856.194	4801
856.327	4645
856.461	4691
856.595	4668
856.729	4626
856.862	4729
856.996	4649
857.13	4755
857.263	4755
857.397	4805
857.53	4698
857.664	4714
857.797	4786
857.931	4790
858.064	4691
858.197	4698
858.331	4626
858.464	4592
858.597	4527
858.731	4615
858.864	4630
858.997	4653
859.13	4649
859.263	4607
859.396	4649
859.529	4554
859.662	4554
859.795	4516
859.928	4607
860.061	4778
860.194	4698
860.327	4569
860.46	4565
860.592	4706
860.725	4698
860.858	4710
860.99	4577
861.123	4478
861.256	4485
861.388	4630
861.521	5265
861.653	4504
861.786	4417
861.918	4424
862.05	4478
862.183	4569
862.315	4573
862.447	4634
862.58	4485
862.712	4402
862.844	4306
862.976	4462
863.108	4451
863.24	4771
863.372	4371
863.504	4402
863.636	4402
863.768	4421
863.9	4455
864.032	4394
864.164	4440
864.296	4481
864.428	4531
864.559	4546
864.691	4538
864.823	4497
864.954	4519
865.086	4493
865.217	4474
865.349	4428
865.48	4485
865.612	4489
865.743	4588
865.875	4523
866.006	4386
866.137	4436
866.269	4398
866.4	4432
866.531	4421
866.662	4379
866.793	4413
866.924	4440
867.055	4481
867.186	4421
867.317	4352
867.448	4394
867.579	4379
867.71	4383
867.841	4356
867.972	4421
868.103	4424
868.233	4443
868.364	4417
868.495	4485
868.625	4660
868.756	4774
868.886	4565
869.017	4611
869.147	4774
869.278	4771
869.408	4668
869.539	4603
869.669	4698
869.799	4660
869.929	4714
870.06	4717
870.19	4968
870.32	4946
870.45	4915
870.58	4946
870.71	5079
870.84	5140
870.97	4965
871.1	4889
871.23	5155
871.36	5143
871.489	5037
871.619	5071
871.749	5098
871.879	5113
872.008	5193
872.138	5018
872.267	4949
872.397	4809
872.526	4801
872.656	4740
872.785	4790
872.915	4946
873.044	5045
873.173	4919
873.303	4968
873.432	4961
873.561	4999
873.69	4873
873.819	4858
873.948	4877
874.077	4839
874.206	4744
874.335	4755
874.464	4908
874.593	5010
874.722	4972
874.851	5098
874.979	5079
875.108	5006
875.237	4870
875.365	4915
875.494	4923
875.623	4976
875.751	4759
875.88	4881
876.008	4953
876.136	5079
876.265	5162
876.393	5364
876.521	5277
876.65	5189
876.778	5151
876.906	5083
877.034	5010
877.162	5048
877.29	5010
877.418	5056
877.546	5079
877.674	4980
877.802	5048
877.93	4984
878.058	4915
878.185	4870
878.313	5014
878.441	4946
878.568	4763
878.696	4854
878.824	5010
878.951	4961
879.079	5113
879.206	5250
879.333	5109
879.461	4972
879.588	5014
879.715	5128
879.842	5231
879.97	4995
880.097	4778
880.224	4748
880.351	4812
880.478	4801
880.605	4812
880.732	4774
880.859	5060
880.986	4930
881.112	4892
881.239	4801
881.366	4660
881.493	4599
881.619	4596
881.746	4622
881.872	4580
881.999	4630
882.125	4683
882.252	4767
882.378	4835
882.505	4980
882.631	4820
882.757	4637
882.883	4717
883.01	4782
883.136	4630
883.262	4634
883.388	4626
883.514	4847
883.64	4816
883.766	4774
883.892	4607
884.018	4782
884.143	4866
884.269	4961
884.395	4675
884.52	4615
884.646	4660
884.772	4596
884.897	4531
885.023	4660
885.148	4774
885.274	4877
885.399	4778
885.524	4729
885.65	4706
885.775	4748
885.9	4675
886.025	4778
886.15	4793
886.275	4698
886.4	4649
886.525	4710
886.65	4660
886.775	4668
886.9	4919
887.025	5045
887.149	4858
887.274	4649
887.399	4630
887.523	4577
887.648	4569
887.773	4542
887.897	4790
888.021	4767
888.146	4653
888.27	4824
888.395	4866
888.519	4740
888.643	4790
888.767	4801
888.891	4691
889.015	4630
889.139	4656
889.263	4611
889.387	4748
889.511	4862
889.635	4812
889.759	4668
889.883	4653
890.006	4771
890.13	4835
890.254	4672
890.377	4714
890.501	4493
890.624	4508
890.748	4607
890.871	4451
890.995	4405
891.118	4367
891.241	4497
891.364	4489
891.488	4615
891.611	4519
891.734	4516
891.857	4584
891.98	4546
892.103	4615
892.226	4577
892.349	4538
892.471	4413
892.594	4508
892.717	4584
892.839	4546
892.962	4538
893.085	4599
893.207	4546
893.33	4443
893.452	4504
893.575	4672
893.697	4573
893.819	4774
893.941	4828
894.064	4721
894.186	4550
894.308	4538
894.43	4736
894.552	4774
894.674	4714
894.796	4538
894.918	4561
895.04	4535
895.161	4714
895.283	4637
895.405	4599
895.526	4637
895.648	4626
895.769	4637
895.891	4702
896.012	4767
896.134	4740
896.255	4714
896.376	4637
896.498	4580
896.619	4679
896.74	4649
896.861	4683
896.982	4923
897.103	5052
897.224	4820
897.345	4744
897.466	4634
897.587	4679
897.708	4843
897.828	4748
897.949	4637
898.07	4542
898.19	4569
898.311	4812
898.431	4694
898.552	4698
898.672	4782
898.792	4816
898.913	4748
899.033	4641
899.153	4538
899.273	4428
899.393	4481
899.513	4512
899.633	4508
899.753	4542
899.873	4527
899.993	4538
900.113	4504
900.232	4523
900.352	4538
900.472	4466
900.591	4402
900.711	4462
900.83	4443
900.95	4588
901.069	4637
901.189	4558
901.308	4348
901.427	4299
901.546	4398
901.665	4455
901.784	4519
901.904	4367
902.023	4284
902.141	4177
902.26	4147
902.379	4303
902.498	4230
902.617	4196
902.735	4413
902.854	4329
902.973	4333
903.091	4230
903.21	4242
903.328	4329
903.446	4276
903.565	4238
903.683	4375
903.801	4234
903.919	4409
904.038	4383
904.156	4314
904.274	4390
904.392	4386
904.51	4455
904.627	4428
904.745	4599
904.863	4611
904.981	4409
905.098	4325
905.216	4352
905.334	4443
905.451	4413
905.569	4447
905.686	4584
905.803	4542
905.921	4356
906.038	4573
906.155	4428
906.272	4394
906.389	4424
906.506	4348
906.623	4356
906.74	4398
906.857	4265
906.974	4371
907.091	4527
907.208	4714
907.324	4630
907.441	4535
907.557	4352
907.674	4352
907.79	4325
907.907	4386
908.023	4493
908.139	4462
908.256	4474
908.372	4485
908.488	4440
908.604	4379
908.72	4299
908.836	4360
908.952	4398
909.068	4417
909.184	4577
909.3	4485
909.415	4603
909.531	4542
909.647	4322
909.762	4367
909.878	4337
909.993	4428
910.108	4413
910.224	4383
910.339	4478
910.454	4405
910.57	4360
910.685	4371
910.8	4626
910.915	4569
911.03	4470
911.145	4337
911.259	4325
911.374	4383
911.489	4257
911.604	4303
911.718	4116
911.833	4196
911.947	4124
912.062	4013
912.176	4223
912.291	4234
912.405	4291
912.519	4489
912.633	4493
912.748	4352
912.862	4306
912.976	4215
913.09	4071
913.204	4188
913.318	4211
913.431	4367
913.545	4360
913.659	4443
913.772	4432
913.886	4200
914	4223
914.113	4379
914.226	4417
914.34	4379
914.453	4230
914.566	4394
914.68	4284
914.793	4299
914.906	4147
915.019	4150
915.132	4048
915.245	4185
915.358	4219
915.47	4207
915.583	4242
915.696	4314
915.809	4424
915.921	4428
916.034	4249
916.146	4280
916.259	4207
916.371	4375
916.483	4337
916.595	4253
916.708	4333
916.82	4322
916.932	4310
917.044	4333
917.156	4287
917.268	4253
917.38	4310
917.491	4265
917.603	4363
917.715	4489
917.826	4436
917.938	4356
918.049	4261
918.161	4436
918.272	4523
918.384	4504
918.495	4432
918.606	4314
918.717	4234
918.828	4344
918.939	4371
919.05	4257
919.161	4329
919.272	4135
919.383	4227
919.494	4440
919.604	4634
919.715	4424
919.826	4325
919.936	4356
920.047	4516
920.157	4512
920.267	4721
920.378	4535
920.488	4466
920.598	4721
920.708	4930
920.818	4786
920.928	4744
921.038	4968
921.148	4892
921.258	4603
921.368	4558
921.477	4542
921.587	4443
921.697	4383
921.806	4565
921.916	4440
922.025	4284
922.134	4268
922.244	4223
922.353	4310
922.462	4131
922.571	4097
922.68	4021
922.789	3983
922.898	4002
923.007	3987
923.116	4090
923.224	4032
923.333	4036
923.442	3998
923.55	3937
923.659	4029
923.767	4093
923.876	4010
923.984	4097
924.092	3972
924.201	4112
924.309	4048
924.417	4162
924.525	4006
924.633	4090
924.741	4824
924.849	3930
924.956	4093
925.064	3934
925.172	3888
925.279	3991
925.387	4040
925.494	4059
925.602	4238
925.709	4150
925.816	4040
925.924	4147
926.031	4287
926.138	4158
926.245	4215
926.352	4090
926.459	4261
926.566	4265
926.673	4131
926.779	4090
926.886	4071
926.993	3968
927.099	3949
927.206	3945
927.312	3907
927.419	4059
927.525	3987
927.631	4059
927.737	3983
927.843	3960
927.95	3804
928.056	3934
928.162	3968
928.267	4059
928.373	4531
928.479	4131
928.585	3876
928.69	4032
928.796	4059
928.901	3983
929.007	3888
929.112	4017
929.218	3987
929.323	3915
929.428	3892
929.533	4097
929.638	3903
929.743	3964
929.848	4032
929.953	3964
930.058	3907
930.163	3755
930.267	3835
930.372	3994
930.477	3781
930.581	4055
930.685	3949
930.79	3800
930.894	3896
930.998	3896
931.103	4021
931.207	3728
931.311	3667
931.415	3675
931.519	3500
931.623	3553
