Data from test_V78500241_253.txt Node
Date: Fri Mar 25 16:50:45 CST 2022
User: usil
Spectrometer: V785-0024
Trigger mode: 0
Integration Time (sec): 4.000000E-1
Scans to average: 1
Nonlinearity correction enabled: false
Boxcar width: 0
Storing dark spectrum: false
XAxis mode: Wavelengths
Number of Pixels in Spectrum: 1024
>>>>>Begin Spectral Data<<<<<
801.071	8008
801.214	7967
801.356	7917
801.499	7856
801.641	7769
801.783	7856
801.926	8012
802.068	7902
802.211	8020
802.353	7993
802.496	7925
802.638	7883
802.78	7974
802.923	7913
803.065	7864
803.208	7841
803.35	7906
803.492	8039
803.635	8111
803.777	7951
803.919	8100
804.061	8495
804.204	8092
804.346	8027
804.488	7944
804.63	8054
804.773	8031
804.915	8084
805.057	8221
805.199	8134
805.341	8176
805.483	8256
805.626	8149
805.768	8081
805.91	8161
806.052	8183
806.194	8073
806.336	8240
806.478	8084
806.62	8020
806.762	8073
806.904	8202
807.046	8514
807.188	8336
807.33	8301
807.472	8332
807.614	8103
807.756	8062
807.898	7917
808.04	7913
808.182	7898
808.324	7890
808.465	7856
808.607	8043
808.749	8119
808.891	8229
809.033	8309
809.174	8195
809.316	8024
809.458	8043
809.6	8012
809.741	7978
809.883	7997
810.025	8073
810.166	8081
810.308	8050
810.45	7989
810.591	7849
810.733	7712
810.875	7685
811.016	7548
811.158	7499
811.299	7639
811.441	7769
811.582	7666
811.724	7548
811.865	7544
812.007	7639
812.148	7620
812.29	7655
812.431	7704
812.573	7849
812.714	7951
812.855	8161
812.997	8225
813.138	8218
813.279	8202
813.421	8134
813.562	7993
813.703	7826
813.845	7738
813.986	7400
814.127	7232
814.268	7240
814.41	7217
814.551	7164
814.692	7209
814.833	7061
814.974	7076
815.115	7027
815.256	6928
815.397	6882
815.539	6932
815.68	6810
815.821	6810
815.962	6905
816.103	6806
816.244	6688
816.385	6635
816.526	6654
816.666	6574
816.807	6338
816.948	6467
817.089	6456
817.23	6456
817.371	6323
817.512	6342
817.653	6365
817.793	6319
817.934	6467
818.075	6429
818.216	6437
818.356	6357
818.497	6178
818.638	6148
818.778	6140
818.919	6110
819.06	6201
819.2	6254
819.341	6296
819.481	6361
819.622	6490
819.762	6684
819.903	6715
820.043	6532
820.184	6585
820.324	6540
820.465	6681
820.605	6631
820.746	6601
820.886	6467
821.026	6684
821.167	6673
821.307	6726
821.447	6745
821.588	6719
821.728	6612
821.868	6494
822.008	6357
822.149	6289
822.289	6350
822.429	6163
822.569	6079
822.709	6091
822.849	5920
822.99	5954
823.13	5870
823.27	5859
823.41	5821
823.55	5794
823.69	5752
823.83	5688
823.97	5646
824.11	5516
824.25	5490
824.389	5581
824.529	5558
824.669	5490
824.809	5589
824.949	5653
825.089	5596
825.228	5558
825.368	5391
825.508	5379
825.648	5315
825.787	5349
825.927	5353
826.067	5315
826.206	5322
826.346	5357
826.485	5391
826.625	5448
826.765	5592
826.904	5444
827.044	5239
827.183	5162
827.323	5113
827.462	5185
827.601	5174
827.741	5189
827.88	5231
828.02	5136
828.159	5231
828.298	5322
828.437	5368
828.577	5288
828.716	5433
828.855	5360
828.994	5197
829.134	5151
829.273	5204
829.412	5170
829.551	5147
829.69	5151
829.829	5242
829.968	5318
830.107	5261
830.246	5303
830.385	5155
830.524	5178
830.663	5109
830.802	5045
830.941	4927
831.08	4881
831.219	4984
831.357	5014
831.496	5212
831.635	4923
831.774	4927
831.913	4854
832.051	4725
832.19	4778
832.329	4862
832.467	4740
832.606	4672
832.744	4744
832.883	4759
833.022	4740
833.16	4824
833.299	4847
833.437	4873
833.576	4881
833.714	4885
833.852	4854
833.991	4972
834.129	4980
834.267	4991
834.406	4938
834.544	5064
834.682	4995
834.821	5018
834.959	5162
835.097	4995
835.235	5216
835.373	5113
835.511	5189
835.65	5048
835.788	5105
835.926	4923
836.064	4957
836.202	4949
836.34	5239
836.478	5242
836.615	5170
836.753	5261
836.891	5368
837.029	5357
837.167	5227
837.305	5269
837.443	5178
837.58	5136
837.718	5273
837.856	5216
837.993	5223
838.131	5322
838.269	5345
838.406	5197
838.544	5258
838.681	5090
838.819	5079
838.956	4915
839.094	5006
839.231	5018
839.369	5113
839.506	5452
839.643	5296
839.781	5083
839.918	5079
840.055	5147
840.193	5132
840.33	5178
840.467	5174
840.604	5204
840.742	5493
840.879	5079
841.016	5102
841.153	5204
841.29	5402
841.427	5337
841.564	5387
841.701	5391
841.838	5326
841.975	5231
842.112	5322
842.249	5162
842.385	5143
842.522	5349
842.659	5201
842.796	5151
842.933	5208
843.069	5143
843.206	5147
843.343	5326
843.479	5250
843.616	5315
843.752	5113
843.889	5121
844.025	5250
844.162	5056
844.298	5239
844.435	5140
844.571	5045
844.708	5220
844.844	5357
844.98	5387
845.117	5299
845.253	5132
845.389	5086
845.525	5162
845.661	5201
845.798	5064
845.934	5204
846.07	5128
846.206	5258
846.342	5288
846.478	5231
846.614	5029
846.75	5003
846.886	4980
847.022	5189
847.158	5098
847.294	5143
847.429	5166
847.565	5075
847.701	5326
847.837	4923
847.972	4873
848.108	4984
848.244	4976
848.379	4755
848.515	4786
848.65	4774
848.786	4774
848.921	4831
849.057	4923
849.192	4961
849.328	4850
849.463	4847
849.598	4854
849.734	4812
849.869	4710
850.004	4691
850.14	4729
850.275	4634
850.41	4550
850.545	4603
850.68	4668
850.815	4675
850.95	4687
851.085	4847
851.22	4824
851.355	4706
851.49	4656
851.625	4694
851.76	4702
851.895	4580
852.03	4599
852.165	4664
852.299	4748
852.434	4805
852.569	4782
852.703	4793
852.838	4908
852.973	4953
853.107	4957
853.242	4774
853.376	4714
853.511	4660
853.645	4653
853.78	4866
853.914	4729
854.048	4714
854.183	4660
854.317	4721
854.451	4908
854.585	4691
854.72	4637
854.854	4778
854.988	4675
855.122	4675
855.256	4569
855.39	4679
855.524	4850
855.658	4752
855.792	4733
855.926	4759
856.06	4866
856.194	4854
856.327	4805
856.461	4641
856.595	4653
856.729	4660
856.862	4812
856.996	4714
857.13	4698
857.263	4801
857.397	4824
857.53	4656
857.664	4733
857.797	4828
857.931	4778
858.064	4725
858.197	4782
858.331	4706
858.464	4637
858.597	4573
858.731	4637
858.864	4691
858.997	4679
859.13	4698
859.263	4736
859.396	4721
859.529	4622
859.662	4622
859.795	4577
859.928	4698
860.061	4816
860.194	4786
860.327	4664
860.46	4565
860.592	4733
860.725	4828
860.858	4717
860.99	4664
861.123	4542
861.256	4538
861.388	4630
861.521	5471
861.653	4516
861.786	4485
861.918	4497
862.05	4592
862.183	4599
862.315	4653
862.447	4717
862.58	4580
862.712	4443
862.844	4333
862.976	4519
863.108	4497
863.24	4927
863.372	4417
863.504	4478
863.636	4440
863.768	4565
863.9	4512
864.032	4428
864.164	4443
864.296	4489
864.428	4550
864.559	4607
864.691	4615
864.823	4512
864.954	4542
865.086	4558
865.217	4554
865.349	4424
865.48	4497
865.612	4550
865.743	4656
865.875	4569
866.006	4455
866.137	4497
866.269	4485
866.4	4508
866.531	4432
866.662	4417
866.793	4432
866.924	4542
867.055	4538
867.186	4481
867.317	4417
867.448	4402
867.579	4417
867.71	4451
867.841	4417
867.972	4519
868.103	4481
868.233	4497
868.364	4493
868.495	4489
868.625	4691
868.756	4755
868.886	4584
869.017	4687
869.147	4835
869.278	4793
869.408	4683
869.539	4672
869.669	4763
869.799	4649
869.929	4805
870.06	4763
870.19	4972
870.32	4923
870.45	4987
870.58	5060
870.71	5121
870.84	5128
870.97	4987
871.1	4938
871.23	5094
871.36	5117
871.489	5003
871.619	5105
871.749	5132
871.879	5181
872.008	5193
872.138	5105
872.267	5037
872.397	4885
872.526	4831
872.656	4729
872.785	4862
872.915	4991
873.044	5045
873.173	4949
873.303	4987
873.432	4949
873.561	5022
873.69	4938
873.819	4915
873.948	4961
874.077	4828
874.206	4831
874.335	4835
874.464	4949
874.593	5064
874.722	5010
874.851	5151
874.979	5098
875.108	5083
875.237	4881
875.365	4877
875.494	4889
875.623	5003
875.751	4850
875.88	4881
876.008	5029
876.136	5033
876.265	5265
876.393	5368
876.521	5258
876.65	5250
876.778	5231
876.906	5159
877.034	5025
877.162	5128
877.29	5003
877.418	5121
877.546	5102
877.674	5094
877.802	5052
877.93	5102
878.058	4930
878.185	4881
878.313	4961
878.441	4991
878.568	4812
878.696	4911
878.824	4961
878.951	4980
879.079	5151
879.206	5273
879.333	5136
879.461	5033
879.588	5083
879.715	5166
879.842	5220
879.97	5025
880.097	4809
880.224	4736
880.351	4805
880.478	4896
880.605	4858
880.732	4835
880.859	5117
880.986	4904
881.112	4980
881.239	4744
881.366	4660
881.493	4645
881.619	4599
881.746	4641
881.872	4694
881.999	4679
882.125	4755
882.252	4793
882.378	4877
882.505	4930
882.631	4824
882.757	4698
882.883	4763
883.01	4740
883.136	4687
883.262	4634
883.388	4660
883.514	4858
883.64	4911
883.766	4809
883.892	4694
884.018	4706
884.143	4953
884.269	5006
884.395	4691
884.52	4656
884.646	4714
884.772	4679
884.897	4596
885.023	4668
885.148	4847
885.274	4946
885.399	4831
885.524	4748
885.65	4679
885.775	4744
885.9	4744
886.025	4850
886.15	4793
886.275	4759
886.4	4668
886.525	4733
886.65	4725
886.775	4714
886.9	4915
887.025	5083
887.149	4881
887.274	4759
887.399	4645
887.523	4615
887.648	4622
887.773	4615
887.897	4767
888.021	4809
888.146	4698
888.27	4839
888.395	4957
888.519	4824
888.643	4824
888.767	4812
888.891	4721
889.015	4653
889.139	4687
889.263	4588
889.387	4729
889.511	4927
889.635	4835
889.759	4656
889.883	4698
890.006	4759
890.13	4889
890.254	4607
890.377	4694
890.501	4580
890.624	4531
890.748	4645
890.871	4516
890.995	4478
891.118	4394
891.241	4554
891.364	4588
891.488	4649
891.611	4516
891.734	4573
891.857	4626
891.98	4546
892.103	4664
892.226	4611
892.349	4554
892.471	4493
892.594	4550
892.717	4599
892.839	4580
892.962	4611
893.085	4736
893.207	4611
893.33	4462
893.452	4546
893.575	4725
893.697	4611
893.819	4797
893.941	4824
894.064	4767
894.186	4603
894.308	4577
894.43	4748
894.552	4866
894.674	4816
894.796	4558
894.918	4599
895.04	4550
895.161	4714
895.283	4710
895.405	4607
895.526	4687
895.648	4717
895.769	4687
895.891	4740
896.012	4729
896.134	4748
896.255	4679
896.376	4607
896.498	4630
896.619	4706
896.74	4618
896.861	4626
896.982	4965
897.103	5102
897.224	4889
897.345	4805
897.466	4634
897.587	4744
897.708	4889
897.828	4828
897.949	4714
898.07	4588
898.19	4637
898.311	4858
898.431	4675
898.552	4748
898.672	4866
898.792	4793
898.913	4790
899.033	4683
899.153	4538
899.273	4462
899.393	4516
899.513	4531
899.633	4538
899.753	4531
899.873	4523
899.993	4584
900.113	4550
900.232	4558
900.352	4561
900.472	4512
900.591	4402
900.711	4519
900.83	4489
900.95	4626
901.069	4729
901.189	4554
901.308	4379
901.427	4306
901.546	4398
901.665	4508
901.784	4538
901.904	4409
902.023	4344
902.141	4223
902.26	4185
902.379	4287
902.498	4238
902.617	4227
902.735	4394
902.854	4360
902.973	4360
903.091	4238
903.21	4207
903.328	4344
903.446	4314
903.565	4261
903.683	4329
903.801	4299
903.919	4443
904.038	4489
904.156	4325
904.274	4459
904.392	4390
904.51	4428
904.627	4466
904.745	4558
904.863	4660
904.981	4413
905.098	4367
905.216	4428
905.334	4478
905.451	4447
905.569	4474
905.686	4588
905.803	4584
905.921	4428
906.038	4596
906.155	4527
906.272	4432
906.389	4474
906.506	4383
906.623	4402
906.74	4440
906.857	4402
906.974	4394
907.091	4599
907.208	4744
907.324	4592
907.441	4527
907.557	4383
907.674	4371
907.79	4363
907.907	4440
908.023	4554
908.139	4535
908.256	4516
908.372	4497
908.488	4538
908.604	4405
908.72	4363
908.836	4443
908.952	4421
909.068	4455
909.184	4641
909.3	4497
909.415	4637
909.531	4596
909.647	4409
909.762	4459
909.878	4394
909.993	4485
910.108	4504
910.224	4489
910.339	4535
910.454	4474
910.57	4413
910.685	4348
910.8	4740
910.915	4664
911.03	4554
911.145	4386
911.259	4417
911.374	4447
911.489	4402
911.604	4284
911.718	4204
911.833	4253
911.947	4177
912.062	4067
912.176	4246
912.291	4318
912.405	4303
912.519	4550
912.633	4542
912.748	4436
912.862	4341
912.976	4253
913.09	4139
913.204	4207
913.318	4356
913.431	4417
913.545	4383
913.659	4440
913.772	4455
913.886	4348
914	4238
914.113	4417
914.226	4489
914.34	4447
914.453	4268
914.566	4470
914.68	4352
914.793	4375
914.906	4200
915.019	4162
915.132	4154
915.245	4261
915.358	4257
915.47	4272
915.583	4314
915.696	4344
915.809	4436
915.921	4481
916.034	4306
916.146	4299
916.259	4238
916.371	4432
916.483	4386
916.595	4322
916.708	4367
916.82	4383
916.932	4360
917.044	4344
917.156	4352
917.268	4295
917.38	4356
917.491	4348
917.603	4443
917.715	4493
917.826	4489
917.938	4417
918.049	4306
918.161	4451
918.272	4569
918.384	4596
918.495	4466
918.606	4398
918.717	4242
918.828	4424
918.939	4455
919.05	4322
919.161	4344
919.272	4147
919.383	4272
919.494	4451
919.604	4679
919.715	4447
919.826	4390
919.936	4424
920.047	4588
920.157	4580
920.267	4748
920.378	4546
920.488	4569
920.598	4740
920.708	4968
920.818	4778
920.928	4816
921.038	5003
921.148	4980
921.258	4603
921.368	4577
921.477	4569
921.587	4504
921.697	4451
921.806	4580
921.916	4466
922.025	4325
922.134	4310
922.244	4230
922.353	4398
922.462	4219
922.571	4154
922.68	4063
922.789	4063
922.898	4082
923.007	4025
923.116	4154
923.224	4128
923.333	4143
923.442	4029
923.55	4002
923.659	4059
923.767	4181
923.876	4036
923.984	4139
924.092	4055
924.201	4109
924.309	4158
924.417	4230
924.525	4078
924.633	4139
924.741	5045
924.849	3930
924.956	4181
925.064	3991
925.172	3945
925.279	4017
925.387	4082
925.494	4139
925.602	4196
925.709	4185
925.816	4078
925.924	4173
926.031	4249
926.138	4188
926.245	4272
926.352	4185
926.459	4284
926.566	4341
926.673	4227
926.779	4109
926.886	4101
926.993	4017
927.099	4086
927.206	3972
927.312	3964
927.419	4124
927.525	4040
927.631	4109
927.737	4025
927.843	3975
927.95	3918
928.056	3994
928.162	4025
928.267	4150
928.373	4615
928.479	4166
928.585	3888
928.69	4013
928.796	4097
928.901	3987
929.007	3876
929.112	4063
929.218	4010
929.323	3953
929.428	3960
929.533	4173
929.638	3949
929.743	4006
929.848	4101
929.953	4048
930.058	3991
930.163	3861
930.267	3869
930.372	4013
930.477	3857
930.581	4131
930.685	3987
930.79	3896
930.894	3941
930.998	3880
931.103	4071
931.207	3736
931.311	3778
931.415	3690
931.519	3568
931.623	3564
