Data from test_V78500241_2519.txt Node
Date: Fri Mar 25 17:06:31 CST 2022
User: usil
Spectrometer: V785-0024
Trigger mode: 0
Integration Time (sec): 4.000000E-1
Scans to average: 1
Nonlinearity correction enabled: false
Boxcar width: 0
Storing dark spectrum: false
XAxis mode: Wavelengths
Number of Pixels in Spectrum: 1024
>>>>>Begin Spectral Data<<<<<
801.071	8081
801.214	8001
801.356	7822
801.499	7830
801.641	7818
801.783	7830
801.926	7936
802.068	7947
802.211	8058
802.353	8005
802.496	7864
802.638	7883
802.78	7940
802.923	7963
803.065	7837
803.208	7894
803.35	7959
803.492	8123
803.635	8168
803.777	8107
803.919	8164
804.061	8480
804.204	8233
804.346	8092
804.488	7974
804.63	8119
804.773	8012
804.915	8187
805.057	8301
805.199	8142
805.341	8237
805.483	8320
805.626	8275
805.768	8161
805.91	8161
806.052	8271
806.194	8153
806.336	8244
806.478	8073
806.62	8054
806.762	8210
806.904	8309
807.046	8549
807.188	8355
807.33	8248
807.472	8343
807.614	8153
807.756	8172
807.898	8031
808.04	7879
808.182	7890
808.324	7944
808.465	7860
808.607	8062
808.749	8119
808.891	8206
809.033	8294
809.174	8237
809.316	8062
809.458	8062
809.6	7955
809.741	8088
809.883	8031
810.025	8206
810.166	8088
810.308	8065
810.45	8020
810.591	7868
810.733	7776
810.875	7693
811.016	7510
811.158	7453
811.299	7628
811.441	7719
811.582	7742
811.724	7563
811.865	7540
812.007	7632
812.148	7586
812.29	7636
812.431	7746
812.573	7898
812.714	8027
812.855	8164
812.997	8206
813.138	8328
813.279	8183
813.421	8172
813.562	7959
813.703	7932
813.845	7841
813.986	7521
814.127	7251
814.268	7228
814.41	7137
814.551	7175
814.692	7194
814.833	7061
814.974	7175
815.115	7187
815.256	7019
815.397	6932
815.539	6913
815.68	6825
815.821	6760
815.962	6859
816.103	6844
816.244	6692
816.385	6604
816.526	6654
816.666	6521
816.807	6361
816.948	6536
817.089	6517
817.23	6441
817.371	6399
817.512	6350
817.653	6429
817.793	6334
817.934	6414
818.075	6426
818.216	6407
818.356	6414
818.497	6289
818.638	6140
818.778	6171
818.919	6186
819.06	6186
819.2	6380
819.341	6308
819.481	6350
819.622	6502
819.762	6745
819.903	6719
820.043	6593
820.184	6639
820.324	6627
820.465	6738
820.605	6692
820.746	6715
820.886	6521
821.026	6730
821.167	6753
821.307	6875
821.447	6783
821.588	6700
821.728	6616
821.868	6486
822.008	6319
822.149	6399
822.289	6422
822.429	6201
822.569	6167
822.709	6129
822.849	5954
822.99	5954
823.13	6003
823.27	5916
823.41	5809
823.55	5805
823.69	5779
823.83	5813
823.97	5646
824.11	5528
824.25	5482
824.389	5539
824.529	5608
824.669	5543
824.809	5691
824.949	5653
825.089	5615
825.228	5577
825.368	5417
825.508	5322
825.648	5315
825.787	5410
825.927	5387
826.067	5280
826.206	5288
826.346	5452
826.485	5406
826.625	5398
826.765	5585
826.904	5444
827.044	5322
827.183	5235
827.323	5140
827.462	5288
827.601	5155
827.741	5273
827.88	5223
828.02	5109
828.159	5258
828.298	5299
828.437	5337
828.577	5265
828.716	5501
828.855	5345
828.994	5235
829.134	5166
829.273	5174
829.412	5178
829.551	5143
829.69	5178
829.829	5181
829.968	5379
830.107	5273
830.246	5288
830.385	5178
830.524	5132
830.663	5045
830.802	4968
830.941	4870
831.08	4889
831.219	4995
831.357	4984
831.496	5208
831.635	4934
831.774	4843
831.913	4847
832.051	4771
832.19	4763
832.329	4801
832.467	4672
832.606	4664
832.744	4717
832.883	4698
833.022	4736
833.16	4858
833.299	4831
833.437	4828
833.576	4843
833.714	4881
833.852	4900
833.991	4877
834.129	4984
834.267	4946
834.406	4934
834.544	4984
834.682	4949
834.821	4999
834.959	5128
835.097	4961
835.235	5181
835.373	5094
835.511	5098
835.65	5090
835.788	4957
835.926	4911
836.064	4889
836.202	4919
836.34	5147
836.478	5242
836.615	5151
836.753	5242
836.891	5277
837.029	5250
837.167	5204
837.305	5178
837.443	5121
837.58	5086
837.718	5239
837.856	5201
837.993	5132
838.131	5242
838.269	5242
838.406	5170
838.544	5223
838.681	5048
838.819	5029
838.956	4927
839.094	4934
839.231	5045
839.369	5075
839.506	5364
839.643	5284
839.781	5109
839.918	5056
840.055	5128
840.193	5056
840.33	5109
840.467	5151
840.604	5178
840.742	5459
840.879	5086
841.016	5098
841.153	5178
841.29	5406
841.427	5280
841.564	5326
841.701	5402
841.838	5341
841.975	5246
842.112	5235
842.249	5159
842.385	5079
842.522	5341
842.659	5151
842.796	5159
842.933	5220
843.069	5121
843.206	5109
843.343	5326
843.479	5280
843.616	5299
843.752	5014
843.889	5041
844.025	5189
844.162	5010
844.298	5185
844.435	5109
844.571	5052
844.708	5193
844.844	5326
844.98	5379
845.117	5261
845.253	5121
845.389	5121
845.525	5174
845.661	5155
845.798	5025
845.934	5151
846.07	5064
846.206	5155
846.342	5322
846.478	5212
846.614	5037
846.75	4999
846.886	4953
847.022	5147
847.158	4968
847.294	5048
847.429	5022
847.565	5075
847.701	5307
847.837	4828
847.972	4778
848.108	4927
848.244	4911
848.379	4774
848.515	4721
848.65	4721
848.786	4736
848.921	4854
849.057	4843
849.192	4976
849.328	4866
849.463	4835
849.598	4824
849.734	4763
849.869	4698
850.004	4634
850.14	4649
850.275	4573
850.41	4519
850.545	4523
850.68	4664
850.815	4622
850.95	4660
851.085	4831
851.22	4793
851.355	4615
851.49	4622
851.625	4664
851.76	4626
851.895	4573
852.03	4573
852.165	4641
852.299	4672
852.434	4793
852.569	4736
852.703	4740
852.838	4904
852.973	4866
853.107	4930
853.242	4683
853.376	4698
853.511	4512
853.645	4630
853.78	4782
853.914	4615
854.048	4694
854.183	4683
854.317	4687
854.451	4805
854.585	4664
854.72	4672
854.854	4752
854.988	4660
855.122	4679
855.256	4561
855.39	4660
855.524	4755
855.658	4721
855.792	4687
855.926	4691
856.06	4774
856.194	4759
856.327	4683
856.461	4603
856.595	4588
856.729	4660
856.862	4771
856.996	4675
857.13	4717
857.263	4752
857.397	4721
857.53	4622
857.664	4755
857.797	4733
857.931	4729
858.064	4733
858.197	4744
858.331	4691
858.464	4615
858.597	4535
858.731	4679
858.864	4603
858.997	4668
859.13	4714
859.263	4675
859.396	4687
859.529	4615
859.662	4573
859.795	4504
859.928	4637
860.061	4759
860.194	4809
860.327	4599
860.46	4565
860.592	4672
860.725	4691
860.858	4706
860.99	4577
861.123	4504
861.256	4508
861.388	4603
861.521	5235
861.653	4512
861.786	4459
861.918	4440
862.05	4531
862.183	4542
862.315	4596
862.447	4672
862.58	4573
862.712	4402
862.844	4322
862.976	4459
863.108	4440
863.24	4877
863.372	4360
863.504	4432
863.636	4405
863.768	4459
863.9	4424
864.032	4379
864.164	4405
864.296	4478
864.428	4493
864.559	4569
864.691	4512
864.823	4500
864.954	4550
865.086	4497
865.217	4409
865.349	4421
865.48	4432
865.612	4485
865.743	4630
865.875	4493
866.006	4421
866.137	4497
866.269	4440
866.4	4470
866.531	4436
866.662	4428
866.793	4375
866.924	4413
867.055	4497
867.186	4478
867.317	4413
867.448	4356
867.579	4424
867.71	4398
867.841	4402
867.972	4466
868.103	4478
868.233	4474
868.364	4436
868.495	4500
868.625	4672
868.756	4740
868.886	4580
869.017	4626
869.147	4759
869.278	4782
869.408	4664
869.539	4687
869.669	4736
869.799	4672
869.929	4698
870.06	4763
870.19	4953
870.32	4885
870.45	4961
870.58	4980
870.71	5071
870.84	5105
870.97	4881
871.1	4949
871.23	5185
871.36	5071
871.489	4984
871.619	5064
871.749	5132
871.879	5124
872.008	5117
872.138	5037
872.267	4995
872.397	4828
872.526	4801
872.656	4759
872.785	4801
872.915	4934
873.044	4965
873.173	4892
873.303	4968
873.432	4927
873.561	4961
873.69	4847
873.819	4889
873.948	4919
874.077	4809
874.206	4763
874.335	4828
874.464	4938
874.593	5056
874.722	5003
874.851	5098
874.979	5067
875.108	5052
875.237	4942
875.365	4915
875.494	4885
875.623	4980
875.751	4812
875.88	4892
876.008	5006
876.136	5045
876.265	5216
876.393	5303
876.521	5322
876.65	5254
876.778	5204
876.906	5064
877.034	5033
877.162	4991
877.29	4987
877.418	5086
877.546	5045
877.674	5064
877.802	5033
877.93	5018
878.058	4904
878.185	4911
878.313	4930
878.441	4904
878.568	4767
878.696	4858
878.824	4934
878.951	5037
879.079	5121
879.206	5299
879.333	5117
879.461	4991
879.588	5003
879.715	5140
879.842	5223
879.97	4987
880.097	4786
880.224	4744
880.351	4847
880.478	4854
880.605	4782
880.732	4782
880.859	5117
880.986	4858
881.112	4915
881.239	4812
881.366	4683
881.493	4656
881.619	4550
881.746	4607
881.872	4668
881.999	4641
882.125	4702
882.252	4774
882.378	4824
882.505	4961
882.631	4767
882.757	4637
882.883	4710
883.01	4721
883.136	4660
883.262	4588
883.388	4592
883.514	4816
883.64	4866
883.766	4793
883.892	4664
884.018	4752
884.143	4873
884.269	4949
884.395	4702
884.52	4641
884.646	4615
884.772	4611
884.897	4531
885.023	4637
885.148	4706
885.274	4854
885.399	4839
885.524	4744
885.65	4744
885.775	4736
885.9	4664
886.025	4889
886.15	4812
886.275	4679
886.4	4622
886.525	4679
886.65	4675
886.775	4725
886.9	4915
887.025	5052
887.149	4771
887.274	4641
887.399	4584
887.523	4618
887.648	4580
887.773	4596
887.897	4782
888.021	4771
888.146	4649
888.27	4847
888.395	4881
888.519	4759
888.643	4850
888.767	4847
888.891	4714
889.015	4622
889.139	4634
889.263	4592
889.387	4729
889.511	4850
889.635	4786
889.759	4656
889.883	4641
890.006	4694
890.13	4809
890.254	4637
890.377	4702
890.501	4493
890.624	4481
890.748	4641
890.871	4489
890.995	4485
891.118	4409
891.241	4542
891.364	4516
891.488	4634
891.611	4512
891.734	4535
891.857	4588
891.98	4592
892.103	4698
892.226	4599
892.349	4573
892.471	4436
892.594	4565
892.717	4554
892.839	4592
892.962	4584
893.085	4645
893.207	4569
893.33	4443
893.452	4542
893.575	4687
893.697	4596
893.819	4793
893.941	4862
894.064	4771
894.186	4603
894.308	4565
894.43	4679
894.552	4816
894.674	4744
894.796	4512
894.918	4573
895.04	4603
895.161	4725
895.283	4675
895.405	4565
895.526	4668
895.648	4672
895.769	4664
895.891	4683
896.012	4725
896.134	4706
896.255	4691
896.376	4649
896.498	4603
896.619	4683
896.74	4565
896.861	4637
896.982	4915
897.103	5102
897.224	4828
897.345	4763
897.466	4622
897.587	4710
897.708	4873
897.828	4805
897.949	4691
898.07	4546
898.19	4603
898.311	4850
898.431	4664
898.552	4744
898.672	4778
898.792	4816
898.913	4763
899.033	4622
899.153	4493
899.273	4440
899.393	4474
899.513	4558
899.633	4546
899.753	4527
899.873	4493
899.993	4577
900.113	4497
900.232	4550
900.352	4523
900.472	4523
900.591	4394
900.711	4443
900.83	4459
900.95	4649
901.069	4672
901.189	4523
901.308	4371
901.427	4344
901.546	4363
901.665	4447
901.784	4516
901.904	4383
902.023	4306
902.141	4188
902.26	4173
902.379	4287
902.498	4257
902.617	4249
902.735	4440
902.854	4379
902.973	4352
903.091	4215
903.21	4268
903.328	4295
903.446	4261
903.565	4276
903.683	4383
903.801	4299
903.919	4386
904.038	4424
904.156	4367
904.274	4466
904.392	4417
904.51	4447
904.627	4489
904.745	4577
904.863	4691
904.981	4383
905.098	4268
905.216	4390
905.334	4459
905.451	4466
905.569	4398
905.686	4561
905.803	4569
905.921	4405
906.038	4546
906.155	4462
906.272	4383
906.389	4440
906.506	4371
906.623	4360
906.74	4390
906.857	4303
906.974	4383
907.091	4516
907.208	4649
907.324	4596
907.441	4500
907.557	4318
907.674	4367
907.79	4295
907.907	4413
908.023	4474
908.139	4516
908.256	4417
908.372	4417
908.488	4451
908.604	4337
908.72	4314
908.836	4398
908.952	4356
909.068	4436
909.184	4550
909.3	4466
909.415	4577
909.531	4527
909.647	4341
909.762	4383
909.878	4341
909.993	4459
910.108	4421
910.224	4421
910.339	4535
910.454	4386
910.57	4348
910.685	4310
910.8	4596
910.915	4565
911.03	4519
911.145	4329
911.259	4341
911.374	4367
911.489	4272
911.604	4257
911.718	4219
911.833	4200
911.947	4067
912.062	3994
912.176	4211
912.291	4227
912.405	4219
912.519	4459
912.633	4531
912.748	4363
912.862	4284
912.976	4207
913.09	4116
913.204	4154
913.318	4230
913.431	4356
913.545	4398
913.659	4417
913.772	4402
913.886	4261
914	4188
914.113	4383
914.226	4428
914.34	4383
914.453	4227
914.566	4436
914.68	4341
914.793	4314
914.906	4147
915.019	4090
915.132	4082
915.245	4109
915.358	4204
915.47	4257
915.583	4261
915.696	4272
915.809	4398
915.921	4421
916.034	4261
916.146	4242
916.259	4166
916.371	4402
916.483	4371
916.595	4268
916.708	4310
916.82	4344
916.932	4344
917.044	4306
917.156	4356
917.268	4219
917.38	4310
917.491	4276
917.603	4318
917.715	4413
917.826	4443
917.938	4306
918.049	4253
918.161	4386
918.272	4538
918.384	4512
918.495	4516
918.606	4303
918.717	4192
918.828	4287
918.939	4322
919.05	4219
919.161	4310
919.272	4135
919.383	4268
919.494	4470
919.604	4626
919.715	4371
919.826	4379
919.936	4459
920.047	4542
920.157	4481
920.267	4710
920.378	4542
920.488	4508
920.598	4702
920.708	4938
920.818	4759
920.928	4774
921.038	4968
921.148	4877
921.258	4622
921.368	4512
921.477	4512
921.587	4466
921.697	4398
921.806	4561
921.916	4413
922.025	4238
922.134	4238
922.244	4234
922.353	4379
922.462	4173
922.571	4143
922.68	4021
922.789	3987
922.898	4067
923.007	4044
923.116	4090
923.224	4067
923.333	4067
923.442	3983
923.55	3991
923.659	4051
923.767	4086
923.876	3983
923.984	4139
924.092	4021
924.201	4074
924.309	4093
924.417	4143
924.525	4059
924.633	4097
924.741	5079
924.849	3926
924.956	4135
925.064	4002
925.172	3926
925.279	4013
925.387	4044
925.494	4078
925.602	4223
925.709	4211
925.816	4029
925.924	4116
926.031	4253
926.138	4192
926.245	4158
926.352	4071
926.459	4265
926.566	4306
926.673	4188
926.779	4082
926.886	4063
926.993	3979
927.099	3991
927.206	3937
927.312	3945
927.419	4017
927.525	4055
927.631	4086
927.737	3983
927.843	3953
927.95	3854
928.056	3918
928.162	3998
928.267	4059
928.373	4618
928.479	4078
928.585	3869
928.69	4010
928.796	4082
928.901	3975
929.007	3857
929.112	4021
929.218	3968
929.323	3892
929.428	3960
929.533	4162
929.638	3892
929.743	3983
929.848	3994
929.953	3979
930.058	3930
930.163	3812
930.267	3857
930.372	3979
930.477	3854
930.581	4063
930.685	3949
930.79	3831
930.894	3846
930.998	3892
931.103	4029
931.207	3717
931.311	3717
931.415	3660
931.519	3534
931.623	3538
