Data from test_V78500241_628.txt Node
Date: Fri Mar 25 16:53:22 CST 2022
User: usil
Spectrometer: V785-0024
Trigger mode: 0
Integration Time (sec): 4.000000E-1
Scans to average: 1
Nonlinearity correction enabled: false
Boxcar width: 0
Storing dark spectrum: false
XAxis mode: Wavelengths
Number of Pixels in Spectrum: 1024
>>>>>Begin Spectral Data<<<<<
801.071	8020
801.214	7989
801.356	7868
801.499	7830
801.641	7772
801.783	7742
801.926	8043
802.068	7974
802.211	7989
802.353	8012
802.496	7894
802.638	7917
802.78	7936
802.923	7887
803.065	7826
803.208	7837
803.35	7906
803.492	8100
803.635	8218
803.777	8016
803.919	8058
804.061	8438
804.204	8145
804.346	8031
804.488	7978
804.63	8092
804.773	8024
804.915	8084
805.057	8347
805.199	8180
805.341	8218
805.483	8202
805.626	8168
805.768	8123
805.91	8157
806.052	8240
806.194	8149
806.336	8275
806.478	8069
806.62	8084
806.762	8123
806.904	8263
807.046	8499
807.188	8355
807.33	8275
807.472	8271
807.614	8168
807.756	8191
807.898	7997
808.04	7811
808.182	7928
808.324	7856
808.465	7913
808.607	7997
808.749	8084
808.891	8157
809.033	8218
809.174	8107
809.316	7997
809.458	8149
809.6	7974
809.741	8043
809.883	8020
810.025	8153
810.166	8081
810.308	7955
810.45	8024
810.591	7871
810.733	7776
810.875	7696
811.016	7575
811.158	7434
811.299	7537
811.441	7753
811.582	7662
811.724	7559
811.865	7510
812.007	7620
812.148	7666
812.29	7639
812.431	7734
812.573	7925
812.714	7932
812.855	8092
812.997	8180
813.138	8381
813.279	8168
813.421	8164
813.562	8008
813.703	7890
813.845	7723
813.986	7464
814.127	7331
814.268	7308
814.41	7187
814.551	7171
814.692	7217
814.833	7038
814.974	7103
815.115	7053
815.256	6958
815.397	6920
815.539	6973
815.68	6878
815.821	6844
815.962	6814
816.103	6798
816.244	6696
816.385	6585
816.526	6559
816.666	6494
816.807	6300
816.948	6395
817.089	6433
817.23	6380
817.371	6399
817.512	6350
817.653	6395
817.793	6372
817.934	6422
818.075	6414
818.216	6441
818.356	6395
818.497	6254
818.638	6049
818.778	6095
818.919	6125
819.06	6144
819.2	6254
819.341	6258
819.481	6327
819.622	6502
819.762	6734
819.903	6700
820.043	6544
820.184	6532
820.324	6604
820.465	6631
820.605	6631
820.746	6544
820.886	6517
821.026	6696
821.167	6703
821.307	6741
821.447	6764
821.588	6658
821.728	6532
821.868	6376
822.008	6296
822.149	6346
822.289	6353
822.429	6114
822.569	6076
822.709	6095
822.849	5908
822.99	5832
823.13	5866
823.27	5901
823.41	5779
823.55	5783
823.69	5714
823.83	5786
823.97	5707
824.11	5512
824.25	5471
824.389	5497
824.529	5562
824.669	5490
824.809	5528
824.949	5619
825.089	5634
825.228	5547
825.368	5417
825.508	5357
825.648	5383
825.787	5372
825.927	5391
826.067	5326
826.206	5311
826.346	5387
826.485	5410
826.625	5425
826.765	5528
826.904	5455
827.044	5261
827.183	5223
827.323	5086
827.462	5204
827.601	5174
827.741	5166
827.88	5121
828.02	5124
828.159	5258
828.298	5223
828.437	5410
828.577	5261
828.716	5490
828.855	5284
828.994	5159
829.134	5094
829.273	5242
829.412	5105
829.551	5090
829.69	5174
829.829	5239
829.968	5406
830.107	5258
830.246	5303
830.385	5204
830.524	5143
830.663	5090
830.802	4923
830.941	4843
831.08	4885
831.219	4965
831.357	4968
831.496	5105
831.635	4923
831.774	4820
831.913	4870
832.051	4736
832.19	4721
832.329	4847
832.467	4675
832.606	4607
832.744	4748
832.883	4717
833.022	4710
833.16	4831
833.299	4816
833.437	4805
833.576	4778
833.714	4889
833.852	4839
833.991	4873
834.129	4934
834.267	4965
834.406	4870
834.544	4957
834.682	4911
834.821	4930
834.959	5113
835.097	4999
835.235	5128
835.373	5079
835.511	5117
835.65	5052
835.788	5003
835.926	4904
836.064	4900
836.202	4839
836.34	5151
836.478	5208
836.615	5098
836.753	5178
836.891	5269
837.029	5250
837.167	5227
837.305	5143
837.443	5121
837.58	5064
837.718	5288
837.856	5220
837.993	5143
838.131	5231
838.269	5216
838.406	5201
838.544	5193
838.681	5022
838.819	4961
838.956	4908
839.094	4885
839.231	4980
839.369	5056
839.506	5410
839.643	5296
839.781	5041
839.918	4999
840.055	5067
840.193	5128
840.33	5064
840.467	5140
840.604	5143
840.742	5414
840.879	5071
841.016	5067
841.153	5140
841.29	5379
841.427	5360
841.564	5311
841.701	5364
841.838	5265
841.975	5216
842.112	5273
842.249	5102
842.385	5128
842.522	5292
842.659	5132
842.796	5086
842.933	5140
843.069	5075
843.206	5109
843.343	5258
843.479	5242
843.616	5235
843.752	5067
843.889	4961
844.025	5246
844.162	5067
844.298	5178
844.435	5079
844.571	5086
844.708	5181
844.844	5288
844.98	5357
845.117	5261
845.253	5124
845.389	5102
845.525	5151
845.661	5140
845.798	5045
845.934	5113
846.07	5121
846.206	5132
846.342	5307
846.478	5098
846.614	5006
846.75	4972
846.886	4934
847.022	5102
847.158	5086
847.294	5041
847.429	5121
847.565	5064
847.701	5284
847.837	4896
847.972	4824
848.108	4991
848.244	4915
848.379	4790
848.515	4717
848.65	4710
848.786	4687
848.921	4759
849.057	4828
849.192	4896
849.328	4793
849.463	4782
849.598	4793
849.734	4786
849.869	4687
850.004	4626
850.14	4615
850.275	4634
850.41	4546
850.545	4558
850.68	4611
850.815	4615
850.95	4645
851.085	4778
851.22	4740
851.355	4687
851.49	4649
851.625	4588
851.76	4626
851.895	4558
852.03	4504
852.165	4634
852.299	4714
852.434	4736
852.569	4759
852.703	4801
852.838	4843
852.973	4938
853.107	4866
853.242	4717
853.376	4634
853.511	4538
853.645	4615
853.78	4774
853.914	4694
854.048	4683
854.183	4630
854.317	4694
854.451	4786
854.585	4698
854.72	4656
854.854	4725
854.988	4573
855.122	4622
855.256	4542
855.39	4615
855.524	4793
855.658	4744
855.792	4683
855.926	4706
856.06	4736
856.194	4763
856.327	4687
856.461	4622
856.595	4656
856.729	4694
856.862	4790
856.996	4656
857.13	4683
857.263	4721
857.397	4774
857.53	4641
857.664	4710
857.797	4797
857.931	4744
858.064	4649
858.197	4748
858.331	4634
858.464	4588
858.597	4470
858.731	4634
858.864	4660
858.997	4584
859.13	4664
859.263	4668
859.396	4656
859.529	4607
859.662	4546
859.795	4550
859.928	4637
860.061	4790
860.194	4744
860.327	4611
860.46	4573
860.592	4706
860.725	4710
860.858	4706
860.99	4546
861.123	4478
861.256	4504
861.388	4596
861.521	5303
861.653	4516
861.786	4428
861.918	4443
862.05	4565
862.183	4542
862.315	4538
862.447	4615
862.58	4565
862.712	4367
862.844	4344
862.976	4500
863.108	4478
863.24	4896
863.372	4306
863.504	4447
863.636	4383
863.768	4474
863.9	4413
864.032	4367
864.164	4363
864.296	4470
864.428	4565
864.559	4554
864.691	4538
864.823	4519
864.954	4470
865.086	4443
865.217	4462
865.349	4402
865.48	4474
865.612	4478
865.743	4641
865.875	4455
866.006	4413
866.137	4424
866.269	4424
866.4	4428
866.531	4405
866.662	4398
866.793	4375
866.924	4447
867.055	4497
867.186	4459
867.317	4462
867.448	4402
867.579	4375
867.71	4421
867.841	4371
867.972	4462
868.103	4455
868.233	4443
868.364	4386
868.495	4485
868.625	4675
868.756	4782
868.886	4565
869.017	4626
869.147	4805
869.278	4767
869.408	4672
869.539	4622
869.669	4691
869.799	4675
869.929	4786
870.06	4744
870.19	4984
870.32	4923
870.45	4923
870.58	4987
870.71	5090
870.84	5098
870.97	4987
871.1	4892
871.23	5109
871.36	5117
871.489	5037
871.619	5079
871.749	5056
871.879	5178
872.008	5193
872.138	5071
872.267	4968
872.397	4911
872.526	4862
872.656	4698
872.785	4778
872.915	4942
873.044	5045
873.173	4927
873.303	5018
873.432	5006
873.561	4946
873.69	4858
873.819	4850
873.948	4911
874.077	4786
874.206	4759
874.335	4805
874.464	4968
874.593	5018
874.722	4976
874.851	5079
874.979	5060
875.108	5022
875.237	4930
875.365	4896
875.494	4873
875.623	4965
875.751	4831
875.88	4896
876.008	5018
876.136	5037
876.265	5227
876.393	5326
876.521	5162
876.65	5231
876.778	5151
876.906	5052
877.034	4991
877.162	5022
877.29	4972
877.418	5052
877.546	5064
877.674	5079
877.802	5056
877.93	4991
878.058	4972
878.185	4877
878.313	4938
878.441	4930
878.568	4824
878.696	4881
878.824	4923
878.951	4957
879.079	5117
879.206	5284
879.333	5147
879.461	4968
879.588	4949
879.715	5159
879.842	5193
879.97	5014
880.097	4858
880.224	4763
880.351	4816
880.478	4839
880.605	4771
880.732	4812
880.859	5105
880.986	4923
881.112	4896
881.239	4748
881.366	4706
881.493	4599
881.619	4611
881.746	4649
881.872	4626
881.999	4660
882.125	4668
882.252	4752
882.378	4831
882.505	4946
882.631	4820
882.757	4656
882.883	4683
883.01	4717
883.136	4630
883.262	4637
883.388	4634
883.514	4816
883.64	4831
883.766	4774
883.892	4653
884.018	4710
884.143	4892
884.269	5052
884.395	4702
884.52	4622
884.646	4634
884.772	4626
884.897	4558
885.023	4649
885.148	4797
885.274	4847
885.399	4820
885.524	4755
885.65	4668
885.775	4740
885.9	4725
886.025	4866
886.15	4805
886.275	4744
886.4	4618
886.525	4717
886.65	4710
886.775	4668
886.9	4881
887.025	5029
887.149	4854
887.274	4618
887.399	4580
887.523	4577
887.648	4634
887.773	4565
887.897	4767
888.021	4809
888.146	4634
888.27	4786
888.395	4854
888.519	4816
888.643	4870
888.767	4850
888.891	4706
889.015	4607
889.139	4721
889.263	4660
889.387	4714
889.511	4896
889.635	4778
889.759	4645
889.883	4634
890.006	4740
890.13	4816
890.254	4634
890.377	4634
890.501	4542
890.624	4550
890.748	4649
890.871	4512
890.995	4451
891.118	4405
891.241	4546
891.364	4516
891.488	4630
891.611	4504
891.734	4569
891.857	4580
891.98	4569
892.103	4664
892.226	4577
892.349	4489
892.471	4428
892.594	4569
892.717	4622
892.839	4569
892.962	4603
893.085	4641
893.207	4603
893.33	4504
893.452	4512
893.575	4641
893.697	4565
893.819	4797
893.941	4843
894.064	4748
894.186	4531
894.308	4596
894.43	4733
894.552	4858
894.674	4793
894.796	4538
894.918	4618
895.04	4546
895.161	4725
895.283	4687
895.405	4603
895.526	4656
895.648	4641
895.769	4675
895.891	4736
896.012	4729
896.134	4675
896.255	4618
896.376	4664
896.498	4569
896.619	4691
896.74	4565
896.861	4660
896.982	4904
897.103	5109
897.224	4831
897.345	4801
897.466	4637
897.587	4683
897.708	4824
897.828	4767
897.949	4679
898.07	4558
898.19	4664
898.311	4812
898.431	4687
898.552	4767
898.672	4744
898.792	4790
898.913	4752
899.033	4645
899.153	4531
899.273	4451
899.393	4489
899.513	4519
899.633	4573
899.753	4554
899.873	4550
899.993	4641
900.113	4546
900.232	4588
900.352	4531
900.472	4504
900.591	4424
900.711	4504
900.83	4413
900.95	4618
901.069	4660
901.189	4542
901.308	4409
901.427	4299
901.546	4348
901.665	4451
901.784	4519
901.904	4424
902.023	4303
902.141	4230
902.26	4143
902.379	4291
902.498	4265
902.617	4230
902.735	4341
902.854	4379
902.973	4352
903.091	4185
903.21	4207
903.328	4291
903.446	4276
903.565	4234
903.683	4360
903.801	4284
903.919	4360
904.038	4432
904.156	4322
904.274	4432
904.392	4386
904.51	4455
904.627	4413
904.745	4531
904.863	4634
904.981	4443
905.098	4333
905.216	4360
905.334	4436
905.451	4436
905.569	4459
905.686	4497
905.803	4535
905.921	4367
906.038	4523
906.155	4413
906.272	4383
906.389	4443
906.506	4352
906.623	4367
906.74	4413
906.857	4280
906.974	4363
907.091	4584
907.208	4653
907.324	4580
907.441	4535
907.557	4394
907.674	4333
907.79	4329
907.907	4409
908.023	4470
908.139	4508
908.256	4459
908.372	4481
908.488	4440
908.604	4390
908.72	4337
908.836	4379
908.952	4405
909.068	4459
909.184	4519
909.3	4489
909.415	4580
909.531	4569
909.647	4386
909.762	4390
909.878	4344
909.993	4443
910.108	4383
910.224	4413
910.339	4504
910.454	4402
910.57	4371
910.685	4291
910.8	4664
910.915	4603
911.03	4459
911.145	4314
911.259	4337
911.374	4436
911.489	4280
911.604	4261
911.718	4158
911.833	4181
911.947	4055
912.062	4029
912.176	4200
912.291	4188
912.405	4265
912.519	4523
912.633	4497
912.748	4344
912.862	4284
912.976	4200
913.09	4120
913.204	4158
913.318	4291
913.431	4375
913.545	4341
913.659	4386
913.772	4436
913.886	4249
914	4207
914.113	4379
914.226	4428
914.34	4398
914.453	4238
914.566	4421
914.68	4341
914.793	4344
914.906	4219
915.019	4109
915.132	4067
915.245	4154
915.358	4207
915.47	4185
915.583	4238
915.696	4310
915.809	4386
915.921	4341
916.034	4268
916.146	4227
916.259	4207
916.371	4341
916.483	4367
916.595	4261
916.708	4352
916.82	4333
916.932	4325
917.044	4265
917.156	4352
917.268	4188
917.38	4287
917.491	4276
917.603	4375
917.715	4413
917.826	4474
917.938	4337
918.049	4200
918.161	4440
918.272	4542
918.384	4565
918.495	4447
918.606	4322
918.717	4242
918.828	4356
918.939	4402
919.05	4215
919.161	4310
919.272	4150
919.383	4223
919.494	4394
919.604	4592
919.715	4363
919.826	4314
919.936	4383
920.047	4558
920.157	4455
920.267	4679
920.378	4523
920.488	4485
920.598	4702
920.708	4885
920.818	4755
920.928	4740
921.038	4949
921.148	4930
921.258	4603
921.368	4554
921.477	4481
921.587	4421
921.697	4371
921.806	4577
921.916	4421
922.025	4268
922.134	4276
922.244	4238
922.353	4306
922.462	4158
922.571	4143
922.68	4021
922.789	3968
922.898	4067
923.007	3991
923.116	4078
923.224	4017
923.333	4101
923.442	3945
923.55	3975
923.659	3987
923.767	4071
923.876	4013
923.984	4109
924.092	3972
924.201	4048
924.309	4078
924.417	4097
924.525	4051
924.633	4055
924.741	5041
924.849	3873
924.956	4150
925.064	3975
925.172	3873
925.279	3960
925.387	4032
925.494	3998
925.602	4227
925.709	4185
925.816	4051
925.924	4101
926.031	4242
926.138	4181
926.245	4230
926.352	4093
926.459	4253
926.566	4303
926.673	4135
926.779	4093
926.886	4051
926.993	3991
927.099	3975
927.206	3979
927.312	3968
927.419	4071
927.525	4040
927.631	4131
927.737	3987
927.843	3983
927.95	3835
928.056	3941
928.162	4021
928.267	4078
928.373	4698
928.479	4177
928.585	3911
928.69	4086
928.796	4105
928.901	3994
929.007	3880
929.112	4074
929.218	4036
929.323	4002
929.428	3983
929.533	4143
929.638	3975
929.743	4025
929.848	4124
929.953	4048
930.058	3934
930.163	3800
930.267	3880
930.372	4010
930.477	3884
930.581	4135
930.685	4002
930.79	3873
930.894	3884
930.998	3880
931.103	4082
931.207	3755
931.311	3781
931.415	3743
931.519	3576
931.623	3610
