Data from test_V78500241_2753.txt Node
Date: Fri Mar 25 17:08:08 CST 2022
User: usil
Spectrometer: V785-0024
Trigger mode: 0
Integration Time (sec): 4.000000E-1
Scans to average: 1
Nonlinearity correction enabled: false
Boxcar width: 0
Storing dark spectrum: false
XAxis mode: Wavelengths
Number of Pixels in Spectrum: 1024
>>>>>Begin Spectral Data<<<<<
801.071	8046
801.214	7978
801.356	7909
801.499	7845
801.641	7803
801.783	7795
801.926	8001
802.068	7909
802.211	7986
802.353	8031
802.496	7849
802.638	7902
802.78	7944
802.923	7982
803.065	7947
803.208	7814
803.35	8008
803.492	8119
803.635	8248
803.777	8039
803.919	8145
804.061	8408
804.204	8195
804.346	7986
804.488	8005
804.63	8138
804.773	8050
804.915	8119
805.057	8317
805.199	8138
805.341	8138
805.483	8259
805.626	8202
805.768	8130
805.91	8199
806.052	8271
806.194	8229
806.336	8339
806.478	8035
806.62	7955
806.762	8183
806.904	8206
807.046	8381
807.188	8423
807.33	8332
807.472	8347
807.614	8164
807.756	8183
807.898	8039
808.04	7909
808.182	7841
808.324	7833
808.465	7951
808.607	8043
808.749	8195
808.891	8339
809.033	8301
809.174	8282
809.316	8130
809.458	8065
809.6	7997
809.741	7944
809.883	8020
810.025	8145
810.166	8058
810.308	8012
810.45	7955
810.591	7917
810.733	7814
810.875	7693
811.016	7525
811.158	7514
811.299	7639
811.441	7723
811.582	7723
811.724	7590
811.865	7628
812.007	7613
812.148	7590
812.29	7590
812.431	7841
812.573	7871
812.714	7974
812.855	8191
812.997	8237
813.138	8309
813.279	8172
813.421	8123
813.562	7978
813.703	7860
813.845	7780
813.986	7403
814.127	7240
814.268	7183
814.41	7251
814.551	7152
814.692	7206
814.833	7137
814.974	7084
815.115	7122
815.256	6954
815.397	6897
815.539	6966
815.68	6829
815.821	6840
815.962	6897
816.103	6856
816.244	6749
816.385	6635
816.526	6658
816.666	6540
816.807	6331
816.948	6441
817.089	6513
817.23	6437
817.371	6346
817.512	6380
817.653	6410
817.793	6350
817.934	6407
818.075	6467
818.216	6479
818.356	6391
818.497	6270
818.638	6144
818.778	6182
818.919	6133
819.06	6110
819.2	6350
819.341	6384
819.481	6391
819.622	6479
819.762	6768
819.903	6700
820.043	6612
820.184	6555
820.324	6570
820.465	6703
820.605	6707
820.746	6692
820.886	6502
821.026	6658
821.167	6677
821.307	6829
821.447	6776
821.588	6639
821.728	6589
821.868	6448
822.008	6388
822.149	6372
822.289	6346
822.429	6125
822.569	6079
822.709	6117
822.849	5901
822.99	5885
823.13	5897
823.27	5950
823.41	5821
823.55	5813
823.69	5786
823.83	5756
823.97	5649
824.11	5532
824.25	5501
824.389	5539
824.529	5619
824.669	5482
824.809	5642
824.949	5653
825.089	5634
825.228	5558
825.368	5391
825.508	5360
825.648	5353
825.787	5376
825.927	5330
826.067	5299
826.206	5357
826.346	5387
826.485	5379
826.625	5383
826.765	5547
826.904	5467
827.044	5258
827.183	5216
827.323	5151
827.462	5269
827.601	5193
827.741	5178
827.88	5212
828.02	5136
828.159	5231
828.298	5326
828.437	5368
828.577	5250
828.716	5417
828.855	5315
828.994	5181
829.134	5132
829.273	5151
829.412	5155
829.551	5140
829.69	5201
829.829	5280
829.968	5318
830.107	5250
830.246	5280
830.385	5147
830.524	5086
830.663	5041
830.802	4938
830.941	4889
831.08	4847
831.219	4976
831.357	4953
831.496	5197
831.635	4968
831.774	4870
831.913	4828
832.051	4740
832.19	4691
832.329	4805
832.467	4721
832.606	4653
832.744	4725
832.883	4702
833.022	4721
833.16	4767
833.299	4771
833.437	4805
833.576	4835
833.714	4870
833.852	4866
833.991	4892
834.129	4942
834.267	4892
834.406	4927
834.544	4965
834.682	5003
834.821	4942
834.959	5178
835.097	5033
835.235	5128
835.373	5128
835.511	5098
835.65	5048
835.788	5041
835.926	4927
836.064	4877
836.202	4942
836.34	5098
836.478	5216
836.615	5109
836.753	5235
836.891	5307
837.029	5204
837.167	5204
837.305	5143
837.443	5159
837.58	5098
837.718	5265
837.856	5254
837.993	5166
838.131	5231
838.269	5235
838.406	5212
838.544	5185
838.681	5060
838.819	4984
838.956	4881
839.094	4866
839.231	4972
839.369	5094
839.506	5402
839.643	5269
839.781	5052
839.918	5025
840.055	5128
840.193	5109
840.33	5079
840.467	5090
840.604	5197
840.742	5493
840.879	5064
841.016	5060
841.153	5109
841.29	5387
841.427	5349
841.564	5292
841.701	5322
841.838	5269
841.975	5193
842.112	5242
842.249	5181
842.385	5083
842.522	5330
842.659	5170
842.796	5147
842.933	5197
843.069	5155
843.206	5132
843.343	5318
843.479	5242
843.616	5277
843.752	5003
843.889	4942
844.025	5166
844.162	5006
844.298	5193
844.435	5117
844.571	5045
844.708	5216
844.844	5284
844.98	5315
845.117	5284
845.253	5174
845.389	5143
845.525	5166
845.661	5113
845.798	5041
845.934	5064
846.07	4999
846.206	5231
846.342	5269
846.478	5166
846.614	5052
846.75	4972
846.886	4923
847.022	5162
847.158	5006
847.294	5045
847.429	5079
847.565	5014
847.701	5292
847.837	4854
847.972	4809
848.108	4968
848.244	4949
848.379	4740
848.515	4740
848.65	4706
848.786	4786
848.921	4755
849.057	4858
849.192	4908
849.328	4797
849.463	4797
849.598	4812
849.734	4759
849.869	4687
850.004	4618
850.14	4714
850.275	4618
850.41	4542
850.545	4615
850.68	4672
850.815	4634
850.95	4611
851.085	4809
851.22	4721
851.355	4668
851.49	4637
851.625	4641
851.76	4668
851.895	4527
852.03	4580
852.165	4694
852.299	4759
852.434	4771
852.569	4710
852.703	4767
852.838	4828
852.973	4957
853.107	4930
853.242	4694
853.376	4691
853.511	4554
853.645	4569
853.78	4824
853.914	4683
854.048	4618
854.183	4649
854.317	4717
854.451	4866
854.585	4668
854.72	4622
854.854	4782
854.988	4599
855.122	4630
855.256	4538
855.39	4668
855.524	4763
855.658	4717
855.792	4645
855.926	4729
856.06	4755
856.194	4809
856.327	4683
856.461	4603
856.595	4596
856.729	4584
856.862	4717
856.996	4691
857.13	4714
857.263	4778
857.397	4782
857.53	4675
857.664	4748
857.797	4763
857.931	4782
858.064	4645
858.197	4752
858.331	4660
858.464	4622
858.597	4481
858.731	4596
858.864	4626
858.997	4550
859.13	4660
859.263	4691
859.396	4706
859.529	4558
859.662	4558
859.795	4508
859.928	4634
860.061	4740
860.194	4801
860.327	4596
860.46	4550
860.592	4664
860.725	4725
860.858	4672
860.99	4558
861.123	4531
861.256	4516
861.388	4653
861.521	5288
861.653	4485
861.786	4447
861.918	4459
862.05	4531
862.183	4573
862.315	4577
862.447	4618
862.58	4596
862.712	4394
862.844	4272
862.976	4489
863.108	4516
863.24	4790
863.372	4329
863.504	4413
863.636	4447
863.768	4512
863.9	4451
864.032	4383
864.164	4348
864.296	4447
864.428	4565
864.559	4569
864.691	4546
864.823	4550
864.954	4470
865.086	4451
865.217	4417
865.349	4440
865.48	4432
865.612	4462
865.743	4618
865.875	4447
866.006	4394
866.137	4447
866.269	4447
866.4	4440
866.531	4466
866.662	4394
866.793	4409
866.924	4375
867.055	4493
867.186	4455
867.317	4363
867.448	4386
867.579	4405
867.71	4371
867.841	4360
867.972	4455
868.103	4485
868.233	4440
868.364	4478
868.495	4462
868.625	4634
868.756	4763
868.886	4569
869.017	4611
869.147	4736
869.278	4797
869.408	4668
869.539	4641
869.669	4736
869.799	4645
869.929	4744
870.06	4706
870.19	4976
870.32	4877
870.45	4923
870.58	5029
870.71	5132
870.84	5064
870.97	4915
871.1	4900
871.23	5151
871.36	5102
871.489	5029
871.619	5094
871.749	5067
871.879	5170
872.008	5170
872.138	5140
872.267	4987
872.397	4866
872.526	4759
872.656	4748
872.785	4816
872.915	4976
873.044	5022
873.173	4934
873.303	4946
873.432	4919
873.561	4968
873.69	4938
873.819	4835
873.948	4908
874.077	4843
874.206	4725
874.335	4797
874.464	4961
874.593	5052
874.722	4972
874.851	5090
874.979	5052
875.108	5041
875.237	4961
875.365	4877
875.494	4892
875.623	4957
875.751	4816
875.88	4862
876.008	4942
876.136	5033
876.265	5239
876.393	5345
876.521	5246
876.65	5197
876.778	5178
876.906	5090
877.034	5048
877.162	5060
877.29	5041
877.418	5071
877.546	5094
877.674	5025
877.802	5025
877.93	4995
878.058	4942
878.185	4847
878.313	4987
878.441	4953
878.568	4774
878.696	4885
878.824	4930
878.951	4987
879.079	5109
879.206	5334
879.333	5117
879.461	5014
879.588	5006
879.715	5105
879.842	5239
879.97	5037
880.097	4805
880.224	4816
880.351	4793
880.478	4816
880.605	4839
880.732	4816
880.859	5075
880.986	4812
881.112	4946
881.239	4793
881.366	4668
881.493	4592
881.619	4588
881.746	4660
881.872	4675
881.999	4668
882.125	4698
882.252	4790
882.378	4828
882.505	4961
882.631	4847
882.757	4698
882.883	4755
883.01	4782
883.136	4702
883.262	4618
883.388	4592
883.514	4847
883.64	4828
883.766	4763
883.892	4687
884.018	4714
884.143	4900
884.269	5022
884.395	4675
884.52	4702
884.646	4656
884.772	4580
884.897	4584
885.023	4630
885.148	4786
885.274	4889
885.399	4835
885.524	4736
885.65	4694
885.775	4763
885.9	4687
886.025	4866
886.15	4793
886.275	4717
886.4	4656
886.525	4774
886.65	4672
886.775	4691
886.9	4915
887.025	5048
887.149	4824
887.274	4653
887.399	4596
887.523	4588
887.648	4622
887.773	4664
887.897	4790
888.021	4828
888.146	4710
888.27	4831
888.395	4896
888.519	4809
888.643	4854
888.767	4850
888.891	4656
889.015	4641
889.139	4645
889.263	4592
889.387	4786
889.511	4892
889.635	4774
889.759	4637
889.883	4698
890.006	4733
890.13	4809
890.254	4618
890.377	4702
890.501	4542
890.624	4527
890.748	4656
890.871	4523
890.995	4424
891.118	4409
891.241	4550
891.364	4565
891.488	4645
891.611	4504
891.734	4527
891.857	4580
891.98	4554
892.103	4637
892.226	4516
892.349	4542
892.471	4440
892.594	4512
892.717	4653
892.839	4592
892.962	4588
893.085	4645
893.207	4603
893.33	4462
893.452	4512
893.575	4702
893.697	4588
893.819	4759
893.941	4820
894.064	4774
894.186	4607
894.308	4603
894.43	4729
894.552	4786
894.674	4771
894.796	4550
894.918	4634
895.04	4577
895.161	4717
895.283	4694
895.405	4649
895.526	4630
895.648	4679
895.769	4706
895.891	4683
896.012	4721
896.134	4721
896.255	4615
896.376	4672
896.498	4615
896.619	4653
896.74	4611
896.861	4664
896.982	4972
897.103	5060
897.224	4847
897.345	4740
897.466	4634
897.587	4725
897.708	4831
897.828	4774
897.949	4656
898.07	4558
898.19	4615
898.311	4816
898.431	4698
898.552	4710
898.672	4748
898.792	4778
898.913	4774
899.033	4634
899.153	4504
899.273	4367
899.393	4462
899.513	4565
899.633	4504
899.753	4558
899.873	4504
899.993	4588
900.113	4580
900.232	4577
900.352	4538
900.472	4462
900.591	4436
900.711	4470
900.83	4443
900.95	4580
901.069	4687
901.189	4603
901.308	4390
901.427	4295
901.546	4383
901.665	4455
901.784	4462
901.904	4409
902.023	4348
902.141	4181
902.26	4173
902.379	4295
902.498	4219
902.617	4234
902.735	4383
902.854	4424
902.973	4352
903.091	4246
903.21	4291
903.328	4306
903.446	4318
903.565	4272
903.683	4375
903.801	4276
903.919	4405
904.038	4402
904.156	4287
904.274	4466
904.392	4436
904.51	4424
904.627	4459
904.745	4603
904.863	4660
904.981	4390
905.098	4371
905.216	4367
905.334	4443
905.451	4459
905.569	4466
905.686	4577
905.803	4550
905.921	4428
906.038	4554
906.155	4421
906.272	4413
906.389	4436
906.506	4375
906.623	4344
906.74	4386
906.857	4322
906.974	4352
907.091	4554
907.208	4641
907.324	4565
907.441	4497
907.557	4363
907.674	4402
907.79	4341
907.907	4386
908.023	4474
908.139	4447
908.256	4447
908.372	4493
908.488	4440
908.604	4360
908.72	4310
908.836	4329
908.952	4390
909.068	4390
909.184	4550
909.3	4497
909.415	4565
909.531	4569
909.647	4375
909.762	4379
909.878	4322
909.993	4436
910.108	4455
910.224	4455
910.339	4508
910.454	4394
910.57	4413
910.685	4287
910.8	4626
910.915	4603
911.03	4531
911.145	4310
911.259	4337
911.374	4329
911.489	4367
911.604	4291
911.718	4173
911.833	4207
911.947	4097
912.062	4040
912.176	4215
912.291	4211
912.405	4242
912.519	4462
912.633	4504
912.748	4390
912.862	4329
912.976	4177
913.09	4093
913.204	4192
913.318	4227
913.431	4360
913.545	4402
913.659	4428
913.772	4360
913.886	4215
914	4188
914.113	4398
914.226	4462
914.34	4417
914.453	4238
914.566	4459
914.68	4333
914.793	4329
914.906	4135
915.019	4143
915.132	4093
915.245	4196
915.358	4211
915.47	4200
915.583	4261
915.696	4276
915.809	4386
915.921	4447
916.034	4196
916.146	4207
916.259	4227
916.371	4333
916.483	4344
916.595	4249
916.708	4325
916.82	4329
916.932	4322
917.044	4272
917.156	4299
917.268	4238
917.38	4215
917.491	4238
917.603	4356
917.715	4409
917.826	4413
917.938	4299
918.049	4230
918.161	4421
918.272	4542
918.384	4573
918.495	4478
918.606	4284
918.717	4268
918.828	4303
918.939	4390
919.05	4253
919.161	4322
919.272	4162
919.383	4230
919.494	4417
919.604	4580
919.715	4413
919.826	4341
919.936	4413
920.047	4504
920.157	4485
920.267	4664
920.378	4542
920.488	4489
920.598	4714
920.708	4824
920.818	4778
920.928	4782
921.038	4919
921.148	4930
921.258	4622
921.368	4607
921.477	4527
921.587	4470
921.697	4360
921.806	4554
921.916	4417
922.025	4284
922.134	4253
922.244	4242
922.353	4325
922.462	4135
922.571	4105
922.68	3998
922.789	3994
922.898	4051
923.007	4025
923.116	4090
923.224	4067
923.333	4093
923.442	4021
923.55	4013
923.659	4013
923.767	4135
923.876	3991
923.984	4097
924.092	3934
924.201	4097
924.309	4067
924.417	4112
924.525	4059
924.633	4055
924.741	4904
924.849	3915
924.956	4082
925.064	3960
925.172	3892
925.279	3922
925.387	4013
925.494	4025
925.602	4272
925.709	4166
925.816	4025
925.924	4120
926.031	4173
926.138	4181
926.245	4185
926.352	4128
926.459	4227
926.566	4299
926.673	4147
926.779	4097
926.886	4036
926.993	3937
927.099	4002
927.206	3922
927.312	3907
927.419	4036
927.525	4036
927.631	4078
927.737	3918
927.843	3922
927.95	3823
928.056	3945
928.162	4002
928.267	4078
928.373	4691
928.479	4169
928.585	3869
928.69	3998
928.796	4101
928.901	3998
929.007	3831
929.112	4021
929.218	4006
929.323	3930
929.428	3953
929.533	4120
929.638	3915
929.743	3934
929.848	4097
929.953	4010
930.058	3896
930.163	3785
930.267	3884
930.372	3956
930.477	3823
930.581	4101
930.685	3979
930.79	3831
930.894	3869
930.998	3899
931.103	4044
931.207	3724
931.311	3720
931.415	3660
931.519	3530
931.623	3572
