Data from test_V78500241_1414.txt Node
Date: Fri Mar 25 16:58:49 CST 2022
User: usil
Spectrometer: V785-0024
Trigger mode: 0
Integration Time (sec): 4.000000E-1
Scans to average: 1
Nonlinearity correction enabled: false
Boxcar width: 0
Storing dark spectrum: false
XAxis mode: Wavelengths
Number of Pixels in Spectrum: 1024
>>>>>Begin Spectral Data<<<<<
801.071	8005
801.214	8012
801.356	7830
801.499	7822
801.641	7761
801.783	7795
801.926	7970
802.068	7864
802.211	7951
802.353	7986
802.496	7776
802.638	7856
802.78	7822
802.923	7890
803.065	7837
803.208	7906
803.35	7917
803.492	8084
803.635	8123
803.777	7944
803.919	8103
804.061	8419
804.204	8229
804.346	8088
804.488	7947
804.63	8092
804.773	8058
804.915	8103
805.057	8248
805.199	8145
805.341	8256
805.483	8206
805.626	8225
805.768	8123
805.91	8202
806.052	8187
806.194	8138
806.336	8244
806.478	8115
806.62	8065
806.762	8084
806.904	8332
807.046	8484
807.188	8366
807.33	8298
807.472	8282
807.614	8221
807.756	8130
807.898	7982
808.04	7959
808.182	7852
808.324	7883
808.465	8031
808.607	8058
808.749	8176
808.891	8248
809.033	8343
809.174	8168
809.316	8081
809.458	8035
809.6	7974
809.741	8012
809.883	8058
810.025	8115
810.166	8077
810.308	8081
810.45	8035
810.591	7860
810.733	7719
810.875	7693
811.016	7548
811.158	7563
811.299	7696
811.441	7807
811.582	7700
811.724	7575
811.865	7510
812.007	7624
812.148	7594
812.29	7734
812.431	7712
812.573	7902
812.714	8020
812.855	8191
812.997	8218
813.138	8389
813.279	8199
813.421	8046
813.562	7993
813.703	7803
813.845	7715
813.986	7476
814.127	7285
814.268	7171
814.41	7259
814.551	7232
814.692	7282
814.833	7118
814.974	7103
815.115	7160
815.256	7012
815.397	6924
815.539	6932
815.68	6867
815.821	6802
815.962	6897
816.103	6818
816.244	6726
816.385	6658
816.526	6585
816.666	6494
816.807	6266
816.948	6479
817.089	6486
817.23	6536
817.371	6403
817.512	6422
817.653	6426
817.793	6331
817.934	6467
818.075	6506
818.216	6441
818.356	6353
818.497	6243
818.638	6152
818.778	6163
818.919	6144
819.06	6167
819.2	6338
819.341	6319
819.481	6372
819.622	6540
819.762	6783
819.903	6745
820.043	6604
820.184	6585
820.324	6589
820.465	6715
820.605	6730
820.746	6700
820.886	6475
821.026	6688
821.167	6707
821.307	6764
821.447	6795
821.588	6635
821.728	6566
821.868	6479
822.008	6289
822.149	6380
822.289	6407
822.429	6201
822.569	6079
822.709	6190
822.849	5916
822.99	5885
823.13	5927
823.27	5935
823.41	5821
823.55	5813
823.69	5832
823.83	5775
823.97	5589
824.11	5528
824.25	5539
824.389	5608
824.529	5596
824.669	5554
824.809	5657
824.949	5672
825.089	5665
825.228	5604
825.368	5383
825.508	5345
825.648	5322
825.787	5433
825.927	5383
826.067	5330
826.206	5322
826.346	5368
826.485	5455
826.625	5417
826.765	5600
826.904	5516
827.044	5284
827.183	5193
827.323	5185
827.462	5231
827.601	5204
827.741	5185
827.88	5212
828.02	5105
828.159	5231
828.298	5315
828.437	5402
828.577	5318
828.716	5463
828.855	5284
828.994	5197
829.134	5136
829.273	5181
829.412	5212
829.551	5189
829.69	5159
829.829	5239
829.968	5421
830.107	5296
830.246	5265
830.385	5159
830.524	5147
830.663	5121
830.802	4949
830.941	4839
831.08	4873
831.219	4999
831.357	4946
831.496	5159
831.635	4953
831.774	4850
831.913	4835
832.051	4729
832.19	4767
832.329	4812
832.467	4714
832.606	4660
832.744	4725
832.883	4717
833.022	4710
833.16	4816
833.299	4831
833.437	4812
833.576	4870
833.714	4873
833.852	4896
833.991	4870
834.129	4980
834.267	4965
834.406	4904
834.544	4923
834.682	4965
834.821	4999
834.959	5193
835.097	4968
835.235	5102
835.373	5105
835.511	5102
835.65	5010
835.788	5025
835.926	4911
836.064	4896
836.202	4862
836.34	5136
836.478	5239
836.615	5193
836.753	5220
836.891	5273
837.029	5246
837.167	5216
837.305	5197
837.443	5166
837.58	5128
837.718	5284
837.856	5204
837.993	5102
838.131	5216
838.269	5239
838.406	5227
838.544	5181
838.681	5105
838.819	4984
838.956	4908
839.094	4889
839.231	4980
839.369	5102
839.506	5402
839.643	5277
839.781	5018
839.918	5037
840.055	5075
840.193	5102
840.33	5086
840.467	5147
840.604	5181
840.742	5417
840.879	5090
841.016	5113
841.153	5155
841.29	5387
841.427	5345
841.564	5303
841.701	5330
841.838	5250
841.975	5242
842.112	5258
842.249	5174
842.385	5151
842.522	5372
842.659	5124
842.796	5121
842.933	5231
843.069	5128
843.206	5181
843.343	5322
843.479	5239
843.616	5246
843.752	5045
843.889	5045
844.025	5189
844.162	4991
844.298	5147
844.435	5086
844.571	5045
844.708	5212
844.844	5326
844.98	5372
845.117	5303
845.253	5159
845.389	5102
845.525	5162
845.661	5174
845.798	5045
845.934	5098
846.07	5071
846.206	5201
846.342	5273
846.478	5212
846.614	5010
846.75	5003
846.886	4930
847.022	5174
847.158	4991
847.294	5113
847.429	5105
847.565	5098
847.701	5303
847.837	4873
847.972	4774
848.108	5006
848.244	4938
848.379	4790
848.515	4717
848.65	4733
848.786	4698
848.921	4771
849.057	4892
849.192	4850
849.328	4755
849.463	4812
849.598	4809
849.734	4740
849.869	4664
850.004	4630
850.14	4630
850.275	4596
850.41	4546
850.545	4573
850.68	4592
850.815	4622
850.95	4641
851.085	4816
851.22	4759
851.355	4679
851.49	4626
851.625	4641
851.76	4634
851.895	4489
852.03	4538
852.165	4656
852.299	4721
852.434	4831
852.569	4786
852.703	4786
852.838	4847
852.973	4885
853.107	4938
853.242	4729
853.376	4702
853.511	4558
853.645	4603
853.78	4824
853.914	4679
854.048	4694
854.183	4668
854.317	4687
854.451	4862
854.585	4656
854.72	4637
854.854	4801
854.988	4649
855.122	4618
855.256	4542
855.39	4672
855.524	4744
855.658	4702
855.792	4660
855.926	4721
856.06	4771
856.194	4824
856.327	4645
856.461	4641
856.595	4664
856.729	4603
856.862	4759
856.996	4748
857.13	4733
857.263	4755
857.397	4812
857.53	4698
857.664	4774
857.797	4755
857.931	4771
858.064	4672
858.197	4767
858.331	4649
858.464	4630
858.597	4546
858.731	4615
858.864	4596
858.997	4618
859.13	4668
859.263	4645
859.396	4706
859.529	4607
859.662	4531
859.795	4489
859.928	4653
860.061	4774
860.194	4763
860.327	4599
860.46	4596
860.592	4733
860.725	4691
860.858	4763
860.99	4603
861.123	4527
861.256	4531
861.388	4588
861.521	5440
861.653	4500
861.786	4447
861.918	4466
862.05	4481
862.183	4577
862.315	4615
862.447	4691
862.58	4565
862.712	4485
862.844	4363
862.976	4455
863.108	4440
863.24	4915
863.372	4383
863.504	4402
863.636	4432
863.768	4451
863.9	4428
864.032	4375
864.164	4424
864.296	4504
864.428	4573
864.559	4558
864.691	4546
864.823	4478
864.954	4527
865.086	4485
865.217	4478
865.349	4424
865.48	4470
865.612	4440
865.743	4573
865.875	4508
866.006	4371
866.137	4428
866.269	4474
866.4	4413
866.531	4466
866.662	4428
866.793	4371
866.924	4421
867.055	4493
867.186	4459
867.317	4386
867.448	4344
867.579	4424
867.71	4383
867.841	4375
867.972	4466
868.103	4409
868.233	4459
868.364	4466
868.495	4504
868.625	4702
868.756	4812
868.886	4531
869.017	4626
869.147	4752
869.278	4752
869.408	4656
869.539	4641
869.669	4634
869.799	4660
869.929	4793
870.06	4725
870.19	4942
870.32	4946
870.45	4923
870.58	4999
870.71	5105
870.84	5098
870.97	4961
871.1	4915
871.23	5090
871.36	5128
871.489	4999
871.619	5071
871.749	5064
871.879	5136
872.008	5143
872.138	5052
872.267	4961
872.397	4892
872.526	4797
872.656	4710
872.785	4793
872.915	4968
873.044	4965
873.173	4930
873.303	4949
873.432	4972
873.561	4991
873.69	4858
873.819	4850
873.948	4938
874.077	4858
874.206	4752
874.335	4824
874.464	4919
874.593	5052
874.722	4961
874.851	5102
874.979	5048
875.108	5064
875.237	4919
875.365	4854
875.494	4892
875.623	4999
875.751	4839
875.88	4889
876.008	4946
876.136	4987
876.265	5178
876.393	5280
876.521	5212
876.65	5216
876.778	5136
876.906	5071
877.034	5079
877.162	5079
877.29	4972
877.418	5033
877.546	5010
877.674	4995
877.802	5025
877.93	5010
878.058	4923
878.185	4824
878.313	4942
878.441	4919
878.568	4812
878.696	4850
878.824	4965
878.951	4980
879.079	5136
879.206	5288
879.333	5083
879.461	4987
879.588	4968
879.715	5079
879.842	5223
879.97	4976
880.097	4778
880.224	4740
880.351	4809
880.478	4831
880.605	4805
880.732	4782
880.859	5048
880.986	4927
881.112	4927
881.239	4767
881.366	4691
881.493	4592
881.619	4561
881.746	4611
881.872	4660
881.999	4615
882.125	4702
882.252	4824
882.378	4839
882.505	4953
882.631	4820
882.757	4645
882.883	4752
883.01	4679
883.136	4592
883.262	4580
883.388	4588
883.514	4828
883.64	4797
883.766	4790
883.892	4611
884.018	4683
884.143	4866
884.269	4953
884.395	4660
884.52	4607
884.646	4630
884.772	4588
884.897	4550
885.023	4664
885.148	4774
885.274	4820
885.399	4786
885.524	4710
885.65	4683
885.775	4755
885.9	4687
886.025	4843
886.15	4805
886.275	4706
886.4	4634
886.525	4710
886.65	4721
886.775	4664
886.9	4828
887.025	5052
887.149	4831
887.274	4630
887.399	4603
887.523	4607
887.648	4546
887.773	4599
887.897	4729
888.021	4740
888.146	4660
888.27	4824
888.395	4915
888.519	4774
888.643	4847
888.767	4820
888.891	4637
889.015	4611
889.139	4615
889.263	4592
889.387	4740
889.511	4843
889.635	4763
889.759	4618
889.883	4675
890.006	4714
890.13	4862
890.254	4634
890.377	4668
890.501	4599
890.624	4497
890.748	4637
890.871	4527
890.995	4413
891.118	4428
891.241	4519
891.364	4554
891.488	4653
891.611	4504
891.734	4577
891.857	4641
891.98	4512
892.103	4645
892.226	4577
892.349	4542
892.471	4421
892.594	4516
892.717	4592
892.839	4523
892.962	4561
893.085	4656
893.207	4615
893.33	4440
893.452	4493
893.575	4660
893.697	4561
893.819	4786
893.941	4820
894.064	4706
894.186	4577
894.308	4550
894.43	4706
894.552	4824
894.674	4755
894.796	4569
894.918	4599
895.04	4599
895.161	4672
895.283	4668
895.405	4538
895.526	4626
895.648	4717
895.769	4698
895.891	4683
896.012	4771
896.134	4683
896.255	4637
896.376	4630
896.498	4580
896.619	4714
896.74	4660
896.861	4603
896.982	4946
897.103	5060
897.224	4824
897.345	4729
897.466	4656
897.587	4763
897.708	4805
897.828	4771
897.949	4664
898.07	4531
898.19	4641
898.311	4862
898.431	4660
898.552	4740
898.672	4782
898.792	4809
898.913	4740
899.033	4630
899.153	4512
899.273	4409
899.393	4474
899.513	4535
899.633	4481
899.753	4588
899.873	4470
899.993	4558
900.113	4497
900.232	4523
900.352	4546
900.472	4508
900.591	4409
900.711	4508
900.83	4383
900.95	4596
901.069	4698
901.189	4542
901.308	4375
901.427	4249
901.546	4367
901.665	4516
901.784	4474
901.904	4344
902.023	4280
902.141	4181
902.26	4150
902.379	4303
902.498	4242
902.617	4177
902.735	4360
902.854	4394
902.973	4379
903.091	4227
903.21	4192
903.328	4299
903.446	4287
903.565	4230
903.683	4371
903.801	4215
903.919	4352
904.038	4436
904.156	4310
904.274	4466
904.392	4398
904.51	4405
904.627	4462
904.745	4535
904.863	4660
904.981	4436
905.098	4333
905.216	4337
905.334	4432
905.451	4459
905.569	4417
905.686	4580
905.803	4615
905.921	4421
906.038	4558
906.155	4474
906.272	4466
906.389	4447
906.506	4287
906.623	4371
906.74	4356
906.857	4306
906.974	4375
907.091	4519
907.208	4649
907.324	4550
907.441	4455
907.557	4367
907.674	4352
907.79	4314
907.907	4398
908.023	4500
908.139	4542
908.256	4394
908.372	4440
908.488	4421
908.604	4318
908.72	4322
908.836	4356
908.952	4405
909.068	4394
909.184	4550
909.3	4493
909.415	4569
909.531	4500
909.647	4367
909.762	4386
909.878	4314
909.993	4413
910.108	4405
910.224	4379
910.339	4447
910.454	4417
910.57	4379
910.685	4356
910.8	4569
910.915	4569
911.03	4481
911.145	4318
911.259	4265
911.374	4348
911.489	4314
911.604	4261
911.718	4135
911.833	4192
911.947	4071
912.062	4029
912.176	4200
912.291	4207
912.405	4249
912.519	4443
912.633	4519
912.748	4363
912.862	4276
912.976	4200
913.09	4082
913.204	4200
913.318	4219
913.431	4352
913.545	4360
913.659	4466
913.772	4379
913.886	4207
914	4242
914.113	4356
914.226	4402
914.34	4367
914.453	4242
914.566	4409
914.68	4291
914.793	4337
914.906	4166
915.019	4112
915.132	4071
915.245	4154
915.358	4246
915.47	4261
915.583	4284
915.696	4314
915.809	4363
915.921	4409
916.034	4234
916.146	4249
916.259	4207
916.371	4322
916.483	4371
916.595	4246
916.708	4344
916.82	4337
916.932	4291
917.044	4299
917.156	4341
917.268	4242
917.38	4253
917.491	4295
917.603	4356
917.715	4409
917.826	4421
917.938	4333
918.049	4242
918.161	4421
918.272	4474
918.384	4573
918.495	4405
918.606	4287
918.717	4234
918.828	4333
918.939	4360
919.05	4265
919.161	4318
919.272	4120
919.383	4249
919.494	4428
919.604	4622
919.715	4402
919.826	4322
919.936	4417
920.047	4504
920.157	4497
920.267	4717
920.378	4531
920.488	4485
920.598	4691
920.708	4862
920.818	4786
920.928	4725
921.038	4942
921.148	4911
921.258	4637
921.368	4535
921.477	4504
921.587	4451
921.697	4337
921.806	4470
921.916	4379
922.025	4265
922.134	4295
922.244	4215
922.353	4314
922.462	4204
922.571	4143
922.68	4017
922.789	4010
922.898	4093
923.007	4006
923.116	4082
923.224	4090
923.333	4063
923.442	4006
923.55	4032
923.659	4029
923.767	4097
923.876	4029
923.984	4116
924.092	3964
924.201	4074
924.309	4078
924.417	4128
924.525	4002
924.633	4097
924.741	5014
924.849	3896
924.956	4124
925.064	3937
925.172	3892
925.279	3975
925.387	4044
925.494	4090
925.602	4200
925.709	4223
925.816	4036
925.924	4131
926.031	4265
926.138	4166
926.245	4185
926.352	4109
926.459	4249
926.566	4287
926.673	4139
926.779	4128
926.886	4055
926.993	3998
927.099	3930
927.206	3937
927.312	3953
927.419	4036
927.525	4010
927.631	4105
927.737	3953
927.843	3937
927.95	3869
928.056	3953
928.162	3960
928.267	4071
928.373	4664
928.479	4120
928.585	3876
928.69	3998
928.796	4093
928.901	3945
929.007	3808
929.112	4006
929.218	3968
929.323	3960
929.428	3934
929.533	4082
929.638	3884
929.743	3972
929.848	4025
929.953	3975
930.058	3937
930.163	3797
930.267	3835
930.372	3937
930.477	3793
930.581	4032
930.685	3991
930.79	3816
930.894	3861
930.998	3835
931.103	4044
931.207	3720
931.311	3698
931.415	3686
931.519	3511
931.623	3584
