Data from test_V78500241_384.txt Node
Date: Fri Mar 25 16:51:40 CST 2022
User: usil
Spectrometer: V785-0024
Trigger mode: 0
Integration Time (sec): 4.000000E-1
Scans to average: 1
Nonlinearity correction enabled: false
Boxcar width: 0
Storing dark spectrum: false
XAxis mode: Wavelengths
Number of Pixels in Spectrum: 1024
>>>>>Begin Spectral Data<<<<<
801.071	8096
801.214	8092
801.356	7997
801.499	7936
801.641	7902
801.783	7940
801.926	8043
802.068	8008
802.211	8088
802.353	8024
802.496	7875
802.638	7947
802.78	7982
802.923	7951
803.065	7909
803.208	7864
803.35	7970
803.492	8103
803.635	8111
803.777	8001
803.919	8107
804.061	8457
804.204	8172
804.346	8050
804.488	7959
804.63	8065
804.773	8046
804.915	8100
805.057	8282
805.199	8214
805.341	8317
805.483	8324
805.626	8187
805.768	8103
805.91	8168
806.052	8267
806.194	8168
806.336	8332
806.478	8103
806.62	8191
806.762	8240
806.904	8317
807.046	8507
807.188	8362
807.33	8301
807.472	8351
807.614	8248
807.756	8134
807.898	8111
808.04	7963
808.182	7959
808.324	8005
808.465	7963
808.607	8103
808.749	8145
808.891	8233
809.033	8396
809.174	8229
809.316	8069
809.458	8081
809.6	8073
809.741	8134
809.883	8096
810.025	8115
810.166	8088
810.308	8107
810.45	8005
810.591	7906
810.733	7761
810.875	7681
811.016	7567
811.158	7544
811.299	7651
811.441	7803
811.582	7746
811.724	7685
811.865	7616
812.007	7636
812.148	7632
812.29	7658
812.431	7780
812.573	7871
812.714	8062
812.855	8149
812.997	8237
813.138	8385
813.279	8191
813.421	8164
813.562	8069
813.703	7925
813.845	7860
813.986	7525
814.127	7312
814.268	7274
814.41	7217
814.551	7274
814.692	7236
814.833	7168
814.974	7152
815.115	7164
815.256	7019
815.397	6924
815.539	6977
815.68	6856
815.821	6821
815.962	6951
816.103	6829
816.244	6730
816.385	6665
816.526	6722
816.666	6521
816.807	6361
816.948	6494
817.089	6494
817.23	6490
817.371	6437
817.512	6467
817.653	6403
817.793	6437
817.934	6426
818.075	6490
818.216	6429
818.356	6460
818.497	6319
818.638	6201
818.778	6197
818.919	6159
819.06	6182
819.2	6353
819.341	6350
819.481	6403
819.622	6551
819.762	6779
819.903	6772
820.043	6696
820.184	6604
820.324	6597
820.465	6719
820.605	6760
820.746	6696
820.886	6623
821.026	6715
821.167	6700
821.307	6852
821.447	6867
821.588	6684
821.728	6597
821.868	6521
822.008	6365
822.149	6342
822.289	6365
822.429	6197
822.569	6155
822.709	6144
822.849	5954
822.99	5866
823.13	5977
823.27	5965
823.41	5859
823.55	5824
823.69	5794
823.83	5863
823.97	5726
824.11	5554
824.25	5566
824.389	5600
824.529	5589
824.669	5585
824.809	5638
824.949	5764
825.089	5665
825.228	5532
825.368	5410
825.508	5402
825.648	5349
825.787	5383
825.927	5448
826.067	5341
826.206	5353
826.346	5410
826.485	5421
826.625	5493
826.765	5604
826.904	5486
827.044	5212
827.183	5223
827.323	5147
827.462	5284
827.601	5185
827.741	5197
827.88	5246
828.02	5178
828.159	5303
828.298	5345
828.437	5406
828.577	5330
828.716	5501
828.855	5318
828.994	5166
829.134	5140
829.273	5246
829.412	5239
829.551	5124
829.69	5181
829.829	5303
829.968	5414
830.107	5303
830.246	5334
830.385	5201
830.524	5174
830.663	5086
830.802	5014
830.941	4930
831.08	4873
831.219	5014
831.357	5037
831.496	5197
831.635	4980
831.774	4850
831.913	4873
832.051	4725
832.19	4816
832.329	4877
832.467	4721
832.606	4656
832.744	4717
832.883	4733
833.022	4729
833.16	4786
833.299	4828
833.437	4854
833.576	4850
833.714	4820
833.852	4850
833.991	4877
834.129	4900
834.267	4953
834.406	4953
834.544	4984
834.682	5006
834.821	4976
834.959	5193
835.097	5018
835.235	5174
835.373	5098
835.511	5124
835.65	5056
835.788	5071
835.926	4904
836.064	4862
836.202	4976
836.34	5155
836.478	5258
836.615	5124
836.753	5239
836.891	5280
837.029	5239
837.167	5254
837.305	5181
837.443	5147
837.58	5174
837.718	5292
837.856	5246
837.993	5181
838.131	5246
838.269	5254
838.406	5231
838.544	5151
838.681	5067
838.819	5071
838.956	4934
839.094	4915
839.231	5003
839.369	5048
839.506	5474
839.643	5292
839.781	5090
839.918	5029
840.055	5079
840.193	5155
840.33	5128
840.467	5185
840.604	5132
840.742	5467
840.879	5071
841.016	5086
841.153	5170
841.29	5429
841.427	5341
841.564	5353
841.701	5330
841.838	5242
841.975	5189
842.112	5296
842.249	5151
842.385	5124
842.522	5318
842.659	5216
842.796	5132
842.933	5235
843.069	5201
843.206	5197
843.343	5368
843.479	5239
843.616	5277
843.752	5048
843.889	5029
844.025	5197
844.162	5052
844.298	5220
844.435	5048
844.571	5056
844.708	5220
844.844	5273
844.98	5326
845.117	5273
845.253	5140
845.389	5083
845.525	5212
845.661	5147
845.798	5056
845.934	5136
846.07	5045
846.206	5223
846.342	5280
846.478	5258
846.614	5041
846.75	4972
846.886	4934
847.022	5201
847.158	5056
847.294	5060
847.429	5121
847.565	5029
847.701	5353
847.837	4870
847.972	4828
848.108	4934
848.244	5022
848.379	4809
848.515	4771
848.65	4733
848.786	4778
848.921	4790
849.057	4911
849.192	4923
849.328	4824
849.463	4843
849.598	4835
849.734	4771
849.869	4736
850.004	4668
850.14	4687
850.275	4626
850.41	4554
850.545	4603
850.68	4622
850.815	4679
850.95	4656
851.085	4896
851.22	4744
851.355	4668
851.49	4683
851.625	4637
851.76	4634
851.895	4596
852.03	4596
852.165	4691
852.299	4763
852.434	4835
852.569	4725
852.703	4782
852.838	4900
852.973	4942
853.107	4976
853.242	4755
853.376	4744
853.511	4611
853.645	4637
853.78	4843
853.914	4759
854.048	4755
854.183	4683
854.317	4683
854.451	4927
854.585	4691
854.72	4645
854.854	4805
854.988	4672
855.122	4691
855.256	4569
855.39	4721
855.524	4839
855.658	4774
855.792	4729
855.926	4729
856.06	4824
856.194	4915
856.327	4744
856.461	4660
856.595	4691
856.729	4664
856.862	4805
856.996	4767
857.13	4828
857.263	4820
857.397	4873
857.53	4649
857.664	4755
857.797	4835
857.931	4820
858.064	4710
858.197	4782
858.331	4729
858.464	4679
858.597	4569
858.731	4710
858.864	4698
858.997	4660
859.13	4710
859.263	4706
859.396	4782
859.529	4645
859.662	4592
859.795	4603
859.928	4698
860.061	4797
860.194	4793
860.327	4702
860.46	4637
860.592	4782
860.725	4759
860.858	4805
860.99	4615
861.123	4569
861.256	4577
861.388	4698
861.521	5376
861.653	4508
861.786	4542
861.918	4481
862.05	4550
862.183	4603
862.315	4615
862.447	4683
862.58	4592
862.712	4459
862.844	4379
862.976	4554
863.108	4550
863.24	4835
863.372	4352
863.504	4470
863.636	4478
863.768	4512
863.9	4398
864.032	4451
864.164	4443
864.296	4527
864.428	4592
864.559	4618
864.691	4558
864.823	4599
864.954	4542
865.086	4599
865.217	4481
865.349	4459
865.48	4538
865.612	4504
865.743	4683
865.875	4531
866.006	4504
866.137	4546
866.269	4485
866.4	4451
866.531	4497
866.662	4443
866.793	4413
866.924	4481
867.055	4546
867.186	4500
867.317	4447
867.448	4443
867.579	4459
867.71	4481
867.841	4390
867.972	4451
868.103	4500
868.233	4508
868.364	4462
868.495	4538
868.625	4717
868.756	4763
868.886	4645
869.017	4607
869.147	4759
869.278	4820
869.408	4675
869.539	4714
869.669	4759
869.799	4714
869.929	4843
870.06	4778
870.19	5071
870.32	4972
870.45	5014
870.58	4999
870.71	5155
870.84	5166
870.97	5033
871.1	4957
871.23	5147
871.36	5212
871.489	5079
871.619	5140
871.749	5140
871.879	5143
872.008	5239
872.138	5083
872.267	5033
872.397	4919
872.526	4831
872.656	4767
872.785	4847
872.915	4961
873.044	5048
873.173	4984
873.303	5006
873.432	5045
873.561	4995
873.69	4923
873.819	4957
873.948	4980
874.077	4881
874.206	4843
874.335	4816
874.464	4953
874.593	5132
874.722	4991
874.851	5075
874.979	5124
875.108	5045
875.237	4984
875.365	4908
875.494	4923
875.623	5041
875.751	4854
875.88	4953
876.008	5025
876.136	5079
876.265	5265
876.393	5406
876.521	5315
876.65	5280
876.778	5159
876.906	5109
877.034	5086
877.162	5041
877.29	5083
877.418	5140
877.546	5117
877.674	5117
877.802	5048
877.93	5086
878.058	4946
878.185	4908
878.313	4984
878.441	5029
878.568	4847
878.696	4942
878.824	4984
878.951	5071
879.079	5170
879.206	5315
879.333	5143
879.461	5037
879.588	5037
879.715	5162
879.842	5258
879.97	5121
880.097	4812
880.224	4778
880.351	4835
880.478	4896
880.605	4816
880.732	4820
880.859	5086
880.986	4923
881.112	5006
881.239	4896
881.366	4675
881.493	4653
881.619	4675
881.746	4664
881.872	4714
881.999	4691
882.125	4717
882.252	4847
882.378	4854
882.505	5010
882.631	4816
882.757	4691
882.883	4748
883.01	4805
883.136	4752
883.262	4596
883.388	4687
883.514	4835
883.64	4885
883.766	4835
883.892	4694
884.018	4744
884.143	4957
884.269	5033
884.395	4778
884.52	4763
884.646	4675
884.772	4668
884.897	4577
885.023	4706
885.148	4790
885.274	4835
885.399	4831
885.524	4744
885.65	4755
885.775	4797
885.9	4771
886.025	4885
886.15	4889
886.275	4752
886.4	4710
886.525	4782
886.65	4706
886.775	4725
886.9	4896
887.025	5105
887.149	4885
887.274	4721
887.399	4626
887.523	4649
887.648	4611
887.773	4603
887.897	4790
888.021	4816
888.146	4759
888.27	4889
888.395	4965
888.519	4801
888.643	4854
888.767	4870
888.891	4664
889.015	4649
889.139	4683
889.263	4607
889.387	4797
889.511	4915
889.635	4809
889.759	4668
889.883	4634
890.006	4729
890.13	4881
890.254	4683
890.377	4687
890.501	4615
890.624	4550
890.748	4694
890.871	4569
890.995	4474
891.118	4428
891.241	4611
891.364	4599
891.488	4687
891.611	4508
891.734	4580
891.857	4645
891.98	4637
892.103	4653
892.226	4550
892.349	4497
892.471	4462
892.594	4577
892.717	4660
892.839	4584
892.962	4584
893.085	4687
893.207	4653
893.33	4493
893.452	4558
893.575	4679
893.697	4630
893.819	4885
893.941	4866
894.064	4786
894.186	4664
894.308	4584
894.43	4801
894.552	4816
894.674	4767
894.796	4577
894.918	4634
895.04	4561
895.161	4714
895.283	4763
895.405	4569
895.526	4694
895.648	4721
895.769	4687
895.891	4744
896.012	4752
896.134	4759
896.255	4740
896.376	4668
896.498	4622
896.619	4706
896.74	4714
896.861	4721
896.982	4968
897.103	5113
897.224	4850
897.345	4778
897.466	4668
897.587	4759
897.708	4908
897.828	4797
897.949	4733
898.07	4588
898.19	4618
898.311	4866
898.431	4725
898.552	4805
898.672	4839
898.792	4820
898.913	4767
899.033	4668
899.153	4527
899.273	4462
899.393	4519
899.513	4554
899.633	4523
899.753	4550
899.873	4512
899.993	4577
900.113	4565
900.232	4634
900.352	4607
900.472	4462
900.591	4421
900.711	4561
900.83	4451
900.95	4626
901.069	4717
901.189	4546
901.308	4356
901.427	4325
901.546	4417
901.665	4481
901.784	4565
901.904	4417
902.023	4386
902.141	4268
902.26	4192
902.379	4367
902.498	4230
902.617	4276
902.735	4421
902.854	4405
902.973	4375
903.091	4219
903.21	4227
903.328	4325
903.446	4299
903.565	4333
903.683	4367
903.801	4314
903.919	4443
904.038	4459
904.156	4322
904.274	4462
904.392	4402
904.51	4478
904.627	4523
904.745	4592
904.863	4603
904.981	4405
905.098	4295
905.216	4390
905.334	4436
905.451	4440
905.569	4500
905.686	4584
905.803	4580
905.921	4417
906.038	4588
906.155	4470
906.272	4459
906.389	4455
906.506	4390
906.623	4367
906.74	4375
906.857	4318
906.974	4402
907.091	4603
907.208	4771
907.324	4622
907.441	4519
907.557	4375
907.674	4379
907.79	4363
907.907	4390
908.023	4508
908.139	4512
908.256	4440
908.372	4459
908.488	4497
908.604	4379
908.72	4322
908.836	4428
908.952	4363
909.068	4432
909.184	4645
909.3	4497
909.415	4615
909.531	4569
909.647	4375
909.762	4379
909.878	4413
909.993	4485
910.108	4390
910.224	4447
910.339	4497
910.454	4409
910.57	4428
910.685	4352
910.8	4672
910.915	4580
911.03	4523
911.145	4329
911.259	4306
911.374	4375
911.489	4303
911.604	4303
911.718	4204
911.833	4257
911.947	4158
912.062	4101
912.176	4223
912.291	4234
912.405	4265
912.519	4455
912.633	4512
912.748	4417
912.862	4379
912.976	4227
913.09	4082
913.204	4211
913.318	4268
913.431	4356
913.545	4432
913.659	4485
913.772	4394
913.886	4284
914	4188
914.113	4424
914.226	4447
914.34	4379
914.453	4234
914.566	4447
914.68	4303
914.793	4356
914.906	4150
915.019	4124
915.132	4109
915.245	4219
915.358	4207
915.47	4265
915.583	4310
915.696	4337
915.809	4402
915.921	4394
916.034	4265
916.146	4284
916.259	4261
916.371	4405
916.483	4352
916.595	4291
916.708	4356
916.82	4367
916.932	4333
917.044	4360
917.156	4325
917.268	4249
917.38	4333
917.491	4306
917.603	4341
917.715	4402
917.826	4466
917.938	4363
918.049	4238
918.161	4421
918.272	4527
918.384	4519
918.495	4455
918.606	4318
918.717	4246
918.828	4295
918.939	4402
919.05	4299
919.161	4341
919.272	4131
919.383	4268
919.494	4447
919.604	4687
919.715	4478
919.826	4352
919.936	4413
920.047	4519
920.157	4542
920.267	4714
920.378	4592
920.488	4504
920.598	4721
920.708	4953
920.818	4752
920.928	4748
921.038	5010
921.148	4904
921.258	4649
921.368	4554
921.477	4500
921.587	4546
921.697	4405
921.806	4561
921.916	4440
922.025	4314
922.134	4265
922.244	4253
922.353	4352
922.462	4181
922.571	4162
922.68	4010
922.789	4025
922.898	4078
923.007	4029
923.116	4120
923.224	4120
923.333	4071
923.442	4017
923.55	3979
923.659	4025
923.767	4093
923.876	4017
923.984	4150
924.092	3983
924.201	4093
924.309	4131
924.417	4147
924.525	4090
924.633	4139
924.741	4999
924.849	3945
924.956	4128
925.064	3994
925.172	3945
925.279	4010
925.387	4078
925.494	4059
925.602	4234
925.709	4181
925.816	4074
925.924	4158
926.031	4234
926.138	4188
926.245	4227
926.352	4105
926.459	4280
926.566	4299
926.673	4158
926.779	4112
926.886	4109
926.993	3968
927.099	3941
927.206	3941
927.312	3937
927.419	4067
927.525	4036
927.631	4143
927.737	3956
927.843	3960
927.95	3888
928.056	3945
928.162	3998
928.267	4059
928.373	4683
928.479	4143
928.585	3899
928.69	4036
928.796	4067
928.901	4017
929.007	3850
929.112	3998
929.218	3968
929.323	3964
929.428	3968
929.533	4109
929.638	3915
929.743	3983
929.848	4029
929.953	3994
930.058	3956
930.163	3816
930.267	3850
930.372	3937
930.477	3808
930.581	4044
930.685	3972
930.79	3819
930.894	3884
930.998	3884
931.103	4044
931.207	3724
931.311	3690
931.415	3690
931.519	3530
931.623	3549
