Data from test_V78500241_2415.txt Node
Date: Fri Mar 25 17:05:47 CST 2022
User: usil
Spectrometer: V785-0024
Trigger mode: 0
Integration Time (sec): 4.000000E-1
Scans to average: 1
Nonlinearity correction enabled: false
Boxcar width: 0
Storing dark spectrum: false
XAxis mode: Wavelengths
Number of Pixels in Spectrum: 1024
>>>>>Begin Spectral Data<<<<<
801.071	8031
801.214	8020
801.356	7879
801.499	7879
801.641	7811
801.783	7898
801.926	7997
802.068	7970
802.211	7906
802.353	8024
802.496	7799
802.638	7875
802.78	7917
802.923	7989
803.065	7906
803.208	7845
803.35	8043
803.492	8107
803.635	8149
803.777	8050
803.919	8183
804.061	8457
804.204	8145
804.346	8077
804.488	8024
804.63	8172
804.773	8035
804.915	8065
805.057	8252
805.199	8240
805.341	8252
805.483	8370
805.626	8199
805.768	8202
805.91	8263
806.052	8221
806.194	8176
806.336	8275
806.478	8161
806.62	8012
806.762	8187
806.904	8233
807.046	8507
807.188	8400
807.33	8275
807.472	8355
807.614	8180
807.756	8180
807.898	8005
808.04	7913
808.182	7917
808.324	7833
808.465	7860
808.607	8050
808.749	8164
808.891	8305
809.033	8358
809.174	8180
809.316	8100
809.458	8088
809.6	7982
809.741	8111
809.883	8001
810.025	8119
810.166	8107
810.308	8065
810.45	7993
810.591	7837
810.733	7753
810.875	7738
811.016	7506
811.158	7468
811.299	7559
811.441	7715
811.582	7693
811.724	7559
811.865	7514
812.007	7594
812.148	7578
812.29	7632
812.431	7753
812.573	7845
812.714	8008
812.855	8153
812.997	8183
813.138	8343
813.279	8115
813.421	8100
813.562	7970
813.703	7913
813.845	7708
813.986	7449
814.127	7312
814.268	7221
814.41	7183
814.551	7149
814.692	7190
814.833	7129
814.974	7145
815.115	7141
815.256	7057
815.397	6924
815.539	6973
815.68	6867
815.821	6749
815.962	6947
816.103	6848
816.244	6783
816.385	6616
816.526	6662
816.666	6521
816.807	6323
816.948	6471
817.089	6486
817.23	6456
817.371	6433
817.512	6426
817.653	6441
817.793	6353
817.934	6410
818.075	6464
818.216	6483
818.356	6429
818.497	6277
818.638	6117
818.778	6182
818.919	6144
819.06	6117
819.2	6365
819.341	6365
819.481	6384
819.622	6544
819.762	6741
819.903	6677
820.043	6589
820.184	6601
820.324	6593
820.465	6738
820.605	6688
820.746	6650
820.886	6563
821.026	6623
821.167	6795
821.307	6772
821.447	6825
821.588	6662
821.728	6589
821.868	6547
822.008	6380
822.149	6391
822.289	6300
822.429	6178
822.569	6102
822.709	6216
822.849	5973
822.99	5901
823.13	5942
823.27	5920
823.41	5817
823.55	5813
823.69	5828
823.83	5805
823.97	5649
824.11	5535
824.25	5512
824.389	5600
824.529	5638
824.669	5554
824.809	5703
824.949	5642
825.089	5608
825.228	5585
825.368	5417
825.508	5387
825.648	5410
825.787	5414
825.927	5372
826.067	5341
826.206	5303
826.346	5421
826.485	5398
826.625	5421
826.765	5570
826.904	5493
827.044	5292
827.183	5250
827.323	5124
827.462	5269
827.601	5212
827.741	5197
827.88	5178
828.02	5079
828.159	5277
828.298	5307
828.437	5353
828.577	5284
828.716	5490
828.855	5341
828.994	5174
829.134	5124
829.273	5185
829.412	5170
829.551	5124
829.69	5189
829.829	5231
829.968	5353
830.107	5288
830.246	5269
830.385	5136
830.524	5170
830.663	5090
830.802	4938
830.941	4900
831.08	4839
831.219	5018
831.357	5003
831.496	5193
831.635	4911
831.774	4854
831.913	4835
832.051	4759
832.19	4771
832.329	4854
832.467	4694
832.606	4660
832.744	4729
832.883	4702
833.022	4733
833.16	4835
833.299	4839
833.437	4866
833.576	4847
833.714	4835
833.852	4870
833.991	4927
834.129	4946
834.267	4995
834.406	4904
834.544	4968
834.682	5003
834.821	4976
834.959	5136
835.097	4995
835.235	5181
835.373	5079
835.511	5086
835.65	5029
835.788	5006
835.926	4900
836.064	4923
836.202	4980
836.34	5162
836.478	5227
836.615	5128
836.753	5296
836.891	5326
837.029	5254
837.167	5143
837.305	5185
837.443	5159
837.58	5109
837.718	5239
837.856	5147
837.993	5155
838.131	5269
838.269	5239
838.406	5239
838.544	5208
838.681	5105
838.819	5048
838.956	4908
839.094	4900
839.231	4927
839.369	5071
839.506	5417
839.643	5277
839.781	5117
839.918	5033
840.055	5124
840.193	5132
840.33	5117
840.467	5105
840.604	5197
840.742	5433
840.879	5105
841.016	5094
841.153	5147
841.29	5387
841.427	5353
841.564	5353
841.701	5334
841.838	5277
841.975	5204
842.112	5288
842.249	5197
842.385	5075
842.522	5322
842.659	5193
842.796	5086
842.933	5223
843.069	5128
843.206	5197
843.343	5303
843.479	5227
843.616	5315
843.752	5010
843.889	5056
844.025	5212
844.162	4984
844.298	5220
844.435	5052
844.571	5014
844.708	5216
844.844	5326
844.98	5379
845.117	5269
845.253	5098
845.389	5094
845.525	5147
845.661	5162
845.798	4987
845.934	5140
846.07	4999
846.206	5181
846.342	5292
846.478	5155
846.614	4995
846.75	4957
846.886	4919
847.022	5159
847.158	5022
847.294	5102
847.429	5174
847.565	5064
847.701	5311
847.837	4889
847.972	4801
848.108	5003
848.244	4919
848.379	4812
848.515	4752
848.65	4736
848.786	4763
848.921	4812
849.057	4862
849.192	4885
849.328	4793
849.463	4847
849.598	4820
849.734	4812
849.869	4687
850.004	4634
850.14	4698
850.275	4634
850.41	4550
850.545	4565
850.68	4611
850.815	4664
850.95	4611
851.085	4847
851.22	4790
851.355	4721
851.49	4618
851.625	4626
851.76	4596
851.895	4565
852.03	4558
852.165	4672
852.299	4809
852.434	4771
852.569	4744
852.703	4786
852.838	4904
852.973	4984
853.107	4896
853.242	4717
853.376	4710
853.511	4569
853.645	4573
853.78	4790
853.914	4675
854.048	4698
854.183	4675
854.317	4694
854.451	4805
854.585	4679
854.72	4645
854.854	4706
854.988	4580
855.122	4603
855.256	4516
855.39	4637
855.524	4771
855.658	4744
855.792	4714
855.926	4721
856.06	4729
856.194	4782
856.327	4679
856.461	4584
856.595	4607
856.729	4622
856.862	4759
856.996	4691
857.13	4778
857.263	4767
857.397	4786
857.53	4714
857.664	4740
857.797	4736
857.931	4752
858.064	4752
858.197	4782
858.331	4588
858.464	4596
858.597	4558
858.731	4645
858.864	4656
858.997	4569
859.13	4668
859.263	4664
859.396	4694
859.529	4561
859.662	4577
859.795	4493
859.928	4630
860.061	4755
860.194	4752
860.327	4599
860.46	4573
860.592	4721
860.725	4702
860.858	4717
860.99	4588
861.123	4493
861.256	4546
861.388	4596
861.521	5261
861.653	4516
861.786	4462
861.918	4478
862.05	4527
862.183	4569
862.315	4611
862.447	4706
862.58	4561
862.712	4386
862.844	4280
862.976	4462
863.108	4440
863.24	4744
863.372	4363
863.504	4432
863.636	4417
863.768	4459
863.9	4417
864.032	4405
864.164	4417
864.296	4478
864.428	4611
864.559	4527
864.691	4500
864.823	4592
864.954	4466
865.086	4508
865.217	4485
865.349	4398
865.48	4413
865.612	4504
865.743	4653
865.875	4504
866.006	4405
866.137	4459
866.269	4455
866.4	4436
866.531	4451
866.662	4379
866.793	4379
866.924	4394
867.055	4504
867.186	4440
867.317	4390
867.448	4386
867.579	4402
867.71	4455
867.841	4322
867.972	4424
868.103	4421
868.233	4493
868.364	4451
868.495	4447
868.625	4656
868.756	4767
868.886	4516
869.017	4672
869.147	4786
869.278	4759
869.408	4668
869.539	4634
869.669	4744
869.799	4694
869.929	4744
870.06	4725
870.19	4934
870.32	4919
870.45	4938
870.58	5006
870.71	5109
870.84	5151
870.97	4923
871.1	4877
871.23	5109
871.36	5143
871.489	5003
871.619	5109
871.749	5079
871.879	5140
872.008	5151
872.138	5048
872.267	5014
872.397	4870
872.526	4790
872.656	4710
872.785	4816
872.915	4953
873.044	5003
873.173	4911
873.303	4942
873.432	4957
873.561	4942
873.69	4873
873.819	4908
873.948	4927
874.077	4870
874.206	4740
874.335	4805
874.464	4957
874.593	5086
874.722	4953
874.851	5094
874.979	5052
875.108	5064
875.237	4942
875.365	4858
875.494	4896
875.623	4949
875.751	4873
875.88	4934
876.008	4987
876.136	5025
876.265	5197
876.393	5376
876.521	5288
876.65	5269
876.778	5208
876.906	5064
877.034	5025
877.162	5086
877.29	4976
877.418	5105
877.546	5060
877.674	5045
877.802	5048
877.93	4976
878.058	4934
878.185	4896
878.313	4984
878.441	4980
878.568	4797
878.696	4881
878.824	4987
878.951	4968
879.079	5181
879.206	5277
879.333	5109
879.461	5003
879.588	5003
879.715	5113
879.842	5166
879.97	4968
880.097	4786
880.224	4725
880.351	4801
880.478	4767
880.605	4759
880.732	4809
880.859	5105
880.986	4866
881.112	4919
881.239	4748
881.366	4672
881.493	4607
881.619	4618
881.746	4653
881.872	4653
881.999	4622
882.125	4653
882.252	4767
882.378	4778
882.505	4908
882.631	4778
882.757	4679
882.883	4717
883.01	4755
883.136	4672
883.262	4596
883.388	4626
883.514	4820
883.64	4820
883.766	4824
883.892	4679
884.018	4710
884.143	4873
884.269	4987
884.395	4694
884.52	4694
884.646	4645
884.772	4573
884.897	4588
885.023	4714
885.148	4778
885.274	4835
885.399	4778
885.524	4710
885.65	4672
885.775	4714
885.9	4706
886.025	4900
886.15	4835
886.275	4736
886.4	4641
886.525	4717
886.65	4645
886.775	4698
886.9	4927
887.025	4984
887.149	4824
887.274	4641
887.399	4558
887.523	4565
887.648	4649
887.773	4611
887.897	4740
888.021	4767
888.146	4675
888.27	4752
888.395	4904
888.519	4816
888.643	4809
888.767	4820
888.891	4687
889.015	4577
889.139	4645
889.263	4565
889.387	4797
889.511	4839
889.635	4786
889.759	4618
889.883	4603
890.006	4733
890.13	4820
890.254	4630
890.377	4748
890.501	4523
890.624	4550
890.748	4622
890.871	4478
890.995	4447
891.118	4402
891.241	4519
891.364	4565
891.488	4615
891.611	4504
891.734	4538
891.857	4622
891.98	4538
892.103	4653
892.226	4558
892.349	4554
892.471	4417
892.594	4527
892.717	4599
892.839	4599
892.962	4637
893.085	4683
893.207	4611
893.33	4443
893.452	4516
893.575	4653
893.697	4584
893.819	4736
893.941	4850
894.064	4740
894.186	4558
894.308	4550
894.43	4717
894.552	4877
894.674	4755
894.796	4554
894.918	4607
895.04	4577
895.161	4797
895.283	4637
895.405	4558
895.526	4683
895.648	4698
895.769	4664
895.891	4679
896.012	4752
896.134	4733
896.255	4622
896.376	4611
896.498	4607
896.619	4649
896.74	4634
896.861	4660
896.982	4965
897.103	5064
897.224	4870
897.345	4694
897.466	4683
897.587	4706
897.708	4831
897.828	4725
897.949	4668
898.07	4569
898.19	4615
898.311	4877
898.431	4691
898.552	4679
898.672	4797
898.792	4793
898.913	4733
899.033	4588
899.153	4485
899.273	4432
899.393	4470
899.513	4481
899.633	4493
899.753	4573
899.873	4474
899.993	4573
900.113	4455
900.232	4546
900.352	4554
900.472	4474
900.591	4375
900.711	4478
900.83	4402
900.95	4603
901.069	4683
901.189	4561
901.308	4360
901.427	4303
901.546	4390
901.665	4493
901.784	4478
901.904	4386
902.023	4284
902.141	4169
902.26	4188
902.379	4280
902.498	4230
902.617	4200
902.735	4371
902.854	4398
902.973	4375
903.091	4207
903.21	4215
903.328	4306
903.446	4249
903.565	4280
903.683	4348
903.801	4303
903.919	4402
904.038	4417
904.156	4337
904.274	4390
904.392	4363
904.51	4459
904.627	4436
904.745	4546
904.863	4672
904.981	4394
905.098	4352
905.216	4367
905.334	4436
905.451	4424
905.569	4455
905.686	4546
905.803	4599
905.921	4405
906.038	4573
906.155	4455
906.272	4394
906.389	4424
906.506	4322
906.623	4375
906.74	4417
906.857	4318
906.974	4363
907.091	4618
907.208	4698
907.324	4596
907.441	4497
907.557	4341
907.674	4329
907.79	4356
907.907	4379
908.023	4500
908.139	4466
908.256	4413
908.372	4558
908.488	4432
908.604	4367
908.72	4337
908.836	4367
908.952	4398
909.068	4413
909.184	4573
909.3	4523
909.415	4542
909.531	4508
909.647	4314
909.762	4356
909.878	4367
909.993	4466
910.108	4363
910.224	4394
910.339	4466
910.454	4447
910.57	4363
910.685	4363
910.8	4637
910.915	4588
911.03	4470
911.145	4337
911.259	4371
911.374	4386
911.489	4268
911.604	4253
911.718	4188
911.833	4215
911.947	4105
912.062	4071
912.176	4219
912.291	4204
912.405	4234
912.519	4470
912.633	4531
912.748	4348
912.862	4295
912.976	4249
913.09	4135
913.204	4173
913.318	4207
913.431	4348
913.545	4405
913.659	4459
913.772	4383
913.886	4246
914	4196
914.113	4383
914.226	4432
914.34	4405
914.453	4227
914.566	4348
914.68	4295
914.793	4295
914.906	4169
915.019	4071
915.132	4109
915.245	4135
915.358	4223
915.47	4207
915.583	4257
915.696	4310
915.809	4386
915.921	4386
916.034	4253
916.146	4265
916.259	4207
916.371	4344
916.483	4363
916.595	4223
916.708	4329
916.82	4318
916.932	4318
917.044	4371
917.156	4295
917.268	4238
917.38	4223
917.491	4257
917.603	4341
917.715	4432
917.826	4386
917.938	4333
918.049	4268
918.161	4367
918.272	4554
918.384	4512
918.495	4451
918.606	4276
918.717	4230
918.828	4348
918.939	4375
919.05	4207
919.161	4249
919.272	4139
919.383	4223
919.494	4424
919.604	4622
919.715	4443
919.826	4360
919.936	4436
920.047	4516
920.157	4447
920.267	4672
920.378	4558
920.488	4497
920.598	4736
920.708	4927
920.818	4740
920.928	4729
921.038	4957
921.148	4934
921.258	4618
921.368	4565
921.477	4497
921.587	4428
921.697	4383
921.806	4523
921.916	4443
922.025	4272
922.134	4246
922.244	4192
922.353	4322
922.462	4177
922.571	4128
922.68	4002
922.789	3953
922.898	4002
923.007	4006
923.116	4074
923.224	4116
923.333	4082
923.442	3979
923.55	3964
923.659	4032
923.767	4071
923.876	3983
923.984	4101
924.092	3975
924.201	4078
924.309	4109
924.417	4116
924.525	4044
924.633	4158
924.741	5006
924.849	3896
924.956	4143
925.064	3934
925.172	3903
925.279	3949
925.387	4036
925.494	4021
925.602	4204
925.709	4188
925.816	3987
925.924	4101
926.031	4227
926.138	4135
926.245	4181
926.352	4109
926.459	4249
926.566	4329
926.673	4173
926.779	4048
926.886	4082
926.993	3926
927.099	3956
927.206	3926
927.312	3987
927.419	4078
927.525	3983
927.631	4090
927.737	3937
927.843	3930
927.95	3892
928.056	3915
928.162	4021
928.267	4074
928.373	4694
928.479	4128
928.585	3854
928.69	3991
928.796	4074
928.901	3983
929.007	3861
929.112	4025
929.218	3994
929.323	3941
929.428	3926
929.533	4101
929.638	3899
929.743	3994
929.848	4044
929.953	4013
930.058	3945
930.163	3774
930.267	3865
930.372	3998
930.477	3797
930.581	4101
930.685	3968
930.79	3838
930.894	3880
930.998	3850
931.103	4063
931.207	3698
931.311	3705
931.415	3641
931.519	3564
931.623	3564
