Data from test_V78500241_351.txt Node
Date: Fri Mar 25 16:51:26 CST 2022
User: usil
Spectrometer: V785-0024
Trigger mode: 0
Integration Time (sec): 4.000000E-1
Scans to average: 1
Nonlinearity correction enabled: false
Boxcar width: 0
Storing dark spectrum: false
XAxis mode: Wavelengths
Number of Pixels in Spectrum: 1024
>>>>>Begin Spectral Data<<<<<
801.071	8103
801.214	8024
801.356	7986
801.499	7879
801.641	7807
801.783	7913
801.926	7986
802.068	7932
802.211	7955
802.353	8043
802.496	7845
802.638	7963
802.78	7959
802.923	8001
803.065	7887
803.208	7902
803.35	7940
803.492	8001
803.635	8111
803.777	7982
803.919	8096
804.061	8495
804.204	8176
804.346	8001
804.488	7951
804.63	8145
804.773	8005
804.915	8153
805.057	8309
805.199	8145
805.341	8244
805.483	8290
805.626	8187
805.768	8088
805.91	8191
806.052	8199
806.194	8054
806.336	8309
806.478	8218
806.62	8119
806.762	8214
806.904	8332
807.046	8408
807.188	8332
807.33	8271
807.472	8339
807.614	8176
807.756	8191
807.898	8062
808.04	7913
808.182	7887
808.324	7925
808.465	7932
808.607	8088
808.749	8187
808.891	8123
809.033	8252
809.174	8233
809.316	8100
809.458	8020
809.6	8035
809.741	8069
809.883	8054
810.025	8103
810.166	8088
810.308	8062
810.45	8081
810.591	7906
810.733	7712
810.875	7662
811.016	7529
811.158	7544
811.299	7662
811.441	7818
811.582	7715
811.724	7636
811.865	7533
812.007	7647
812.148	7567
812.29	7658
812.431	7792
812.573	7944
812.714	8020
812.855	8130
812.997	8149
813.138	8282
813.279	8130
813.421	8168
813.562	8043
813.703	7841
813.845	7841
813.986	7552
814.127	7282
814.268	7278
814.41	7164
814.551	7217
814.692	7183
814.833	7107
814.974	7129
815.115	7061
815.256	6989
815.397	6897
815.539	6947
815.68	6837
815.821	6814
815.962	6867
816.103	6840
816.244	6802
816.385	6601
816.526	6650
816.666	6502
816.807	6365
816.948	6448
817.089	6517
817.23	6456
817.371	6437
817.512	6372
817.653	6441
817.793	6422
817.934	6441
818.075	6448
818.216	6429
818.356	6448
818.497	6289
818.638	6144
818.778	6159
818.919	6159
819.06	6140
819.2	6331
819.341	6342
819.481	6369
819.622	6521
819.762	6738
819.903	6745
820.043	6604
820.184	6620
820.324	6540
820.465	6673
820.605	6738
820.746	6578
820.886	6509
821.026	6658
821.167	6760
821.307	6795
821.447	6806
821.588	6669
821.728	6593
821.868	6544
822.008	6334
822.149	6410
822.289	6380
822.429	6190
822.569	6060
822.709	6144
822.849	5931
822.99	5927
823.13	5999
823.27	5931
823.41	5805
823.55	5794
823.69	5790
823.83	5794
823.97	5741
824.11	5535
824.25	5520
824.389	5573
824.529	5630
824.669	5528
824.809	5615
824.949	5653
825.089	5551
825.228	5630
825.368	5414
825.508	5277
825.648	5322
825.787	5395
825.927	5383
826.067	5334
826.206	5296
826.346	5322
826.485	5421
826.625	5467
826.765	5535
826.904	5490
827.044	5239
827.183	5246
827.323	5105
827.462	5265
827.601	5166
827.741	5181
827.88	5212
828.02	5117
828.159	5201
828.298	5303
828.437	5337
828.577	5315
828.716	5528
828.855	5315
828.994	5201
829.134	5113
829.273	5220
829.412	5132
829.551	5128
829.69	5143
829.829	5254
829.968	5379
830.107	5254
830.246	5284
830.385	5193
830.524	5128
830.663	5071
830.802	5006
830.941	4919
831.08	4870
831.219	5029
831.357	5056
831.496	5155
831.635	4942
831.774	4812
831.913	4843
832.051	4725
832.19	4763
832.329	4816
832.467	4694
832.606	4645
832.744	4698
832.883	4717
833.022	4767
833.16	4805
833.299	4812
833.437	4824
833.576	4778
833.714	4828
833.852	4908
833.991	4904
834.129	4946
834.267	5022
834.406	4949
834.544	4942
834.682	5003
834.821	4953
834.959	5155
835.097	4991
835.235	5201
835.373	5079
835.511	5033
835.65	5064
835.788	5071
835.926	4938
836.064	4866
836.202	4919
836.34	5204
836.478	5250
836.615	5060
836.753	5189
836.891	5326
837.029	5220
837.167	5197
837.305	5174
837.443	5166
837.58	5060
837.718	5315
837.856	5174
837.993	5166
838.131	5231
838.269	5254
838.406	5235
838.544	5166
838.681	5071
838.819	5041
838.956	4919
839.094	4915
839.231	4976
839.369	5037
839.506	5486
839.643	5292
839.781	5022
839.918	5048
840.055	5159
840.193	5060
840.33	5098
840.467	5117
840.604	5189
840.742	5429
840.879	5109
841.016	5117
841.153	5162
841.29	5345
841.427	5315
841.564	5258
841.701	5345
841.838	5239
841.975	5280
842.112	5273
842.249	5189
842.385	5121
842.522	5326
842.659	5185
842.796	5166
842.933	5223
843.069	5140
843.206	5162
843.343	5288
843.479	5227
843.616	5258
843.752	5025
843.889	5014
844.025	5239
844.162	4987
844.298	5201
844.435	5010
844.571	5045
844.708	5197
844.844	5303
844.98	5383
845.117	5326
845.253	5128
845.389	5071
845.525	5181
845.661	5140
845.798	5052
845.934	5079
846.07	5048
846.206	5223
846.342	5318
846.478	5201
846.614	5079
846.75	4961
846.886	4972
847.022	5166
847.158	5037
847.294	5029
847.429	5086
847.565	5033
847.701	5330
847.837	4847
847.972	4820
848.108	4934
848.244	4930
848.379	4763
848.515	4710
848.65	4710
848.786	4797
848.921	4771
849.057	4824
849.192	4885
849.328	4858
849.463	4854
849.598	4790
849.734	4729
849.869	4672
850.004	4588
850.14	4698
850.275	4634
850.41	4546
850.545	4558
850.68	4561
850.815	4641
850.95	4569
851.085	4862
851.22	4714
851.355	4649
851.49	4641
851.625	4649
851.76	4649
851.895	4569
852.03	4592
852.165	4672
852.299	4702
852.434	4809
852.569	4706
852.703	4786
852.838	4850
852.973	4927
853.107	4919
853.242	4706
853.376	4710
853.511	4542
853.645	4634
853.78	4786
853.914	4668
854.048	4645
854.183	4656
854.317	4691
854.451	4870
854.585	4679
854.72	4634
854.854	4790
854.988	4634
855.122	4634
855.256	4523
855.39	4645
855.524	4850
855.658	4668
855.792	4672
855.926	4767
856.06	4714
856.194	4812
856.327	4702
856.461	4660
856.595	4596
856.729	4664
856.862	4668
856.996	4622
857.13	4736
857.263	4736
857.397	4824
857.53	4622
857.664	4660
857.797	4801
857.931	4801
858.064	4664
858.197	4752
858.331	4649
858.464	4618
858.597	4535
858.731	4687
858.864	4630
858.997	4622
859.13	4618
859.263	4603
859.396	4706
859.529	4565
859.662	4599
859.795	4527
859.928	4622
860.061	4771
860.194	4740
860.327	4599
860.46	4580
860.592	4706
860.725	4687
860.858	4702
860.99	4573
861.123	4466
861.256	4516
861.388	4611
861.521	5337
861.653	4481
861.786	4489
861.918	4440
862.05	4508
862.183	4512
862.315	4554
862.447	4672
862.58	4489
862.712	4417
862.844	4363
862.976	4478
863.108	4478
863.24	4790
863.372	4341
863.504	4436
863.636	4451
863.768	4451
863.9	4398
864.032	4379
864.164	4443
864.296	4508
864.428	4504
864.559	4565
864.691	4565
864.823	4538
864.954	4447
865.086	4508
865.217	4478
865.349	4432
865.48	4489
865.612	4504
865.743	4656
865.875	4478
866.006	4478
866.137	4485
866.269	4413
866.4	4504
866.531	4466
866.662	4436
866.793	4451
866.924	4413
867.055	4550
867.186	4470
867.317	4455
867.448	4405
867.579	4371
867.71	4443
867.841	4432
867.972	4497
868.103	4478
868.233	4481
868.364	4527
868.495	4516
868.625	4675
868.756	4812
868.886	4569
869.017	4637
869.147	4820
869.278	4805
869.408	4717
869.539	4668
869.669	4759
869.799	4691
869.929	4812
870.06	4790
870.19	4980
870.32	4980
870.45	5014
870.58	5071
870.71	5128
870.84	5083
870.97	5037
871.1	4927
871.23	5265
871.36	5159
871.489	5052
871.619	5166
871.749	5140
871.879	5178
872.008	5220
872.138	5124
872.267	5048
872.397	4908
872.526	4820
872.656	4805
872.785	4854
872.915	4980
873.044	5079
873.173	5029
873.303	5018
873.432	4995
873.561	4999
873.69	4953
873.819	4957
873.948	4942
874.077	4824
874.206	4816
874.335	4812
874.464	4957
874.593	5136
874.722	5022
874.851	5204
874.979	5140
875.108	5075
875.237	4942
875.365	4923
875.494	4927
875.623	5041
875.751	4881
875.88	4915
876.008	5048
876.136	5071
876.265	5242
876.393	5376
876.521	5299
876.65	5280
876.778	5178
876.906	5143
877.034	5037
877.162	5064
877.29	5090
877.418	5060
877.546	5045
877.674	5086
877.802	5056
877.93	5006
878.058	4991
878.185	4885
878.313	4972
878.441	5010
878.568	4831
878.696	4908
878.824	5018
878.951	5033
879.079	5166
879.206	5299
879.333	5159
879.461	5014
879.588	5083
879.715	5147
879.842	5261
879.97	5060
880.097	4858
880.224	4774
880.351	4828
880.478	4862
880.605	4824
880.732	4870
880.859	5178
880.986	4911
881.112	4946
881.239	4828
881.366	4786
881.493	4618
881.619	4558
881.746	4675
881.872	4698
881.999	4679
882.125	4740
882.252	4831
882.378	4881
882.505	4957
882.631	4805
882.757	4710
882.883	4759
883.01	4809
883.136	4725
883.262	4630
883.388	4615
883.514	4873
883.64	4946
883.766	4828
883.892	4759
884.018	4736
884.143	4911
884.269	5033
884.395	4675
884.52	4714
884.646	4660
884.772	4626
884.897	4599
885.023	4710
885.148	4870
885.274	4900
885.399	4866
885.524	4755
885.65	4729
885.775	4828
885.9	4774
886.025	4889
886.15	4820
886.275	4752
886.4	4687
886.525	4759
886.65	4717
886.775	4729
886.9	4949
887.025	5048
887.149	4812
887.274	4694
887.399	4599
887.523	4649
887.648	4618
887.773	4626
887.897	4820
888.021	4831
888.146	4744
888.27	4866
888.395	4968
888.519	4854
888.643	4866
888.767	4866
888.891	4763
889.015	4675
889.139	4649
889.263	4675
889.387	4797
889.511	4911
889.635	4820
889.759	4649
889.883	4637
890.006	4809
890.13	4889
890.254	4675
890.377	4717
890.501	4618
890.624	4615
890.748	4706
890.871	4523
890.995	4447
891.118	4443
891.241	4538
891.364	4561
891.488	4679
891.611	4561
891.734	4561
891.857	4618
891.98	4538
892.103	4714
892.226	4607
892.349	4565
892.471	4455
892.594	4592
892.717	4675
892.839	4558
892.962	4626
893.085	4675
893.207	4649
893.33	4531
893.452	4546
893.575	4725
893.697	4588
893.819	4828
893.941	4812
894.064	4835
894.186	4660
894.308	4611
894.43	4816
894.552	4881
894.674	4729
894.796	4565
894.918	4653
895.04	4592
895.161	4744
895.283	4710
895.405	4611
895.526	4645
895.648	4675
895.769	4683
895.891	4759
896.012	4771
896.134	4763
896.255	4672
896.376	4626
896.498	4615
896.619	4717
896.74	4592
896.861	4656
896.982	4942
897.103	5132
897.224	4866
897.345	4805
897.466	4725
897.587	4790
897.708	4949
897.828	4877
897.949	4759
898.07	4634
898.19	4679
898.311	4904
898.431	4706
898.552	4740
898.672	4870
898.792	4812
898.913	4767
899.033	4672
899.153	4542
899.273	4489
899.393	4497
899.513	4565
899.633	4538
899.753	4577
899.873	4565
899.993	4615
900.113	4554
900.232	4596
900.352	4565
900.472	4519
900.591	4447
900.711	4550
900.83	4493
900.95	4622
901.069	4694
901.189	4615
901.308	4436
901.427	4379
901.546	4417
901.665	4512
901.784	4531
901.904	4428
902.023	4367
902.141	4207
902.26	4192
902.379	4360
902.498	4249
902.617	4227
902.735	4409
902.854	4478
902.973	4394
903.091	4234
903.21	4295
903.328	4322
903.446	4325
903.565	4322
903.683	4383
903.801	4246
903.919	4421
904.038	4493
904.156	4383
904.274	4466
904.392	4409
904.51	4478
904.627	4527
904.745	4607
904.863	4702
904.981	4413
905.098	4329
905.216	4428
905.334	4512
905.451	4462
905.569	4489
905.686	4611
905.803	4622
905.921	4413
906.038	4584
906.155	4542
906.272	4440
906.389	4474
906.506	4356
906.623	4390
906.74	4432
906.857	4356
906.974	4417
907.091	4607
907.208	4702
907.324	4649
907.441	4561
907.557	4352
907.674	4371
907.79	4333
907.907	4432
908.023	4512
908.139	4500
908.256	4451
908.372	4523
908.488	4459
908.604	4470
908.72	4356
908.836	4367
908.952	4421
909.068	4455
909.184	4622
909.3	4500
909.415	4622
909.531	4573
909.647	4390
909.762	4394
909.878	4398
909.993	4462
910.108	4440
910.224	4459
910.339	4516
910.454	4451
910.57	4356
910.685	4356
910.8	4702
910.915	4656
911.03	4527
911.145	4352
911.259	4333
911.374	4375
911.489	4333
911.604	4314
911.718	4204
911.833	4257
911.947	4112
912.062	4055
912.176	4246
912.291	4257
912.405	4306
912.519	4481
912.633	4527
912.748	4386
912.862	4303
912.976	4200
913.09	4120
913.204	4246
913.318	4303
913.431	4367
913.545	4375
913.659	4462
913.772	4390
913.886	4272
914	4272
914.113	4443
914.226	4440
914.34	4459
914.453	4291
914.566	4443
914.68	4337
914.793	4363
914.906	4162
915.019	4215
915.132	4097
915.245	4219
915.358	4284
915.47	4261
915.583	4322
915.696	4280
915.809	4405
915.921	4485
916.034	4287
916.146	4299
916.259	4253
916.371	4394
916.483	4348
916.595	4280
916.708	4375
916.82	4363
916.932	4371
917.044	4325
917.156	4367
917.268	4223
917.38	4280
917.491	4325
917.603	4371
917.715	4462
917.826	4455
917.938	4424
918.049	4276
918.161	4390
918.272	4538
918.384	4577
918.495	4531
918.606	4348
918.717	4280
918.828	4352
918.939	4390
919.05	4318
919.161	4363
919.272	4162
919.383	4284
919.494	4516
919.604	4615
919.715	4421
919.826	4398
919.936	4421
920.047	4554
920.157	4554
920.267	4721
920.378	4558
920.488	4546
920.598	4733
920.708	4927
920.818	4763
920.928	4771
921.038	4957
921.148	4896
921.258	4645
921.368	4599
921.477	4489
921.587	4478
921.697	4390
921.806	4573
921.916	4485
922.025	4257
922.134	4276
922.244	4257
922.353	4386
922.462	4177
922.571	4173
922.68	4055
922.789	4013
922.898	4010
923.007	3991
923.116	4097
923.224	4082
923.333	4116
923.442	4097
923.55	4013
923.659	4002
923.767	4158
923.876	4051
923.984	4093
924.092	4021
924.201	4101
924.309	4086
924.417	4105
924.525	4090
924.633	4093
924.741	4923
924.849	4006
924.956	4177
925.064	3998
925.172	3918
925.279	4010
925.387	4067
925.494	4090
925.602	4200
925.709	4200
925.816	4071
925.924	4120
926.031	4204
926.138	4223
926.245	4215
926.352	4147
926.459	4249
926.566	4341
926.673	4154
926.779	4101
926.886	4116
926.993	4010
927.099	3979
927.206	3949
927.312	3975
927.419	4067
927.525	4055
927.631	4124
927.737	4006
927.843	3960
927.95	3838
928.056	3975
928.162	3998
928.267	4082
928.373	4725
928.479	4124
928.585	3876
928.69	4032
928.796	4078
928.901	3960
929.007	3880
929.112	4032
929.218	3998
929.323	3964
929.428	3975
929.533	4071
929.638	3960
929.743	3953
929.848	4044
929.953	4017
930.058	3911
930.163	3816
930.267	3831
930.372	4044
930.477	3861
930.581	4090
930.685	3945
930.79	3880
930.894	3903
930.998	3888
931.103	4032
931.207	3740
931.311	3709
931.415	3720
931.519	3561
931.623	3568
