Data from test_V78500241_2788.txt Node
Date: Fri Mar 25 17:08:23 CST 2022
User: usil
Spectrometer: V785-0024
Trigger mode: 0
Integration Time (sec): 4.000000E-1
Scans to average: 1
Nonlinearity correction enabled: false
Boxcar width: 0
Storing dark spectrum: false
XAxis mode: Wavelengths
Number of Pixels in Spectrum: 1024
>>>>>Begin Spectral Data<<<<<
801.071	7997
801.214	7993
801.356	7902
801.499	7860
801.641	7799
801.783	7818
801.926	7997
802.068	7989
802.211	7959
802.353	7974
802.496	7833
802.638	7894
802.78	7890
802.923	7890
803.065	7852
803.208	7894
803.35	7940
803.492	8088
803.635	8172
803.777	8008
803.919	8103
804.061	8454
804.204	8161
804.346	8046
804.488	8012
804.63	8100
804.773	8065
804.915	8088
805.057	8290
805.199	8233
805.341	8183
805.483	8259
805.626	8172
805.768	8115
805.91	8202
806.052	8168
806.194	8111
806.336	8305
806.478	8157
806.62	8062
806.762	8134
806.904	8259
807.046	8412
807.188	8370
807.33	8282
807.472	8362
807.614	8157
807.756	8130
807.898	7982
808.04	7906
808.182	7940
808.324	7894
808.465	7883
808.607	8058
808.749	8115
808.891	8237
809.033	8374
809.174	8233
809.316	8012
809.458	8035
809.6	7955
809.741	8031
809.883	8073
810.025	8161
810.166	8016
810.308	8016
810.45	7940
810.591	7837
810.733	7750
810.875	7715
811.016	7582
811.158	7502
811.299	7639
811.441	7772
811.582	7761
811.724	7586
811.865	7518
812.007	7632
812.148	7605
812.29	7590
812.431	7708
812.573	7917
812.714	8005
812.855	8119
812.997	8263
813.138	8317
813.279	8202
813.421	8134
813.562	8043
813.703	7852
813.845	7753
813.986	7457
814.127	7285
814.268	7255
814.41	7232
814.551	7110
814.692	7213
814.833	7080
814.974	7171
815.115	7129
815.256	6943
815.397	6985
815.539	6970
815.68	6802
815.821	6795
815.962	6878
816.103	6863
816.244	6741
816.385	6612
816.526	6597
816.666	6563
816.807	6311
816.948	6464
817.089	6471
817.23	6467
817.371	6410
817.512	6380
817.653	6395
817.793	6365
817.934	6414
818.075	6467
818.216	6410
818.356	6407
818.497	6205
818.638	6098
818.778	6258
818.919	6114
819.06	6197
819.2	6331
819.341	6323
819.481	6327
819.622	6483
819.762	6741
819.903	6745
820.043	6589
820.184	6513
820.324	6616
820.465	6745
820.605	6684
820.746	6616
820.886	6528
821.026	6654
821.167	6684
821.307	6795
821.447	6795
821.588	6700
821.728	6547
821.868	6536
822.008	6292
822.149	6342
822.289	6327
822.429	6133
822.569	6087
822.709	6136
822.849	5878
822.99	5931
823.13	5958
823.27	5866
823.41	5805
823.55	5844
823.69	5741
823.83	5760
823.97	5710
824.11	5524
824.25	5532
824.389	5554
824.529	5608
824.669	5543
824.809	5657
824.949	5676
825.089	5596
825.228	5570
825.368	5425
825.508	5425
825.648	5353
825.787	5429
825.927	5448
826.067	5349
826.206	5318
826.346	5410
826.485	5383
826.625	5433
826.765	5547
826.904	5471
827.044	5246
827.183	5242
827.323	5197
827.462	5242
827.601	5166
827.741	5223
827.88	5261
828.02	5102
828.159	5288
828.298	5330
828.437	5376
828.577	5337
828.716	5501
828.855	5311
828.994	5212
829.134	5223
829.273	5193
829.412	5159
829.551	5174
829.69	5235
829.829	5258
829.968	5379
830.107	5299
830.246	5307
830.385	5242
830.524	5189
830.663	5090
830.802	5025
830.941	4965
831.08	4911
831.219	4961
831.357	4991
831.496	5208
831.635	5018
831.774	4911
831.913	4915
832.051	4790
832.19	4778
832.329	4866
832.467	4744
832.606	4679
832.744	4805
832.883	4771
833.022	4755
833.16	4839
833.299	4892
833.437	4870
833.576	4839
833.714	4854
833.852	4911
833.991	4911
834.129	4987
834.267	5006
834.406	4904
834.544	4946
834.682	4995
834.821	4968
834.959	5231
835.097	4987
835.235	5208
835.373	5121
835.511	5155
835.65	5090
835.788	5121
835.926	4915
836.064	4919
836.202	4908
836.34	5212
836.478	5227
836.615	5162
836.753	5231
836.891	5315
837.029	5322
837.167	5197
837.305	5227
837.443	5261
837.58	5086
837.718	5280
837.856	5220
837.993	5189
838.131	5269
838.269	5242
838.406	5265
838.544	5231
838.681	5048
838.819	5022
838.956	4995
839.094	4949
839.231	5010
839.369	5143
839.506	5429
839.643	5284
839.781	5102
839.918	5052
840.055	5151
840.193	5075
840.33	5117
840.467	5170
840.604	5231
840.742	5410
840.879	5151
841.016	5147
841.153	5185
841.29	5398
841.427	5318
841.564	5326
841.701	5391
841.838	5322
841.975	5246
842.112	5330
842.249	5155
842.385	5197
842.522	5341
842.659	5284
842.796	5128
842.933	5239
843.069	5254
843.206	5197
843.343	5372
843.479	5284
843.616	5307
843.752	5006
843.889	5025
844.025	5269
844.162	5052
844.298	5246
844.435	5143
844.571	5075
844.708	5284
844.844	5315
844.98	5398
845.117	5334
845.253	5193
845.389	5136
845.525	5227
845.661	5220
845.798	5105
845.934	5121
846.07	5071
846.206	5216
846.342	5299
846.478	5223
846.614	5052
846.75	4987
846.886	4957
847.022	5151
847.158	5052
847.294	5048
847.429	5178
847.565	5113
847.701	5341
847.837	4908
847.972	4877
848.108	5025
848.244	4972
848.379	4801
848.515	4755
848.65	4744
848.786	4824
848.921	4793
849.057	4927
849.192	4930
849.328	4812
849.463	4904
849.598	4847
849.734	4801
849.869	4763
850.004	4641
850.14	4679
850.275	4653
850.41	4561
850.545	4618
850.68	4641
850.815	4702
850.95	4675
851.085	4870
851.22	4748
851.355	4698
851.49	4645
851.625	4664
851.76	4660
851.895	4565
852.03	4588
852.165	4672
852.299	4771
852.434	4774
852.569	4744
852.703	4767
852.838	4862
852.973	4930
853.107	4942
853.242	4759
853.376	4687
853.511	4565
853.645	4664
853.78	4881
853.914	4740
854.048	4641
854.183	4664
854.317	4717
854.451	4866
854.585	4641
854.72	4714
854.854	4850
854.988	4603
855.122	4588
855.256	4558
855.39	4702
855.524	4812
855.658	4729
855.792	4702
855.926	4725
856.06	4801
856.194	4862
856.327	4714
856.461	4675
856.595	4660
856.729	4630
856.862	4790
856.996	4725
857.13	4763
857.263	4771
857.397	4870
857.53	4679
857.664	4759
857.797	4763
857.931	4812
858.064	4698
858.197	4820
858.331	4656
858.464	4641
858.597	4561
858.731	4630
858.864	4622
858.997	4626
859.13	4706
859.263	4664
859.396	4694
859.529	4592
859.662	4580
859.795	4596
859.928	4664
860.061	4786
860.194	4835
860.327	4675
860.46	4611
860.592	4714
860.725	4744
860.858	4763
860.99	4588
861.123	4603
861.256	4558
861.388	4641
861.521	5337
861.653	4500
861.786	4402
861.918	4500
862.05	4565
862.183	4603
862.315	4653
862.447	4675
862.58	4596
862.712	4436
862.844	4379
862.976	4466
863.108	4493
863.24	4793
863.372	4341
863.504	4478
863.636	4440
863.768	4462
863.9	4470
864.032	4390
864.164	4413
864.296	4538
864.428	4523
864.559	4622
864.691	4561
864.823	4611
864.954	4561
865.086	4569
865.217	4474
865.349	4451
865.48	4542
865.612	4577
865.743	4656
865.875	4485
866.006	4424
866.137	4508
866.269	4447
866.4	4440
866.531	4421
866.662	4421
866.793	4405
866.924	4474
867.055	4493
867.186	4497
867.317	4421
867.448	4390
867.579	4451
867.71	4428
867.841	4375
867.972	4466
868.103	4504
868.233	4443
868.364	4478
868.495	4512
868.625	4664
868.756	4763
868.886	4618
869.017	4634
869.147	4793
869.278	4797
869.408	4717
869.539	4675
869.669	4755
869.799	4736
869.929	4805
870.06	4759
870.19	5033
870.32	4946
870.45	4976
870.58	5014
870.71	5121
870.84	5136
870.97	4949
871.1	4965
871.23	5151
871.36	5128
871.489	5048
871.619	5102
871.749	5170
871.879	5155
872.008	5204
872.138	5105
872.267	5003
872.397	4908
872.526	4831
872.656	4714
872.785	4839
872.915	4911
873.044	5086
873.173	4949
873.303	5025
873.432	4987
873.561	4984
873.69	4911
873.819	4877
873.948	4968
874.077	4820
874.206	4774
874.335	4782
874.464	4946
874.593	5079
874.722	5006
874.851	5174
874.979	5071
875.108	5010
875.237	4927
875.365	4862
875.494	4896
875.623	4984
875.751	4854
875.88	4919
876.008	5010
876.136	5018
876.265	5201
876.393	5326
876.521	5315
876.65	5250
876.778	5212
876.906	5109
877.034	5045
877.162	5090
877.29	5041
877.418	5105
877.546	5113
877.674	5121
877.802	5060
877.93	5025
878.058	4953
878.185	4889
878.313	5025
878.441	4965
878.568	4771
878.696	4889
878.824	4957
878.951	5033
879.079	5109
879.206	5326
879.333	5140
879.461	5029
879.588	5010
879.715	5143
879.842	5254
879.97	5025
880.097	4793
880.224	4771
880.351	4809
880.478	4866
880.605	4809
880.732	4839
880.859	5102
880.986	4908
881.112	4946
881.239	4786
881.366	4706
881.493	4634
881.619	4637
881.746	4649
881.872	4710
881.999	4637
882.125	4702
882.252	4793
882.378	4812
882.505	5014
882.631	4866
882.757	4653
882.883	4797
883.01	4763
883.136	4691
883.262	4626
883.388	4607
883.514	4812
883.64	4858
883.766	4881
883.892	4706
884.018	4698
884.143	4850
884.269	4968
884.395	4729
884.52	4668
884.646	4622
884.772	4615
884.897	4565
885.023	4664
885.148	4824
885.274	4866
885.399	4805
885.524	4778
885.65	4706
885.775	4755
885.9	4763
886.025	4854
886.15	4812
886.275	4736
886.4	4664
886.525	4679
886.65	4691
886.775	4672
886.9	4904
887.025	5022
887.149	4862
887.274	4702
887.399	4611
887.523	4626
887.648	4577
887.773	4634
887.897	4763
888.021	4767
888.146	4710
888.27	4839
888.395	4919
888.519	4801
888.643	4847
888.767	4831
888.891	4733
889.015	4630
889.139	4683
889.263	4622
889.387	4805
889.511	4862
889.635	4828
889.759	4702
889.883	4618
890.006	4786
890.13	4885
890.254	4630
890.377	4679
890.501	4565
890.624	4577
890.748	4672
890.871	4550
890.995	4455
891.118	4379
891.241	4538
891.364	4542
891.488	4634
891.611	4535
891.734	4546
891.857	4641
891.98	4592
892.103	4653
892.226	4626
892.349	4550
892.471	4447
892.594	4599
892.717	4626
892.839	4618
892.962	4615
893.085	4714
893.207	4611
893.33	4512
893.452	4523
893.575	4664
893.697	4577
893.819	4816
893.941	4801
894.064	4736
894.186	4546
894.308	4588
894.43	4736
894.552	4843
894.674	4771
894.796	4550
894.918	4611
895.04	4565
895.161	4687
895.283	4672
895.405	4580
895.526	4626
895.648	4656
895.769	4687
895.891	4733
896.012	4725
896.134	4740
896.255	4698
896.376	4675
896.498	4588
896.619	4691
896.74	4596
896.861	4668
896.982	4953
897.103	5048
897.224	4843
897.345	4736
897.466	4687
897.587	4721
897.708	4873
897.828	4820
897.949	4691
898.07	4615
898.19	4626
898.311	4831
898.431	4694
898.552	4790
898.672	4835
898.792	4755
898.913	4744
899.033	4645
899.153	4535
899.273	4451
899.393	4512
899.513	4558
899.633	4523
899.753	4569
899.873	4580
899.993	4584
900.113	4535
900.232	4615
900.352	4569
900.472	4470
900.591	4421
900.711	4497
900.83	4462
900.95	4603
901.069	4729
901.189	4573
901.308	4398
901.427	4329
901.546	4402
901.665	4546
901.784	4481
901.904	4386
902.023	4325
902.141	4200
902.26	4177
902.379	4322
902.498	4287
902.617	4215
902.735	4386
902.854	4405
902.973	4360
903.091	4246
903.21	4234
903.328	4341
903.446	4291
903.565	4303
903.683	4390
903.801	4341
903.919	4440
904.038	4455
904.156	4333
904.274	4478
904.392	4325
904.51	4493
904.627	4462
904.745	4611
904.863	4683
904.981	4413
905.098	4287
905.216	4375
905.334	4500
905.451	4470
905.569	4489
905.686	4577
905.803	4637
905.921	4443
906.038	4569
906.155	4531
906.272	4409
906.389	4462
906.506	4352
906.623	4390
906.74	4421
906.857	4318
906.974	4375
907.091	4569
907.208	4702
907.324	4618
907.441	4516
907.557	4383
907.674	4428
907.79	4341
907.907	4417
908.023	4516
908.139	4527
908.256	4451
908.372	4462
908.488	4470
908.604	4356
908.72	4329
908.836	4421
908.952	4379
909.068	4413
909.184	4554
909.3	4424
909.415	4592
909.531	4542
909.647	4447
909.762	4344
909.878	4360
909.993	4436
910.108	4424
910.224	4394
910.339	4516
910.454	4417
910.57	4322
910.685	4325
910.8	4683
910.915	4580
911.03	4466
911.145	4360
911.259	4348
911.374	4390
911.489	4310
911.604	4268
911.718	4181
911.833	4192
911.947	4074
912.062	4059
912.176	4185
912.291	4227
912.405	4249
912.519	4470
912.633	4523
912.748	4390
912.862	4318
912.976	4196
913.09	4090
913.204	4188
913.318	4238
913.431	4337
913.545	4409
913.659	4405
913.772	4314
913.886	4261
914	4219
914.113	4356
914.226	4474
914.34	4375
914.453	4253
914.566	4421
914.68	4306
914.793	4356
914.906	4200
915.019	4131
915.132	4097
915.245	4192
915.358	4188
915.47	4230
915.583	4284
915.696	4314
915.809	4432
915.921	4424
916.034	4238
916.146	4253
916.259	4249
916.371	4398
916.483	4356
916.595	4280
916.708	4344
916.82	4314
916.932	4287
917.044	4352
917.156	4367
917.268	4265
917.38	4280
917.491	4306
917.603	4280
917.715	4451
917.826	4462
917.938	4352
918.049	4230
918.161	4428
918.272	4584
918.384	4516
918.495	4428
918.606	4295
918.717	4242
918.828	4356
918.939	4375
919.05	4246
919.161	4367
919.272	4139
919.383	4200
919.494	4485
919.604	4691
919.715	4386
919.826	4344
919.936	4421
920.047	4508
920.157	4489
920.267	4714
920.378	4558
920.488	4485
920.598	4691
920.708	4881
920.818	4744
920.928	4744
921.038	4991
921.148	4934
921.258	4611
921.368	4527
921.477	4531
921.587	4466
921.697	4417
921.806	4504
921.916	4424
922.025	4287
922.134	4230
922.244	4238
922.353	4344
922.462	4143
922.571	4139
922.68	4006
922.789	3949
922.898	4074
923.007	4013
923.116	4093
923.224	4105
923.333	4074
923.442	4002
923.55	3987
923.659	4055
923.767	4101
923.876	4067
923.984	4120
924.092	3991
924.201	4101
924.309	4109
924.417	4139
924.525	4071
924.633	4090
924.741	4896
924.849	3930
924.956	4139
925.064	3987
925.172	3934
925.279	3987
925.387	4086
925.494	4021
925.602	4196
925.709	4173
925.816	4051
925.924	4166
926.031	4246
926.138	4204
926.245	4234
926.352	4086
926.459	4234
926.566	4333
926.673	4162
926.779	4067
926.886	4105
926.993	3975
927.099	3930
927.206	3941
927.312	3926
927.419	4078
927.525	4040
927.631	4112
927.737	3975
927.843	3922
927.95	3869
928.056	3934
928.162	4036
928.267	4071
928.373	4702
928.479	4124
928.585	3884
928.69	4021
928.796	4109
928.901	3968
929.007	3869
929.112	4051
929.218	3975
929.323	3960
929.428	3937
929.533	4097
929.638	3937
929.743	3972
929.848	4032
929.953	3983
930.058	3934
930.163	3797
930.267	3838
930.372	3941
930.477	3819
930.581	4116
930.685	3975
930.79	3846
930.894	3865
930.998	3857
931.103	4090
931.207	3743
931.311	3675
931.415	3675
931.519	3545
931.623	3572
