Data from test_V78500241_2225.txt Node
Date: Fri Mar 25 17:04:28 CST 2022
User: usil
Spectrometer: V785-0024
Trigger mode: 0
Integration Time (sec): 4.000000E-1
Scans to average: 1
Nonlinearity correction enabled: false
Boxcar width: 0
Storing dark spectrum: false
XAxis mode: Wavelengths
Number of Pixels in Spectrum: 1024
>>>>>Begin Spectral Data<<<<<
801.071	7932
801.214	7974
801.356	7921
801.499	7807
801.641	7792
801.783	7852
801.926	7913
802.068	7993
802.211	7944
802.353	7986
802.496	7795
802.638	7856
802.78	7883
802.923	7833
803.065	7871
803.208	7784
803.35	8020
803.492	7989
803.635	8180
803.777	8005
803.919	8142
804.061	8438
804.204	8115
804.346	8046
804.488	7982
804.63	8088
804.773	8058
804.915	8054
805.057	8263
805.199	8206
805.341	8206
805.483	8267
805.626	8240
805.768	8180
805.91	8221
806.052	8161
806.194	8012
806.336	8259
806.478	8096
806.62	8092
806.762	8168
806.904	8195
807.046	8473
807.188	8347
807.33	8294
807.472	8294
807.614	8161
807.756	8130
807.898	7967
808.04	7883
808.182	7845
808.324	7856
808.465	7909
808.607	8012
808.749	8020
808.891	8157
809.033	8339
809.174	8206
809.316	8012
809.458	8123
809.6	7940
809.741	8039
809.883	8016
810.025	8164
810.166	8058
810.308	8012
810.45	7986
810.591	7879
810.733	7727
810.875	7719
811.016	7537
811.158	7441
811.299	7537
811.441	7693
811.582	7647
811.724	7540
811.865	7556
812.007	7582
812.148	7567
812.29	7548
812.431	7784
812.573	7852
812.714	7955
812.855	8046
812.997	8134
813.138	8240
813.279	8111
813.421	8084
813.562	8001
813.703	7830
813.845	7685
813.986	7430
814.127	7285
814.268	7122
814.41	7190
814.551	7164
814.692	7285
814.833	7042
814.974	7103
815.115	7076
815.256	6932
815.397	6932
815.539	6932
815.68	6840
815.821	6764
815.962	6848
816.103	6806
816.244	6688
816.385	6669
816.526	6544
816.666	6547
816.807	6369
816.948	6452
817.089	6513
817.23	6452
817.371	6391
817.512	6350
817.653	6376
817.793	6357
817.934	6395
818.075	6388
818.216	6384
818.356	6391
818.497	6289
818.638	6171
818.778	6182
818.919	6152
819.06	6194
819.2	6311
819.341	6323
819.481	6376
819.622	6551
819.762	6760
819.903	6730
820.043	6604
820.184	6528
820.324	6612
820.465	6684
820.605	6715
820.746	6620
820.886	6502
821.026	6658
821.167	6738
821.307	6795
821.447	6722
821.588	6696
821.728	6574
821.868	6490
822.008	6285
822.149	6384
822.289	6369
822.429	6182
822.569	6057
822.709	6117
822.849	5897
822.99	5946
823.13	5912
823.27	5908
823.41	5783
823.55	5779
823.69	5786
823.83	5775
823.97	5623
824.11	5543
824.25	5566
824.389	5497
824.529	5634
824.669	5493
824.809	5592
824.949	5585
825.089	5539
825.228	5570
825.368	5383
825.508	5341
825.648	5318
825.787	5349
825.927	5410
826.067	5265
826.206	5349
826.346	5341
826.485	5383
826.625	5421
826.765	5543
826.904	5474
827.044	5280
827.183	5239
827.323	5113
827.462	5258
827.601	5216
827.741	5098
827.88	5227
828.02	5162
828.159	5292
828.298	5223
828.437	5353
828.577	5269
828.716	5467
828.855	5322
828.994	5083
829.134	5136
829.273	5193
829.412	5098
829.551	5140
829.69	5166
829.829	5242
829.968	5364
830.107	5231
830.246	5242
830.385	5155
830.524	5143
830.663	5056
830.802	5022
830.941	4900
831.08	4828
831.219	5022
831.357	4984
831.496	5155
831.635	4949
831.774	4801
831.913	4809
832.051	4717
832.19	4752
832.329	4862
832.467	4710
832.606	4630
832.744	4729
832.883	4702
833.022	4653
833.16	4740
833.299	4816
833.437	4828
833.576	4862
833.714	4877
833.852	4877
833.991	4911
834.129	4980
834.267	4919
834.406	4873
834.544	5018
834.682	4972
834.821	4968
834.959	5121
835.097	4946
835.235	5090
835.373	5075
835.511	5105
835.65	5056
835.788	4987
835.926	4892
836.064	4889
836.202	4915
836.34	5143
836.478	5216
836.615	5083
836.753	5193
836.891	5220
837.029	5265
837.167	5212
837.305	5181
837.443	5124
837.58	5105
837.718	5277
837.856	5151
837.993	5098
838.131	5223
838.269	5223
838.406	5185
838.544	5159
838.681	5022
838.819	5018
838.956	4877
839.094	4904
839.231	4919
839.369	5079
839.506	5406
839.643	5254
839.781	5060
839.918	5022
840.055	5090
840.193	5056
840.33	5109
840.467	5117
840.604	5170
840.742	5383
840.879	5109
841.016	5094
841.153	5109
841.29	5398
841.427	5357
841.564	5269
841.701	5364
841.838	5280
841.975	5227
842.112	5353
842.249	5109
842.385	5102
842.522	5318
842.659	5208
842.796	5151
842.933	5174
843.069	5121
843.206	5128
843.343	5280
843.479	5254
843.616	5261
843.752	5037
843.889	5018
844.025	5189
844.162	4961
844.298	5162
844.435	5094
844.571	5124
844.708	5216
844.844	5269
844.98	5368
845.117	5284
845.253	5170
845.389	5029
845.525	5117
845.661	5105
845.798	5045
845.934	5083
846.07	5033
846.206	5151
846.342	5284
846.478	5174
846.614	5003
846.75	4938
846.886	4919
847.022	5178
847.158	5022
847.294	5048
847.429	5128
847.565	5014
847.701	5292
847.837	4839
847.972	4755
848.108	4930
848.244	4930
848.379	4778
848.515	4679
848.65	4694
848.786	4755
848.921	4771
849.057	4930
849.192	4892
849.328	4839
849.463	4862
849.598	4774
849.734	4740
849.869	4660
850.004	4626
850.14	4687
850.275	4577
850.41	4569
850.545	4542
850.68	4588
850.815	4626
850.95	4607
851.085	4877
851.22	4729
851.355	4637
851.49	4584
851.625	4634
851.76	4645
851.895	4611
852.03	4523
852.165	4675
852.299	4755
852.434	4771
852.569	4725
852.703	4759
852.838	4892
852.973	4953
853.107	4930
853.242	4736
853.376	4672
853.511	4558
853.645	4634
853.78	4847
853.914	4672
854.048	4675
854.183	4634
854.317	4717
854.451	4892
854.585	4687
854.72	4664
854.854	4771
854.988	4573
855.122	4618
855.256	4577
855.39	4641
855.524	4759
855.658	4694
855.792	4653
855.926	4717
856.06	4740
856.194	4790
856.327	4634
856.461	4607
856.595	4702
856.729	4592
856.862	4755
856.996	4725
857.13	4706
857.263	4797
857.397	4778
857.53	4607
857.664	4687
857.797	4755
857.931	4748
858.064	4664
858.197	4740
858.331	4641
858.464	4596
858.597	4554
858.731	4611
858.864	4675
858.997	4649
859.13	4641
859.263	4656
859.396	4679
859.529	4565
859.662	4512
859.795	4489
859.928	4653
860.061	4778
860.194	4755
860.327	4649
860.46	4596
860.592	4675
860.725	4740
860.858	4748
860.99	4622
861.123	4500
861.256	4538
861.388	4596
861.521	5265
861.653	4432
861.786	4451
861.918	4443
862.05	4516
862.183	4538
862.315	4580
862.447	4649
862.58	4558
862.712	4409
862.844	4329
862.976	4443
863.108	4455
863.24	4862
863.372	4383
863.504	4440
863.636	4413
863.768	4451
863.9	4428
864.032	4386
864.164	4424
864.296	4489
864.428	4538
864.559	4550
864.691	4550
864.823	4519
864.954	4478
865.086	4485
865.217	4443
865.349	4470
865.48	4443
865.612	4455
865.743	4588
865.875	4481
866.006	4402
866.137	4466
866.269	4432
866.4	4409
866.531	4409
866.662	4428
866.793	4421
866.924	4402
867.055	4508
867.186	4436
867.317	4409
867.448	4379
867.579	4413
867.71	4409
867.841	4348
867.972	4455
868.103	4474
868.233	4440
868.364	4508
868.495	4504
868.625	4622
868.756	4725
868.886	4569
869.017	4618
869.147	4763
869.278	4763
869.408	4645
869.539	4694
869.669	4714
869.799	4607
869.929	4725
870.06	4714
870.19	4980
870.32	4915
870.45	4938
870.58	4976
870.71	5162
870.84	5098
870.97	4946
871.1	4889
871.23	5098
871.36	5102
871.489	5048
871.619	5075
871.749	5037
871.879	5128
872.008	5132
872.138	5113
872.267	4984
872.397	4824
872.526	4812
872.656	4706
872.785	4774
872.915	4927
873.044	5033
873.173	4911
873.303	4934
873.432	4896
873.561	4934
873.69	4866
873.819	4831
873.948	4946
874.077	4793
874.206	4763
874.335	4801
874.464	4911
874.593	5037
874.722	4972
874.851	5094
874.979	5071
875.108	5052
875.237	4881
875.365	4892
875.494	4850
875.623	4976
875.751	4752
875.88	4900
876.008	4957
876.136	5045
876.265	5178
876.393	5345
876.521	5231
876.65	5201
876.778	5140
876.906	5086
877.034	4965
877.162	5048
877.29	4987
877.418	5045
877.546	5033
877.674	5056
877.802	4980
877.93	5018
878.058	4904
878.185	4900
878.313	4938
878.441	4908
878.568	4786
878.696	4885
878.824	4946
878.951	4972
879.079	5159
879.206	5326
879.333	5071
879.461	5010
879.588	5003
879.715	5159
879.842	5174
879.97	5010
880.097	4847
880.224	4733
880.351	4801
880.478	4858
880.605	4763
880.732	4790
880.859	5067
880.986	4889
881.112	4873
881.239	4782
881.366	4687
881.493	4588
881.619	4618
881.746	4641
881.872	4634
881.999	4656
882.125	4725
882.252	4752
882.378	4854
882.505	4900
882.631	4797
882.757	4668
882.883	4740
883.01	4733
883.136	4660
883.262	4603
883.388	4603
883.514	4793
883.64	4843
883.766	4782
883.892	4630
884.018	4714
884.143	4858
884.269	5006
884.395	4653
884.52	4622
884.646	4656
884.772	4580
884.897	4546
885.023	4641
885.148	4778
885.274	4843
885.399	4809
885.524	4755
885.65	4683
885.775	4774
885.9	4691
886.025	4839
886.15	4793
886.275	4706
886.4	4675
886.525	4721
886.65	4679
886.775	4687
886.9	4889
887.025	5022
887.149	4816
887.274	4664
887.399	4577
887.523	4596
887.648	4523
887.773	4573
887.897	4729
888.021	4809
888.146	4706
888.27	4801
888.395	4946
888.519	4797
888.643	4824
888.767	4809
888.891	4725
889.015	4607
889.139	4714
889.263	4584
889.387	4774
889.511	4877
889.635	4801
889.759	4626
889.883	4637
890.006	4767
890.13	4847
890.254	4546
890.377	4679
890.501	4554
890.624	4504
890.748	4634
890.871	4516
890.995	4455
891.118	4344
891.241	4531
891.364	4531
891.488	4668
891.611	4531
891.734	4523
891.857	4580
891.98	4584
892.103	4618
892.226	4565
892.349	4527
892.471	4462
892.594	4546
892.717	4588
892.839	4580
892.962	4584
893.085	4668
893.207	4577
893.33	4440
893.452	4497
893.575	4645
893.697	4588
893.819	4736
893.941	4809
894.064	4763
894.186	4569
894.308	4573
894.43	4710
894.552	4801
894.674	4729
894.796	4531
894.918	4596
895.04	4527
895.161	4714
895.283	4694
895.405	4588
895.526	4611
895.648	4702
895.769	4649
895.891	4702
896.012	4694
896.134	4710
896.255	4691
896.376	4618
896.498	4599
896.619	4714
896.74	4588
896.861	4698
896.982	4927
897.103	5083
897.224	4801
897.345	4752
897.466	4656
897.587	4675
897.708	4831
897.828	4759
897.949	4641
898.07	4603
898.19	4615
898.311	4801
898.431	4637
898.552	4721
898.672	4828
898.792	4812
898.913	4679
899.033	4577
899.153	4497
899.273	4455
899.393	4470
899.513	4546
899.633	4554
899.753	4516
899.873	4462
899.993	4565
900.113	4554
900.232	4535
900.352	4538
900.472	4493
900.591	4405
900.711	4531
900.83	4443
900.95	4599
901.069	4710
901.189	4535
901.308	4371
901.427	4356
901.546	4329
901.665	4443
901.784	4470
901.904	4402
902.023	4341
902.141	4196
902.26	4162
902.379	4329
902.498	4223
902.617	4242
902.735	4405
902.854	4440
902.973	4333
903.091	4185
903.21	4196
903.328	4280
903.446	4287
903.565	4253
903.683	4322
903.801	4223
903.919	4386
904.038	4459
904.156	4291
904.274	4436
904.392	4432
904.51	4455
904.627	4459
904.745	4573
904.863	4664
904.981	4379
905.098	4291
905.216	4386
905.334	4417
905.451	4451
905.569	4455
905.686	4516
905.803	4569
905.921	4462
906.038	4550
906.155	4504
906.272	4367
906.389	4462
906.506	4352
906.623	4352
906.74	4390
906.857	4276
906.974	4360
907.091	4584
907.208	4660
907.324	4592
907.441	4478
907.557	4329
907.674	4352
907.79	4303
907.907	4390
908.023	4447
908.139	4455
908.256	4447
908.372	4421
908.488	4459
908.604	4314
908.72	4322
908.836	4390
908.952	4363
909.068	4379
909.184	4599
909.3	4451
909.415	4565
909.531	4569
909.647	4363
909.762	4383
909.878	4352
909.993	4447
910.108	4379
910.224	4413
910.339	4466
910.454	4432
910.57	4371
910.685	4276
910.8	4672
910.915	4565
911.03	4546
911.145	4303
911.259	4314
911.374	4360
911.489	4303
911.604	4287
911.718	4143
911.833	4207
911.947	4063
912.062	4010
912.176	4219
912.291	4276
912.405	4257
912.519	4485
912.633	4516
912.748	4337
912.862	4322
912.976	4204
913.09	4055
913.204	4162
913.318	4242
913.431	4363
913.545	4344
913.659	4409
913.772	4310
913.886	4242
914	4249
914.113	4348
914.226	4455
914.34	4394
914.453	4200
914.566	4409
914.68	4287
914.793	4310
914.906	4162
915.019	4082
915.132	4093
915.245	4139
915.358	4238
915.47	4204
915.583	4249
915.696	4276
915.809	4375
915.921	4402
916.034	4227
916.146	4207
916.259	4227
916.371	4394
916.483	4329
916.595	4249
916.708	4322
916.82	4295
916.932	4299
917.044	4322
917.156	4344
917.268	4223
917.38	4242
917.491	4268
917.603	4329
917.715	4432
917.826	4428
917.938	4337
918.049	4249
918.161	4417
918.272	4497
918.384	4542
918.495	4485
918.606	4344
918.717	4291
918.828	4333
918.939	4417
919.05	4227
919.161	4329
919.272	4143
919.383	4246
919.494	4474
919.604	4615
919.715	4409
919.826	4333
919.936	4394
920.047	4485
920.157	4516
920.267	4740
920.378	4603
920.488	4485
920.598	4694
920.708	4892
920.818	4702
920.928	4740
921.038	4968
921.148	4889
921.258	4596
921.368	4531
921.477	4508
921.587	4459
921.697	4360
921.806	4500
921.916	4424
922.025	4253
922.134	4299
922.244	4207
922.353	4299
922.462	4173
922.571	4143
922.68	4021
922.789	4010
922.898	4029
923.007	3960
923.116	4067
923.224	4063
923.333	4067
923.442	3972
923.55	3934
923.659	4002
923.767	4101
923.876	3991
923.984	4158
924.092	4017
924.201	4082
924.309	4063
924.417	4112
924.525	4017
924.633	4082
924.741	5025
924.849	3876
924.956	4109
925.064	3930
925.172	3838
925.279	3945
925.387	4078
925.494	4029
925.602	4185
925.709	4188
925.816	4040
925.924	4090
926.031	4227
926.138	4135
926.245	4185
926.352	4086
926.459	4276
926.566	4272
926.673	4135
926.779	4109
926.886	4063
926.993	3983
927.099	3956
927.206	3926
927.312	3934
927.419	4063
927.525	3987
927.631	4078
927.737	3991
927.843	3903
927.95	3800
928.056	3915
928.162	3979
928.267	4120
928.373	4649
928.479	4154
928.585	3880
928.69	4036
928.796	4021
928.901	3979
929.007	3854
929.112	4025
929.218	3972
929.323	3937
929.428	3911
929.533	4101
929.638	3899
929.743	3960
929.848	4013
929.953	3972
930.058	3899
930.163	3808
930.267	3800
930.372	3956
930.477	3812
930.581	4029
930.685	3896
930.79	3812
930.894	3869
930.998	3857
931.103	4002
931.207	3755
931.311	3709
931.415	3686
931.519	3485
931.623	3534
