Data from test_V78500241_2187.txt Node
Date: Fri Mar 25 17:04:12 CST 2022
User: usil
Spectrometer: V785-0024
Trigger mode: 0
Integration Time (sec): 4.000000E-1
Scans to average: 1
Nonlinearity correction enabled: false
Boxcar width: 0
Storing dark spectrum: false
XAxis mode: Wavelengths
Number of Pixels in Spectrum: 1024
>>>>>Begin Spectral Data<<<<<
801.071	7978
801.214	7974
801.356	7803
801.499	7803
801.641	7811
801.783	7830
801.926	7959
802.068	7989
802.211	7955
802.353	7967
802.496	7769
802.638	7830
802.78	7822
802.923	7856
803.065	7860
803.208	7837
803.35	7928
803.492	8084
803.635	8157
803.777	8020
803.919	8107
804.061	8450
804.204	8214
804.346	8119
804.488	7936
804.63	8130
804.773	8035
804.915	8043
805.057	8313
805.199	8161
805.341	8187
805.483	8237
805.626	8225
805.768	8084
805.91	8210
806.052	8168
806.194	8161
806.336	8252
806.478	8138
806.62	8088
806.762	8168
806.904	8282
807.046	8488
807.188	8355
807.33	8301
807.472	8275
807.614	8119
807.756	8221
807.898	8050
808.04	7909
808.182	7860
808.324	7788
808.465	7894
808.607	8001
808.749	8107
808.891	8180
809.033	8328
809.174	8180
809.316	8046
809.458	8092
809.6	7997
809.741	8054
809.883	8054
810.025	8100
810.166	8062
810.308	8016
810.45	7978
810.591	7757
810.733	7715
810.875	7643
811.016	7525
811.158	7483
811.299	7540
811.441	7750
811.582	7666
811.724	7533
811.865	7548
812.007	7575
812.148	7616
812.29	7559
812.431	7765
812.573	7883
812.714	7947
812.855	8115
812.997	8240
813.138	8279
813.279	8107
813.421	8111
813.562	7974
813.703	7898
813.845	7723
813.986	7377
814.127	7240
814.268	7164
814.41	7179
814.551	7206
814.692	7164
814.833	7072
814.974	7122
815.115	7137
815.256	6962
815.397	6951
815.539	6894
815.68	6726
815.821	6776
815.962	6814
816.103	6897
816.244	6734
816.385	6551
816.526	6616
816.666	6525
816.807	6338
816.948	6426
817.089	6456
817.23	6426
817.371	6376
817.512	6388
817.653	6414
817.793	6311
817.934	6410
818.075	6483
818.216	6418
818.356	6380
818.497	6251
818.638	6197
818.778	6175
818.919	6144
819.06	6129
819.2	6380
819.341	6300
819.481	6346
819.622	6532
819.762	6681
819.903	6722
820.043	6551
820.184	6585
820.324	6639
820.465	6703
820.605	6654
820.746	6684
820.886	6509
821.026	6604
821.167	6684
821.307	6844
821.447	6764
821.588	6665
821.728	6551
821.868	6486
822.008	6350
822.149	6391
822.289	6304
822.429	6152
822.569	6095
822.709	6091
822.849	5897
822.99	5908
823.13	5893
823.27	5931
823.41	5821
823.55	5775
823.69	5760
823.83	5726
823.97	5638
824.11	5539
824.25	5512
824.389	5543
824.529	5532
824.669	5532
824.809	5608
824.949	5627
825.089	5585
825.228	5547
825.368	5410
825.508	5387
825.648	5334
825.787	5368
825.927	5398
826.067	5292
826.206	5277
826.346	5372
826.485	5368
826.625	5395
826.765	5566
826.904	5512
827.044	5231
827.183	5181
827.323	5094
827.462	5265
827.601	5197
827.741	5155
827.88	5231
828.02	5086
828.159	5258
828.298	5299
828.437	5406
828.577	5303
828.716	5467
828.855	5292
828.994	5166
829.134	5105
829.273	5204
829.412	5136
829.551	5136
829.69	5147
829.829	5261
829.968	5360
830.107	5235
830.246	5269
830.385	5174
830.524	5143
830.663	5048
830.802	4953
830.941	4870
831.08	4900
831.219	5029
831.357	4965
831.496	5143
831.635	4961
831.774	4892
831.913	4812
832.051	4748
832.19	4771
832.329	4805
832.467	4702
832.606	4668
832.744	4744
832.883	4691
833.022	4733
833.16	4744
833.299	4782
833.437	4801
833.576	4873
833.714	4839
833.852	4873
833.991	4911
834.129	4946
834.267	4927
834.406	4881
834.544	4972
834.682	5003
834.821	5018
834.959	5109
835.097	4968
835.235	5132
835.373	5079
835.511	5079
835.65	5022
835.788	4984
835.926	4885
836.064	4881
836.202	4870
836.34	5166
836.478	5197
836.615	5128
836.753	5170
836.891	5299
837.029	5227
837.167	5235
837.305	5159
837.443	5140
837.58	5060
837.718	5284
837.856	5201
837.993	5174
838.131	5185
838.269	5204
838.406	5189
838.544	5174
838.681	5033
838.819	5003
838.956	4904
839.094	4919
839.231	4965
839.369	5052
839.506	5417
839.643	5242
839.781	5064
839.918	4999
840.055	5121
840.193	5060
840.33	5094
840.467	5121
840.604	5178
840.742	5444
840.879	5098
841.016	5075
841.153	5155
841.29	5315
841.427	5357
841.564	5337
841.701	5391
841.838	5265
841.975	5201
842.112	5296
842.249	5113
842.385	5102
842.522	5303
842.659	5132
842.796	5136
842.933	5162
843.069	5140
843.206	5170
843.343	5254
843.479	5212
843.616	5239
843.752	5010
843.889	4999
844.025	5159
844.162	5018
844.298	5227
844.435	5052
844.571	5037
844.708	5185
844.844	5318
844.98	5292
845.117	5326
845.253	5136
845.389	5090
845.525	5121
845.661	5155
845.798	5018
845.934	5132
846.07	5033
846.206	5181
846.342	5261
846.478	5216
846.614	5003
846.75	4942
846.886	4961
847.022	5109
847.158	5025
847.294	5075
847.429	5048
847.565	5048
847.701	5299
847.837	4858
847.972	4820
848.108	4946
848.244	4923
848.379	4774
848.515	4759
848.65	4675
848.786	4691
848.921	4786
849.057	4824
849.192	4919
849.328	4831
849.463	4831
849.598	4820
849.734	4782
849.869	4714
850.004	4656
850.14	4698
850.275	4584
850.41	4516
850.545	4561
850.68	4603
850.815	4592
850.95	4584
851.085	4858
851.22	4721
851.355	4691
851.49	4592
851.625	4649
851.76	4672
851.895	4599
852.03	4542
852.165	4668
852.299	4698
852.434	4763
852.569	4763
852.703	4790
852.838	4812
852.973	4889
853.107	4873
853.242	4744
853.376	4615
853.511	4584
853.645	4630
853.78	4809
853.914	4717
854.048	4679
854.183	4672
854.317	4702
854.451	4839
854.585	4660
854.72	4615
854.854	4740
854.988	4596
855.122	4645
855.256	4523
855.39	4664
855.524	4733
855.658	4710
855.792	4702
855.926	4725
856.06	4748
856.194	4805
856.327	4717
856.461	4569
856.595	4599
856.729	4622
856.862	4740
856.996	4721
857.13	4752
857.263	4736
857.397	4774
857.53	4607
857.664	4736
857.797	4755
857.931	4748
858.064	4672
858.197	4755
858.331	4649
858.464	4558
858.597	4519
858.731	4596
858.864	4607
858.997	4603
859.13	4649
859.263	4622
859.396	4683
859.529	4573
859.662	4538
859.795	4565
859.928	4592
860.061	4725
860.194	4774
860.327	4630
860.46	4592
860.592	4725
860.725	4736
860.858	4691
860.99	4596
861.123	4531
861.256	4500
861.388	4573
861.521	5372
861.653	4474
861.786	4451
861.918	4436
862.05	4459
862.183	4561
862.315	4618
862.447	4596
862.58	4550
862.712	4375
862.844	4356
862.976	4497
863.108	4462
863.24	4786
863.372	4329
863.504	4367
863.636	4398
863.768	4493
863.9	4398
864.032	4333
864.164	4417
864.296	4474
864.428	4550
864.559	4504
864.691	4481
864.823	4504
864.954	4440
865.086	4485
865.217	4440
865.349	4348
865.48	4462
865.612	4500
865.743	4569
865.875	4466
866.006	4440
866.137	4504
866.269	4455
866.4	4363
866.531	4413
866.662	4375
866.793	4447
866.924	4443
867.055	4493
867.186	4443
867.317	4424
867.448	4394
867.579	4394
867.71	4375
867.841	4405
867.972	4466
868.103	4459
868.233	4436
868.364	4421
868.495	4432
868.625	4630
868.756	4733
868.886	4588
869.017	4596
869.147	4736
869.278	4763
869.408	4622
869.539	4622
869.669	4714
869.799	4599
869.929	4809
870.06	4748
870.19	4961
870.32	4896
870.45	4957
870.58	5006
870.71	5037
870.84	5098
870.97	4957
871.1	4858
871.23	5090
871.36	5132
871.489	4987
871.619	5079
871.749	5025
871.879	5132
872.008	5223
872.138	5025
872.267	4938
872.397	4854
872.526	4774
872.656	4717
872.785	4797
872.915	4934
873.044	4987
873.173	4927
873.303	4961
873.432	4980
873.561	4965
873.69	4930
873.819	4805
873.948	4904
874.077	4805
874.206	4710
874.335	4755
874.464	4911
874.593	5060
874.722	4984
874.851	5094
874.979	5071
875.108	5041
875.237	4930
875.365	4847
875.494	4892
875.623	4984
875.751	4778
875.88	4831
876.008	4972
876.136	4984
876.265	5189
876.393	5277
876.521	5265
876.65	5208
876.778	5189
876.906	5109
877.034	5025
877.162	5067
877.29	4934
877.418	5098
877.546	5022
877.674	5075
877.802	5006
877.93	4953
878.058	4919
878.185	4885
878.313	4927
878.441	4942
878.568	4793
878.696	4866
878.824	4953
878.951	5037
879.079	5113
879.206	5280
879.333	5113
879.461	5014
879.588	4938
879.715	5102
879.842	5208
879.97	4976
880.097	4809
880.224	4729
880.351	4778
880.478	4812
880.605	4752
880.732	4797
880.859	5064
880.986	4889
881.112	4900
881.239	4729
881.366	4679
881.493	4565
881.619	4618
881.746	4645
881.872	4660
881.999	4645
882.125	4653
882.252	4744
882.378	4824
882.505	4934
882.631	4816
882.757	4660
882.883	4679
883.01	4736
883.136	4683
883.262	4607
883.388	4584
883.514	4843
883.64	4824
883.766	4759
883.892	4691
884.018	4691
884.143	4900
884.269	5029
884.395	4694
884.52	4645
884.646	4637
884.772	4561
884.897	4580
885.023	4656
885.148	4771
885.274	4854
885.399	4839
885.524	4672
885.65	4710
885.775	4740
885.9	4736
886.025	4850
886.15	4767
886.275	4767
886.4	4622
886.525	4740
886.65	4649
886.775	4714
886.9	4919
887.025	5018
887.149	4870
887.274	4630
887.399	4603
887.523	4603
887.648	4599
887.773	4592
887.897	4805
888.021	4816
888.146	4725
888.27	4812
888.395	4919
888.519	4812
888.643	4828
888.767	4847
888.891	4691
889.015	4596
889.139	4622
889.263	4637
889.387	4759
889.511	4885
889.635	4812
889.759	4637
889.883	4683
890.006	4790
890.13	4866
890.254	4634
890.377	4691
890.501	4569
890.624	4527
890.748	4626
890.871	4565
890.995	4459
891.118	4424
891.241	4546
891.364	4565
891.488	4668
891.611	4542
891.734	4561
891.857	4611
891.98	4554
892.103	4683
892.226	4622
892.349	4599
892.471	4466
892.594	4592
892.717	4645
892.839	4561
892.962	4634
893.085	4698
893.207	4683
893.33	4523
893.452	4512
893.575	4759
893.697	4622
893.819	4839
893.941	4870
894.064	4778
894.186	4584
894.308	4588
894.43	4782
894.552	4866
894.674	4790
894.796	4577
894.918	4649
895.04	4622
895.161	4774
895.283	4679
895.405	4630
895.526	4706
895.648	4744
895.769	4698
895.891	4778
896.012	4774
896.134	4767
896.255	4710
896.376	4634
896.498	4599
896.619	4710
896.74	4653
896.861	4687
896.982	4957
897.103	5147
897.224	4812
897.345	4763
897.466	4679
897.587	4733
897.708	4847
897.828	4771
897.949	4702
898.07	4622
898.19	4683
898.311	4847
898.431	4664
898.552	4759
898.672	4850
898.792	4858
898.913	4786
899.033	4641
899.153	4504
899.273	4443
899.393	4493
899.513	4554
899.633	4523
899.753	4618
899.873	4500
899.993	4596
900.113	4558
900.232	4634
900.352	4550
900.472	4504
900.591	4443
900.711	4512
900.83	4474
900.95	4588
901.069	4710
901.189	4580
901.308	4375
901.427	4337
901.546	4379
901.665	4485
901.784	4569
901.904	4424
902.023	4379
902.141	4219
902.26	4162
902.379	4363
902.498	4253
902.617	4261
902.735	4398
902.854	4447
902.973	4379
903.091	4223
903.21	4276
903.328	4341
903.446	4314
903.565	4272
903.683	4367
903.801	4299
903.919	4386
904.038	4504
904.156	4322
904.274	4481
904.392	4432
904.51	4443
904.627	4493
904.745	4596
904.863	4641
904.981	4459
905.098	4318
905.216	4375
905.334	4474
905.451	4512
905.569	4436
905.686	4550
905.803	4626
905.921	4470
906.038	4538
906.155	4500
906.272	4474
906.389	4478
906.506	4371
906.623	4447
906.74	4413
906.857	4295
906.974	4360
907.091	4637
907.208	4721
907.324	4645
907.441	4561
907.557	4363
907.674	4394
907.79	4333
907.907	4409
908.023	4497
908.139	4497
908.256	4455
908.372	4489
908.488	4443
908.604	4375
908.72	4341
908.836	4413
908.952	4405
909.068	4459
909.184	4599
909.3	4527
909.415	4611
909.531	4565
909.647	4383
909.762	4409
909.878	4360
909.993	4451
910.108	4466
910.224	4428
910.339	4527
910.454	4443
910.57	4348
910.685	4367
910.8	4702
910.915	4668
911.03	4493
911.145	4341
911.259	4352
911.374	4409
911.489	4325
911.604	4329
911.718	4185
911.833	4211
911.947	4120
912.062	4051
912.176	4265
912.291	4295
912.405	4265
912.519	4470
912.633	4542
912.748	4394
912.862	4310
912.976	4230
913.09	4166
913.204	4265
913.318	4287
913.431	4386
913.545	4356
913.659	4443
913.772	4367
913.886	4276
914	4238
914.113	4383
914.226	4459
914.34	4398
914.453	4238
914.566	4485
914.68	4314
914.793	4394
914.906	4207
915.019	4150
915.132	4112
915.245	4173
915.358	4215
915.47	4272
915.583	4257
915.696	4337
915.809	4462
915.921	4459
916.034	4268
916.146	4280
916.259	4303
916.371	4402
916.483	4363
916.595	4265
916.708	4367
916.82	4337
916.932	4329
917.044	4303
917.156	4360
917.268	4246
917.38	4299
917.491	4371
917.603	4337
917.715	4459
917.826	4440
917.938	4394
918.049	4246
918.161	4424
918.272	4565
918.384	4554
918.495	4466
918.606	4322
918.717	4265
918.828	4356
918.939	4375
919.05	4272
919.161	4356
919.272	4139
919.383	4253
919.494	4440
919.604	4653
919.715	4459
919.826	4371
919.936	4451
920.047	4531
920.157	4558
920.267	4759
920.378	4577
920.488	4538
920.598	4729
920.708	4911
920.818	4801
920.928	4790
921.038	4965
921.148	4934
921.258	4618
921.368	4611
921.477	4531
921.587	4474
921.697	4402
921.806	4565
921.916	4447
922.025	4318
922.134	4265
922.244	4257
922.353	4394
922.462	4166
922.571	4169
922.68	4032
922.789	4006
922.898	4055
923.007	4029
923.116	4128
923.224	4090
923.333	4090
923.442	4013
923.55	3998
923.659	4032
923.767	4112
923.876	4029
923.984	4116
924.092	4021
924.201	4097
924.309	4105
924.417	4150
924.525	4093
924.633	4124
924.741	5056
924.849	3937
924.956	4105
925.064	3941
925.172	3922
925.279	4010
925.387	4067
925.494	4074
925.602	4242
925.709	4173
925.816	4078
925.924	4105
926.031	4291
926.138	4196
926.245	4287
926.352	4120
926.459	4284
926.566	4333
926.673	4192
926.779	4101
926.886	4090
926.993	3972
927.099	4002
927.206	3979
927.312	3918
927.419	4059
927.525	4063
927.631	4116
927.737	4025
927.843	3979
927.95	3854
928.056	3949
928.162	4025
928.267	4097
928.373	4698
928.479	4143
928.585	3873
928.69	4048
928.796	4086
928.901	3964
929.007	3873
929.112	3994
929.218	3972
929.323	3975
929.428	3979
929.533	4158
929.638	3945
929.743	3975
929.848	4032
929.953	4044
930.058	3922
930.163	3781
930.267	3884
930.372	4021
930.477	3823
930.581	4105
930.685	3960
930.79	3846
930.894	3915
930.998	3873
931.103	4017
931.207	3698
931.311	3747
931.415	3717
931.519	3526
931.623	3576
