Data from test_V78500241_1913.txt Node
Date: Fri Mar 25 17:02:18 CST 2022
User: usil
Spectrometer: V785-0024
Trigger mode: 0
Integration Time (sec): 4.000000E-1
Scans to average: 1
Nonlinearity correction enabled: false
Boxcar width: 0
Storing dark spectrum: false
XAxis mode: Wavelengths
Number of Pixels in Spectrum: 1024
>>>>>Begin Spectral Data<<<<<
801.071	8073
801.214	7989
801.356	7890
801.499	7890
801.641	7784
801.783	7803
801.926	8054
802.068	7940
802.211	8058
802.353	7963
802.496	7940
802.638	7887
802.78	7906
802.923	7921
803.065	7822
803.208	7894
803.35	7982
803.492	8050
803.635	8202
803.777	8073
803.919	8183
804.061	8404
804.204	8164
804.346	8092
804.488	7970
804.63	8142
804.773	8077
804.915	8077
805.057	8351
805.199	8225
805.341	8233
805.483	8279
805.626	8225
805.768	8199
805.91	8199
806.052	8286
806.194	8123
806.336	8339
806.478	8058
806.62	8115
806.762	8172
806.904	8328
807.046	8549
807.188	8385
807.33	8282
807.472	8358
807.614	8237
807.756	8153
807.898	8027
808.04	7928
808.182	7906
808.324	7849
808.465	7898
808.607	8096
808.749	8077
808.891	8180
809.033	8324
809.174	8210
809.316	8123
809.458	8073
809.6	8069
809.741	8092
809.883	8005
810.025	8142
810.166	8058
810.308	8062
810.45	7944
810.591	7788
810.733	7776
810.875	7719
811.016	7556
811.158	7502
811.299	7559
811.441	7704
811.582	7658
811.724	7616
811.865	7613
812.007	7552
812.148	7548
812.29	7677
812.431	7757
812.573	7875
812.714	7944
812.855	8130
812.997	8271
813.138	8317
813.279	8202
813.421	8115
813.562	7982
813.703	7811
813.845	7769
813.986	7422
814.127	7259
814.268	7213
814.41	7171
814.551	7160
814.692	7206
814.833	7122
814.974	7107
815.115	7091
815.256	6996
815.397	6958
815.539	6985
815.68	6844
815.821	6768
815.962	6856
816.103	6852
816.244	6719
816.385	6635
816.526	6582
816.666	6513
816.807	6346
816.948	6494
817.089	6502
817.23	6426
817.371	6346
817.512	6414
817.653	6346
817.793	6346
817.934	6448
818.075	6506
818.216	6441
818.356	6486
818.497	6296
818.638	6148
818.778	6205
818.919	6098
819.06	6121
819.2	6365
819.341	6357
819.481	6426
819.622	6536
819.762	6753
819.903	6745
820.043	6650
820.184	6604
820.324	6612
820.465	6768
820.605	6738
820.746	6696
820.886	6475
821.026	6635
821.167	6715
821.307	6772
821.447	6772
821.588	6669
821.728	6665
821.868	6467
822.008	6277
822.149	6426
822.289	6361
822.429	6133
822.569	6083
822.709	6182
822.849	5931
822.99	5882
823.13	5961
823.27	5916
823.41	5802
823.55	5733
823.69	5783
823.83	5802
823.97	5707
824.11	5512
824.25	5501
824.389	5585
824.529	5611
824.669	5532
824.809	5630
824.949	5653
825.089	5581
825.228	5512
825.368	5444
825.508	5330
825.648	5357
825.787	5364
825.927	5345
826.067	5364
826.206	5307
826.346	5414
826.485	5406
826.625	5429
826.765	5543
826.904	5486
827.044	5280
827.183	5231
827.323	5155
827.462	5242
827.601	5174
827.741	5181
827.88	5201
828.02	5109
828.159	5223
828.298	5311
828.437	5414
828.577	5284
828.716	5444
828.855	5364
828.994	5189
829.134	5140
829.273	5189
829.412	5132
829.551	5170
829.69	5174
829.829	5261
829.968	5417
830.107	5288
830.246	5307
830.385	5197
830.524	5132
830.663	5022
830.802	4942
830.941	4915
831.08	4843
831.219	4999
831.357	4946
831.496	5174
831.635	4965
831.774	4812
831.913	4873
832.051	4721
832.19	4763
832.329	4858
832.467	4683
832.606	4664
832.744	4733
832.883	4740
833.022	4744
833.16	4812
833.299	4866
833.437	4843
833.576	4862
833.714	4873
833.852	4877
833.991	4923
834.129	4991
834.267	4961
834.406	4904
834.544	4972
834.682	4946
834.821	4980
834.959	5166
835.097	4968
835.235	5155
835.373	5071
835.511	5143
835.65	4999
835.788	5083
835.926	4911
836.064	4942
836.202	4919
836.34	5132
836.478	5246
836.615	5181
836.753	5193
836.891	5311
837.029	5208
837.167	5185
837.305	5216
837.443	5162
837.58	5052
837.718	5235
837.856	5185
837.993	5189
838.131	5284
838.269	5216
838.406	5208
838.544	5178
838.681	5045
838.819	5029
838.956	4881
839.094	4957
839.231	5029
839.369	5079
839.506	5425
839.643	5345
839.781	5060
839.918	5033
840.055	5064
840.193	5086
840.33	5094
840.467	5094
840.604	5155
840.742	5452
840.879	5079
841.016	5022
841.153	5159
841.29	5357
841.427	5345
841.564	5288
841.701	5334
841.838	5315
841.975	5261
842.112	5269
842.249	5193
842.385	5132
842.522	5383
842.659	5147
842.796	5109
842.933	5174
843.069	5124
843.206	5121
843.343	5315
843.479	5303
843.616	5250
843.752	5105
843.889	5056
844.025	5254
844.162	5033
844.298	5170
844.435	5105
844.571	5086
844.708	5212
844.844	5227
844.98	5277
845.117	5258
845.253	5197
845.389	5052
845.525	5147
845.661	5155
845.798	4972
845.934	5113
846.07	5006
846.206	5178
846.342	5307
846.478	5208
846.614	5071
846.75	5037
846.886	4980
847.022	5094
847.158	4999
847.294	5018
847.429	5105
847.565	5018
847.701	5273
847.837	4911
847.972	4820
848.108	4915
848.244	4942
848.379	4733
848.515	4782
848.65	4687
848.786	4767
848.921	4824
849.057	4850
849.192	4896
849.328	4847
849.463	4889
849.598	4820
849.734	4778
849.869	4740
850.004	4607
850.14	4675
850.275	4634
850.41	4558
850.545	4580
850.68	4565
850.815	4672
850.95	4656
851.085	4809
851.22	4793
851.355	4656
851.49	4653
851.625	4641
851.76	4618
851.895	4607
852.03	4569
852.165	4653
852.299	4714
852.434	4782
852.569	4714
852.703	4801
852.838	4847
852.973	4930
853.107	4919
853.242	4740
853.376	4675
853.511	4588
853.645	4558
853.78	4778
853.914	4694
854.048	4675
854.183	4660
854.317	4729
854.451	4847
854.585	4675
854.72	4675
854.854	4755
854.988	4615
855.122	4622
855.256	4527
855.39	4683
855.524	4782
855.658	4698
855.792	4664
855.926	4752
856.06	4752
856.194	4816
856.327	4710
856.461	4588
856.595	4615
856.729	4580
856.862	4755
856.996	4687
857.13	4767
857.263	4759
857.397	4801
857.53	4687
857.664	4729
857.797	4774
857.931	4782
858.064	4664
858.197	4797
858.331	4637
858.464	4580
858.597	4546
858.731	4634
858.864	4615
858.997	4637
859.13	4660
859.263	4645
859.396	4660
859.529	4569
859.662	4584
859.795	4546
859.928	4626
860.061	4774
860.194	4717
860.327	4546
860.46	4523
860.592	4694
860.725	4717
860.858	4687
860.99	4565
861.123	4535
861.256	4523
861.388	4618
861.521	5231
861.653	4478
861.786	4428
861.918	4451
862.05	4485
862.183	4577
862.315	4611
862.447	4641
862.58	4577
862.712	4402
862.844	4356
862.976	4443
863.108	4436
863.24	4744
863.372	4314
863.504	4432
863.636	4413
863.768	4447
863.9	4432
864.032	4363
864.164	4367
864.296	4500
864.428	4561
864.559	4546
864.691	4527
864.823	4527
864.954	4497
865.086	4481
865.217	4459
865.349	4424
865.48	4443
865.612	4478
865.743	4580
865.875	4440
866.006	4413
866.137	4447
866.269	4470
866.4	4451
866.531	4436
866.662	4360
866.793	4356
866.924	4413
867.055	4500
867.186	4455
867.317	4394
867.448	4363
867.579	4356
867.71	4409
867.841	4329
867.972	4531
868.103	4436
868.233	4417
868.364	4459
868.495	4474
868.625	4649
868.756	4790
868.886	4603
869.017	4615
869.147	4782
869.278	4759
869.408	4679
869.539	4683
869.669	4725
869.799	4664
869.929	4767
870.06	4698
870.19	4949
870.32	4892
870.45	4938
870.58	5010
870.71	5056
870.84	5075
870.97	4949
871.1	4946
871.23	5102
871.36	5128
871.489	5048
871.619	5048
871.749	5090
871.879	5132
872.008	5181
872.138	5045
872.267	4961
872.397	4858
872.526	4759
872.656	4717
872.785	4809
872.915	4923
873.044	5018
873.173	4938
873.303	4919
873.432	4938
873.561	4972
873.69	4911
873.819	4850
873.948	4942
874.077	4797
874.206	4702
874.335	4778
874.464	4881
874.593	5041
874.722	4965
874.851	5105
874.979	5075
875.108	5060
875.237	4885
875.365	4934
875.494	4843
875.623	4999
875.751	4847
875.88	4862
876.008	4991
876.136	5033
876.265	5193
876.393	5353
876.521	5216
876.65	5193
876.778	5170
876.906	5075
877.034	5041
877.162	5086
877.29	4957
877.418	5060
877.546	5075
877.674	5014
877.802	5018
877.93	5048
878.058	4953
878.185	4866
878.313	4995
878.441	4968
878.568	4801
878.696	4862
878.824	4991
878.951	4972
879.079	5147
879.206	5254
879.333	5094
879.461	4976
879.588	4968
879.715	5090
879.842	5212
879.97	4999
880.097	4767
880.224	4740
880.351	4771
880.478	4873
880.605	4778
880.732	4740
880.859	5067
880.986	4866
881.112	4904
881.239	4812
881.366	4672
881.493	4584
881.619	4584
881.746	4634
881.872	4637
881.999	4580
882.125	4637
882.252	4763
882.378	4828
882.505	4938
882.631	4835
882.757	4649
882.883	4744
883.01	4717
883.136	4672
883.262	4626
883.388	4596
883.514	4763
883.64	4850
883.766	4828
883.892	4645
884.018	4740
884.143	4896
884.269	4965
884.395	4634
884.52	4607
884.646	4637
884.772	4558
884.897	4554
885.023	4637
885.148	4801
885.274	4873
885.399	4809
885.524	4672
885.65	4675
885.775	4740
885.9	4721
886.025	4839
886.15	4801
886.275	4710
886.4	4618
886.525	4710
886.65	4679
886.775	4683
886.9	4873
887.025	5064
887.149	4767
887.274	4656
887.399	4622
887.523	4519
887.648	4599
887.773	4535
887.897	4725
888.021	4809
888.146	4634
888.27	4862
888.395	4908
888.519	4790
888.643	4824
888.767	4824
888.891	4653
889.015	4626
889.139	4649
889.263	4588
889.387	4744
889.511	4850
889.635	4816
889.759	4653
889.883	4637
890.006	4710
890.13	4820
890.254	4607
890.377	4679
890.501	4519
890.624	4497
890.748	4615
890.871	4527
890.995	4428
891.118	4394
891.241	4504
891.364	4569
891.488	4603
891.611	4493
891.734	4531
891.857	4618
891.98	4546
892.103	4599
892.226	4622
892.349	4523
892.471	4417
892.594	4546
892.717	4637
892.839	4558
892.962	4580
893.085	4683
893.207	4573
893.33	4500
893.452	4516
893.575	4664
893.697	4580
893.819	4752
893.941	4809
894.064	4755
894.186	4596
894.308	4531
894.43	4748
894.552	4816
894.674	4759
894.796	4516
894.918	4535
895.04	4565
895.161	4626
895.283	4656
895.405	4527
895.526	4649
895.648	4656
895.769	4675
895.891	4714
896.012	4721
896.134	4691
896.255	4645
896.376	4637
896.498	4611
896.619	4660
896.74	4653
896.861	4626
896.982	4892
897.103	5128
897.224	4774
897.345	4733
897.466	4641
897.587	4698
897.708	4850
897.828	4774
897.949	4687
898.07	4603
898.19	4592
898.311	4831
898.431	4664
898.552	4725
898.672	4801
898.792	4793
898.913	4733
899.033	4622
899.153	4531
899.273	4470
899.393	4455
899.513	4538
899.633	4554
899.753	4535
899.873	4508
899.993	4569
900.113	4516
900.232	4569
900.352	4504
900.472	4470
900.591	4367
900.711	4516
900.83	4428
900.95	4592
901.069	4672
901.189	4519
901.308	4348
901.427	4295
901.546	4394
901.665	4497
901.784	4535
901.904	4440
902.023	4341
902.141	4211
902.26	4154
902.379	4318
902.498	4234
902.617	4234
902.735	4356
902.854	4394
902.973	4363
903.091	4192
903.21	4204
903.328	4299
903.446	4230
903.565	4234
903.683	4325
903.801	4310
903.919	4413
904.038	4409
904.156	4306
904.274	4432
904.392	4383
904.51	4424
904.627	4432
904.745	4577
904.863	4622
904.981	4367
905.098	4318
905.216	4352
905.334	4405
905.451	4485
905.569	4462
905.686	4550
905.803	4523
905.921	4383
906.038	4565
906.155	4485
906.272	4405
906.389	4440
906.506	4356
906.623	4341
906.74	4405
906.857	4329
906.974	4318
907.091	4584
907.208	4668
907.324	4626
907.441	4489
907.557	4299
907.674	4363
907.79	4272
907.907	4390
908.023	4459
908.139	4470
908.256	4405
908.372	4455
908.488	4447
908.604	4371
908.72	4322
908.836	4360
908.952	4318
909.068	4398
909.184	4550
909.3	4474
909.415	4573
909.531	4580
909.647	4341
909.762	4348
909.878	4348
909.993	4390
910.108	4394
910.224	4386
910.339	4459
910.454	4455
910.57	4348
910.685	4276
910.8	4607
910.915	4558
911.03	4466
911.145	4375
911.259	4272
911.374	4356
911.489	4280
911.604	4287
911.718	4154
911.833	4192
911.947	4086
912.062	4055
912.176	4207
912.291	4215
912.405	4238
912.519	4436
912.633	4462
912.748	4306
912.862	4329
912.976	4204
913.09	4048
913.204	4173
913.318	4284
913.431	4341
913.545	4402
913.659	4451
913.772	4356
913.886	4230
914	4192
914.113	4394
914.226	4413
914.34	4390
914.453	4177
914.566	4436
914.68	4268
914.793	4348
914.906	4192
915.019	4101
915.132	4082
915.245	4131
915.358	4204
915.47	4234
915.583	4261
915.696	4337
915.809	4421
915.921	4466
916.034	4207
916.146	4303
916.259	4200
916.371	4375
916.483	4360
916.595	4223
916.708	4333
916.82	4306
916.932	4299
917.044	4303
917.156	4287
917.268	4227
917.38	4249
917.491	4280
917.603	4310
917.715	4413
917.826	4386
917.938	4291
918.049	4276
918.161	4451
918.272	4546
918.384	4531
918.495	4413
918.606	4310
918.717	4253
918.828	4329
918.939	4310
919.05	4265
919.161	4318
919.272	4067
919.383	4249
919.494	4421
919.604	4622
919.715	4424
919.826	4325
919.936	4436
920.047	4500
920.157	4462
920.267	4675
920.378	4535
920.488	4489
920.598	4694
920.708	4930
920.818	4759
920.928	4733
921.038	4949
921.148	4930
921.258	4630
921.368	4546
921.477	4485
921.587	4451
921.697	4379
921.806	4558
921.916	4405
922.025	4265
922.134	4257
922.244	4230
922.353	4398
922.462	4181
922.571	4120
922.68	3968
922.789	3953
922.898	4013
923.007	4013
923.116	4101
923.224	4010
923.333	4055
923.442	4032
923.55	3945
923.659	4017
923.767	4090
923.876	3991
923.984	4135
924.092	3987
924.201	4048
924.309	4090
924.417	4055
924.525	4059
924.633	4090
924.741	5003
924.849	3945
924.956	4135
925.064	3934
925.172	3926
925.279	3934
925.387	4074
925.494	4055
925.602	4196
925.709	4192
925.816	4010
925.924	4128
926.031	4227
926.138	4135
926.245	4211
926.352	4071
926.459	4299
926.566	4291
926.673	4169
926.779	4040
926.886	4082
926.993	3983
927.099	3937
927.206	3941
927.312	3930
927.419	4021
927.525	4040
927.631	4078
927.737	3972
927.843	3945
927.95	3838
928.056	3975
928.162	3960
928.267	4044
928.373	4615
928.479	4112
928.585	3869
928.69	4010
928.796	4051
928.901	3983
929.007	3827
929.112	4002
929.218	3975
929.323	3956
929.428	3945
929.533	4055
929.638	3861
929.743	3926
929.848	4051
929.953	4002
930.058	3911
930.163	3816
930.267	3838
930.372	3991
930.477	3892
930.581	4063
930.685	3915
930.79	3823
930.894	3850
930.998	3850
931.103	4021
931.207	3663
931.311	3663
931.415	3652
931.519	3526
931.623	3549
