Data from test_V78500241_609.txt Node
Date: Fri Mar 25 16:53:14 CST 2022
User: usil
Spectrometer: V785-0024
Trigger mode: 0
Integration Time (sec): 4.000000E-1
Scans to average: 1
Nonlinearity correction enabled: false
Boxcar width: 0
Storing dark spectrum: false
XAxis mode: Wavelengths
Number of Pixels in Spectrum: 1024
>>>>>Begin Spectral Data<<<<<
801.071	7978
801.214	7997
801.356	7830
801.499	7856
801.641	7788
801.783	7849
801.926	8001
802.068	7944
802.211	8008
802.353	7993
802.496	7849
802.638	7925
802.78	7890
802.923	7906
803.065	7833
803.208	7841
803.35	7986
803.492	8084
803.635	8153
803.777	8012
803.919	8096
804.061	8393
804.204	8046
804.346	8001
804.488	7932
804.63	8115
804.773	7989
804.915	8065
805.057	8282
805.199	8145
805.341	8176
805.483	8324
805.626	8252
805.768	8107
805.91	8172
806.052	8210
806.194	8180
806.336	8313
806.478	8134
806.62	8084
806.762	8157
806.904	8225
807.046	8465
807.188	8396
807.33	8282
807.472	8332
807.614	8195
807.756	8084
807.898	7967
808.04	7963
808.182	7883
808.324	7936
808.465	7928
808.607	8058
808.749	8119
808.891	8138
809.033	8248
809.174	8123
809.316	7982
809.458	8031
809.6	7928
809.741	8016
809.883	8050
810.025	8050
810.166	8016
810.308	8001
810.45	8027
810.591	7856
810.733	7761
810.875	7662
811.016	7491
811.158	7525
811.299	7620
811.441	7784
811.582	7731
811.724	7597
811.865	7476
812.007	7632
812.148	7590
812.29	7575
812.431	7734
812.573	7830
812.714	7993
812.855	8134
812.997	8126
813.138	8332
813.279	8183
813.421	8092
813.562	8001
813.703	7864
813.845	7753
813.986	7415
814.127	7365
814.268	7282
814.41	7187
814.551	7175
814.692	7107
814.833	7088
814.974	7122
815.115	7122
815.256	6966
815.397	6951
815.539	6985
815.68	6844
815.821	6791
815.962	6818
816.103	6806
816.244	6722
816.385	6623
816.526	6604
816.666	6486
816.807	6300
816.948	6426
817.089	6433
817.23	6433
817.371	6361
817.512	6380
817.653	6426
817.793	6407
817.934	6441
818.075	6460
818.216	6422
818.356	6376
818.497	6232
818.638	6114
818.778	6140
818.919	6095
819.06	6083
819.2	6334
819.341	6296
819.481	6365
819.622	6517
819.762	6734
819.903	6681
820.043	6547
820.184	6555
820.324	6544
820.465	6654
820.605	6620
820.746	6646
820.886	6433
821.026	6665
821.167	6658
821.307	6726
821.447	6738
821.588	6578
821.728	6574
821.868	6464
822.008	6388
822.149	6342
822.289	6361
822.429	6148
822.569	6079
822.709	6129
822.849	5946
822.99	5901
823.13	5961
823.27	5920
823.41	5821
823.55	5737
823.69	5775
823.83	5760
823.97	5684
824.11	5520
824.25	5497
824.389	5539
824.529	5558
824.669	5528
824.809	5596
824.949	5665
825.089	5627
825.228	5543
825.368	5376
825.508	5277
825.648	5315
825.787	5372
825.927	5318
826.067	5258
826.206	5296
826.346	5402
826.485	5429
826.625	5376
826.765	5528
826.904	5505
827.044	5261
827.183	5159
827.323	5109
827.462	5330
827.601	5132
827.741	5155
827.88	5181
828.02	5064
828.159	5204
828.298	5269
828.437	5391
828.577	5265
828.716	5440
828.855	5299
828.994	5121
829.134	5132
829.273	5208
829.412	5105
829.551	5170
829.69	5208
829.829	5254
829.968	5315
830.107	5227
830.246	5318
830.385	5159
830.524	5143
830.663	5056
830.802	4946
830.941	4904
831.08	4915
831.219	4949
831.357	4957
831.496	5147
831.635	4892
831.774	4839
831.913	4793
832.051	4710
832.19	4748
832.329	4839
832.467	4668
832.606	4664
832.744	4702
832.883	4721
833.022	4733
833.16	4820
833.299	4801
833.437	4793
833.576	4809
833.714	4824
833.852	4900
833.991	4900
834.129	4949
834.267	4915
834.406	4904
834.544	4915
834.682	4965
834.821	4965
834.959	5174
835.097	5052
835.235	5102
835.373	5090
835.511	5147
835.65	5052
835.788	5045
835.926	4877
836.064	4816
836.202	4843
836.34	5109
836.478	5231
836.615	5128
836.753	5197
836.891	5292
837.029	5277
837.167	5204
837.305	5170
837.443	5147
837.58	5075
837.718	5231
837.856	5178
837.993	5151
838.131	5242
838.269	5296
838.406	5162
838.544	5212
838.681	5018
838.819	5006
838.956	4862
839.094	4896
839.231	5006
839.369	5056
839.506	5406
839.643	5242
839.781	5083
839.918	5006
840.055	5124
840.193	5113
840.33	5041
840.467	5128
840.604	5162
840.742	5448
840.879	5064
841.016	5147
841.153	5170
841.29	5383
841.427	5322
841.564	5315
841.701	5353
841.838	5258
841.975	5220
842.112	5246
842.249	5162
842.385	5128
842.522	5284
842.659	5201
842.796	5136
842.933	5170
843.069	5109
843.206	5178
843.343	5269
843.479	5273
843.616	5254
843.752	5045
843.889	4980
844.025	5220
844.162	5014
844.298	5193
844.435	5083
844.571	5064
844.708	5166
844.844	5322
844.98	5330
845.117	5318
845.253	5128
845.389	5083
845.525	5208
845.661	5109
845.798	5056
845.934	5124
846.07	5045
846.206	5174
846.342	5280
846.478	5143
846.614	5006
846.75	4957
846.886	4911
847.022	5121
847.158	4995
847.294	5064
847.429	5048
847.565	5041
847.701	5315
847.837	4847
847.972	4816
848.108	4942
848.244	4919
848.379	4748
848.515	4694
848.65	4771
848.786	4729
848.921	4714
849.057	4778
849.192	4881
849.328	4786
849.463	4854
849.598	4805
849.734	4736
849.869	4615
850.004	4584
850.14	4660
850.275	4584
850.41	4565
850.545	4599
850.68	4599
850.815	4626
850.95	4672
851.085	4824
851.22	4733
851.355	4706
851.49	4584
851.625	4622
851.76	4611
851.895	4527
852.03	4516
852.165	4683
852.299	4687
852.434	4839
852.569	4771
852.703	4782
852.838	4816
852.973	4930
853.107	4919
853.242	4729
853.376	4660
853.511	4558
853.645	4615
853.78	4778
853.914	4694
854.048	4664
854.183	4653
854.317	4725
854.451	4885
854.585	4645
854.72	4630
854.854	4717
854.988	4611
855.122	4630
855.256	4558
855.39	4626
855.524	4828
855.658	4714
855.792	4721
855.926	4748
856.06	4733
856.194	4763
856.327	4687
856.461	4599
856.595	4630
856.729	4588
856.862	4717
856.996	4694
857.13	4710
857.263	4725
857.397	4805
857.53	4706
857.664	4706
857.797	4744
857.931	4763
858.064	4664
858.197	4706
858.331	4641
858.464	4596
858.597	4573
858.731	4584
858.864	4645
858.997	4535
859.13	4653
859.263	4733
859.396	4698
859.529	4577
859.662	4580
859.795	4527
859.928	4622
860.061	4710
860.194	4763
860.327	4580
860.46	4569
860.592	4683
860.725	4733
860.858	4714
860.99	4535
861.123	4485
861.256	4504
861.388	4611
861.521	5417
861.653	4436
861.786	4455
861.918	4447
862.05	4497
862.183	4519
862.315	4626
862.447	4706
862.58	4573
862.712	4405
862.844	4306
862.976	4474
863.108	4443
863.24	4877
863.372	4314
863.504	4421
863.636	4394
863.768	4459
863.9	4478
864.032	4356
864.164	4375
864.296	4474
864.428	4577
864.559	4561
864.691	4497
864.823	4512
864.954	4474
865.086	4508
865.217	4424
865.349	4447
865.48	4474
865.612	4466
865.743	4634
865.875	4489
866.006	4379
866.137	4481
866.269	4428
866.4	4462
866.531	4409
866.662	4413
866.793	4398
866.924	4455
867.055	4478
867.186	4493
867.317	4383
867.448	4409
867.579	4363
867.71	4390
867.841	4352
867.972	4451
868.103	4443
868.233	4485
868.364	4371
868.495	4478
868.625	4691
868.756	4755
868.886	4550
869.017	4645
869.147	4740
869.278	4755
869.408	4664
869.539	4611
869.669	4706
869.799	4672
869.929	4748
870.06	4710
870.19	4942
870.32	4923
870.45	4972
870.58	5003
870.71	5147
870.84	5060
870.97	4942
871.1	4896
871.23	5121
871.36	5124
871.489	5014
871.619	5037
871.749	5094
871.879	5121
872.008	5185
872.138	5014
872.267	4953
872.397	4908
872.526	4801
872.656	4691
872.785	4763
872.915	4938
873.044	5071
873.173	4942
873.303	4923
873.432	4972
873.561	4942
873.69	4870
873.819	4854
873.948	4904
874.077	4809
874.206	4748
874.335	4774
874.464	4934
874.593	5067
874.722	4930
874.851	5151
874.979	5071
875.108	5014
875.237	4953
875.365	4873
875.494	4927
875.623	5014
875.751	4793
875.88	4938
876.008	4961
876.136	4999
876.265	5178
876.393	5326
876.521	5231
876.65	5166
876.778	5155
876.906	5060
877.034	5045
877.162	5033
877.29	4968
877.418	5006
877.546	4999
877.674	5003
877.802	5010
877.93	5010
878.058	4885
878.185	4900
878.313	4915
878.441	4946
878.568	4809
878.696	4873
878.824	4957
878.951	5014
879.079	5174
879.206	5277
879.333	5079
879.461	4972
879.588	4927
879.715	5102
879.842	5223
879.97	5006
880.097	4782
880.224	4736
880.351	4790
880.478	4896
880.605	4744
880.732	4820
880.859	5060
880.986	4873
881.112	4919
881.239	4816
881.366	4675
881.493	4607
881.619	4588
881.746	4641
881.872	4641
881.999	4607
882.125	4687
882.252	4759
882.378	4797
882.505	4972
882.631	4797
882.757	4637
882.883	4790
883.01	4729
883.136	4653
883.262	4618
883.388	4577
883.514	4782
883.64	4873
883.766	4759
883.892	4596
884.018	4748
884.143	4870
884.269	5014
884.395	4653
884.52	4580
884.646	4592
884.772	4558
884.897	4561
885.023	4675
885.148	4759
885.274	4843
885.399	4824
885.524	4710
885.65	4698
885.775	4740
885.9	4694
886.025	4812
886.15	4748
886.275	4744
886.4	4626
886.525	4721
886.65	4615
886.775	4679
886.9	4911
887.025	5060
887.149	4843
887.274	4641
887.399	4577
887.523	4599
887.648	4584
887.773	4577
887.897	4771
888.021	4767
888.146	4664
888.27	4828
888.395	4923
888.519	4740
888.643	4820
888.767	4790
888.891	4664
889.015	4611
889.139	4649
889.263	4615
889.387	4717
889.511	4828
889.635	4774
889.759	4592
889.883	4637
890.006	4740
890.13	4793
890.254	4611
890.377	4698
890.501	4542
890.624	4493
890.748	4660
890.871	4470
890.995	4470
891.118	4413
891.241	4546
891.364	4546
891.488	4622
891.611	4504
891.734	4573
891.857	4596
891.98	4542
892.103	4656
892.226	4649
892.349	4580
892.471	4440
892.594	4561
892.717	4580
892.839	4618
892.962	4615
893.085	4691
893.207	4615
893.33	4466
893.452	4538
893.575	4691
893.697	4535
893.819	4774
893.941	4877
894.064	4778
894.186	4592
894.308	4558
894.43	4774
894.552	4843
894.674	4793
894.796	4565
894.918	4603
895.04	4607
895.161	4721
895.283	4656
895.405	4622
895.526	4653
895.648	4748
895.769	4698
895.891	4698
896.012	4740
896.134	4790
896.255	4706
896.376	4683
896.498	4664
896.619	4752
896.74	4656
896.861	4649
896.982	4957
897.103	5143
897.224	4866
897.345	4801
897.466	4706
897.587	4778
897.708	4934
897.828	4801
897.949	4691
898.07	4588
898.19	4679
898.311	4847
898.431	4694
898.552	4801
898.672	4831
898.792	4835
898.913	4755
899.033	4622
899.153	4592
899.273	4447
899.393	4569
899.513	4538
899.633	4618
899.753	4554
899.873	4561
899.993	4538
900.113	4523
900.232	4618
900.352	4584
900.472	4504
900.591	4409
900.711	4535
900.83	4478
900.95	4626
901.069	4736
901.189	4641
901.308	4409
901.427	4367
901.546	4405
901.665	4504
901.784	4531
901.904	4440
902.023	4371
902.141	4253
902.26	4200
902.379	4371
902.498	4272
902.617	4249
902.735	4398
902.854	4466
902.973	4440
903.091	4276
903.21	4249
903.328	4352
903.446	4303
903.565	4322
903.683	4436
903.801	4325
903.919	4436
904.038	4466
904.156	4390
904.274	4504
904.392	4428
904.51	4462
904.627	4508
904.745	4653
904.863	4653
904.981	4455
905.098	4348
905.216	4417
905.334	4440
905.451	4466
905.569	4466
905.686	4626
905.803	4611
905.921	4447
906.038	4558
906.155	4523
906.272	4424
906.389	4447
906.506	4421
906.623	4421
906.74	4455
906.857	4341
906.974	4413
907.091	4561
907.208	4721
907.324	4599
907.441	4531
907.557	4367
907.674	4341
907.79	4363
907.907	4447
908.023	4500
908.139	4504
908.256	4436
908.372	4592
908.488	4493
908.604	4383
908.72	4303
908.836	4394
908.952	4390
909.068	4428
909.184	4622
909.3	4493
909.415	4626
909.531	4626
909.647	4405
909.762	4375
909.878	4360
909.993	4497
910.108	4413
910.224	4462
910.339	4531
910.454	4394
910.57	4352
910.685	4352
910.8	4675
910.915	4611
911.03	4493
911.145	4337
911.259	4379
911.374	4428
911.489	4310
911.604	4306
911.718	4211
911.833	4223
911.947	4093
912.062	4036
912.176	4291
912.291	4295
912.405	4280
912.519	4531
912.633	4550
912.748	4432
912.862	4344
912.976	4234
913.09	4143
913.204	4219
913.318	4306
913.431	4424
913.545	4405
913.659	4504
913.772	4413
913.886	4329
914	4295
914.113	4443
914.226	4504
914.34	4394
914.453	4276
914.566	4443
914.68	4295
914.793	4333
914.906	4173
915.019	4154
915.132	4154
915.245	4223
915.358	4230
915.47	4265
915.583	4280
915.696	4352
915.809	4462
915.921	4440
916.034	4291
916.146	4268
916.259	4287
916.371	4398
916.483	4371
916.595	4280
916.708	4341
916.82	4344
916.932	4379
917.044	4402
917.156	4356
917.268	4280
917.38	4333
917.491	4322
917.603	4405
917.715	4481
917.826	4474
917.938	4352
918.049	4272
918.161	4417
918.272	4592
918.384	4580
918.495	4481
918.606	4367
918.717	4287
918.828	4379
918.939	4421
919.05	4295
919.161	4341
919.272	4188
919.383	4234
919.494	4462
919.604	4641
919.715	4462
919.826	4386
919.936	4405
920.047	4535
920.157	4527
920.267	4729
920.378	4546
920.488	4504
920.598	4710
920.708	4930
920.818	4782
920.928	4748
921.038	4919
921.148	4892
921.258	4679
921.368	4588
921.477	4538
921.587	4455
921.697	4428
921.806	4550
921.916	4466
922.025	4299
922.134	4253
922.244	4291
922.353	4333
922.462	4158
922.571	4131
922.68	4010
922.789	4006
922.898	4063
923.007	4025
923.116	4150
923.224	4074
923.333	4109
923.442	3998
923.55	3983
923.659	4078
923.767	4090
923.876	4006
923.984	4238
924.092	4025
924.201	4090
924.309	4131
924.417	4192
924.525	4059
924.633	4166
924.741	5079
924.849	4021
924.956	4131
925.064	4010
925.172	3937
925.279	3994
925.387	4032
925.494	4078
925.602	4192
925.709	4219
925.816	4048
925.924	4124
926.031	4265
926.138	4200
926.245	4280
926.352	4128
926.459	4257
926.566	4375
926.673	4177
926.779	4143
926.886	4067
926.993	4025
927.099	3941
927.206	3964
927.312	3987
927.419	4086
927.525	4063
927.631	4135
927.737	3972
927.843	3972
927.95	3888
928.056	4036
928.162	3975
928.267	4086
928.373	4694
928.479	4154
928.585	3869
928.69	4067
928.796	4105
928.901	4025
929.007	3831
929.112	4017
929.218	4040
929.323	3953
929.428	3941
929.533	4139
929.638	3937
929.743	3991
929.848	4101
929.953	4017
930.058	3941
930.163	3812
930.267	3854
930.372	4010
930.477	3873
930.581	4120
930.685	3991
930.79	3846
930.894	3911
930.998	3873
931.103	4116
931.207	3732
931.311	3701
931.415	3728
931.519	3564
931.623	3572
