Data from test_V78500241_2095.txt Node
Date: Fri Mar 25 17:03:34 CST 2022
User: usil
Spectrometer: V785-0024
Trigger mode: 0
Integration Time (sec): 4.000000E-1
Scans to average: 1
Nonlinearity correction enabled: false
Boxcar width: 0
Storing dark spectrum: false
XAxis mode: Wavelengths
Number of Pixels in Spectrum: 1024
>>>>>Begin Spectral Data<<<<<
801.071	7997
801.214	7921
801.356	7830
801.499	7818
801.641	7788
801.783	7875
801.926	7925
802.068	7989
802.211	7989
802.353	7974
802.496	7868
802.638	7814
802.78	7925
802.923	7860
803.065	7776
803.208	7849
803.35	7978
803.492	8103
803.635	8092
803.777	8035
803.919	8123
804.061	8450
804.204	8073
804.346	8020
804.488	7936
804.63	8123
804.773	8001
804.915	8024
805.057	8301
805.199	8164
805.341	8218
805.483	8248
805.626	8214
805.768	8142
805.91	8157
806.052	8168
806.194	8142
806.336	8221
806.478	8142
806.62	8046
806.762	8157
806.904	8206
807.046	8393
807.188	8286
807.33	8309
807.472	8305
807.614	8088
807.756	8195
807.898	8027
808.04	7811
808.182	7868
808.324	7894
808.465	7879
808.607	8107
808.749	8138
808.891	8172
809.033	8244
809.174	8267
809.316	8081
809.458	8062
809.6	8046
809.741	8035
809.883	7955
810.025	8081
810.166	8054
810.308	7974
810.45	8012
810.591	7845
810.733	7685
810.875	7666
811.016	7567
811.158	7426
811.299	7575
811.441	7658
811.582	7647
811.724	7556
811.865	7559
812.007	7567
812.148	7616
812.29	7658
812.431	7696
812.573	7833
812.714	7951
812.855	8096
812.997	8168
813.138	8282
813.279	8145
813.421	8058
813.562	7925
813.703	7807
813.845	7753
813.986	7403
814.127	7244
814.268	7209
814.41	7209
814.551	7175
814.692	7236
814.833	7152
814.974	7122
815.115	7126
815.256	6970
815.397	6977
815.539	6951
815.68	6829
815.821	6825
815.962	6844
816.103	6833
816.244	6677
816.385	6627
816.526	6597
816.666	6475
816.807	6285
816.948	6429
817.089	6479
817.23	6452
817.371	6350
817.512	6353
817.653	6399
817.793	6357
817.934	6426
818.075	6498
818.216	6429
818.356	6422
818.497	6254
818.638	6152
818.778	6133
818.919	6136
819.06	6194
819.2	6342
819.341	6296
819.481	6346
819.622	6563
819.762	6795
819.903	6673
820.043	6608
820.184	6566
820.324	6585
820.465	6658
820.605	6700
820.746	6597
820.886	6486
821.026	6688
821.167	6604
821.307	6818
821.447	6753
821.588	6616
821.728	6582
821.868	6467
822.008	6319
822.149	6372
822.289	6353
822.429	6167
822.569	6072
822.709	6072
822.849	5916
822.99	5863
823.13	5878
823.27	5901
823.41	5779
823.55	5748
823.69	5809
823.83	5707
823.97	5661
824.11	5509
824.25	5535
824.389	5528
824.529	5581
824.669	5577
824.809	5661
824.949	5634
825.089	5653
825.228	5589
825.368	5376
825.508	5311
825.648	5349
825.787	5330
825.927	5387
826.067	5307
826.206	5212
826.346	5364
826.485	5391
826.625	5429
826.765	5520
826.904	5459
827.044	5254
827.183	5166
827.323	5132
827.462	5239
827.601	5174
827.741	5185
827.88	5140
828.02	5132
828.159	5208
828.298	5303
828.437	5315
828.577	5261
828.716	5459
828.855	5318
828.994	5166
829.134	5212
829.273	5208
829.412	5124
829.551	5124
829.69	5155
829.829	5239
829.968	5349
830.107	5250
830.246	5296
830.385	5181
830.524	5132
830.663	5113
830.802	4949
830.941	4831
831.08	4850
831.219	4972
831.357	5014
831.496	5170
831.635	4881
831.774	4850
831.913	4828
832.051	4664
832.19	4740
832.329	4843
832.467	4721
832.606	4634
832.744	4706
832.883	4706
833.022	4710
833.16	4797
833.299	4744
833.437	4858
833.576	4805
833.714	4843
833.852	4889
833.991	4900
834.129	4930
834.267	4930
834.406	4915
834.544	4896
834.682	4927
834.821	4980
834.959	5189
835.097	4976
835.235	5166
835.373	5067
835.511	5052
835.65	5041
835.788	4949
835.926	4915
836.064	4805
836.202	4923
836.34	5136
836.478	5189
836.615	5090
836.753	5220
836.891	5277
837.029	5201
837.167	5239
837.305	5124
837.443	5147
837.58	5033
837.718	5261
837.856	5223
837.993	5162
838.131	5261
838.269	5201
838.406	5159
838.544	5155
838.681	5003
838.819	4987
838.956	4892
839.094	4877
839.231	5022
839.369	5041
839.506	5421
839.643	5265
839.781	5052
839.918	5010
840.055	5079
840.193	5105
840.33	5098
840.467	5098
840.604	5204
840.742	5440
840.879	5105
841.016	5052
841.153	5155
841.29	5417
841.427	5337
841.564	5353
841.701	5337
841.838	5242
841.975	5220
842.112	5280
842.249	5155
842.385	5037
842.522	5318
842.659	5136
842.796	5193
842.933	5185
843.069	5132
843.206	5113
843.343	5277
843.479	5231
843.616	5273
843.752	5033
843.889	4972
844.025	5231
844.162	5041
844.298	5166
844.435	5033
844.571	4995
844.708	5178
844.844	5250
844.98	5311
845.117	5299
845.253	5178
845.389	5075
845.525	5105
845.661	5124
845.798	5006
845.934	5147
846.07	5045
846.206	5094
846.342	5307
846.478	5155
846.614	4984
846.75	5014
846.886	4911
847.022	5132
847.158	5014
847.294	5109
847.429	5117
847.565	5060
847.701	5311
847.837	4831
847.972	4820
848.108	4949
848.244	4953
848.379	4790
848.515	4698
848.65	4717
848.786	4733
848.921	4778
849.057	4828
849.192	4942
849.328	4759
849.463	4862
849.598	4854
849.734	4733
849.869	4630
850.004	4698
850.14	4630
850.275	4565
850.41	4588
850.545	4565
850.68	4577
850.815	4580
850.95	4611
851.085	4816
851.22	4714
851.355	4653
851.49	4573
851.625	4656
851.76	4622
851.895	4565
852.03	4519
852.165	4679
852.299	4672
852.434	4729
852.569	4736
852.703	4748
852.838	4858
852.973	4946
853.107	4915
853.242	4714
853.376	4668
853.511	4519
853.645	4622
853.78	4831
853.914	4668
854.048	4664
854.183	4679
854.317	4653
854.451	4839
854.585	4672
854.72	4626
854.854	4740
854.988	4588
855.122	4622
855.256	4565
855.39	4653
855.524	4805
855.658	4721
855.792	4725
855.926	4717
856.06	4736
856.194	4797
856.327	4683
856.461	4630
856.595	4550
856.729	4626
856.862	4805
856.996	4694
857.13	4721
857.263	4717
857.397	4835
857.53	4679
857.664	4755
857.797	4828
857.931	4828
858.064	4664
858.197	4721
858.331	4634
858.464	4596
858.597	4542
858.731	4611
858.864	4656
858.997	4580
859.13	4653
859.263	4637
859.396	4698
859.529	4584
859.662	4504
859.795	4497
859.928	4641
860.061	4691
860.194	4733
860.327	4603
860.46	4584
860.592	4729
860.725	4740
860.858	4675
860.99	4580
861.123	4516
861.256	4489
861.388	4615
861.521	5372
861.653	4489
861.786	4440
861.918	4470
862.05	4481
862.183	4542
862.315	4561
862.447	4626
862.58	4615
862.712	4379
862.844	4318
862.976	4489
863.108	4478
863.24	4725
863.372	4383
863.504	4398
863.636	4443
863.768	4466
863.9	4424
864.032	4329
864.164	4371
864.296	4455
864.428	4500
864.559	4569
864.691	4504
864.823	4478
864.954	4481
865.086	4478
865.217	4440
865.349	4390
865.48	4455
865.612	4474
865.743	4626
865.875	4440
866.006	4394
866.137	4504
866.269	4413
866.4	4489
866.531	4405
866.662	4394
866.793	4443
866.924	4398
867.055	4489
867.186	4466
867.317	4390
867.448	4371
867.579	4424
867.71	4363
867.841	4333
867.972	4470
868.103	4474
868.233	4459
868.364	4455
868.495	4497
868.625	4641
868.756	4752
868.886	4565
869.017	4637
869.147	4729
869.278	4801
869.408	4660
869.539	4603
869.669	4687
869.799	4668
869.929	4691
870.06	4729
870.19	4919
870.32	4911
870.45	4938
870.58	5018
870.71	5052
870.84	5094
870.97	4904
871.1	4942
871.23	5121
871.36	5147
871.489	4965
871.619	5052
871.749	5079
871.879	5178
872.008	5143
872.138	5018
872.267	4946
872.397	4835
872.526	4782
872.656	4740
872.785	4793
872.915	4957
873.044	5056
873.173	4927
873.303	4904
873.432	4881
873.561	4915
873.69	4881
873.819	4858
873.948	4908
874.077	4820
874.206	4740
874.335	4805
874.464	4949
874.593	5045
874.722	4999
874.851	5060
874.979	5056
875.108	5045
875.237	4873
875.365	4812
875.494	4866
875.623	4999
875.751	4831
875.88	4862
876.008	4980
876.136	5075
876.265	5170
876.393	5353
876.521	5204
876.65	5193
876.778	5170
876.906	5041
877.034	4991
877.162	5052
877.29	4980
877.418	5041
877.546	5029
877.674	5071
877.802	5025
877.93	5022
878.058	4980
878.185	4900
878.313	4938
878.441	4976
878.568	4793
878.696	4774
878.824	4908
878.951	5003
879.079	5132
879.206	5288
879.333	5067
879.461	4934
879.588	4957
879.715	5124
879.842	5235
879.97	4984
880.097	4786
880.224	4706
880.351	4755
880.478	4797
880.605	4790
880.732	4763
880.859	5105
880.986	4904
881.112	4885
881.239	4752
881.366	4683
881.493	4573
881.619	4580
881.746	4630
881.872	4588
881.999	4607
882.125	4668
882.252	4809
882.378	4805
882.505	4949
882.631	4752
882.757	4645
882.883	4744
883.01	4706
883.136	4653
883.262	4580
883.388	4561
883.514	4740
883.64	4835
883.766	4759
883.892	4664
884.018	4744
884.143	4862
884.269	4957
884.395	4660
884.52	4615
884.646	4649
884.772	4580
884.897	4535
885.023	4679
885.148	4736
885.274	4831
885.399	4767
885.524	4698
885.65	4679
885.775	4694
885.9	4698
886.025	4835
886.15	4774
886.275	4687
886.4	4626
886.525	4702
886.65	4672
886.775	4721
886.9	4923
887.025	5006
887.149	4763
887.274	4660
887.399	4573
887.523	4599
887.648	4584
887.773	4546
887.897	4759
888.021	4786
888.146	4698
888.27	4805
888.395	4881
888.519	4778
888.643	4847
888.767	4805
888.891	4729
889.015	4649
889.139	4637
889.263	4634
889.387	4748
889.511	4866
889.635	4812
889.759	4641
889.883	4660
890.006	4744
890.13	4835
890.254	4649
890.377	4694
890.501	4569
890.624	4577
890.748	4660
890.871	4497
890.995	4478
891.118	4428
891.241	4561
891.364	4577
891.488	4668
891.611	4542
891.734	4577
891.857	4668
891.98	4615
892.103	4717
892.226	4641
892.349	4580
892.471	4485
892.594	4584
892.717	4622
892.839	4634
892.962	4611
893.085	4698
893.207	4592
893.33	4485
893.452	4542
893.575	4668
893.697	4637
893.819	4873
893.941	4816
894.064	4805
894.186	4622
894.308	4607
894.43	4714
894.552	4854
894.674	4774
894.796	4611
894.918	4615
895.04	4592
895.161	4782
895.283	4721
895.405	4599
895.526	4721
895.648	4790
895.769	4771
895.891	4835
896.012	4771
896.134	4771
896.255	4622
896.376	4710
896.498	4641
896.619	4691
896.74	4683
896.861	4691
896.982	4946
897.103	5079
897.224	4919
897.345	4786
897.466	4649
897.587	4801
897.708	4885
897.828	4839
897.949	4672
898.07	4588
898.19	4664
898.311	4850
898.431	4736
898.552	4748
898.672	4850
898.792	4790
898.913	4778
899.033	4660
899.153	4535
899.273	4436
899.393	4550
899.513	4527
899.633	4573
899.753	4607
899.873	4550
899.993	4607
900.113	4580
900.232	4603
900.352	4546
900.472	4523
900.591	4428
900.711	4531
900.83	4474
900.95	4656
901.069	4771
901.189	4596
901.308	4402
901.427	4375
901.546	4383
901.665	4542
901.784	4512
901.904	4440
902.023	4329
902.141	4188
902.26	4200
902.379	4341
902.498	4246
902.617	4257
902.735	4432
902.854	4432
902.973	4352
903.091	4257
903.21	4242
903.328	4284
903.446	4333
903.565	4287
903.683	4367
903.801	4318
903.919	4417
904.038	4474
904.156	4394
904.274	4466
904.392	4462
904.51	4459
904.627	4523
904.745	4603
904.863	4683
904.981	4436
905.098	4310
905.216	4405
905.334	4474
905.451	4428
905.569	4432
905.686	4538
905.803	4615
905.921	4462
906.038	4577
906.155	4527
906.272	4417
906.389	4512
906.506	4344
906.623	4402
906.74	4462
906.857	4360
906.974	4371
907.091	4554
907.208	4702
907.324	4599
907.441	4550
907.557	4405
907.674	4371
907.79	4360
907.907	4432
908.023	4508
908.139	4527
908.256	4481
908.372	4531
908.488	4466
908.604	4405
908.72	4337
908.836	4383
908.952	4390
909.068	4455
909.184	4577
909.3	4538
909.415	4569
909.531	4607
909.647	4375
909.762	4398
909.878	4375
909.993	4489
910.108	4459
910.224	4451
910.339	4558
910.454	4398
910.57	4424
910.685	4325
910.8	4656
910.915	4668
911.03	4558
911.145	4314
911.259	4348
911.374	4443
911.489	4314
911.604	4329
911.718	4154
911.833	4249
911.947	4109
912.062	4036
912.176	4276
912.291	4272
912.405	4276
912.519	4489
912.633	4519
912.748	4436
912.862	4394
912.976	4253
913.09	4139
913.204	4230
913.318	4276
913.431	4394
913.545	4386
913.659	4493
913.772	4428
913.886	4238
914	4246
914.113	4409
914.226	4443
914.34	4386
914.453	4265
914.566	4470
914.68	4352
914.793	4394
914.906	4223
915.019	4154
915.132	4090
915.245	4211
915.358	4246
915.47	4246
915.583	4295
915.696	4280
915.809	4455
915.921	4428
916.034	4265
916.146	4295
916.259	4257
916.371	4398
916.483	4386
916.595	4291
916.708	4379
916.82	4337
916.932	4329
917.044	4344
917.156	4341
917.268	4261
917.38	4329
917.491	4325
917.603	4379
917.715	4459
917.826	4443
917.938	4367
918.049	4284
918.161	4424
918.272	4622
918.384	4618
918.495	4466
918.606	4322
918.717	4219
918.828	4303
918.939	4443
919.05	4234
919.161	4325
919.272	4188
919.383	4265
919.494	4497
919.604	4637
919.715	4478
919.826	4363
919.936	4440
920.047	4565
920.157	4527
920.267	4740
920.378	4596
920.488	4561
920.598	4752
920.708	4927
920.818	4809
920.928	4748
921.038	4980
921.148	4946
921.258	4687
921.368	4546
921.477	4531
921.587	4466
921.697	4402
921.806	4580
921.916	4485
922.025	4306
922.134	4280
922.244	4227
922.353	4383
922.462	4242
922.571	4143
922.68	4029
922.789	4040
922.898	4090
923.007	4074
923.116	4128
923.224	4109
923.333	4128
923.442	4032
923.55	4002
923.659	4040
923.767	4116
923.876	4021
923.984	4158
924.092	3968
924.201	4082
924.309	4078
924.417	4162
924.525	4067
924.633	4158
924.741	5079
924.849	3972
924.956	4162
925.064	3956
925.172	3937
925.279	3972
925.387	4063
925.494	4059
925.602	4223
925.709	4154
925.816	4112
925.924	4128
926.031	4196
926.138	4188
926.245	4204
926.352	4086
926.459	4238
926.566	4303
926.673	4196
926.779	4116
926.886	4090
926.993	3979
927.099	4078
927.206	3956
927.312	3975
927.419	4071
927.525	4063
927.631	4128
927.737	4002
927.843	3937
927.95	3827
928.056	3975
928.162	4017
928.267	4090
928.373	4664
928.479	4105
928.585	3876
928.69	4021
928.796	4090
928.901	3983
929.007	3827
929.112	4051
929.218	4010
929.323	4002
929.428	3956
929.533	4093
929.638	3941
929.743	4040
929.848	4082
929.953	4051
930.058	3945
930.163	3797
930.267	3827
930.372	3979
930.477	3800
930.581	4112
930.685	3994
930.79	3873
930.894	3869
930.998	3869
931.103	4055
931.207	3755
931.311	3751
931.415	3663
931.519	3564
931.623	3557
