Data from test_V78500241_792.txt Node
Date: Fri Mar 25 16:54:30 CST 2022
User: usil
Spectrometer: V785-0024
Trigger mode: 0
Integration Time (sec): 4.000000E-1
Scans to average: 1
Nonlinearity correction enabled: false
Boxcar width: 0
Storing dark spectrum: false
XAxis mode: Wavelengths
Number of Pixels in Spectrum: 1024
>>>>>Begin Spectral Data<<<<<
801.071	8001
801.214	8043
801.356	7852
801.499	7860
801.641	7715
801.783	7830
801.926	7955
802.068	7928
802.211	7997
802.353	7989
802.496	7822
802.638	7898
802.78	7974
802.923	7879
803.065	7856
803.208	7852
803.35	7974
803.492	8100
803.635	8130
803.777	8043
803.919	8084
804.061	8351
804.204	8081
804.346	7997
804.488	7955
804.63	8096
804.773	7986
804.915	8100
805.057	8240
805.199	8161
805.341	8183
805.483	8259
805.626	8191
805.768	8111
805.91	8149
806.052	8244
806.194	8046
806.336	8248
806.478	8092
806.62	8058
806.762	8138
806.904	8282
807.046	8457
807.188	8328
807.33	8256
807.472	8301
807.614	8168
807.756	8054
807.898	7936
808.04	7784
808.182	7871
808.324	7894
808.465	7780
808.607	8039
808.749	8065
808.891	8195
809.033	8309
809.174	8199
809.316	8100
809.458	7993
809.6	7970
809.741	8005
809.883	8069
810.025	8096
810.166	8084
810.308	8054
810.45	7978
810.591	7898
810.733	7723
810.875	7639
811.016	7487
811.158	7502
811.299	7514
811.441	7734
811.582	7636
811.724	7594
811.865	7483
812.007	7582
812.148	7605
812.29	7597
812.431	7693
812.573	7818
812.714	7925
812.855	8084
812.997	8157
813.138	8294
813.279	8081
813.421	8111
813.562	8020
813.703	7868
813.845	7742
813.986	7480
814.127	7179
814.268	7266
814.41	7202
814.551	7175
814.692	7129
814.833	7072
814.974	7046
815.115	7042
815.256	6939
815.397	6913
815.539	6951
815.68	6837
815.821	6745
815.962	6878
816.103	6810
816.244	6650
816.385	6646
816.526	6604
816.666	6471
816.807	6258
816.948	6426
817.089	6479
817.23	6464
817.371	6410
817.512	6369
817.653	6376
817.793	6407
817.934	6372
818.075	6410
818.216	6456
818.356	6372
818.497	6266
818.638	6121
818.778	6110
818.919	6140
819.06	6095
819.2	6273
819.341	6334
819.481	6327
819.622	6563
819.762	6738
819.903	6700
820.043	6551
820.184	6582
820.324	6570
820.465	6635
820.605	6684
820.746	6612
820.886	6506
821.026	6646
821.167	6684
821.307	6802
821.447	6745
821.588	6658
821.728	6570
821.868	6513
822.008	6315
822.149	6380
822.289	6281
822.429	6163
822.569	6091
822.709	6117
822.849	5901
822.99	5923
823.13	5901
823.27	5885
823.41	5764
823.55	5767
823.69	5733
823.83	5817
823.97	5680
824.11	5532
824.25	5474
824.389	5589
824.529	5585
824.669	5524
824.809	5630
824.949	5646
825.089	5623
825.228	5558
825.368	5326
825.508	5334
825.648	5296
825.787	5455
825.927	5341
826.067	5284
826.206	5299
826.346	5421
826.485	5387
826.625	5398
826.765	5570
826.904	5452
827.044	5273
827.183	5216
827.323	5147
827.462	5220
827.601	5166
827.741	5159
827.88	5178
828.02	5109
828.159	5201
828.298	5261
828.437	5303
828.577	5292
828.716	5463
828.855	5307
828.994	5223
829.134	5143
829.273	5155
829.412	5143
829.551	5128
829.69	5117
829.829	5193
829.968	5315
830.107	5239
830.246	5242
830.385	5166
830.524	5151
830.663	5094
830.802	4976
830.941	4923
831.08	4854
831.219	4927
831.357	4900
831.496	5147
831.635	4949
831.774	4828
831.913	4828
832.051	4706
832.19	4691
832.329	4816
832.467	4694
832.606	4588
832.744	4702
832.883	4721
833.022	4675
833.16	4725
833.299	4748
833.437	4820
833.576	4854
833.714	4843
833.852	4858
833.991	4889
834.129	4934
834.267	4965
834.406	4911
834.544	4976
834.682	5006
834.821	4957
834.959	5170
835.097	5010
835.235	5132
835.373	5064
835.511	5086
835.65	5045
835.788	4965
835.926	4885
836.064	4866
836.202	4911
836.34	5128
836.478	5231
836.615	5113
836.753	5178
836.891	5246
837.029	5208
837.167	5201
837.305	5193
837.443	5128
837.58	5155
837.718	5258
837.856	5166
837.993	5132
838.131	5208
838.269	5147
838.406	5201
838.544	5174
838.681	5010
838.819	4995
838.956	4885
839.094	4923
839.231	4942
839.369	5075
839.506	5444
839.643	5239
839.781	5075
839.918	4980
840.055	5090
840.193	5060
840.33	5128
840.467	5140
840.604	5235
840.742	5417
840.879	5071
841.016	5052
841.153	5185
841.29	5383
841.427	5311
841.564	5318
841.701	5299
841.838	5227
841.975	5246
842.112	5277
842.249	5124
842.385	5098
842.522	5322
842.659	5181
842.796	5170
842.933	5189
843.069	5174
843.206	5132
843.343	5311
843.479	5231
843.616	5292
843.752	5045
843.889	5033
844.025	5242
844.162	5003
844.298	5185
844.435	5029
844.571	5041
844.708	5181
844.844	5288
844.98	5254
845.117	5239
845.253	5170
845.389	5105
845.525	5132
845.661	5105
845.798	5052
845.934	5121
846.07	4995
846.206	5170
846.342	5277
846.478	5113
846.614	5060
846.75	4976
846.886	4923
847.022	5140
847.158	5067
847.294	5037
847.429	5098
847.565	5048
847.701	5353
847.837	4835
847.972	4767
848.108	4927
848.244	4934
848.379	4725
848.515	4736
848.65	4725
848.786	4702
848.921	4725
849.057	4847
849.192	4850
849.328	4873
849.463	4820
849.598	4774
849.734	4797
849.869	4694
850.004	4599
850.14	4599
850.275	4599
850.41	4493
850.545	4542
850.68	4569
850.815	4584
850.95	4660
851.085	4790
851.22	4706
851.355	4679
851.49	4637
851.625	4607
851.76	4611
851.895	4577
852.03	4497
852.165	4592
852.299	4706
852.434	4763
852.569	4752
852.703	4733
852.838	4873
852.973	4927
853.107	4900
853.242	4717
853.376	4660
853.511	4512
853.645	4569
853.78	4793
853.914	4706
854.048	4664
854.183	4603
854.317	4694
854.451	4828
854.585	4672
854.72	4618
854.854	4714
854.988	4565
855.122	4634
855.256	4519
855.39	4668
855.524	4755
855.658	4725
855.792	4702
855.926	4725
856.06	4725
856.194	4744
856.327	4656
856.461	4599
856.595	4634
856.729	4656
856.862	4774
856.996	4729
857.13	4706
857.263	4725
857.397	4782
857.53	4630
857.664	4672
857.797	4824
857.931	4763
858.064	4645
858.197	4755
858.331	4668
858.464	4645
858.597	4542
858.731	4615
858.864	4615
858.997	4577
859.13	4694
859.263	4668
859.396	4622
859.529	4538
859.662	4550
859.795	4523
859.928	4592
860.061	4786
860.194	4786
860.327	4573
860.46	4558
860.592	4698
860.725	4710
860.858	4710
860.99	4531
861.123	4504
861.256	4493
861.388	4607
861.521	5208
861.653	4451
861.786	4462
861.918	4424
862.05	4474
862.183	4584
862.315	4569
862.447	4675
862.58	4489
862.712	4405
862.844	4306
862.976	4470
863.108	4470
863.24	4881
863.372	4344
863.504	4398
863.636	4402
863.768	4489
863.9	4428
864.032	4375
864.164	4409
864.296	4493
864.428	4531
864.559	4573
864.691	4512
864.823	4531
864.954	4481
865.086	4462
865.217	4508
865.349	4405
865.48	4436
865.612	4474
865.743	4584
865.875	4481
866.006	4379
866.137	4485
866.269	4447
866.4	4440
866.531	4394
866.662	4413
866.793	4405
866.924	4405
867.055	4470
867.186	4421
867.317	4405
867.448	4348
867.579	4432
867.71	4405
867.841	4375
867.972	4508
868.103	4405
868.233	4432
868.364	4428
868.495	4462
868.625	4706
868.756	4725
868.886	4550
869.017	4618
869.147	4790
869.278	4748
869.408	4637
869.539	4653
869.669	4702
869.799	4626
869.929	4736
870.06	4740
870.19	4968
870.32	4927
870.45	4927
870.58	4980
870.71	5113
870.84	5048
870.97	4999
871.1	4919
871.23	5105
871.36	5121
871.489	5067
871.619	5003
871.749	5045
871.879	5143
872.008	5124
872.138	5006
872.267	4961
872.397	4824
872.526	4809
872.656	4687
872.785	4763
872.915	4938
873.044	4995
873.173	4904
873.303	4927
873.432	4984
873.561	4938
873.69	4892
873.819	4850
873.948	4965
874.077	4805
874.206	4744
874.335	4763
874.464	4900
874.593	5083
874.722	4968
874.851	5132
874.979	5033
875.108	5067
875.237	4896
875.365	4847
875.494	4892
875.623	4980
875.751	4816
875.88	4862
876.008	5033
876.136	5029
876.265	5258
876.393	5292
876.521	5246
876.65	5162
876.778	5159
876.906	5102
877.034	4984
877.162	5064
877.29	4946
877.418	5025
877.546	5045
877.674	5060
877.802	5014
877.93	4972
878.058	4946
878.185	4835
878.313	4946
878.441	4949
878.568	4782
878.696	4889
878.824	4946
878.951	5045
879.079	5124
879.206	5261
879.333	5102
879.461	4984
879.588	4976
879.715	5086
879.842	5208
879.97	5022
880.097	4801
880.224	4733
880.351	4809
880.478	4820
880.605	4812
880.732	4866
880.859	5045
880.986	4904
881.112	4885
881.239	4786
881.366	4645
881.493	4607
881.619	4565
881.746	4630
881.872	4630
881.999	4618
882.125	4683
882.252	4801
882.378	4778
882.505	4968
882.631	4805
882.757	4656
882.883	4710
883.01	4767
883.136	4668
883.262	4588
883.388	4599
883.514	4778
883.64	4877
883.766	4763
883.892	4702
884.018	4725
884.143	4839
884.269	4980
884.395	4664
884.52	4611
884.646	4630
884.772	4577
884.897	4535
885.023	4649
885.148	4793
885.274	4820
885.399	4816
885.524	4721
885.65	4656
885.775	4752
885.9	4691
886.025	4877
886.15	4805
886.275	4729
886.4	4664
886.525	4736
886.65	4729
886.775	4675
886.9	4904
887.025	5025
887.149	4767
887.274	4634
887.399	4630
887.523	4580
887.648	4554
887.773	4577
887.897	4782
888.021	4790
888.146	4653
888.27	4812
888.395	4873
888.519	4824
888.643	4778
888.767	4831
888.891	4714
889.015	4626
889.139	4668
889.263	4634
889.387	4691
889.511	4873
889.635	4809
889.759	4664
889.883	4675
890.006	4721
890.13	4809
890.254	4603
890.377	4702
890.501	4519
890.624	4489
890.748	4626
890.871	4519
890.995	4390
891.118	4383
891.241	4569
891.364	4527
891.488	4641
891.611	4535
891.734	4542
891.857	4596
891.98	4584
892.103	4622
892.226	4580
892.349	4512
892.471	4436
892.594	4535
892.717	4603
892.839	4592
892.962	4569
893.085	4664
893.207	4626
893.33	4440
893.452	4542
893.575	4664
893.697	4565
893.819	4759
893.941	4809
894.064	4774
894.186	4592
894.308	4538
894.43	4668
894.552	4782
894.674	4736
894.796	4554
894.918	4580
895.04	4584
895.161	4710
895.283	4649
895.405	4618
895.526	4622
895.648	4653
895.769	4683
895.891	4759
896.012	4710
896.134	4725
896.255	4694
896.376	4592
896.498	4603
896.619	4653
896.74	4611
896.861	4660
896.982	4923
897.103	5079
897.224	4828
897.345	4729
897.466	4660
897.587	4706
897.708	4847
897.828	4744
897.949	4687
898.07	4592
898.19	4637
898.311	4801
898.431	4702
898.552	4774
898.672	4793
898.792	4778
898.913	4733
899.033	4588
899.153	4481
899.273	4443
899.393	4481
899.513	4554
899.633	4508
899.753	4569
899.873	4489
899.993	4584
900.113	4527
900.232	4500
900.352	4500
900.472	4440
900.591	4371
900.711	4497
900.83	4405
900.95	4615
901.069	4679
901.189	4550
901.308	4379
901.427	4306
901.546	4318
901.665	4432
901.784	4497
901.904	4352
902.023	4318
902.141	4211
902.26	4135
902.379	4318
902.498	4246
902.617	4211
902.735	4325
902.854	4383
902.973	4363
903.091	4200
903.21	4207
903.328	4303
903.446	4272
903.565	4310
903.683	4367
903.801	4257
903.919	4413
904.038	4447
904.156	4306
904.274	4390
904.392	4436
904.51	4428
904.627	4432
904.745	4531
904.863	4618
904.981	4394
905.098	4284
905.216	4363
905.334	4417
905.451	4390
905.569	4451
905.686	4558
905.803	4565
905.921	4405
906.038	4519
906.155	4504
906.272	4428
906.389	4451
906.506	4375
906.623	4379
906.74	4413
906.857	4291
906.974	4371
907.091	4558
907.208	4645
907.324	4588
907.441	4481
907.557	4295
907.674	4356
907.79	4318
907.907	4356
908.023	4481
908.139	4459
908.256	4428
908.372	4497
908.488	4443
908.604	4375
908.72	4272
908.836	4405
908.952	4390
909.068	4417
909.184	4603
909.3	4459
909.415	4599
909.531	4497
909.647	4348
909.762	4405
909.878	4325
909.993	4436
910.108	4375
910.224	4390
910.339	4485
910.454	4398
910.57	4344
910.685	4352
910.8	4668
910.915	4588
911.03	4474
911.145	4287
911.259	4333
911.374	4390
911.489	4284
911.604	4276
911.718	4207
911.833	4234
911.947	4101
912.062	4032
912.176	4215
912.291	4230
912.405	4227
912.519	4436
912.633	4489
912.748	4363
912.862	4272
912.976	4238
913.09	4105
913.204	4173
913.318	4234
913.431	4409
913.545	4390
913.659	4447
913.772	4356
913.886	4276
914	4230
914.113	4322
914.226	4436
914.34	4363
914.453	4200
914.566	4402
914.68	4306
914.793	4272
914.906	4109
915.019	4124
915.132	4036
915.245	4188
915.358	4223
915.47	4200
915.583	4268
915.696	4303
915.809	4409
915.921	4421
916.034	4230
916.146	4196
916.259	4238
916.371	4352
916.483	4325
916.595	4265
916.708	4306
916.82	4268
916.932	4352
917.044	4344
917.156	4356
917.268	4268
917.38	4287
917.491	4276
917.603	4348
917.715	4421
917.826	4421
917.938	4363
918.049	4223
918.161	4436
918.272	4546
918.384	4538
918.495	4447
918.606	4325
918.717	4242
918.828	4348
918.939	4360
919.05	4261
919.161	4303
919.272	4169
919.383	4207
919.494	4432
919.604	4626
919.715	4436
919.826	4375
919.936	4352
920.047	4519
920.157	4470
920.267	4706
920.378	4550
920.488	4470
920.598	4721
920.708	4858
920.818	4672
920.928	4748
921.038	4930
921.148	4923
921.258	4649
921.368	4489
921.477	4466
921.587	4474
921.697	4333
921.806	4573
921.916	4462
922.025	4272
922.134	4211
922.244	4196
922.353	4341
922.462	4162
922.571	4162
922.68	3987
922.789	3953
922.898	4010
923.007	3972
923.116	4116
923.224	4074
923.333	4063
923.442	3953
923.55	3964
923.659	4025
923.767	4147
923.876	4055
923.984	4143
924.092	3968
924.201	4048
924.309	4055
924.417	4124
924.525	4059
924.633	4116
924.741	4889
924.849	3888
924.956	4124
925.064	3975
925.172	3907
925.279	3994
925.387	4048
925.494	4055
925.602	4227
925.709	4169
925.816	4051
925.924	4131
926.031	4234
926.138	4147
926.245	4230
926.352	4101
926.459	4200
926.566	4276
926.673	4162
926.779	4097
926.886	4078
926.993	3964
927.099	3987
927.206	3934
927.312	3930
927.419	4017
927.525	4025
927.631	4055
927.737	3975
927.843	3937
927.95	3827
928.056	3964
928.162	4006
928.267	4048
928.373	4660
928.479	4086
928.585	3861
928.69	4017
928.796	4078
928.901	4002
929.007	3812
929.112	3998
929.218	4017
929.323	3956
929.428	3949
929.533	4093
929.638	3880
929.743	3979
929.848	4055
929.953	4013
930.058	3945
930.163	3835
930.267	3785
930.372	3964
930.477	3857
930.581	4082
930.685	3979
930.79	3819
930.894	3903
930.998	3869
931.103	4040
931.207	3762
931.311	3686
931.415	3679
931.519	3500
931.623	3545
