Data from test_V78500241_2451.txt Node
Date: Fri Mar 25 17:06:02 CST 2022
User: usil
Spectrometer: V785-0024
Trigger mode: 0
Integration Time (sec): 4.000000E-1
Scans to average: 1
Nonlinearity correction enabled: false
Boxcar width: 0
Storing dark spectrum: false
XAxis mode: Wavelengths
Number of Pixels in Spectrum: 1024
>>>>>Begin Spectral Data<<<<<
801.071	8065
801.214	7982
801.356	7841
801.499	7845
801.641	7769
801.783	7776
801.926	7978
802.068	7997
802.211	7970
802.353	8012
802.496	7868
802.638	7833
802.78	7925
802.923	7925
803.065	7849
803.208	7868
803.35	7936
803.492	8031
803.635	8161
803.777	8062
803.919	8126
804.061	8442
804.204	8142
804.346	8035
804.488	7970
804.63	8073
804.773	7989
804.915	8115
805.057	8336
805.199	8157
805.341	8176
805.483	8305
805.626	8248
805.768	8130
805.91	8252
806.052	8225
806.194	8092
806.336	8317
806.478	8073
806.62	8054
806.762	8111
806.904	8221
807.046	8419
807.188	8298
807.33	8244
807.472	8275
807.614	8145
807.756	8134
807.898	7993
808.04	7906
808.182	7887
808.324	7909
808.465	7974
808.607	8043
808.749	8050
808.891	8240
809.033	8313
809.174	8225
809.316	8103
809.458	8058
809.6	8024
809.741	8050
809.883	8050
810.025	8088
810.166	8138
810.308	7993
810.45	7955
810.591	7906
810.733	7780
810.875	7677
811.016	7495
811.158	7415
811.299	7575
811.441	7670
811.582	7609
811.724	7609
811.865	7601
812.007	7578
812.148	7616
812.29	7662
812.431	7738
812.573	7951
812.714	7963
812.855	8187
812.997	8202
813.138	8229
813.279	8176
813.421	8115
813.562	7970
813.703	7925
813.845	7761
813.986	7460
814.127	7221
814.268	7217
814.41	7206
814.551	7244
814.692	7179
814.833	7129
814.974	7076
815.115	7164
815.256	6901
815.397	6939
815.539	6973
815.68	6779
815.821	6776
815.962	6840
816.103	6818
816.244	6719
816.385	6665
816.526	6597
816.666	6483
816.807	6311
816.948	6422
817.089	6456
817.23	6464
817.371	6448
817.512	6407
817.653	6452
817.793	6353
817.934	6418
818.075	6509
818.216	6426
818.356	6483
818.497	6235
818.638	6140
818.778	6136
818.919	6125
819.06	6220
819.2	6331
819.341	6350
819.481	6369
819.622	6486
819.762	6719
819.903	6738
820.043	6597
820.184	6536
820.324	6563
820.465	6734
820.605	6734
820.746	6646
820.886	6509
821.026	6684
821.167	6776
821.307	6840
821.447	6795
821.588	6635
821.728	6585
821.868	6525
822.008	6315
822.149	6395
822.289	6353
822.429	6201
822.569	6114
822.709	6136
822.849	5961
822.99	5950
823.13	5942
823.27	5935
823.41	5790
823.55	5813
823.69	5813
823.83	5760
823.97	5623
824.11	5547
824.25	5547
824.389	5554
824.529	5600
824.669	5512
824.809	5634
824.949	5638
825.089	5592
825.228	5623
825.368	5383
825.508	5353
825.648	5318
825.787	5379
825.927	5372
826.067	5299
826.206	5303
826.346	5391
826.485	5372
826.625	5414
826.765	5532
826.904	5471
827.044	5223
827.183	5189
827.323	5166
827.462	5261
827.601	5147
827.741	5204
827.88	5201
828.02	5113
828.159	5223
828.298	5307
828.437	5391
828.577	5322
828.716	5459
828.855	5315
828.994	5170
829.134	5094
829.273	5227
829.412	5151
829.551	5155
829.69	5162
829.829	5227
829.968	5395
830.107	5303
830.246	5254
830.385	5170
830.524	5109
830.663	5048
830.802	4987
830.941	4904
831.08	4847
831.219	4987
831.357	5006
831.496	5162
831.635	4889
831.774	4870
831.913	4809
832.051	4710
832.19	4763
832.329	4854
832.467	4668
832.606	4641
832.744	4736
832.883	4710
833.022	4702
833.16	4778
833.299	4843
833.437	4824
833.576	4805
833.714	4900
833.852	4854
833.991	4991
834.129	4942
834.267	4949
834.406	4866
834.544	4946
834.682	4965
834.821	4991
834.959	5250
835.097	5067
835.235	5147
835.373	5067
835.511	5113
835.65	5060
835.788	5041
835.926	4866
836.064	4889
836.202	4968
836.34	5147
836.478	5273
836.615	5117
836.753	5185
836.891	5296
837.029	5280
837.167	5235
837.305	5193
837.443	5162
837.58	5136
837.718	5227
837.856	5201
837.993	5162
838.131	5216
838.269	5227
838.406	5132
838.544	5098
838.681	5014
838.819	5003
838.956	4835
839.094	4923
839.231	5010
839.369	5121
839.506	5402
839.643	5246
839.781	5067
839.918	4995
840.055	5102
840.193	5105
840.33	5071
840.467	5121
840.604	5216
840.742	5490
840.879	5121
841.016	5121
841.153	5155
841.29	5360
841.427	5322
841.564	5337
841.701	5421
841.838	5296
841.975	5277
842.112	5265
842.249	5178
842.385	5109
842.522	5284
842.659	5140
842.796	5181
842.933	5162
843.069	5090
843.206	5143
843.343	5349
843.479	5239
843.616	5246
843.752	5094
843.889	5033
844.025	5216
844.162	5029
844.298	5227
844.435	5041
844.571	5029
844.708	5204
844.844	5280
844.98	5337
845.117	5303
845.253	5162
845.389	5102
845.525	5231
845.661	5117
845.798	5041
845.934	5132
846.07	5071
846.206	5140
846.342	5269
846.478	5193
846.614	5010
846.75	4957
846.886	4934
847.022	5140
847.158	5025
847.294	5052
847.429	5143
847.565	5029
847.701	5288
847.837	4847
847.972	4870
848.108	4972
848.244	4934
848.379	4820
848.515	4786
848.65	4736
848.786	4748
848.921	4767
849.057	4877
849.192	4904
849.328	4828
849.463	4870
849.598	4820
849.734	4733
849.869	4706
850.004	4626
850.14	4656
850.275	4645
850.41	4538
850.545	4527
850.68	4596
850.815	4645
850.95	4668
851.085	4854
851.22	4706
851.355	4641
851.49	4626
851.625	4603
851.76	4611
851.895	4546
852.03	4512
852.165	4675
852.299	4698
852.434	4763
852.569	4736
852.703	4782
852.838	4862
852.973	4957
853.107	4923
853.242	4710
853.376	4656
853.511	4535
853.645	4630
853.78	4778
853.914	4717
854.048	4626
854.183	4672
854.317	4683
854.451	4892
854.585	4710
854.72	4660
854.854	4778
854.988	4580
855.122	4615
855.256	4535
855.39	4656
855.524	4790
855.658	4733
855.792	4683
855.926	4759
856.06	4763
856.194	4782
856.327	4637
856.461	4637
856.595	4580
856.729	4615
856.862	4725
856.996	4706
857.13	4774
857.263	4786
857.397	4774
857.53	4660
857.664	4710
857.797	4763
857.931	4774
858.064	4729
858.197	4748
858.331	4664
858.464	4626
858.597	4531
858.731	4618
858.864	4630
858.997	4611
859.13	4664
859.263	4748
859.396	4649
859.529	4542
859.662	4554
859.795	4516
859.928	4656
860.061	4729
860.194	4752
860.327	4577
860.46	4607
860.592	4687
860.725	4736
860.858	4694
860.99	4489
861.123	4489
861.256	4481
861.388	4634
861.521	5315
861.653	4485
861.786	4447
861.918	4447
862.05	4512
862.183	4550
862.315	4580
862.447	4660
862.58	4523
862.712	4436
862.844	4363
862.976	4481
863.108	4466
863.24	4733
863.372	4375
863.504	4348
863.636	4386
863.768	4512
863.9	4462
864.032	4367
864.164	4402
864.296	4478
864.428	4531
864.559	4588
864.691	4512
864.823	4523
864.954	4474
865.086	4584
865.217	4436
865.349	4462
865.48	4470
865.612	4516
865.743	4592
865.875	4481
866.006	4367
866.137	4497
866.269	4409
866.4	4424
866.531	4440
866.662	4394
866.793	4428
866.924	4455
867.055	4538
867.186	4474
867.317	4424
867.448	4356
867.579	4398
867.71	4402
867.841	4398
867.972	4478
868.103	4516
868.233	4485
868.364	4432
868.495	4481
868.625	4603
868.756	4714
868.886	4573
869.017	4615
869.147	4763
869.278	4793
869.408	4691
869.539	4660
869.669	4763
869.799	4744
869.929	4744
870.06	4763
870.19	4908
870.32	4961
870.45	4968
870.58	4984
870.71	5075
870.84	5064
870.97	4957
871.1	4866
871.23	5166
871.36	5113
871.489	4991
871.619	5083
871.749	5102
871.879	5132
872.008	5208
872.138	5067
872.267	5003
872.397	4885
872.526	4835
872.656	4755
872.785	4801
872.915	4930
873.044	5037
873.173	4942
873.303	4942
873.432	4942
873.561	4927
873.69	4870
873.819	4885
873.948	4911
874.077	4839
874.206	4759
874.335	4786
874.464	4949
874.593	5041
874.722	4961
874.851	5136
874.979	4999
875.108	5010
875.237	4866
875.365	4873
875.494	4885
875.623	4949
875.751	4828
875.88	4904
876.008	4984
876.136	5048
876.265	5181
876.393	5337
876.521	5235
876.65	5235
876.778	5189
876.906	5060
877.034	5018
877.162	5010
877.29	5006
877.418	5006
877.546	5064
877.674	5060
877.802	5010
877.93	5018
878.058	4911
878.185	4870
878.313	4946
878.441	4953
878.568	4801
878.696	4911
878.824	4949
878.951	4980
879.079	5113
879.206	5277
879.333	5102
879.461	4949
879.588	4980
879.715	5102
879.842	5239
879.97	5037
880.097	4812
880.224	4679
880.351	4885
880.478	4809
880.605	4805
880.732	4824
880.859	5094
880.986	4896
881.112	4892
881.239	4740
881.366	4706
881.493	4580
881.619	4641
881.746	4653
881.872	4664
881.999	4679
882.125	4675
882.252	4755
882.378	4801
882.505	4896
882.631	4816
882.757	4668
882.883	4759
883.01	4687
883.136	4687
883.262	4577
883.388	4645
883.514	4805
883.64	4854
883.766	4767
883.892	4694
884.018	4679
884.143	4919
884.269	5003
884.395	4706
884.52	4588
884.646	4626
884.772	4611
884.897	4603
885.023	4679
885.148	4763
885.274	4870
885.399	4801
885.524	4702
885.65	4710
885.775	4774
885.9	4702
886.025	4835
886.15	4752
886.275	4733
886.4	4664
886.525	4717
886.65	4687
886.775	4679
886.9	4934
887.025	5075
887.149	4767
887.274	4622
887.399	4588
887.523	4649
887.648	4580
887.773	4558
887.897	4714
888.021	4763
888.146	4694
888.27	4831
888.395	4889
888.519	4812
888.643	4820
888.767	4793
888.891	4683
889.015	4573
889.139	4641
889.263	4615
889.387	4748
889.511	4850
889.635	4767
889.759	4611
889.883	4653
890.006	4740
890.13	4862
890.254	4577
890.377	4683
890.501	4527
890.624	4554
890.748	4630
890.871	4558
890.995	4451
891.118	4432
891.241	4485
891.364	4554
891.488	4660
891.611	4478
891.734	4535
891.857	4626
891.98	4569
892.103	4653
892.226	4653
892.349	4527
892.471	4436
892.594	4523
892.717	4561
892.839	4542
892.962	4645
893.085	4668
893.207	4573
893.33	4432
893.452	4504
893.575	4653
893.697	4596
893.819	4752
893.941	4828
894.064	4793
894.186	4550
894.308	4641
894.43	4706
894.552	4801
894.674	4748
894.796	4565
894.918	4592
895.04	4573
895.161	4717
895.283	4679
895.405	4542
895.526	4653
895.648	4733
895.769	4679
895.891	4672
896.012	4740
896.134	4767
896.255	4698
896.376	4637
896.498	4615
896.619	4672
896.74	4630
896.861	4706
896.982	4915
897.103	5079
897.224	4824
897.345	4721
897.466	4645
897.587	4733
897.708	4824
897.828	4752
897.949	4649
898.07	4561
898.19	4596
898.311	4881
898.431	4672
898.552	4714
898.672	4805
898.792	4782
898.913	4691
899.033	4603
899.153	4500
899.273	4451
899.393	4500
899.513	4523
899.633	4527
899.753	4573
899.873	4489
899.993	4558
900.113	4565
900.232	4569
900.352	4519
900.472	4481
900.591	4409
900.711	4542
900.83	4405
900.95	4599
901.069	4675
901.189	4538
901.308	4394
901.427	4295
901.546	4363
901.665	4436
901.784	4554
901.904	4356
902.023	4341
902.141	4207
902.26	4196
902.379	4276
902.498	4242
902.617	4215
902.735	4360
902.854	4447
902.973	4337
903.091	4215
903.21	4185
903.328	4295
903.446	4287
903.565	4299
903.683	4402
903.801	4280
903.919	4325
904.038	4451
904.156	4325
904.274	4386
904.392	4405
904.51	4466
904.627	4447
904.745	4527
904.863	4645
904.981	4337
905.098	4318
905.216	4333
905.334	4432
905.451	4447
905.569	4409
905.686	4588
905.803	4565
905.921	4417
906.038	4489
906.155	4497
906.272	4424
906.389	4443
906.506	4344
906.623	4348
906.74	4390
906.857	4306
906.974	4360
907.091	4588
907.208	4641
907.324	4592
907.441	4512
907.557	4390
907.674	4375
907.79	4325
907.907	4402
908.023	4459
908.139	4462
908.256	4466
908.372	4440
908.488	4459
908.604	4276
908.72	4276
908.836	4390
908.952	4390
909.068	4489
909.184	4535
909.3	4474
909.415	4622
909.531	4519
909.647	4344
909.762	4417
909.878	4322
909.993	4459
910.108	4394
910.224	4402
910.339	4497
910.454	4371
910.57	4367
910.685	4299
910.8	4664
910.915	4611
911.03	4466
911.145	4344
911.259	4322
911.374	4360
911.489	4276
911.604	4249
911.718	4181
911.833	4196
911.947	4116
912.062	4059
912.176	4238
912.291	4261
912.405	4246
912.519	4550
912.633	4485
912.748	4352
912.862	4287
912.976	4242
913.09	4086
913.204	4188
913.318	4215
913.431	4413
913.545	4363
913.659	4440
913.772	4344
913.886	4230
914	4211
914.113	4386
914.226	4478
914.34	4386
914.453	4204
914.566	4432
914.68	4325
914.793	4310
914.906	4112
915.019	4112
915.132	4135
915.245	4169
915.358	4215
915.47	4219
915.583	4242
915.696	4265
915.809	4421
915.921	4424
916.034	4257
916.146	4265
916.259	4204
916.371	4383
916.483	4333
916.595	4284
916.708	4348
916.82	4310
916.932	4314
917.044	4314
917.156	4303
917.268	4227
917.38	4261
917.491	4284
917.603	4363
917.715	4413
917.826	4424
917.938	4356
918.049	4234
918.161	4398
918.272	4561
918.384	4508
918.495	4462
918.606	4287
918.717	4227
918.828	4325
918.939	4409
919.05	4253
919.161	4344
919.272	4181
919.383	4257
919.494	4474
919.604	4599
919.715	4440
919.826	4360
919.936	4390
920.047	4500
920.157	4481
920.267	4679
920.378	4554
920.488	4516
920.598	4714
920.708	4862
920.818	4782
920.928	4790
921.038	4923
921.148	4877
921.258	4603
921.368	4607
921.477	4516
921.587	4478
921.697	4352
921.806	4508
921.916	4474
922.025	4249
922.134	4257
922.244	4242
922.353	4356
922.462	4154
922.571	4173
922.68	4017
922.789	3991
922.898	4013
923.007	3991
923.116	4093
923.224	4067
923.333	4032
923.442	3953
923.55	3979
923.659	4017
923.767	4139
923.876	4032
923.984	4154
924.092	4013
924.201	4101
924.309	4090
924.417	4116
924.525	4036
924.633	4169
924.741	5041
924.849	3922
924.956	4086
925.064	3953
925.172	3884
925.279	3979
925.387	4109
925.494	4074
925.602	4204
925.709	4116
925.816	4029
925.924	4147
926.031	4249
926.138	4173
926.245	4204
926.352	4116
926.459	4200
926.566	4268
926.673	4143
926.779	4044
926.886	4059
926.993	3994
927.099	3907
927.206	3941
927.312	3949
927.419	4010
927.525	4067
927.631	4101
927.737	3960
927.843	3941
927.95	3854
928.056	3903
928.162	3975
928.267	4078
928.373	4691
928.479	4093
928.585	3850
928.69	4048
928.796	4086
928.901	3968
929.007	3835
929.112	3983
929.218	3964
929.323	3934
929.428	3934
929.533	4097
929.638	3876
929.743	3956
929.848	4036
929.953	4025
930.058	3937
930.163	3785
930.267	3838
930.372	3983
930.477	3774
930.581	4071
930.685	3903
930.79	3789
930.894	3861
930.998	3816
931.103	4032
931.207	3694
931.311	3724
931.415	3705
931.519	3534
931.623	3545
