Data from test_V78500241_362.txt Node
Date: Fri Mar 25 16:51:31 CST 2022
User: usil
Spectrometer: V785-0024
Trigger mode: 0
Integration Time (sec): 4.000000E-1
Scans to average: 1
Nonlinearity correction enabled: false
Boxcar width: 0
Storing dark spectrum: false
XAxis mode: Wavelengths
Number of Pixels in Spectrum: 1024
>>>>>Begin Spectral Data<<<<<
801.071	8126
801.214	8103
801.356	7982
801.499	7940
801.641	7856
801.783	7845
801.926	7959
802.068	7925
802.211	7986
802.353	8024
802.496	7913
802.638	7947
802.78	8005
802.923	8027
803.065	7852
803.208	7940
803.35	8046
803.492	8111
803.635	8088
803.777	8031
803.919	8164
804.061	8469
804.204	8202
804.346	8088
804.488	7993
804.63	8172
804.773	8016
804.915	8130
805.057	8366
805.199	8218
805.341	8244
805.483	8214
805.626	8130
805.768	8096
805.91	8183
806.052	8256
806.194	8103
806.336	8381
806.478	8214
806.62	8142
806.762	8157
806.904	8328
807.046	8499
807.188	8385
807.33	8370
807.472	8381
807.614	8233
807.756	8199
807.898	8065
808.04	7906
808.182	8012
808.324	7951
808.465	8016
808.607	8092
808.749	8069
808.891	8225
809.033	8282
809.174	8263
809.316	8054
809.458	8111
809.6	8024
809.741	8084
809.883	8100
810.025	8096
810.166	8126
810.308	8111
810.45	7993
810.591	7868
810.733	7780
810.875	7628
811.016	7472
811.158	7540
811.299	7609
811.441	7845
811.582	7795
811.724	7601
811.865	7613
812.007	7681
812.148	7540
812.29	7628
812.431	7803
812.573	7951
812.714	8035
812.855	8142
812.997	8214
813.138	8298
813.279	8221
813.421	8096
813.562	8054
813.703	7963
813.845	7795
813.986	7556
814.127	7403
814.268	7263
814.41	7232
814.551	7187
814.692	7285
814.833	7095
814.974	7160
815.115	7133
815.256	6947
815.397	6920
815.539	6970
815.68	6772
815.821	6806
815.962	6920
816.103	6859
816.244	6802
816.385	6650
816.526	6623
816.666	6528
816.807	6388
816.948	6452
817.089	6483
817.23	6483
817.371	6391
817.512	6361
817.653	6429
817.793	6365
817.934	6483
818.075	6547
818.216	6456
818.356	6399
818.497	6247
818.638	6133
818.778	6144
818.919	6106
819.06	6205
819.2	6342
819.341	6308
819.481	6395
819.622	6593
819.762	6764
819.903	6730
820.043	6597
820.184	6612
820.324	6616
820.465	6681
820.605	6684
820.746	6646
820.886	6540
821.026	6719
821.167	6726
821.307	6776
821.447	6779
821.588	6700
821.728	6604
821.868	6528
822.008	6372
822.149	6361
822.289	6391
822.429	6140
822.569	6068
822.709	6152
822.849	5904
822.99	5878
823.13	5973
823.27	5950
823.41	5779
823.55	5821
823.69	5775
823.83	5783
823.97	5665
824.11	5589
824.25	5509
824.389	5566
824.529	5558
824.669	5604
824.809	5707
824.949	5718
825.089	5627
825.228	5581
825.368	5448
825.508	5349
825.648	5341
825.787	5387
825.927	5433
826.067	5330
826.206	5330
826.346	5360
826.485	5455
826.625	5406
826.765	5577
826.904	5474
827.044	5261
827.183	5201
827.323	5143
827.462	5273
827.601	5208
827.741	5212
827.88	5197
828.02	5155
828.159	5242
828.298	5345
828.437	5406
828.577	5292
828.716	5539
828.855	5357
828.994	5181
829.134	5147
829.273	5201
829.412	5162
829.551	5132
829.69	5140
829.829	5296
829.968	5372
830.107	5292
830.246	5303
830.385	5193
830.524	5162
830.663	5147
830.802	5003
830.941	4930
831.08	4900
831.219	5006
831.357	5033
831.496	5162
831.635	4984
831.774	4858
831.913	4828
832.051	4691
832.19	4805
832.329	4831
832.467	4736
832.606	4672
832.744	4706
832.883	4717
833.022	4733
833.16	4797
833.299	4843
833.437	4824
833.576	4835
833.714	4862
833.852	4885
833.991	4915
834.129	5014
834.267	4949
834.406	4934
834.544	4961
834.682	5018
834.821	4987
834.959	5143
835.097	4987
835.235	5136
835.373	5075
835.511	5090
835.65	5025
835.788	5102
835.926	4900
836.064	4908
836.202	4915
836.34	5204
836.478	5273
836.615	5159
836.753	5197
836.891	5280
837.029	5303
837.167	5201
837.305	5143
837.443	5166
837.58	5090
837.718	5292
837.856	5204
837.993	5117
838.131	5288
838.269	5220
838.406	5254
838.544	5178
838.681	5060
838.819	5003
838.956	4919
839.094	4938
839.231	5025
839.369	5052
839.506	5490
839.643	5254
839.781	5117
839.918	5052
840.055	5124
840.193	5128
840.33	5124
840.467	5094
840.604	5193
840.742	5440
840.879	5079
841.016	5117
841.153	5185
841.29	5452
841.427	5326
841.564	5292
841.701	5368
841.838	5315
841.975	5201
842.112	5220
842.249	5147
842.385	5064
842.522	5337
842.659	5162
842.796	5159
842.933	5227
843.069	5113
843.206	5162
843.343	5296
843.479	5288
843.616	5223
843.752	5022
843.889	5071
844.025	5261
844.162	5056
844.298	5254
844.435	5094
844.571	5060
844.708	5208
844.844	5277
844.98	5387
845.117	5296
845.253	5178
845.389	5067
845.525	5166
845.661	5117
845.798	5060
845.934	5181
846.07	5090
846.206	5204
846.342	5288
846.478	5178
846.614	5018
846.75	4972
846.886	4957
847.022	5155
847.158	5052
847.294	5025
847.429	5079
847.565	5083
847.701	5326
847.837	4870
847.972	4801
848.108	4991
848.244	4911
848.379	4771
848.515	4721
848.65	4736
848.786	4748
848.921	4786
849.057	4843
849.192	4892
849.328	4847
849.463	4854
849.598	4816
849.734	4767
849.869	4721
850.004	4641
850.14	4664
850.275	4607
850.41	4535
850.545	4546
850.68	4653
850.815	4615
850.95	4607
851.085	4873
851.22	4744
851.355	4649
851.49	4630
851.625	4637
851.76	4649
851.895	4618
852.03	4523
852.165	4694
852.299	4740
852.434	4824
852.569	4793
852.703	4786
852.838	4847
852.973	4953
853.107	4866
853.242	4725
853.376	4694
853.511	4554
853.645	4615
853.78	4759
853.914	4656
854.048	4679
854.183	4649
854.317	4721
854.451	4809
854.585	4694
854.72	4641
854.854	4767
854.988	4592
855.122	4649
855.256	4489
855.39	4687
855.524	4774
855.658	4729
855.792	4706
855.926	4729
856.06	4790
856.194	4782
856.327	4725
856.461	4615
856.595	4626
856.729	4618
856.862	4763
856.996	4694
857.13	4706
857.263	4725
857.397	4812
857.53	4706
857.664	4683
857.797	4797
857.931	4786
858.064	4694
858.197	4733
858.331	4664
858.464	4626
858.597	4535
858.731	4664
858.864	4588
858.997	4558
859.13	4694
859.263	4672
859.396	4736
859.529	4637
859.662	4550
859.795	4554
859.928	4649
860.061	4843
860.194	4778
860.327	4592
860.46	4573
860.592	4691
860.725	4714
860.858	4706
860.99	4580
861.123	4497
861.256	4512
861.388	4573
861.521	5368
861.653	4504
861.786	4474
861.918	4432
862.05	4554
862.183	4531
862.315	4607
862.447	4656
862.58	4554
862.712	4405
862.844	4352
862.976	4481
863.108	4478
863.24	4786
863.372	4363
863.504	4394
863.636	4443
863.768	4481
863.9	4394
864.032	4337
864.164	4428
864.296	4504
864.428	4580
864.559	4596
864.691	4561
864.823	4542
864.954	4519
865.086	4500
865.217	4462
865.349	4417
865.48	4459
865.612	4531
865.743	4615
865.875	4440
866.006	4459
866.137	4516
866.269	4455
866.4	4432
866.531	4436
866.662	4436
866.793	4455
866.924	4440
867.055	4489
867.186	4481
867.317	4413
867.448	4386
867.579	4356
867.71	4417
867.841	4390
867.972	4504
868.103	4462
868.233	4428
868.364	4436
868.495	4523
868.625	4641
868.756	4816
868.886	4577
869.017	4672
869.147	4862
869.278	4782
869.408	4668
869.539	4634
869.669	4748
869.799	4691
869.929	4763
870.06	4725
870.19	4927
870.32	4881
870.45	4938
870.58	4984
870.71	5090
870.84	5128
870.97	4949
871.1	4892
871.23	5151
871.36	5113
871.489	5037
871.619	5086
871.749	5098
871.879	5128
872.008	5159
872.138	5075
872.267	5003
872.397	4858
872.526	4809
872.656	4767
872.785	4847
872.915	4965
873.044	5022
873.173	4953
873.303	4934
873.432	4957
873.561	5010
873.69	4858
873.819	4896
873.948	4900
874.077	4824
874.206	4740
874.335	4858
874.464	4858
874.593	5060
874.722	4961
874.851	5086
874.979	5056
875.108	5010
875.237	4911
875.365	4953
875.494	4881
875.623	5003
875.751	4828
875.88	4870
876.008	4957
876.136	5022
876.265	5197
876.393	5330
876.521	5227
876.65	5261
876.778	5117
876.906	5083
877.034	5010
877.162	5060
877.29	4972
877.418	5003
877.546	5075
877.674	5010
877.802	5094
877.93	5037
878.058	4923
878.185	4850
878.313	4965
878.441	4953
878.568	4809
878.696	4820
878.824	4942
878.951	5003
879.079	5102
879.206	5303
879.333	5117
879.461	5010
879.588	5006
879.715	5128
879.842	5261
879.97	5033
880.097	4793
880.224	4729
880.351	4870
880.478	4797
880.605	4805
880.732	4763
880.859	5113
880.986	4930
881.112	4896
881.239	4790
881.366	4656
881.493	4592
881.619	4588
881.746	4664
881.872	4691
881.999	4687
882.125	4733
882.252	4835
882.378	4828
882.505	4991
882.631	4748
882.757	4706
882.883	4714
883.01	4759
883.136	4740
883.262	4599
883.388	4634
883.514	4809
883.64	4881
883.766	4824
883.892	4679
884.018	4763
884.143	4896
884.269	4991
884.395	4717
884.52	4694
884.646	4641
884.772	4573
884.897	4531
885.023	4687
885.148	4786
885.274	4858
885.399	4812
885.524	4721
885.65	4714
885.775	4755
885.9	4717
886.025	4801
886.15	4782
886.275	4736
886.4	4630
886.525	4714
886.65	4691
886.775	4687
886.9	4942
887.025	5010
887.149	4820
887.274	4664
887.399	4634
887.523	4596
887.648	4573
887.773	4596
887.897	4733
888.021	4733
888.146	4683
888.27	4828
888.395	4900
888.519	4809
888.643	4778
888.767	4835
888.891	4706
889.015	4641
889.139	4649
889.263	4622
889.387	4771
889.511	4850
889.635	4805
889.759	4637
889.883	4649
890.006	4706
890.13	4877
890.254	4630
890.377	4729
890.501	4512
890.624	4558
890.748	4683
890.871	4531
890.995	4436
891.118	4383
891.241	4546
891.364	4577
891.488	4596
891.611	4504
891.734	4508
891.857	4592
891.98	4573
892.103	4622
892.226	4573
892.349	4519
892.471	4428
892.594	4527
892.717	4592
892.839	4565
892.962	4641
893.085	4675
893.207	4626
893.33	4447
893.452	4516
893.575	4656
893.697	4626
893.819	4801
893.941	4793
894.064	4797
894.186	4573
894.308	4577
894.43	4710
894.552	4809
894.674	4797
894.796	4550
894.918	4596
895.04	4535
895.161	4729
895.283	4637
895.405	4580
895.526	4645
895.648	4687
895.769	4668
895.891	4698
896.012	4729
896.134	4714
896.255	4630
896.376	4637
896.498	4649
896.619	4675
896.74	4641
896.861	4622
896.982	4942
897.103	5075
897.224	4820
897.345	4736
897.466	4668
897.587	4752
897.708	4831
897.828	4797
897.949	4691
898.07	4615
898.19	4664
898.311	4847
898.431	4698
898.552	4744
898.672	4809
898.792	4729
898.913	4767
899.033	4675
899.153	4508
899.273	4440
899.393	4489
899.513	4519
899.633	4519
899.753	4558
899.873	4523
899.993	4618
900.113	4592
900.232	4588
900.352	4523
900.472	4493
900.591	4409
900.711	4459
900.83	4440
900.95	4645
901.069	4649
901.189	4561
901.308	4386
901.427	4341
901.546	4375
901.665	4432
901.784	4512
901.904	4379
902.023	4348
902.141	4131
902.26	4196
902.379	4318
902.498	4257
902.617	4185
902.735	4383
902.854	4440
902.973	4375
903.091	4196
903.21	4234
903.328	4344
903.446	4230
903.565	4234
903.683	4344
903.801	4318
903.919	4417
904.038	4481
904.156	4310
904.274	4493
904.392	4344
904.51	4466
904.627	4455
904.745	4607
904.863	4641
904.981	4394
905.098	4337
905.216	4383
905.334	4440
905.451	4474
905.569	4493
905.686	4565
905.803	4569
905.921	4333
906.038	4527
906.155	4531
906.272	4413
906.389	4455
906.506	4333
906.623	4356
906.74	4375
906.857	4287
906.974	4375
907.091	4565
907.208	4733
907.324	4618
907.441	4481
907.557	4398
907.674	4348
907.79	4348
907.907	4379
908.023	4466
908.139	4481
908.256	4432
908.372	4497
908.488	4466
908.604	4360
908.72	4303
908.836	4390
908.952	4371
909.068	4432
909.184	4588
909.3	4485
909.415	4592
909.531	4535
909.647	4314
909.762	4341
909.878	4367
909.993	4390
910.108	4428
910.224	4375
910.339	4493
910.454	4428
910.57	4367
910.685	4341
910.8	4660
910.915	4603
911.03	4523
911.145	4322
911.259	4325
911.374	4344
911.489	4265
911.604	4303
911.718	4143
911.833	4200
911.947	4101
912.062	4040
912.176	4196
912.291	4249
912.405	4238
912.519	4470
912.633	4538
912.748	4367
912.862	4322
912.976	4192
913.09	4101
913.204	4169
913.318	4257
913.431	4394
913.545	4394
913.659	4459
913.772	4325
913.886	4242
914	4230
914.113	4379
914.226	4481
914.34	4356
914.453	4200
914.566	4440
914.68	4318
914.793	4303
914.906	4162
915.019	4112
915.132	4032
915.245	4200
915.358	4223
915.47	4246
915.583	4268
915.696	4268
915.809	4394
915.921	4413
916.034	4295
916.146	4242
916.259	4207
916.371	4390
916.483	4390
916.595	4265
916.708	4322
916.82	4299
916.932	4276
917.044	4303
917.156	4291
917.268	4207
917.38	4280
917.491	4261
917.603	4360
917.715	4413
917.826	4451
917.938	4322
918.049	4268
918.161	4394
918.272	4565
918.384	4554
918.495	4470
918.606	4314
918.717	4234
918.828	4314
918.939	4379
919.05	4261
919.161	4344
919.272	4135
919.383	4246
919.494	4459
919.604	4694
919.715	4432
919.826	4383
919.936	4409
920.047	4550
920.157	4489
920.267	4725
920.378	4554
920.488	4500
920.598	4714
920.708	4900
920.818	4831
920.928	4755
921.038	4942
921.148	4999
921.258	4675
921.368	4573
921.477	4546
921.587	4519
921.697	4455
921.806	4577
921.916	4443
922.025	4344
922.134	4314
922.244	4257
922.353	4352
922.462	4162
922.571	4162
922.68	4059
922.789	4013
922.898	4105
923.007	4059
923.116	4135
923.224	4101
923.333	4109
923.442	4067
923.55	4021
923.659	4067
923.767	4188
923.876	4025
923.984	4154
924.092	3991
924.201	4124
924.309	4131
924.417	4204
924.525	4116
924.633	4139
924.741	4911
924.849	3941
924.956	4185
925.064	4025
925.172	3945
925.279	4036
925.387	4078
925.494	4101
925.602	4280
925.709	4242
925.816	4101
925.924	4215
926.031	4272
926.138	4242
926.245	4211
926.352	4128
926.459	4295
926.566	4379
926.673	4230
926.779	4158
926.886	4131
926.993	4021
927.099	3991
927.206	3953
927.312	4025
927.419	4112
927.525	4124
927.631	4139
927.737	4021
927.843	4010
927.95	3892
928.056	3987
928.162	4029
928.267	4090
928.373	4691
928.479	4173
928.585	3934
928.69	4067
928.796	4124
928.901	4032
929.007	3857
929.112	4044
929.218	4032
929.323	3987
929.428	3979
929.533	4154
929.638	3960
929.743	4048
929.848	4086
929.953	4048
930.058	3956
930.163	3857
930.267	3873
930.372	4017
930.477	3816
930.581	4158
930.685	4051
930.79	3896
930.894	3903
930.998	3899
931.103	4105
931.207	3751
931.311	3713
931.415	3740
931.519	3572
931.623	3591
