Data from test_V78500241_2155.txt Node
Date: Fri Mar 25 17:03:59 CST 2022
User: usil
Spectrometer: V785-0024
Trigger mode: 0
Integration Time (sec): 4.000000E-1
Scans to average: 1
Nonlinearity correction enabled: false
Boxcar width: 0
Storing dark spectrum: false
XAxis mode: Wavelengths
Number of Pixels in Spectrum: 1024
>>>>>Begin Spectral Data<<<<<
801.071	7997
801.214	7982
801.356	7887
801.499	7856
801.641	7792
801.783	7826
801.926	8020
802.068	7909
802.211	7936
802.353	7989
802.496	7845
802.638	7811
802.78	7921
802.923	7879
803.065	7799
803.208	7871
803.35	7986
803.492	8073
803.635	8138
803.777	8005
803.919	8161
804.061	8446
804.204	8172
804.346	8058
804.488	7982
804.63	8126
804.773	7963
804.915	8111
805.057	8309
805.199	8168
805.341	8183
805.483	8279
805.626	8218
805.768	8153
805.91	8195
806.052	8187
806.194	8073
806.336	8282
806.478	8077
806.62	8027
806.762	8138
806.904	8180
807.046	8484
807.188	8374
807.33	8374
807.472	8320
807.614	8187
807.756	8126
807.898	7944
808.04	7875
808.182	7917
808.324	7864
808.465	7887
808.607	8065
808.749	8126
808.891	8210
809.033	8294
809.174	8206
809.316	8024
809.458	8069
809.6	8046
809.741	8103
809.883	7982
810.025	8092
810.166	8054
810.308	8081
810.45	7982
810.591	7837
810.733	7655
810.875	7658
811.016	7487
811.158	7510
811.299	7548
811.441	7753
811.582	7681
811.724	7567
811.865	7575
812.007	7628
812.148	7590
812.29	7628
812.431	7769
812.573	7906
812.714	8035
812.855	8115
812.997	8259
813.138	8320
813.279	8183
813.421	8069
813.562	7993
813.703	7753
813.845	7712
813.986	7400
814.127	7221
814.268	7213
814.41	7122
814.551	7149
814.692	7149
814.833	7080
814.974	7110
815.115	7080
815.256	6928
815.397	6966
815.539	6913
815.68	6745
815.821	6764
815.962	6798
816.103	6776
816.244	6722
816.385	6635
816.526	6578
816.666	6437
816.807	6315
816.948	6475
817.089	6479
817.23	6437
817.371	6292
817.512	6369
817.653	6403
817.793	6369
817.934	6403
818.075	6399
818.216	6494
818.356	6399
818.497	6224
818.638	6091
818.778	6209
818.919	6178
819.06	6133
819.2	6338
819.341	6289
819.481	6327
819.622	6559
819.762	6684
819.903	6665
820.043	6597
820.184	6559
820.324	6604
820.465	6741
820.605	6650
820.746	6662
820.886	6502
821.026	6711
821.167	6696
821.307	6791
821.447	6734
821.588	6684
821.728	6566
821.868	6536
822.008	6266
822.149	6369
822.289	6361
822.429	6129
822.569	6121
822.709	6117
822.849	5908
822.99	5950
823.13	5870
823.27	5878
823.41	5771
823.55	5794
823.69	5786
823.83	5737
823.97	5638
824.11	5551
824.25	5520
824.389	5589
824.529	5600
824.669	5509
824.809	5627
824.949	5646
825.089	5653
825.228	5577
825.368	5383
825.508	5322
825.648	5334
825.787	5353
825.927	5395
826.067	5307
826.206	5269
826.346	5368
826.485	5406
826.625	5379
826.765	5585
826.904	5478
827.044	5231
827.183	5181
827.323	5117
827.462	5212
827.601	5178
827.741	5140
827.88	5254
828.02	5128
828.159	5197
828.298	5261
828.437	5433
828.577	5330
828.716	5463
828.855	5288
828.994	5151
829.134	5121
829.273	5216
829.412	5143
829.551	5128
829.69	5121
829.829	5220
829.968	5315
830.107	5235
830.246	5258
830.385	5208
830.524	5121
830.663	5117
830.802	4961
830.941	4889
831.08	4793
831.219	5010
831.357	4938
831.496	5181
831.635	4858
831.774	4801
831.913	4835
832.051	4694
832.19	4729
832.329	4839
832.467	4679
832.606	4630
832.744	4748
832.883	4717
833.022	4691
833.16	4763
833.299	4843
833.437	4812
833.576	4858
833.714	4854
833.852	4839
833.991	4892
834.129	4976
834.267	4923
834.406	4862
834.544	4923
834.682	4976
834.821	4965
834.959	5132
835.097	4965
835.235	5151
835.373	5098
835.511	5121
835.65	4991
835.788	5006
835.926	4854
836.064	4881
836.202	4923
836.34	5151
836.478	5239
836.615	5132
836.753	5201
836.891	5265
837.029	5254
837.167	5201
837.305	5174
837.443	5105
837.58	5075
837.718	5239
837.856	5220
837.993	5117
838.131	5231
838.269	5235
838.406	5208
838.544	5189
838.681	5029
838.819	4991
838.956	4892
839.094	4900
839.231	4972
839.369	5033
839.506	5391
839.643	5303
839.781	5010
839.918	4953
840.055	5143
840.193	5064
840.33	5048
840.467	5033
840.604	5170
840.742	5482
840.879	5086
841.016	5064
841.153	5083
841.29	5379
841.427	5311
841.564	5261
841.701	5326
841.838	5280
841.975	5212
842.112	5299
842.249	5109
842.385	5060
842.522	5357
842.659	5136
842.796	5121
842.933	5246
843.069	5102
843.206	5143
843.343	5296
843.479	5220
843.616	5235
843.752	5010
843.889	4999
844.025	5201
844.162	5018
844.298	5185
844.435	5094
844.571	5029
844.708	5201
844.844	5284
844.98	5334
845.117	5299
845.253	5098
845.389	5067
845.525	5143
845.661	5124
845.798	5014
845.934	5102
846.07	5041
846.206	5201
846.342	5242
846.478	5151
846.614	5041
846.75	4968
846.886	4900
847.022	5109
847.158	5006
847.294	5071
847.429	5060
847.565	5064
847.701	5284
847.837	4896
847.972	4809
848.108	4923
848.244	4946
848.379	4790
848.515	4702
848.65	4714
848.786	4782
848.921	4767
849.057	4854
849.192	4904
849.328	4797
849.463	4812
849.598	4767
849.734	4767
849.869	4702
850.004	4584
850.14	4649
850.275	4618
850.41	4466
850.545	4588
850.68	4615
850.815	4615
850.95	4634
851.085	4820
851.22	4744
851.355	4664
851.49	4603
851.625	4622
851.76	4630
851.895	4531
852.03	4523
852.165	4618
852.299	4714
852.434	4744
852.569	4736
852.703	4778
852.838	4805
852.973	4889
853.107	4881
853.242	4714
853.376	4683
853.511	4489
853.645	4588
853.78	4786
853.914	4656
854.048	4656
854.183	4615
854.317	4721
854.451	4866
854.585	4656
854.72	4660
854.854	4698
854.988	4577
855.122	4599
855.256	4493
855.39	4668
855.524	4759
855.658	4668
855.792	4698
855.926	4740
856.06	4763
856.194	4805
856.327	4729
856.461	4592
856.595	4615
856.729	4596
856.862	4729
856.996	4721
857.13	4710
857.263	4733
857.397	4828
857.53	4672
857.664	4725
857.797	4759
857.931	4740
858.064	4687
858.197	4725
858.331	4596
858.464	4584
858.597	4512
858.731	4611
858.864	4615
858.997	4603
859.13	4618
859.263	4672
859.396	4618
859.529	4550
859.662	4565
859.795	4538
859.928	4596
860.061	4740
860.194	4755
860.327	4554
860.46	4546
860.592	4691
860.725	4702
860.858	4706
860.99	4527
861.123	4523
861.256	4535
861.388	4656
861.521	5402
861.653	4497
861.786	4440
861.918	4470
862.05	4538
862.183	4611
862.315	4577
862.447	4653
862.58	4527
862.712	4417
862.844	4303
862.976	4504
863.108	4451
863.24	4736
863.372	4303
863.504	4428
863.636	4398
863.768	4470
863.9	4386
864.032	4402
864.164	4413
864.296	4451
864.428	4512
864.559	4580
864.691	4519
864.823	4489
864.954	4447
865.086	4512
865.217	4417
865.349	4424
865.48	4459
865.612	4451
865.743	4641
865.875	4466
866.006	4459
866.137	4451
866.269	4394
866.4	4428
866.531	4447
866.662	4398
866.793	4428
866.924	4394
867.055	4493
867.186	4409
867.317	4402
867.448	4325
867.579	4341
867.71	4363
867.841	4329
867.972	4478
868.103	4478
868.233	4428
868.364	4459
868.495	4516
868.625	4634
868.756	4733
868.886	4569
869.017	4634
869.147	4759
869.278	4774
869.408	4656
869.539	4637
869.669	4691
869.799	4660
869.929	4771
870.06	4721
870.19	4957
870.32	4915
870.45	4946
870.58	4987
870.71	5067
870.84	5132
870.97	4923
871.1	4889
871.23	5124
871.36	5045
871.489	5045
871.619	5086
871.749	5079
871.879	5155
872.008	5166
872.138	5025
872.267	4972
872.397	4797
872.526	4793
872.656	4679
872.785	4774
872.915	4904
873.044	5006
873.173	4930
873.303	4904
873.432	4965
873.561	4946
873.69	4885
873.819	4843
873.948	4885
874.077	4797
874.206	4748
874.335	4767
874.464	4885
874.593	5045
874.722	4961
874.851	5086
874.979	5060
875.108	5056
875.237	4896
875.365	4858
875.494	4862
875.623	4957
875.751	4790
875.88	4862
876.008	4980
876.136	5033
876.265	5147
876.393	5334
876.521	5258
876.65	5174
876.778	5121
876.906	5067
877.034	4984
877.162	5014
877.29	4995
877.418	5033
877.546	5071
877.674	5006
877.802	5029
877.93	5056
878.058	4953
878.185	4900
878.313	4976
878.441	4930
878.568	4805
878.696	4870
878.824	4961
878.951	5029
879.079	5098
879.206	5288
879.333	5109
879.461	4995
879.588	4984
879.715	5102
879.842	5242
879.97	5014
880.097	4755
880.224	4717
880.351	4793
880.478	4820
880.605	4820
880.732	4793
880.859	5048
880.986	4904
881.112	4930
881.239	4812
881.366	4714
881.493	4649
881.619	4653
881.746	4611
881.872	4698
881.999	4675
882.125	4710
882.252	4801
882.378	4793
882.505	4972
882.631	4850
882.757	4725
882.883	4793
883.01	4812
883.136	4710
883.262	4630
883.388	4645
883.514	4839
883.64	4896
883.766	4816
883.892	4714
884.018	4740
884.143	4961
884.269	5067
884.395	4664
884.52	4740
884.646	4691
884.772	4626
884.897	4588
885.023	4733
885.148	4790
885.274	4927
885.399	4820
885.524	4748
885.65	4706
885.775	4782
885.9	4740
886.025	4866
886.15	4866
886.275	4801
886.4	4649
886.525	4782
886.65	4744
886.775	4729
886.9	4919
887.025	5064
887.149	4862
887.274	4729
887.399	4656
887.523	4664
887.648	4584
887.773	4611
887.897	4790
888.021	4854
888.146	4687
888.27	4809
888.395	4923
888.519	4816
888.643	4843
888.767	4889
888.891	4679
889.015	4675
889.139	4672
889.263	4653
889.387	4752
889.511	4908
889.635	4835
889.759	4622
889.883	4687
890.006	4778
890.13	4835
890.254	4698
890.377	4698
890.501	4588
890.624	4538
890.748	4634
890.871	4599
890.995	4455
891.118	4405
891.241	4538
891.364	4573
891.488	4698
891.611	4596
891.734	4603
891.857	4679
891.98	4565
892.103	4634
892.226	4573
892.349	4554
892.471	4447
892.594	4599
892.717	4641
892.839	4618
892.962	4664
893.085	4660
893.207	4656
893.33	4481
893.452	4535
893.575	4679
893.697	4599
893.819	4892
893.941	4858
894.064	4824
894.186	4622
894.308	4580
894.43	4778
894.552	4850
894.674	4778
894.796	4592
894.918	4637
895.04	4626
895.161	4717
895.283	4725
895.405	4618
895.526	4687
895.648	4698
895.769	4740
895.891	4767
896.012	4717
896.134	4816
896.255	4706
896.376	4664
896.498	4706
896.619	4698
896.74	4653
896.861	4668
896.982	4934
897.103	5136
897.224	4862
897.345	4759
897.466	4706
897.587	4694
897.708	4904
897.828	4782
897.949	4653
898.07	4542
898.19	4656
898.311	4801
898.431	4706
898.552	4717
898.672	4809
898.792	4843
898.913	4805
899.033	4679
899.153	4504
899.273	4455
899.393	4550
899.513	4558
899.633	4523
899.753	4546
899.873	4500
899.993	4656
900.113	4569
900.232	4630
900.352	4538
900.472	4523
900.591	4443
900.711	4565
900.83	4466
900.95	4675
901.069	4717
901.189	4580
901.308	4402
901.427	4333
901.546	4405
901.665	4481
901.784	4546
901.904	4383
902.023	4379
902.141	4227
902.26	4147
902.379	4352
902.498	4265
902.617	4276
902.735	4413
902.854	4455
902.973	4375
903.091	4234
903.21	4242
903.328	4356
903.446	4253
903.565	4291
903.683	4379
903.801	4306
903.919	4436
904.038	4489
904.156	4318
904.274	4462
904.392	4428
904.51	4470
904.627	4474
904.745	4683
904.863	4679
904.981	4390
905.098	4280
905.216	4394
905.334	4474
905.451	4405
905.569	4462
905.686	4573
905.803	4573
905.921	4436
906.038	4607
906.155	4527
906.272	4417
906.389	4459
906.506	4371
906.623	4398
906.74	4405
906.857	4344
906.974	4363
907.091	4573
907.208	4733
907.324	4596
907.441	4516
907.557	4398
907.674	4409
907.79	4363
907.907	4405
908.023	4504
908.139	4489
908.256	4455
908.372	4504
908.488	4447
908.604	4379
908.72	4379
908.836	4417
908.952	4413
909.068	4462
909.184	4615
909.3	4580
909.415	4630
909.531	4554
909.647	4421
909.762	4375
909.878	4379
909.993	4424
910.108	4440
910.224	4428
910.339	4493
910.454	4390
910.57	4383
910.685	4329
910.8	4683
910.915	4603
911.03	4512
911.145	4356
911.259	4329
911.374	4363
911.489	4318
911.604	4306
911.718	4185
911.833	4227
911.947	4105
912.062	4082
912.176	4215
912.291	4234
912.405	4265
912.519	4500
912.633	4519
912.748	4390
912.862	4306
912.976	4200
913.09	4177
913.204	4234
913.318	4310
913.431	4436
913.545	4383
913.659	4447
913.772	4398
913.886	4227
914	4246
914.113	4462
914.226	4466
914.34	4447
914.453	4272
914.566	4447
914.68	4299
914.793	4356
914.906	4185
915.019	4120
915.132	4086
915.245	4242
915.358	4207
915.47	4223
915.583	4299
915.696	4306
915.809	4413
915.921	4436
916.034	4310
916.146	4268
916.259	4211
916.371	4421
916.483	4386
916.595	4287
916.708	4375
916.82	4363
916.932	4352
917.044	4356
917.156	4360
917.268	4261
917.38	4303
917.491	4265
917.603	4344
917.715	4443
917.826	4508
917.938	4367
918.049	4295
918.161	4413
918.272	4527
918.384	4550
918.495	4489
918.606	4310
918.717	4215
918.828	4314
918.939	4383
919.05	4272
919.161	4344
919.272	4188
919.383	4249
919.494	4459
919.604	4653
919.715	4474
919.826	4329
919.936	4428
920.047	4527
920.157	4512
920.267	4691
920.378	4569
920.488	4516
920.598	4710
920.708	4942
920.818	4733
920.928	4831
921.038	4984
921.148	4908
921.258	4675
921.368	4577
921.477	4500
921.587	4504
921.697	4383
921.806	4596
921.916	4470
922.025	4280
922.134	4287
922.244	4204
922.353	4310
922.462	4188
922.571	4120
922.68	4006
922.789	3991
922.898	4059
923.007	3979
923.116	4109
923.224	4128
923.333	4097
923.442	4025
923.55	3994
923.659	4051
923.767	4128
923.876	3994
923.984	4109
924.092	4059
924.201	4097
924.309	4090
924.417	4116
924.525	4021
924.633	4112
924.741	5079
924.849	3949
924.956	4177
925.064	3972
925.172	3899
925.279	3953
925.387	4093
925.494	4101
925.602	4200
925.709	4196
925.816	4074
925.924	4109
926.031	4268
926.138	4181
926.245	4219
926.352	4093
926.459	4314
926.566	4333
926.673	4188
926.779	4074
926.886	4112
926.993	4025
927.099	3956
927.206	3945
927.312	3922
927.419	4059
927.525	4090
927.631	4120
927.737	3960
927.843	3930
927.95	3865
928.056	3998
928.162	4021
928.267	4082
928.373	4725
928.479	4124
928.585	3899
928.69	4040
928.796	4093
928.901	3975
929.007	3896
929.112	4025
929.218	3972
929.323	3953
929.428	3968
929.533	4101
929.638	3945
929.743	3926
929.848	4082
929.953	3987
930.058	3945
930.163	3785
930.267	3884
930.372	3998
930.477	3850
930.581	4097
930.685	3926
930.79	3857
930.894	3884
930.998	3846
931.103	4071
931.207	3732
931.311	3690
931.415	3671
931.519	3511
931.623	3557
