Data from test_V78500241_2446.txt Node
Date: Fri Mar 25 17:06:00 CST 2022
User: usil
Spectrometer: V785-0024
Trigger mode: 0
Integration Time (sec): 4.000000E-1
Scans to average: 1
Nonlinearity correction enabled: false
Boxcar width: 0
Storing dark spectrum: false
XAxis mode: Wavelengths
Number of Pixels in Spectrum: 1024
>>>>>Begin Spectral Data<<<<<
801.071	8069
801.214	8024
801.356	7909
801.499	7955
801.641	7837
801.783	7913
801.926	7967
802.068	7932
802.211	8027
802.353	8020
802.496	7841
802.638	7902
802.78	7928
802.923	7868
803.065	7887
803.208	7879
803.35	7982
803.492	8111
803.635	8161
803.777	8016
803.919	8199
804.061	8377
804.204	8225
804.346	8115
804.488	8043
804.63	8100
804.773	8069
804.915	8134
805.057	8355
805.199	8244
805.341	8191
805.483	8370
805.626	8221
805.768	8195
805.91	8248
806.052	8271
806.194	8126
806.336	8267
806.478	8092
806.62	8054
806.762	8161
806.904	8237
807.046	8412
807.188	8377
807.33	8286
807.472	8320
807.614	8161
807.756	8130
807.898	7997
808.04	7959
808.182	7906
808.324	7849
808.465	7925
808.607	8050
808.749	8073
808.891	8301
809.033	8290
809.174	8199
809.316	8153
809.458	8119
809.6	8027
809.741	8092
809.883	8020
810.025	8096
810.166	8138
810.308	8084
810.45	8001
810.591	7894
810.733	7761
810.875	7704
811.016	7483
811.158	7544
811.299	7594
811.441	7704
811.582	7700
811.724	7582
811.865	7559
812.007	7601
812.148	7590
812.29	7636
812.431	7788
812.573	7871
812.714	7947
812.855	8115
812.997	8164
813.138	8294
813.279	8145
813.421	8020
813.562	7993
813.703	7871
813.845	7784
813.986	7426
814.127	7263
814.268	7236
814.41	7198
814.551	7179
814.692	7179
814.833	7145
814.974	7110
815.115	7099
815.256	6951
815.397	6935
815.539	6985
815.68	6779
815.821	6798
815.962	6863
816.103	6852
816.244	6741
816.385	6639
816.526	6563
816.666	6486
816.807	6323
816.948	6448
817.089	6490
817.23	6479
817.371	6441
817.512	6395
817.653	6384
817.793	6372
817.934	6403
818.075	6376
818.216	6437
818.356	6388
818.497	6289
818.638	6205
818.778	6155
818.919	6152
819.06	6201
819.2	6361
819.341	6346
819.481	6380
819.622	6536
819.762	6715
819.903	6707
820.043	6662
820.184	6589
820.324	6623
820.465	6764
820.605	6684
820.746	6665
820.886	6494
821.026	6684
821.167	6711
821.307	6833
821.447	6795
821.588	6692
821.728	6559
821.868	6502
822.008	6338
822.149	6338
822.289	6346
822.429	6167
822.569	6136
822.709	6159
822.849	5973
822.99	5889
823.13	5935
823.27	5988
823.41	5802
823.55	5771
823.69	5802
823.83	5794
823.97	5649
824.11	5566
824.25	5509
824.389	5551
824.529	5665
824.669	5577
824.809	5619
824.949	5642
825.089	5619
825.228	5615
825.368	5421
825.508	5334
825.648	5337
825.787	5391
825.927	5379
826.067	5277
826.206	5277
826.346	5414
826.485	5440
826.625	5395
826.765	5539
826.904	5448
827.044	5212
827.183	5189
827.323	5147
827.462	5239
827.601	5220
827.741	5208
827.88	5193
828.02	5132
828.159	5227
828.298	5299
828.437	5368
828.577	5273
828.716	5459
828.855	5299
828.994	5162
829.134	5155
829.273	5155
829.412	5124
829.551	5170
829.69	5197
829.829	5246
829.968	5353
830.107	5280
830.246	5280
830.385	5204
830.524	5136
830.663	5079
830.802	4984
830.941	4911
831.08	4919
831.219	5006
831.357	5067
831.496	5121
831.635	4953
831.774	4873
831.913	4850
832.051	4714
832.19	4805
832.329	4870
832.467	4706
832.606	4653
832.744	4736
832.883	4729
833.022	4744
833.16	4809
833.299	4843
833.437	4809
833.576	4858
833.714	4824
833.852	4904
833.991	4949
834.129	4953
834.267	4930
834.406	4930
834.544	4995
834.682	4999
834.821	4976
834.959	5185
835.097	5003
835.235	5136
835.373	5136
835.511	5086
835.65	4999
835.788	5079
835.926	4889
836.064	4904
836.202	4942
836.34	5181
836.478	5315
836.615	5155
836.753	5166
836.891	5242
837.029	5254
837.167	5170
837.305	5181
837.443	5136
837.58	5132
837.718	5269
837.856	5181
837.993	5242
838.131	5258
838.269	5193
838.406	5143
838.544	5170
838.681	5003
838.819	5041
838.956	4923
839.094	4870
839.231	5010
839.369	5045
839.506	5406
839.643	5231
839.781	5056
839.918	5018
840.055	5090
840.193	5109
840.33	5071
840.467	5147
840.604	5170
840.742	5463
840.879	5079
841.016	5071
841.153	5124
841.29	5353
841.427	5288
841.564	5296
841.701	5318
841.838	5284
841.975	5235
842.112	5277
842.249	5159
842.385	5045
842.522	5372
842.659	5201
842.796	5181
842.933	5159
843.069	5185
843.206	5155
843.343	5326
843.479	5258
843.616	5277
843.752	5045
843.889	5006
844.025	5174
844.162	4995
844.298	5189
844.435	5018
844.571	5079
844.708	5231
844.844	5311
844.98	5322
845.117	5265
845.253	5083
845.389	5090
845.525	5204
845.661	5151
845.798	5018
845.934	5128
846.07	5014
846.206	5235
846.342	5223
846.478	5170
846.614	5014
846.75	4942
846.886	4949
847.022	5151
847.158	5022
847.294	5014
847.429	5052
847.565	5071
847.701	5284
847.837	4858
847.972	4778
848.108	4953
848.244	4915
848.379	4786
848.515	4733
848.65	4740
848.786	4786
848.921	4790
849.057	4858
849.192	4930
849.328	4831
849.463	4847
849.598	4759
849.734	4736
849.869	4736
850.004	4656
850.14	4653
850.275	4592
850.41	4512
850.545	4599
850.68	4611
850.815	4634
850.95	4649
851.085	4847
851.22	4771
851.355	4607
851.49	4653
851.625	4710
851.76	4675
851.895	4550
852.03	4535
852.165	4641
852.299	4733
852.434	4793
852.569	4763
852.703	4797
852.838	4820
852.973	4957
853.107	4858
853.242	4736
853.376	4736
853.511	4580
853.645	4611
853.78	4854
853.914	4668
854.048	4683
854.183	4637
854.317	4656
854.451	4847
854.585	4679
854.72	4630
854.854	4771
854.988	4615
855.122	4653
855.256	4508
855.39	4698
855.524	4740
855.658	4729
855.792	4679
855.926	4736
856.06	4778
856.194	4793
856.327	4721
856.461	4656
856.595	4599
856.729	4596
856.862	4759
856.996	4721
857.13	4725
857.263	4812
857.397	4763
857.53	4634
857.664	4691
857.797	4736
857.931	4809
858.064	4729
858.197	4759
858.331	4630
858.464	4626
858.597	4512
858.731	4569
858.864	4615
858.997	4618
859.13	4714
859.263	4683
859.396	4694
859.529	4592
859.662	4550
859.795	4538
859.928	4679
860.061	4767
860.194	4812
860.327	4588
860.46	4573
860.592	4740
860.725	4740
860.858	4706
860.99	4573
861.123	4538
861.256	4485
861.388	4569
861.521	5311
861.653	4493
861.786	4402
861.918	4451
862.05	4504
862.183	4538
862.315	4546
862.447	4660
862.58	4558
862.712	4375
862.844	4329
862.976	4443
863.108	4489
863.24	4740
863.372	4341
863.504	4421
863.636	4413
863.768	4527
863.9	4428
864.032	4356
864.164	4379
864.296	4500
864.428	4523
864.559	4546
864.691	4538
864.823	4516
864.954	4516
865.086	4508
865.217	4436
865.349	4462
865.48	4474
865.612	4459
865.743	4653
865.875	4470
866.006	4470
866.137	4402
866.269	4447
866.4	4470
866.531	4428
866.662	4394
866.793	4440
866.924	4462
867.055	4459
867.186	4447
867.317	4421
867.448	4417
867.579	4360
867.71	4409
867.841	4390
867.972	4443
868.103	4470
868.233	4440
868.364	4421
868.495	4516
868.625	4649
868.756	4774
868.886	4580
869.017	4626
869.147	4782
869.278	4778
869.408	4664
869.539	4656
869.669	4706
869.799	4675
869.929	4740
870.06	4736
870.19	4923
870.32	4911
870.45	4938
870.58	5041
870.71	5094
870.84	5124
870.97	4949
871.1	4908
871.23	5189
871.36	5162
871.489	5037
871.619	5094
871.749	5079
871.879	5113
872.008	5174
872.138	5064
872.267	5033
872.397	4854
872.526	4812
872.656	4736
872.785	4790
872.915	5003
873.044	5018
873.173	4961
873.303	4949
873.432	4946
873.561	4938
873.69	4850
873.819	4831
873.948	4934
874.077	4828
874.206	4729
874.335	4831
874.464	4923
874.593	5052
874.722	5003
874.851	5113
874.979	5117
875.108	5029
875.237	4896
875.365	4877
875.494	4908
875.623	4957
875.751	4824
875.88	4870
876.008	4976
876.136	5064
876.265	5212
876.393	5307
876.521	5296
876.65	5239
876.778	5178
876.906	5086
877.034	5056
877.162	5041
877.29	4991
877.418	5067
877.546	4999
877.674	5064
877.802	4980
877.93	4991
878.058	4957
878.185	4885
878.313	4942
878.441	4984
878.568	4805
878.696	4885
878.824	4965
878.951	4946
879.079	5136
879.206	5261
879.333	5067
879.461	5048
879.588	4980
879.715	5166
879.842	5235
879.97	5022
880.097	4793
880.224	4733
880.351	4870
880.478	4809
880.605	4763
880.732	4752
880.859	5048
880.986	4866
881.112	4957
881.239	4797
881.366	4679
881.493	4618
881.619	4573
881.746	4698
881.872	4637
881.999	4630
882.125	4641
882.252	4759
882.378	4793
882.505	4972
882.631	4771
882.757	4637
882.883	4759
883.01	4714
883.136	4672
883.262	4588
883.388	4645
883.514	4790
883.64	4881
883.766	4778
883.892	4687
884.018	4702
884.143	4927
884.269	4991
884.395	4683
884.52	4634
884.646	4630
884.772	4603
884.897	4558
885.023	4660
885.148	4812
885.274	4839
885.399	4831
885.524	4755
885.65	4698
885.775	4706
885.9	4706
886.025	4850
886.15	4820
886.275	4664
886.4	4634
886.525	4721
886.65	4641
886.775	4675
886.9	4877
887.025	5006
887.149	4850
887.274	4664
887.399	4618
887.523	4607
887.648	4573
887.773	4603
887.897	4767
888.021	4740
888.146	4645
888.27	4748
888.395	4927
888.519	4812
888.643	4847
888.767	4816
888.891	4694
889.015	4615
889.139	4645
889.263	4626
889.387	4714
889.511	4896
889.635	4812
889.759	4626
889.883	4664
890.006	4702
890.13	4809
890.254	4649
890.377	4683
890.501	4550
890.624	4519
890.748	4603
890.871	4527
890.995	4424
891.118	4417
891.241	4481
891.364	4569
891.488	4599
891.611	4489
891.734	4542
891.857	4611
891.98	4584
892.103	4645
892.226	4523
892.349	4481
892.471	4432
892.594	4569
892.717	4645
892.839	4592
892.962	4596
893.085	4615
893.207	4573
893.33	4478
893.452	4523
893.575	4664
893.697	4531
893.819	4771
893.941	4854
894.064	4759
894.186	4554
894.308	4550
894.43	4729
894.552	4809
894.674	4759
894.796	4573
894.918	4588
895.04	4577
895.161	4759
895.283	4660
895.405	4588
895.526	4618
895.648	4645
895.769	4649
895.891	4725
896.012	4790
896.134	4702
896.255	4660
896.376	4637
896.498	4653
896.619	4717
896.74	4603
896.861	4664
896.982	4949
897.103	5121
897.224	4839
897.345	4752
897.466	4649
897.587	4771
897.708	4790
897.828	4729
897.949	4691
898.07	4489
898.19	4675
898.311	4835
898.431	4641
898.552	4706
898.672	4835
898.792	4786
898.913	4717
899.033	4615
899.153	4573
899.273	4417
899.393	4481
899.513	4516
899.633	4538
899.753	4592
899.873	4470
899.993	4546
900.113	4577
900.232	4565
900.352	4531
900.472	4504
900.591	4424
900.711	4478
900.83	4474
900.95	4622
901.069	4672
901.189	4542
901.308	4363
901.427	4329
901.546	4402
901.665	4455
901.784	4516
901.904	4383
902.023	4360
902.141	4204
902.26	4192
902.379	4303
902.498	4219
902.617	4238
902.735	4375
902.854	4375
902.973	4371
903.091	4200
903.21	4219
903.328	4287
903.446	4299
903.565	4242
903.683	4360
903.801	4238
903.919	4443
904.038	4443
904.156	4329
904.274	4421
904.392	4402
904.51	4428
904.627	4459
904.745	4588
904.863	4622
904.981	4417
905.098	4299
905.216	4363
905.334	4379
905.451	4451
905.569	4413
905.686	4542
905.803	4508
905.921	4417
906.038	4538
906.155	4459
906.272	4405
906.389	4447
906.506	4337
906.623	4375
906.74	4386
906.857	4341
906.974	4375
907.091	4542
907.208	4698
907.324	4577
907.441	4466
907.557	4363
907.674	4375
907.79	4284
907.907	4405
908.023	4462
908.139	4474
908.256	4421
908.372	4500
908.488	4424
908.604	4341
908.72	4287
908.836	4383
908.952	4337
909.068	4405
909.184	4588
909.3	4485
909.415	4584
909.531	4580
909.647	4303
909.762	4341
909.878	4344
909.993	4402
910.108	4432
910.224	4394
910.339	4481
910.454	4432
910.57	4363
910.685	4333
910.8	4649
910.915	4634
911.03	4432
911.145	4352
911.259	4375
911.374	4360
911.489	4249
911.604	4261
911.718	4158
911.833	4188
911.947	4082
912.062	4013
912.176	4261
912.291	4234
912.405	4204
912.519	4538
912.633	4516
912.748	4402
912.862	4318
912.976	4177
913.09	4128
913.204	4169
913.318	4253
913.431	4375
913.545	4379
913.659	4421
913.772	4310
913.886	4211
914	4230
914.113	4337
914.226	4440
914.34	4409
914.453	4230
914.566	4421
914.68	4314
914.793	4325
914.906	4162
915.019	4131
915.132	4044
915.245	4185
915.358	4219
915.47	4219
915.583	4291
915.696	4242
915.809	4394
915.921	4398
916.034	4257
916.146	4249
916.259	4249
916.371	4344
916.483	4341
916.595	4246
916.708	4310
916.82	4360
916.932	4303
917.044	4318
917.156	4367
917.268	4284
917.38	4295
917.491	4295
917.603	4341
917.715	4421
917.826	4417
917.938	4379
918.049	4261
918.161	4363
918.272	4538
918.384	4558
918.495	4489
918.606	4318
918.717	4230
918.828	4341
918.939	4421
919.05	4238
919.161	4310
919.272	4116
919.383	4219
919.494	4470
919.604	4634
919.715	4402
919.826	4314
919.936	4402
920.047	4531
920.157	4474
920.267	4660
920.378	4550
920.488	4478
920.598	4721
920.708	4885
920.818	4744
920.928	4714
921.038	4938
921.148	4968
921.258	4653
921.368	4573
921.477	4531
921.587	4470
921.697	4360
921.806	4542
921.916	4424
922.025	4230
922.134	4299
922.244	4234
922.353	4337
922.462	4135
922.571	4112
922.68	4036
922.789	3975
922.898	4044
923.007	4044
923.116	4135
923.224	4090
923.333	4067
923.442	3975
923.55	3983
923.659	4029
923.767	4112
923.876	4013
923.984	4143
924.092	4051
924.201	4116
924.309	4051
924.417	4124
924.525	4071
924.633	4139
924.741	5045
924.849	3934
924.956	4097
925.064	3956
925.172	3911
925.279	3972
925.387	4078
925.494	4074
925.602	4204
925.709	4173
925.816	4063
925.924	4150
926.031	4238
926.138	4150
926.245	4234
926.352	4082
926.459	4242
926.566	4276
926.673	4150
926.779	4036
926.886	4074
926.993	3960
927.099	3983
927.206	3934
927.312	3941
927.419	4055
927.525	4048
927.631	4112
927.737	3975
927.843	3998
927.95	3835
928.056	3945
928.162	4025
928.267	4040
928.373	4691
928.479	4143
928.585	3880
928.69	4010
928.796	4128
928.901	3979
929.007	3896
929.112	4029
929.218	4002
929.323	3987
929.428	3926
929.533	4169
929.638	3873
929.743	3949
929.848	4055
929.953	4025
930.058	3960
930.163	3747
930.267	3827
930.372	3972
930.477	3816
930.581	4105
930.685	3972
930.79	3823
930.894	3888
930.998	3873
931.103	3994
931.207	3686
931.311	3705
931.415	3656
931.519	3553
931.623	3534
