Data from test_V78500241_1547.txt Node
Date: Fri Mar 25 16:59:45 CST 2022
User: usil
Spectrometer: V785-0024
Trigger mode: 0
Integration Time (sec): 4.000000E-1
Scans to average: 1
Nonlinearity correction enabled: false
Boxcar width: 0
Storing dark spectrum: false
XAxis mode: Wavelengths
Number of Pixels in Spectrum: 1024
>>>>>Begin Spectral Data<<<<<
801.071	8050
801.214	7993
801.356	7887
801.499	7784
801.641	7795
801.783	7822
801.926	7959
802.068	7928
802.211	8020
802.353	7940
802.496	7917
802.638	7894
802.78	7887
802.923	7974
803.065	7849
803.208	7879
803.35	8035
803.492	8050
803.635	8176
803.777	7928
803.919	8161
804.061	8465
804.204	8161
804.346	8046
804.488	7909
804.63	8081
804.773	7989
804.915	8077
805.057	8237
805.199	8172
805.341	8172
805.483	8332
805.626	8229
805.768	8081
805.91	8225
806.052	8168
806.194	8130
806.336	8286
806.478	8103
806.62	8035
806.762	8115
806.904	8396
807.046	8511
807.188	8415
807.33	8256
807.472	8298
807.614	8126
807.756	8210
807.898	7955
808.04	7906
808.182	7932
808.324	7913
808.465	7906
808.607	8069
808.749	8138
808.891	8202
809.033	8290
809.174	8252
809.316	8031
809.458	7982
809.6	7951
809.741	8020
809.883	8050
810.025	8065
810.166	8069
810.308	8054
810.45	7993
810.591	7864
810.733	7761
810.875	7624
811.016	7502
811.158	7506
811.299	7590
811.441	7715
811.582	7689
811.724	7518
811.865	7601
812.007	7495
812.148	7556
812.29	7563
812.431	7708
812.573	7811
812.714	7978
812.855	8134
812.997	8240
813.138	8267
813.279	8176
813.421	8103
813.562	7967
813.703	7769
813.845	7803
813.986	7403
814.127	7236
814.268	7244
814.41	7225
814.551	7228
814.692	7240
814.833	7088
814.974	7145
815.115	7091
815.256	6920
815.397	6924
815.539	6966
815.68	6837
815.821	6783
815.962	6856
816.103	6779
816.244	6753
816.385	6601
816.526	6585
816.666	6521
816.807	6376
816.948	6391
817.089	6479
817.23	6452
817.371	6395
817.512	6350
817.653	6369
817.793	6331
817.934	6403
818.075	6418
818.216	6471
818.356	6365
818.497	6220
818.638	6155
818.778	6121
818.919	6148
819.06	6163
819.2	6338
819.341	6308
819.481	6361
819.622	6563
819.762	6700
819.903	6711
820.043	6631
820.184	6608
820.324	6658
820.465	6715
820.605	6662
820.746	6677
820.886	6582
821.026	6684
821.167	6726
821.307	6810
821.447	6730
821.588	6711
821.728	6563
821.868	6517
822.008	6350
822.149	6331
822.289	6380
822.429	6175
822.569	6106
822.709	6129
822.849	5889
822.99	5923
823.13	5920
823.27	5908
823.41	5786
823.55	5805
823.69	5786
823.83	5764
823.97	5611
824.11	5558
824.25	5497
824.389	5570
824.529	5604
824.669	5478
824.809	5627
824.949	5630
825.089	5691
825.228	5589
825.368	5410
825.508	5372
825.648	5337
825.787	5349
825.927	5357
826.067	5326
826.206	5303
826.346	5341
826.485	5414
826.625	5357
826.765	5478
826.904	5467
827.044	5242
827.183	5204
827.323	5102
827.462	5261
827.601	5185
827.741	5128
827.88	5239
828.02	5136
828.159	5246
828.298	5296
828.437	5383
828.577	5277
828.716	5452
828.855	5341
828.994	5147
829.134	5151
829.273	5151
829.412	5147
829.551	5094
829.69	5185
829.829	5277
829.968	5391
830.107	5288
830.246	5284
830.385	5201
830.524	5147
830.663	5075
830.802	4991
830.941	4862
831.08	4900
831.219	5010
831.357	4980
831.496	5220
831.635	4930
831.774	4831
831.913	4793
832.051	4736
832.19	4694
832.329	4816
832.467	4729
832.606	4660
832.744	4733
832.883	4698
833.022	4763
833.16	4782
833.299	4858
833.437	4892
833.576	4797
833.714	4839
833.852	4873
833.991	4908
834.129	4942
834.267	4942
834.406	4908
834.544	4957
834.682	4968
834.821	5010
834.959	5094
835.097	4976
835.235	5094
835.373	5075
835.511	5136
835.65	5018
835.788	4980
835.926	4877
836.064	4828
836.202	4877
836.34	5178
836.478	5231
836.615	5086
836.753	5193
836.891	5288
837.029	5299
837.167	5242
837.305	5155
837.443	5147
837.58	5132
837.718	5288
837.856	5155
837.993	5159
838.131	5269
838.269	5197
838.406	5204
838.544	5197
838.681	5045
838.819	5033
838.956	4911
839.094	4934
839.231	4987
839.369	5052
839.506	5406
839.643	5273
839.781	5079
839.918	5048
840.055	5045
840.193	5056
840.33	5086
840.467	5208
840.604	5162
840.742	5410
840.879	5071
841.016	5102
841.153	5143
841.29	5334
841.427	5341
841.564	5303
841.701	5337
841.838	5239
841.975	5277
842.112	5246
842.249	5124
842.385	5060
842.522	5383
842.659	5178
842.796	5113
842.933	5201
843.069	5113
843.206	5121
843.343	5296
843.479	5227
843.616	5288
843.752	5025
843.889	4984
844.025	5216
844.162	5029
844.298	5227
844.435	5083
844.571	5018
844.708	5201
844.844	5307
844.98	5322
845.117	5265
845.253	5143
845.389	5052
845.525	5128
845.661	5162
845.798	5003
845.934	5159
846.07	5079
846.206	5162
846.342	5299
846.478	5212
846.614	5056
846.75	4968
846.886	4961
847.022	5109
847.158	5041
847.294	5060
847.429	5147
847.565	5060
847.701	5299
847.837	4854
847.972	4801
848.108	4953
848.244	4919
848.379	4797
848.515	4771
848.65	4679
848.786	4733
848.921	4748
849.057	4809
849.192	4885
849.328	4805
849.463	4835
849.598	4805
849.734	4752
849.869	4706
850.004	4618
850.14	4622
850.275	4634
850.41	4554
850.545	4588
850.68	4607
850.815	4592
850.95	4660
851.085	4847
851.22	4759
851.355	4645
851.49	4603
851.625	4656
851.76	4596
851.895	4565
852.03	4531
852.165	4645
852.299	4725
852.434	4767
852.569	4725
852.703	4752
852.838	4831
852.973	4949
853.107	4953
853.242	4714
853.376	4672
853.511	4489
853.645	4611
853.78	4828
853.914	4660
854.048	4702
854.183	4607
854.317	4683
854.451	4793
854.585	4660
854.72	4630
854.854	4733
854.988	4656
855.122	4645
855.256	4489
855.39	4630
855.524	4759
855.658	4714
855.792	4710
855.926	4755
856.06	4744
856.194	4786
856.327	4683
856.461	4573
856.595	4615
856.729	4596
856.862	4733
856.996	4672
857.13	4721
857.263	4744
857.397	4805
857.53	4679
857.664	4691
857.797	4771
857.931	4759
858.064	4653
858.197	4721
858.331	4584
858.464	4596
858.597	4546
858.731	4668
858.864	4672
858.997	4588
859.13	4634
859.263	4630
859.396	4694
859.529	4577
859.662	4584
859.795	4542
859.928	4592
860.061	4736
860.194	4748
860.327	4622
860.46	4565
860.592	4744
860.725	4729
860.858	4721
860.99	4580
861.123	4546
861.256	4516
861.388	4607
861.521	5246
861.653	4470
861.786	4455
861.918	4455
862.05	4546
862.183	4538
862.315	4664
862.447	4607
862.58	4588
862.712	4383
862.844	4344
862.976	4459
863.108	4470
863.24	4763
863.372	4310
863.504	4417
863.636	4394
863.768	4440
863.9	4413
864.032	4360
864.164	4447
864.296	4497
864.428	4542
864.559	4565
864.691	4527
864.823	4470
864.954	4478
865.086	4523
865.217	4447
865.349	4417
865.48	4447
865.612	4481
865.743	4634
865.875	4440
866.006	4417
866.137	4455
866.269	4409
866.4	4443
866.531	4402
866.662	4440
866.793	4436
866.924	4398
867.055	4504
867.186	4447
867.317	4413
867.448	4375
867.579	4375
867.71	4421
867.841	4386
867.972	4478
868.103	4466
868.233	4447
868.364	4455
868.495	4489
868.625	4702
868.756	4729
868.886	4535
869.017	4592
869.147	4782
869.278	4774
869.408	4622
869.539	4668
869.669	4698
869.799	4634
869.929	4736
870.06	4710
870.19	4946
870.32	4889
870.45	4915
870.58	5048
870.71	5075
870.84	5071
870.97	4953
871.1	4911
871.23	5105
871.36	5140
871.489	4942
871.619	5025
871.749	5071
871.879	5117
872.008	5204
872.138	5045
872.267	4949
872.397	4866
872.526	4797
872.656	4698
872.785	4858
872.915	4953
873.044	5018
873.173	4908
873.303	4965
873.432	4961
873.561	4949
873.69	4900
873.819	4839
873.948	4942
874.077	4812
874.206	4736
874.335	4812
874.464	4953
874.593	5048
874.722	4927
874.851	5090
874.979	5003
875.108	5048
875.237	4927
875.365	4892
875.494	4892
875.623	4980
875.751	4790
875.88	4923
876.008	4900
876.136	5045
876.265	5155
876.393	5372
876.521	5227
876.65	5212
876.778	5178
876.906	5113
877.034	5003
877.162	5037
877.29	5010
877.418	5067
877.546	5018
877.674	5048
877.802	5052
877.93	4976
878.058	4938
878.185	4839
878.313	4930
878.441	4892
878.568	4782
878.696	4866
878.824	4885
878.951	4942
879.079	5136
879.206	5239
879.333	5128
879.461	5018
879.588	4987
879.715	5121
879.842	5235
879.97	5006
880.097	4797
880.224	4744
880.351	4812
880.478	4847
880.605	4778
880.732	4748
880.859	5079
880.986	4870
881.112	4885
881.239	4790
881.366	4687
881.493	4611
881.619	4588
881.746	4653
881.872	4615
881.999	4588
882.125	4702
882.252	4774
882.378	4797
882.505	4965
882.631	4786
882.757	4660
882.883	4755
883.01	4714
883.136	4679
883.262	4592
883.388	4615
883.514	4816
883.64	4870
883.766	4801
883.892	4653
884.018	4672
884.143	4881
884.269	4987
884.395	4656
884.52	4656
884.646	4645
884.772	4618
884.897	4500
885.023	4691
885.148	4793
885.274	4858
885.399	4858
885.524	4763
885.65	4710
885.775	4740
885.9	4725
886.025	4885
886.15	4782
886.275	4729
886.4	4683
886.525	4702
886.65	4733
886.775	4660
886.9	4885
887.025	5022
887.149	4873
887.274	4615
887.399	4561
887.523	4588
887.648	4554
887.773	4599
887.897	4729
888.021	4763
888.146	4683
888.27	4816
888.395	4877
888.519	4797
888.643	4809
888.767	4793
888.891	4656
889.015	4573
889.139	4660
889.263	4558
889.387	4729
889.511	4873
889.635	4721
889.759	4630
889.883	4599
890.006	4706
890.13	4809
890.254	4592
890.377	4721
890.501	4516
890.624	4538
890.748	4656
890.871	4447
890.995	4462
891.118	4375
891.241	4527
891.364	4523
891.488	4615
891.611	4481
891.734	4516
891.857	4580
891.98	4519
892.103	4622
892.226	4577
892.349	4535
892.471	4481
892.594	4558
892.717	4577
892.839	4565
892.962	4531
893.085	4668
893.207	4607
893.33	4481
893.452	4519
893.575	4656
893.697	4580
893.819	4839
893.941	4831
894.064	4748
894.186	4611
894.308	4538
894.43	4717
894.552	4782
894.674	4733
894.796	4516
894.918	4603
895.04	4546
895.161	4687
895.283	4668
895.405	4561
895.526	4645
895.648	4653
895.769	4649
895.891	4721
896.012	4740
896.134	4736
896.255	4649
896.376	4622
896.498	4618
896.619	4687
896.74	4599
896.861	4626
896.982	4938
897.103	5064
897.224	4835
897.345	4793
897.466	4683
897.587	4721
897.708	4847
897.828	4748
897.949	4679
898.07	4538
898.19	4660
898.311	4786
898.431	4660
898.552	4710
898.672	4805
898.792	4820
898.913	4736
899.033	4641
899.153	4485
899.273	4428
899.393	4512
899.513	4519
899.633	4527
899.753	4554
899.873	4497
899.993	4554
900.113	4546
900.232	4588
900.352	4508
900.472	4523
900.591	4379
900.711	4440
900.83	4428
900.95	4618
901.069	4733
901.189	4531
901.308	4322
901.427	4341
901.546	4375
901.665	4455
901.784	4516
901.904	4363
902.023	4352
902.141	4169
902.26	4169
902.379	4265
902.498	4276
902.617	4207
902.735	4390
902.854	4421
902.973	4375
903.091	4227
903.21	4204
903.328	4268
903.446	4287
903.565	4257
903.683	4383
903.801	4291
903.919	4356
904.038	4451
904.156	4287
904.274	4440
904.392	4383
904.51	4424
904.627	4462
904.745	4634
904.863	4626
904.981	4421
905.098	4322
905.216	4405
905.334	4451
905.451	4447
905.569	4413
905.686	4542
905.803	4554
905.921	4402
906.038	4550
906.155	4489
906.272	4394
906.389	4424
906.506	4337
906.623	4371
906.74	4424
906.857	4295
906.974	4360
907.091	4538
907.208	4721
907.324	4580
907.441	4497
907.557	4341
907.674	4348
907.79	4318
907.907	4417
908.023	4455
908.139	4443
908.256	4390
908.372	4424
908.488	4455
908.604	4341
908.72	4276
908.836	4360
908.952	4356
909.068	4394
909.184	4603
909.3	4413
909.415	4573
909.531	4573
909.647	4363
909.762	4371
909.878	4291
909.993	4440
910.108	4394
910.224	4405
910.339	4474
910.454	4386
910.57	4348
910.685	4348
910.8	4664
910.915	4596
911.03	4478
911.145	4314
911.259	4295
911.374	4363
911.489	4276
911.604	4219
911.718	4124
911.833	4177
911.947	4048
912.062	4029
912.176	4246
912.291	4230
912.405	4268
912.519	4421
912.633	4512
912.748	4405
912.862	4318
912.976	4196
913.09	4101
913.204	4124
913.318	4249
913.431	4371
913.545	4371
913.659	4432
913.772	4310
913.886	4223
914	4211
914.113	4337
914.226	4413
914.34	4386
914.453	4219
914.566	4428
914.68	4287
914.793	4341
914.906	4154
915.019	4086
915.132	4051
915.245	4188
915.358	4265
915.47	4227
915.583	4234
915.696	4249
915.809	4371
915.921	4409
916.034	4257
916.146	4268
916.259	4204
916.371	4341
916.483	4367
916.595	4257
916.708	4284
916.82	4284
916.932	4318
917.044	4322
917.156	4318
917.268	4242
917.38	4276
917.491	4284
917.603	4383
917.715	4421
917.826	4440
917.938	4356
918.049	4291
918.161	4386
918.272	4512
918.384	4550
918.495	4466
918.606	4276
918.717	4238
918.828	4344
918.939	4322
919.05	4249
919.161	4318
919.272	4116
919.383	4230
919.494	4352
919.604	4637
919.715	4459
919.826	4341
919.936	4394
920.047	4500
920.157	4481
920.267	4656
920.378	4500
920.488	4512
920.598	4691
920.708	4885
920.818	4793
920.928	4786
921.038	4930
921.148	4927
921.258	4599
921.368	4554
921.477	4451
921.587	4478
921.697	4432
921.806	4569
921.916	4459
922.025	4284
922.134	4272
922.244	4158
922.353	4310
922.462	4154
922.571	4124
922.68	4017
922.789	3956
922.898	4044
923.007	3956
923.116	4078
923.224	4021
923.333	4120
923.442	3975
923.55	4010
923.659	3994
923.767	4116
923.876	3983
923.984	4101
924.092	4002
924.201	4048
924.309	4086
924.417	4109
924.525	4021
924.633	4105
924.741	4885
924.849	3907
924.956	4124
925.064	3972
925.172	3896
925.279	3934
925.387	4063
925.494	4078
925.602	4234
925.709	4177
925.816	4036
925.924	4116
926.031	4196
926.138	4177
926.245	4196
926.352	4116
926.459	4246
926.566	4295
926.673	4188
926.779	4093
926.886	4048
926.993	3922
927.099	4002
927.206	3953
927.312	3918
927.419	4071
927.525	4029
927.631	4040
927.737	3945
927.843	3945
927.95	3797
928.056	3953
928.162	3972
928.267	4071
928.373	4596
928.479	4109
928.585	3915
928.69	4029
928.796	4067
928.901	3964
929.007	3861
929.112	3979
929.218	3964
929.323	3915
929.428	3964
929.533	4131
929.638	3873
929.743	3956
929.848	4032
929.953	3968
930.058	3930
930.163	3789
930.267	3869
930.372	3945
930.477	3846
930.581	4074
930.685	3953
930.79	3766
930.894	3873
930.998	3842
931.103	4055
931.207	3732
931.311	3713
931.415	3682
931.519	3500
931.623	3534
