Data from test_V78500241_542.txt Node
Date: Fri Mar 25 16:52:46 CST 2022
User: usil
Spectrometer: V785-0024
Trigger mode: 0
Integration Time (sec): 4.000000E-1
Scans to average: 1
Nonlinearity correction enabled: false
Boxcar width: 0
Storing dark spectrum: false
XAxis mode: Wavelengths
Number of Pixels in Spectrum: 1024
>>>>>Begin Spectral Data<<<<<
801.071	7963
801.214	7986
801.356	7852
801.499	7879
801.641	7734
801.783	7925
801.926	7928
802.068	8005
802.211	8065
802.353	7963
802.496	7856
802.638	7845
802.78	8001
802.923	7887
803.065	7868
803.208	7837
803.35	7928
803.492	8092
803.635	8126
803.777	7970
803.919	8107
804.061	8469
804.204	8168
804.346	7982
804.488	7955
804.63	8084
804.773	8008
804.915	8054
805.057	8336
805.199	8115
805.341	8210
805.483	8271
805.626	8206
805.768	8046
805.91	8142
806.052	8138
806.194	8115
806.336	8229
806.478	8046
806.62	8149
806.762	8077
806.904	8271
807.046	8393
807.188	8366
807.33	8252
807.472	8267
807.614	8145
807.756	8115
807.898	7936
808.04	7909
808.182	7925
808.324	7871
808.465	7955
808.607	7970
808.749	8077
808.891	8157
809.033	8271
809.174	8145
809.316	7997
809.458	8077
809.6	7982
809.741	8035
809.883	8001
810.025	8138
810.166	8005
810.308	8020
810.45	7978
810.591	7913
810.733	7753
810.875	7666
811.016	7521
811.158	7514
811.299	7556
811.441	7700
811.582	7734
811.724	7616
811.865	7502
812.007	7647
812.148	7586
812.29	7670
812.431	7708
812.573	7936
812.714	8016
812.855	8111
812.997	8149
813.138	8393
813.279	8202
813.421	8134
813.562	8062
813.703	7860
813.845	7822
813.986	7544
814.127	7305
814.268	7297
814.41	7240
814.551	7187
814.692	7217
814.833	7050
814.974	7019
815.115	7095
815.256	6993
815.397	6951
815.539	6875
815.68	6829
815.821	6791
815.962	6913
816.103	6829
816.244	6798
816.385	6608
816.526	6597
816.666	6547
816.807	6353
816.948	6403
817.089	6441
817.23	6365
817.371	6346
817.512	6391
817.653	6308
817.793	6369
817.934	6407
818.075	6494
818.216	6429
818.356	6372
818.497	6262
818.638	6133
818.778	6144
818.919	6152
819.06	6133
819.2	6289
819.341	6254
819.481	6353
819.622	6517
819.762	6730
819.903	6703
820.043	6555
820.184	6559
820.324	6597
820.465	6669
820.605	6559
820.746	6650
820.886	6547
821.026	6623
821.167	6673
821.307	6753
821.447	6787
821.588	6642
821.728	6540
821.868	6448
822.008	6281
822.149	6361
822.289	6369
822.429	6098
822.569	6098
822.709	6144
822.849	5946
822.99	5923
823.13	5859
823.27	5931
823.41	5760
823.55	5760
823.69	5756
823.83	5764
823.97	5661
824.11	5547
824.25	5497
824.389	5547
824.529	5589
824.669	5551
824.809	5661
824.949	5638
825.089	5570
825.228	5551
825.368	5414
825.508	5330
825.648	5315
825.787	5395
825.927	5345
826.067	5223
826.206	5322
826.346	5341
826.485	5391
826.625	5391
826.765	5535
826.904	5478
827.044	5239
827.183	5159
827.323	5098
827.462	5197
827.601	5178
827.741	5124
827.88	5201
828.02	5113
828.159	5250
828.298	5284
828.437	5349
828.577	5227
828.716	5444
828.855	5296
828.994	5193
829.134	5132
829.273	5178
829.412	5162
829.551	5105
829.69	5128
829.829	5250
829.968	5368
830.107	5261
830.246	5284
830.385	5181
830.524	5136
830.663	5033
830.802	4965
830.941	4828
831.08	4877
831.219	4976
831.357	4976
831.496	5136
831.635	4927
831.774	4839
831.913	4870
832.051	4729
832.19	4752
832.329	4812
832.467	4679
832.606	4603
832.744	4721
832.883	4714
833.022	4694
833.16	4820
833.299	4854
833.437	4759
833.576	4847
833.714	4831
833.852	4877
833.991	4873
834.129	5006
834.267	4919
834.406	4835
834.544	4946
834.682	4930
834.821	4934
834.959	5151
835.097	4968
835.235	5121
835.373	5067
835.511	5140
835.65	5022
835.788	4961
835.926	4900
836.064	4866
836.202	4930
836.34	5166
836.478	5151
836.615	5105
836.753	5170
836.891	5239
837.029	5197
837.167	5242
837.305	5159
837.443	5147
837.58	5124
837.718	5280
837.856	5174
837.993	5162
838.131	5235
838.269	5189
838.406	5201
838.544	5174
838.681	5037
838.819	5018
838.956	4885
839.094	4862
839.231	5003
839.369	5121
839.506	5414
839.643	5254
839.781	5052
839.918	5060
840.055	5079
840.193	5075
840.33	5109
840.467	5121
840.604	5136
840.742	5383
840.879	5060
841.016	5056
841.153	5162
841.29	5357
841.427	5334
841.564	5326
841.701	5311
841.838	5299
841.975	5231
842.112	5280
842.249	5128
842.385	5086
842.522	5379
842.659	5174
842.796	5189
842.933	5193
843.069	5189
843.206	5185
843.343	5311
843.479	5223
843.616	5261
843.752	5056
843.889	4999
844.025	5242
844.162	5018
844.298	5147
844.435	5143
844.571	5102
844.708	5189
844.844	5315
844.98	5341
845.117	5208
845.253	5105
845.389	5067
845.525	5102
845.661	5166
845.798	5029
845.934	5109
846.07	5045
846.206	5227
846.342	5296
846.478	5155
846.614	4972
846.75	4991
846.886	4889
847.022	5098
847.158	5018
847.294	5090
847.429	5098
847.565	5060
847.701	5280
847.837	4820
847.972	4797
848.108	4953
848.244	4953
848.379	4778
848.515	4698
848.65	4721
848.786	4729
848.921	4763
849.057	4850
849.192	4930
849.328	4824
849.463	4885
849.598	4752
849.734	4782
849.869	4698
850.004	4607
850.14	4687
850.275	4618
850.41	4531
850.545	4531
850.68	4588
850.815	4615
850.95	4622
851.085	4889
851.22	4744
851.355	4691
851.49	4580
851.625	4573
851.76	4641
851.895	4527
852.03	4542
852.165	4634
852.299	4698
852.434	4797
852.569	4771
852.703	4744
852.838	4839
852.973	4889
853.107	4873
853.242	4687
853.376	4649
853.511	4558
853.645	4611
853.78	4801
853.914	4694
854.048	4683
854.183	4656
854.317	4672
854.451	4850
854.585	4698
854.72	4649
854.854	4702
854.988	4596
855.122	4641
855.256	4523
855.39	4637
855.524	4786
855.658	4714
855.792	4706
855.926	4714
856.06	4767
856.194	4801
856.327	4702
856.461	4622
856.595	4588
856.729	4630
856.862	4740
856.996	4694
857.13	4717
857.263	4771
857.397	4759
857.53	4679
857.664	4706
857.797	4763
857.931	4771
858.064	4694
858.197	4755
858.331	4607
858.464	4603
858.597	4512
858.731	4660
858.864	4641
858.997	4580
859.13	4660
859.263	4664
859.396	4683
859.529	4634
859.662	4535
859.795	4527
859.928	4607
860.061	4759
860.194	4809
860.327	4637
860.46	4565
860.592	4733
860.725	4733
860.858	4710
860.99	4584
861.123	4554
861.256	4554
861.388	4611
861.521	5376
861.653	4470
861.786	4462
861.918	4440
862.05	4523
862.183	4508
862.315	4611
862.447	4626
862.58	4554
862.712	4367
862.844	4310
862.976	4455
863.108	4424
863.24	4847
863.372	4348
863.504	4443
863.636	4367
863.768	4459
863.9	4436
864.032	4356
864.164	4428
864.296	4451
864.428	4519
864.559	4565
864.691	4527
864.823	4538
864.954	4516
865.086	4497
865.217	4455
865.349	4432
865.48	4451
865.612	4447
865.743	4584
865.875	4447
866.006	4390
866.137	4512
866.269	4470
866.4	4451
866.531	4417
866.662	4421
866.793	4424
866.924	4428
867.055	4500
867.186	4500
867.317	4409
867.448	4409
867.579	4371
867.71	4371
867.841	4379
867.972	4440
868.103	4470
868.233	4451
868.364	4474
868.495	4504
868.625	4660
868.756	4793
868.886	4535
869.017	4615
869.147	4778
869.278	4733
869.408	4622
869.539	4691
869.669	4710
869.799	4630
869.929	4691
870.06	4698
870.19	4995
870.32	4930
870.45	4938
870.58	4987
870.71	5090
870.84	5121
870.97	4911
871.1	4915
871.23	5174
871.36	5098
871.489	5025
871.619	5048
871.749	5041
871.879	5128
872.008	5140
872.138	5025
872.267	4999
872.397	4862
872.526	4835
872.656	4763
872.785	4767
872.915	4934
873.044	5003
873.173	4927
873.303	4961
873.432	4938
873.561	4987
873.69	4915
873.819	4885
873.948	4949
874.077	4828
874.206	4752
874.335	4736
874.464	4938
874.593	5018
874.722	4999
874.851	5102
874.979	5098
875.108	5041
875.237	4911
875.365	4889
875.494	4892
875.623	5003
875.751	4805
875.88	4854
876.008	4995
876.136	4999
876.265	5201
876.393	5360
876.521	5223
876.65	5292
876.778	5159
876.906	5060
877.034	5064
877.162	5067
877.29	4965
877.418	5075
877.546	5045
877.674	5022
877.802	5060
877.93	5010
878.058	4919
878.185	4911
878.313	4976
878.441	4946
878.568	4805
878.696	4854
878.824	4980
878.951	4980
879.079	5109
879.206	5296
879.333	5105
879.461	5014
879.588	4965
879.715	5105
879.842	5151
879.97	4991
880.097	4782
880.224	4774
880.351	4771
880.478	4812
880.605	4744
880.732	4767
880.859	5083
880.986	4927
881.112	4919
881.239	4839
881.366	4649
881.493	4599
881.619	4580
881.746	4622
881.872	4683
881.999	4615
882.125	4675
882.252	4706
882.378	4812
882.505	4938
882.631	4805
882.757	4649
882.883	4721
883.01	4702
883.136	4691
883.262	4569
883.388	4603
883.514	4824
883.64	4873
883.766	4740
883.892	4660
884.018	4752
884.143	4854
884.269	5025
884.395	4687
884.52	4641
884.646	4634
884.772	4565
884.897	4565
885.023	4645
885.148	4820
885.274	4862
885.399	4816
885.524	4736
885.65	4683
885.775	4767
885.9	4691
886.025	4892
886.15	4782
886.275	4710
886.4	4622
886.525	4683
886.65	4740
886.775	4714
886.9	4930
887.025	5067
887.149	4797
887.274	4683
887.399	4607
887.523	4577
887.648	4599
887.773	4599
887.897	4793
888.021	4767
888.146	4675
888.27	4812
888.395	4885
888.519	4793
888.643	4824
888.767	4820
888.891	4653
889.015	4618
889.139	4706
889.263	4664
889.387	4774
889.511	4927
889.635	4767
889.759	4634
889.883	4672
890.006	4733
890.13	4816
890.254	4554
890.377	4660
890.501	4538
890.624	4565
890.748	4683
890.871	4538
890.995	4440
891.118	4421
891.241	4500
891.364	4489
891.488	4618
891.611	4500
891.734	4546
891.857	4611
891.98	4531
892.103	4630
892.226	4558
892.349	4535
892.471	4405
892.594	4577
892.717	4615
892.839	4577
892.962	4588
893.085	4653
893.207	4596
893.33	4504
893.452	4493
893.575	4645
893.697	4622
893.819	4809
893.941	4809
894.064	4767
894.186	4580
894.308	4558
894.43	4702
894.552	4831
894.674	4748
894.796	4523
894.918	4622
895.04	4542
895.161	4714
895.283	4611
895.405	4607
895.526	4630
895.648	4687
895.769	4702
895.891	4736
896.012	4771
896.134	4717
896.255	4675
896.376	4618
896.498	4641
896.619	4759
896.74	4615
896.861	4637
896.982	4877
897.103	5071
897.224	4812
897.345	4729
897.466	4672
897.587	4767
897.708	4896
897.828	4778
897.949	4664
898.07	4588
898.19	4649
898.311	4839
898.431	4691
898.552	4736
898.672	4774
898.792	4778
898.913	4793
899.033	4588
899.153	4489
899.273	4466
899.393	4527
899.513	4497
899.633	4519
899.753	4573
899.873	4485
899.993	4558
900.113	4569
900.232	4588
900.352	4535
900.472	4478
900.591	4421
900.711	4474
900.83	4424
900.95	4596
901.069	4691
901.189	4558
901.308	4352
901.427	4325
901.546	4390
901.665	4481
901.784	4546
901.904	4413
902.023	4261
902.141	4150
902.26	4188
902.379	4348
902.498	4219
902.617	4192
902.735	4352
902.854	4402
902.973	4371
903.091	4215
903.21	4238
903.328	4337
903.446	4280
903.565	4234
903.683	4363
903.801	4280
903.919	4402
904.038	4447
904.156	4348
904.274	4386
904.392	4386
904.51	4432
904.627	4497
904.745	4561
904.863	4592
904.981	4356
905.098	4329
905.216	4363
905.334	4462
905.451	4417
905.569	4481
905.686	4573
905.803	4546
905.921	4405
906.038	4523
906.155	4561
906.272	4432
906.389	4470
906.506	4356
906.623	4360
906.74	4402
906.857	4303
906.974	4363
907.091	4573
907.208	4675
907.324	4580
907.441	4462
907.557	4367
907.674	4344
907.79	4306
907.907	4436
908.023	4451
908.139	4531
908.256	4432
908.372	4405
908.488	4478
908.604	4356
908.72	4322
908.836	4421
908.952	4344
909.068	4409
909.184	4558
909.3	4459
909.415	4580
909.531	4535
909.647	4375
909.762	4383
909.878	4329
909.993	4390
910.108	4421
910.224	4421
910.339	4519
910.454	4424
910.57	4352
910.685	4341
910.8	4641
910.915	4622
911.03	4504
911.145	4333
911.259	4413
911.374	4322
911.489	4272
911.604	4295
911.718	4169
911.833	4207
911.947	4150
912.062	4029
912.176	4223
912.291	4268
912.405	4268
912.519	4451
912.633	4516
912.748	4413
912.862	4276
912.976	4238
913.09	4074
913.204	4177
913.318	4249
913.431	4356
913.545	4375
913.659	4432
913.772	4371
913.886	4272
914	4234
914.113	4356
914.226	4459
914.34	4360
914.453	4257
914.566	4474
914.68	4341
914.793	4329
914.906	4150
915.019	4116
915.132	4067
915.245	4150
915.358	4219
915.47	4234
915.583	4242
915.696	4280
915.809	4440
915.921	4424
916.034	4200
916.146	4196
916.259	4234
916.371	4394
916.483	4306
916.595	4265
916.708	4333
916.82	4303
916.932	4344
917.044	4322
917.156	4329
917.268	4223
917.38	4238
917.491	4303
917.603	4383
917.715	4390
917.826	4493
917.938	4379
918.049	4223
918.161	4413
918.272	4481
918.384	4538
918.495	4424
918.606	4337
918.717	4265
918.828	4325
918.939	4363
919.05	4261
919.161	4329
919.272	4131
919.383	4192
919.494	4443
919.604	4634
919.715	4424
919.826	4363
919.936	4413
920.047	4474
920.157	4500
920.267	4782
920.378	4508
920.488	4538
920.598	4656
920.708	4900
920.818	4755
920.928	4706
921.038	4915
921.148	4930
921.258	4664
921.368	4519
921.477	4497
921.587	4489
921.697	4344
921.806	4527
921.916	4424
922.025	4303
922.134	4284
922.244	4192
922.353	4325
922.462	4166
922.571	4090
922.68	4006
922.789	3994
922.898	4048
923.007	4017
923.116	4082
923.224	4071
923.333	4093
923.442	4006
923.55	3979
923.659	4010
923.767	4116
923.876	4029
923.984	4093
924.092	3960
924.201	4051
924.309	4082
924.417	4124
924.525	4048
924.633	4124
924.741	5052
924.849	3941
924.956	4097
925.064	3972
925.172	3930
925.279	3968
925.387	4071
925.494	4074
925.602	4219
925.709	4181
925.816	4036
925.924	4124
926.031	4242
926.138	4143
926.245	4204
926.352	4059
926.459	4211
926.566	4310
926.673	4185
926.779	4055
926.886	4109
926.993	3975
927.099	3953
927.206	3960
927.312	3987
927.419	4078
927.525	4044
927.631	4112
927.737	3983
927.843	3960
927.95	3888
928.056	3949
928.162	4002
928.267	4044
928.373	4675
928.479	4112
928.585	3896
928.69	4032
928.796	4109
928.901	3937
929.007	3861
929.112	3998
929.218	3994
929.323	3994
929.428	3941
929.533	4139
929.638	3926
929.743	3953
929.848	4086
929.953	4017
930.058	3915
930.163	3762
930.267	3785
930.372	3994
930.477	3827
930.581	4109
930.685	3953
930.79	3804
930.894	3846
930.998	3865
931.103	4025
931.207	3671
931.311	3671
931.415	3709
931.519	3519
931.623	3572
