Data from test_V78500241_1636.txt Node
Date: Fri Mar 25 17:00:22 CST 2022
User: usil
Spectrometer: V785-0024
Trigger mode: 0
Integration Time (sec): 4.000000E-1
Scans to average: 1
Nonlinearity correction enabled: false
Boxcar width: 0
Storing dark spectrum: false
XAxis mode: Wavelengths
Number of Pixels in Spectrum: 1024
>>>>>Begin Spectral Data<<<<<
801.071	7955
801.214	7978
801.356	7788
801.499	7837
801.641	7765
801.783	7852
801.926	7963
802.068	7963
802.211	7974
802.353	8016
802.496	7826
802.638	7830
802.78	7917
802.923	7963
803.065	7955
803.208	7875
803.35	7974
803.492	8119
803.635	8183
803.777	8024
803.919	8062
804.061	8461
804.204	8202
804.346	8088
804.488	7951
804.63	8016
804.773	7986
804.915	8092
805.057	8332
805.199	8134
805.341	8202
805.483	8252
805.626	8229
805.768	8134
805.91	8248
806.052	8233
806.194	8123
806.336	8351
806.478	8096
806.62	8016
806.762	8126
806.904	8248
807.046	8473
807.188	8336
807.33	8240
807.472	8256
807.614	8145
807.756	8115
807.898	7974
808.04	7887
808.182	7879
808.324	7940
808.465	7925
808.607	8088
808.749	8050
808.891	8134
809.033	8290
809.174	8252
809.316	8111
809.458	8065
809.6	8001
809.741	8031
809.883	8058
810.025	8164
810.166	7986
810.308	8035
810.45	7898
810.591	7776
810.733	7750
810.875	7658
811.016	7544
811.158	7525
811.299	7571
811.441	7704
811.582	7677
811.724	7544
811.865	7540
812.007	7514
812.148	7559
812.29	7624
812.431	7746
812.573	7868
812.714	7974
812.855	8035
812.997	8172
813.138	8305
813.279	8191
813.421	8024
813.562	7967
813.703	7841
813.845	7708
813.986	7441
814.127	7251
814.268	7194
814.41	7225
814.551	7168
814.692	7129
814.833	7069
814.974	7069
815.115	7129
815.256	6989
815.397	6878
815.539	6837
815.68	6837
815.821	6760
815.962	6810
816.103	6776
816.244	6707
816.385	6551
816.526	6597
816.666	6479
816.807	6323
816.948	6464
817.089	6418
817.23	6448
817.371	6384
817.512	6391
817.653	6369
817.793	6403
817.934	6403
818.075	6494
818.216	6399
818.356	6388
818.497	6247
818.638	6155
818.778	6110
818.919	6144
819.06	6148
819.2	6262
819.341	6319
819.481	6369
819.622	6532
819.762	6696
819.903	6726
820.043	6608
820.184	6513
820.324	6502
820.465	6669
820.605	6703
820.746	6601
820.886	6513
821.026	6677
821.167	6703
821.307	6745
821.447	6806
821.588	6711
821.728	6563
821.868	6486
822.008	6376
822.149	6361
822.289	6376
822.429	6121
822.569	6057
822.709	6098
822.849	5916
822.99	5901
823.13	5897
823.27	5851
823.41	5828
823.55	5805
823.69	5786
823.83	5752
823.97	5676
824.11	5566
824.25	5436
824.389	5532
824.529	5554
824.669	5532
824.809	5649
824.949	5638
825.089	5619
825.228	5551
825.368	5398
825.508	5280
825.648	5292
825.787	5410
825.927	5410
826.067	5303
826.206	5292
826.346	5360
826.485	5364
826.625	5421
826.765	5520
826.904	5425
827.044	5227
827.183	5201
827.323	5102
827.462	5227
827.601	5155
827.741	5178
827.88	5239
828.02	5117
828.159	5151
828.298	5299
828.437	5330
828.577	5269
828.716	5444
828.855	5288
828.994	5151
829.134	5143
829.273	5208
829.412	5109
829.551	5128
829.69	5140
829.829	5231
829.968	5330
830.107	5269
830.246	5311
830.385	5197
830.524	5109
830.663	5018
830.802	4953
830.941	4896
831.08	4850
831.219	4942
831.357	4953
831.496	5140
831.635	4896
831.774	4820
831.913	4831
832.051	4725
832.19	4725
832.329	4786
832.467	4679
832.606	4618
832.744	4702
832.883	4721
833.022	4698
833.16	4771
833.299	4824
833.437	4835
833.576	4828
833.714	4820
833.852	4862
833.991	4896
834.129	4957
834.267	4946
834.406	4908
834.544	4957
834.682	4999
834.821	4980
834.959	5143
835.097	5003
835.235	5086
835.373	5079
835.511	5075
835.65	5025
835.788	4999
835.926	4850
836.064	4812
836.202	4889
836.34	5170
836.478	5239
836.615	5117
836.753	5227
836.891	5250
837.029	5254
837.167	5193
837.305	5098
837.443	5079
837.58	5090
837.718	5258
837.856	5155
837.993	5159
838.131	5261
838.269	5181
838.406	5189
838.544	5170
838.681	5010
838.819	5018
838.956	4831
839.094	4873
839.231	4972
839.369	5056
839.506	5444
839.643	5250
839.781	5022
839.918	5010
840.055	5067
840.193	5056
840.33	5094
840.467	5067
840.604	5162
840.742	5429
840.879	5056
841.016	5083
841.153	5105
841.29	5318
841.427	5372
841.564	5315
841.701	5337
841.838	5231
841.975	5235
842.112	5269
842.249	5109
842.385	5136
842.522	5349
842.659	5159
842.796	5071
842.933	5181
843.069	5178
843.206	5166
843.343	5284
843.479	5185
843.616	5284
843.752	4991
843.889	5033
844.025	5235
844.162	5003
844.298	5151
844.435	5090
844.571	5006
844.708	5170
844.844	5280
844.98	5360
845.117	5318
845.253	5098
845.389	5041
845.525	5140
845.661	5132
845.798	5029
845.934	5128
846.07	5033
846.206	5201
846.342	5284
846.478	5201
846.614	5033
846.75	4965
846.886	4934
847.022	5102
847.158	5014
847.294	5079
847.429	5128
847.565	5022
847.701	5292
847.837	4828
847.972	4820
848.108	4980
848.244	4877
848.379	4847
848.515	4740
848.65	4698
848.786	4748
848.921	4816
849.057	4854
849.192	4911
849.328	4793
849.463	4850
849.598	4759
849.734	4790
849.869	4653
850.004	4656
850.14	4660
850.275	4596
850.41	4531
850.545	4550
850.68	4550
850.815	4615
850.95	4592
851.085	4873
851.22	4706
851.355	4702
851.49	4588
851.625	4622
851.76	4694
851.895	4489
852.03	4485
852.165	4664
852.299	4744
852.434	4714
852.569	4725
852.703	4752
852.838	4797
852.973	4927
853.107	4896
853.242	4710
853.376	4615
853.511	4527
853.645	4584
853.78	4786
853.914	4683
854.048	4691
854.183	4622
854.317	4637
854.451	4809
854.585	4649
854.72	4626
854.854	4816
854.988	4580
855.122	4561
855.256	4542
855.39	4649
855.524	4786
855.658	4694
855.792	4721
855.926	4656
856.06	4778
856.194	4778
856.327	4649
856.461	4599
856.595	4588
856.729	4622
856.862	4767
856.996	4710
857.13	4706
857.263	4717
857.397	4824
857.53	4607
857.664	4725
857.797	4763
857.931	4736
858.064	4694
858.197	4740
858.331	4641
858.464	4592
858.597	4558
858.731	4653
858.864	4622
858.997	4603
859.13	4653
859.263	4637
859.396	4649
859.529	4584
859.662	4558
859.795	4493
859.928	4664
860.061	4759
860.194	4752
860.327	4618
860.46	4527
860.592	4672
860.725	4710
860.858	4672
860.99	4542
861.123	4516
861.256	4504
861.388	4622
861.521	5140
861.653	4478
861.786	4440
861.918	4440
862.05	4485
862.183	4531
862.315	4611
862.447	4637
862.58	4527
862.712	4424
862.844	4344
862.976	4481
863.108	4474
863.24	4763
863.372	4318
863.504	4360
863.636	4417
863.768	4478
863.9	4440
864.032	4333
864.164	4405
864.296	4485
864.428	4538
864.559	4516
864.691	4558
864.823	4504
864.954	4447
865.086	4455
865.217	4421
865.349	4424
865.48	4421
865.612	4455
865.743	4611
865.875	4443
866.006	4432
866.137	4424
866.269	4474
866.4	4405
866.531	4421
866.662	4405
866.793	4367
866.924	4409
867.055	4485
867.186	4485
867.317	4421
867.448	4390
867.579	4344
867.71	4386
867.841	4352
867.972	4405
868.103	4485
868.233	4455
868.364	4440
868.495	4455
868.625	4637
868.756	4748
868.886	4588
869.017	4573
869.147	4771
869.278	4771
869.408	4702
869.539	4599
869.669	4759
869.799	4618
869.929	4733
870.06	4714
870.19	4927
870.32	4892
870.45	4972
870.58	5025
870.71	5117
870.84	5037
870.97	4915
871.1	4847
871.23	5151
871.36	5071
871.489	5022
871.619	5067
871.749	5086
871.879	5102
872.008	5170
872.138	5010
872.267	4965
872.397	4782
872.526	4786
872.656	4706
872.785	4767
872.915	4927
873.044	5018
873.173	4877
873.303	4980
873.432	4972
873.561	4923
873.69	4801
873.819	4870
873.948	4919
874.077	4839
874.206	4736
874.335	4782
874.464	4881
874.593	5060
874.722	4942
874.851	5071
874.979	5060
875.108	5029
875.237	4870
875.365	4862
875.494	4873
875.623	4949
875.751	4771
875.88	4850
876.008	4953
876.136	4987
876.265	5201
876.393	5334
876.521	5212
876.65	5254
876.778	5124
876.906	5014
877.034	4999
877.162	4999
877.29	4957
877.418	5079
877.546	5006
877.674	5060
877.802	5029
877.93	4984
878.058	4896
878.185	4858
878.313	4942
878.441	4953
878.568	4820
878.696	4824
878.824	4923
878.951	5010
879.079	5117
879.206	5318
879.333	5079
879.461	4927
879.588	5006
879.715	5102
879.842	5178
879.97	4942
880.097	4755
880.224	4729
880.351	4786
880.478	4714
880.605	4744
880.732	4740
880.859	5045
880.986	4862
881.112	4896
881.239	4748
881.366	4664
881.493	4554
881.619	4561
881.746	4611
881.872	4596
881.999	4596
882.125	4698
882.252	4721
882.378	4771
882.505	4968
882.631	4782
882.757	4618
882.883	4729
883.01	4733
883.136	4645
883.262	4599
883.388	4565
883.514	4805
883.64	4816
883.766	4759
883.892	4694
884.018	4702
884.143	4877
884.269	5022
884.395	4679
884.52	4599
884.646	4675
884.772	4588
884.897	4546
885.023	4698
885.148	4793
885.274	4866
885.399	4828
885.524	4740
885.65	4653
885.775	4767
885.9	4664
886.025	4812
886.15	4835
886.275	4710
886.4	4622
886.525	4786
886.65	4694
886.775	4698
886.9	4870
887.025	5075
887.149	4778
887.274	4645
887.399	4618
887.523	4622
887.648	4618
887.773	4615
887.897	4793
888.021	4797
888.146	4717
888.27	4847
888.395	4919
888.519	4847
888.643	4828
888.767	4892
888.891	4694
889.015	4664
889.139	4679
889.263	4630
889.387	4812
889.511	4904
889.635	4862
889.759	4626
889.883	4630
890.006	4767
890.13	4870
890.254	4656
890.377	4683
890.501	4599
890.624	4558
890.748	4668
890.871	4527
890.995	4424
891.118	4394
891.241	4546
891.364	4531
891.488	4641
891.611	4561
891.734	4588
891.857	4637
891.98	4596
892.103	4653
892.226	4653
892.349	4527
892.471	4470
892.594	4664
892.717	4584
892.839	4573
892.962	4649
893.085	4744
893.207	4607
893.33	4504
893.452	4527
893.575	4694
893.697	4592
893.819	4812
893.941	4934
894.064	4812
894.186	4649
894.308	4615
894.43	4782
894.552	4866
894.674	4767
894.796	4565
894.918	4641
895.04	4558
895.161	4759
895.283	4660
895.405	4618
895.526	4641
895.648	4740
895.769	4694
895.891	4736
896.012	4790
896.134	4774
896.255	4679
896.376	4687
896.498	4653
896.619	4736
896.74	4637
896.861	4672
896.982	4965
897.103	5102
897.224	4843
897.345	4805
897.466	4675
897.587	4782
897.708	4904
897.828	4839
897.949	4664
898.07	4630
898.19	4618
898.311	4873
898.431	4702
898.552	4774
898.672	4843
898.792	4862
898.913	4767
899.033	4615
899.153	4531
899.273	4443
899.393	4596
899.513	4546
899.633	4550
899.753	4577
899.873	4542
899.993	4569
900.113	4535
900.232	4577
900.352	4493
900.472	4584
900.591	4440
900.711	4542
900.83	4485
900.95	4596
901.069	4717
901.189	4554
901.308	4322
901.427	4383
901.546	4421
901.665	4500
901.784	4558
901.904	4394
902.023	4310
902.141	4204
902.26	4185
902.379	4329
902.498	4265
902.617	4265
902.735	4402
902.854	4436
902.973	4386
903.091	4238
903.21	4215
903.328	4341
903.446	4265
903.565	4257
903.683	4348
903.801	4257
903.919	4379
904.038	4432
904.156	4329
904.274	4512
904.392	4470
904.51	4432
904.627	4516
904.745	4603
904.863	4656
904.981	4363
905.098	4303
905.216	4421
905.334	4447
905.451	4424
905.569	4481
905.686	4569
905.803	4653
905.921	4447
906.038	4558
906.155	4489
906.272	4398
906.389	4493
906.506	4341
906.623	4451
906.74	4398
906.857	4344
906.974	4447
907.091	4599
907.208	4767
907.324	4580
907.441	4512
907.557	4371
907.674	4394
907.79	4352
907.907	4375
908.023	4489
908.139	4550
908.256	4466
908.372	4535
908.488	4508
908.604	4352
908.72	4360
908.836	4413
908.952	4424
909.068	4470
909.184	4588
909.3	4508
909.415	4599
909.531	4573
909.647	4379
909.762	4474
909.878	4356
909.993	4485
910.108	4459
910.224	4455
910.339	4535
910.454	4451
910.57	4409
910.685	4356
910.8	4668
910.915	4637
911.03	4542
911.145	4375
911.259	4314
911.374	4375
911.489	4337
911.604	4341
911.718	4185
911.833	4204
911.947	4074
912.062	4074
912.176	4238
912.291	4234
912.405	4306
912.519	4470
912.633	4550
912.748	4413
912.862	4360
912.976	4219
913.09	4139
913.204	4181
913.318	4276
913.431	4413
913.545	4417
913.659	4512
913.772	4436
913.886	4276
914	4207
914.113	4398
914.226	4512
914.34	4443
914.453	4276
914.566	4462
914.68	4329
914.793	4405
914.906	4177
915.019	4173
915.132	4071
915.245	4230
915.358	4257
915.47	4265
915.583	4249
915.696	4318
915.809	4447
915.921	4462
916.034	4253
916.146	4246
916.259	4287
916.371	4451
916.483	4375
916.595	4310
916.708	4341
916.82	4329
916.932	4318
917.044	4371
917.156	4299
917.268	4295
917.38	4318
917.491	4318
917.603	4371
917.715	4481
917.826	4432
917.938	4363
918.049	4280
918.161	4432
918.272	4565
918.384	4554
918.495	4436
918.606	4303
918.717	4295
918.828	4348
918.939	4344
919.05	4318
919.161	4375
919.272	4139
919.383	4261
919.494	4443
919.604	4649
919.715	4489
919.826	4363
919.936	4428
920.047	4569
920.157	4538
920.267	4687
920.378	4565
920.488	4550
920.598	4714
920.708	4854
920.818	4786
920.928	4782
921.038	4953
921.148	4946
921.258	4637
921.368	4531
921.477	4508
921.587	4470
921.697	4379
921.806	4573
921.916	4493
922.025	4287
922.134	4322
922.244	4238
922.353	4356
922.462	4204
922.571	4150
922.68	4040
922.789	3983
922.898	4013
923.007	4025
923.116	4090
923.224	4097
923.333	4093
923.442	3991
923.55	3994
923.659	4051
923.767	4116
923.876	4036
923.984	4128
924.092	4017
924.201	4097
924.309	4097
924.417	4131
924.525	4074
924.633	4154
924.741	4953
924.849	3934
924.956	4139
925.064	3979
925.172	3949
925.279	3918
925.387	4093
925.494	4071
925.602	4234
925.709	4211
925.816	4051
925.924	4135
926.031	4230
926.138	4196
926.245	4219
926.352	4090
926.459	4265
926.566	4310
926.673	4143
926.779	4101
926.886	4120
926.993	4006
927.099	4002
927.206	3941
927.312	3937
927.419	4082
927.525	4086
927.631	4112
927.737	4025
927.843	3945
927.95	3812
928.056	3926
928.162	3987
928.267	4071
928.373	4546
928.479	4109
928.585	3880
928.69	4002
928.796	4112
928.901	4032
929.007	3869
929.112	4067
929.218	3983
929.323	3918
929.428	3949
929.533	4112
929.638	3918
929.743	3964
929.848	4032
929.953	3998
930.058	3899
930.163	3804
930.267	3884
930.372	3979
930.477	3819
930.581	4116
930.685	3972
930.79	3854
930.894	3888
930.998	3865
931.103	4067
931.207	3724
931.311	3732
931.415	3709
931.519	3545
931.623	3576
