Data from test_V78500241_2442.txt Node
Date: Fri Mar 25 17:05:58 CST 2022
User: usil
Spectrometer: V785-0024
Trigger mode: 0
Integration Time (sec): 4.000000E-1
Scans to average: 1
Nonlinearity correction enabled: false
Boxcar width: 0
Storing dark spectrum: false
XAxis mode: Wavelengths
Number of Pixels in Spectrum: 1024
>>>>>Begin Spectral Data<<<<<
801.071	8001
801.214	7959
801.356	7856
801.499	7841
801.641	7837
801.783	7879
801.926	7982
802.068	7936
802.211	8005
802.353	8005
802.496	7837
802.638	7799
802.78	7814
802.923	7940
803.065	7864
803.208	7845
803.35	7974
803.492	8069
803.635	8168
803.777	8005
803.919	8107
804.061	8503
804.204	8187
804.346	8001
804.488	8001
804.63	8058
804.773	7970
804.915	8084
805.057	8286
805.199	8214
805.341	8164
805.483	8229
805.626	8271
805.768	8183
805.91	8244
806.052	8229
806.194	8103
806.336	8267
806.478	8073
806.62	8035
806.762	8138
806.904	8221
807.046	8495
807.188	8309
807.33	8305
807.472	8343
807.614	8138
807.756	8180
807.898	8016
808.04	7909
808.182	7864
808.324	7849
808.465	7841
808.607	8115
808.749	8142
808.891	8233
809.033	8347
809.174	8206
809.316	8100
809.458	8031
809.6	8001
809.741	8054
809.883	8012
810.025	8058
810.166	7997
810.308	7974
810.45	8035
810.591	7871
810.733	7734
810.875	7662
811.016	7495
811.158	7449
811.299	7616
811.441	7792
811.582	7734
811.724	7563
811.865	7552
812.007	7613
812.148	7628
812.29	7594
812.431	7765
812.573	7864
812.714	7913
812.855	8187
812.997	8218
813.138	8271
813.279	8126
813.421	8035
813.562	7982
813.703	7753
813.845	7765
813.986	7480
814.127	7270
814.268	7247
814.41	7209
814.551	7156
814.692	7259
814.833	7145
814.974	7095
815.115	7133
815.256	6970
815.397	6935
815.539	6901
815.68	6798
815.821	6764
815.962	6882
816.103	6863
816.244	6627
816.385	6631
816.526	6635
816.666	6494
816.807	6300
816.948	6486
817.089	6528
817.23	6422
817.371	6369
817.512	6372
817.653	6380
817.793	6361
817.934	6399
818.075	6426
818.216	6460
818.356	6414
818.497	6273
818.638	6102
818.778	6148
818.919	6114
819.06	6148
819.2	6342
819.341	6346
819.481	6369
819.622	6551
819.762	6821
819.903	6646
820.043	6525
820.184	6574
820.324	6544
820.465	6734
820.605	6642
820.746	6654
820.886	6578
821.026	6677
821.167	6745
821.307	6840
821.447	6818
821.588	6700
821.728	6612
821.868	6494
822.008	6361
822.149	6388
822.289	6380
822.429	6186
822.569	6091
822.709	6148
822.849	5977
822.99	5973
823.13	5954
823.27	5958
823.41	5847
823.55	5821
823.69	5809
823.83	5779
823.97	5703
824.11	5577
824.25	5528
824.389	5573
824.529	5634
824.669	5543
824.809	5718
824.949	5722
825.089	5634
825.228	5585
825.368	5455
825.508	5406
825.648	5349
825.787	5478
825.927	5410
826.067	5334
826.206	5292
826.346	5436
826.485	5414
826.625	5459
826.765	5573
826.904	5535
827.044	5299
827.183	5201
827.323	5143
827.462	5242
827.601	5315
827.741	5197
827.88	5265
828.02	5159
828.159	5280
828.298	5357
828.437	5425
828.577	5341
828.716	5528
828.855	5360
828.994	5208
829.134	5201
829.273	5242
829.412	5185
829.551	5147
829.69	5220
829.829	5357
829.968	5448
830.107	5265
830.246	5303
830.385	5227
830.524	5181
830.663	5170
830.802	5045
830.941	4927
831.08	4938
831.219	5056
831.357	4984
831.496	5162
831.635	4946
831.774	4866
831.913	4896
832.051	4767
832.19	4801
832.329	4877
832.467	4721
832.606	4694
832.744	4771
832.883	4793
833.022	4698
833.16	4828
833.299	4877
833.437	4873
833.576	4877
833.714	4915
833.852	4919
833.991	4976
834.129	5029
834.267	5006
834.406	4942
834.544	5064
834.682	4991
834.821	5037
834.959	5147
835.097	5025
835.235	5193
835.373	5105
835.511	5102
835.65	5113
835.788	5067
835.926	4927
836.064	4923
836.202	4957
836.34	5242
836.478	5292
836.615	5151
836.753	5204
836.891	5330
837.029	5311
837.167	5239
837.305	5197
837.443	5143
837.58	5048
837.718	5269
837.856	5166
837.993	5231
838.131	5284
838.269	5265
838.406	5254
838.544	5204
838.681	5056
838.819	5060
838.956	4885
839.094	4927
839.231	4999
839.369	5079
839.506	5463
839.643	5353
839.781	5056
839.918	5045
840.055	5094
840.193	5117
840.33	5181
840.467	5178
840.604	5174
840.742	5448
840.879	5098
841.016	5083
841.153	5159
841.29	5353
841.427	5387
841.564	5326
841.701	5414
841.838	5326
841.975	5273
842.112	5292
842.249	5147
842.385	5105
842.522	5364
842.659	5193
842.796	5208
842.933	5254
843.069	5166
843.206	5239
843.343	5303
843.479	5254
843.616	5307
843.752	5018
843.889	5052
844.025	5296
844.162	5067
844.298	5250
844.435	5102
844.571	5075
844.708	5227
844.844	5315
844.98	5364
845.117	5353
845.253	5128
845.389	5090
845.525	5197
845.661	5185
845.798	5037
845.934	5132
846.07	5090
846.206	5189
846.342	5322
846.478	5212
846.614	5052
846.75	5014
846.886	4972
847.022	5094
847.158	5060
847.294	5075
847.429	5159
847.565	5113
847.701	5341
847.837	4892
847.972	4824
848.108	5018
848.244	4991
848.379	4801
848.515	4759
848.65	4774
848.786	4809
848.921	4873
849.057	4877
849.192	4953
849.328	4870
849.463	4904
849.598	4778
849.734	4759
849.869	4733
850.004	4603
850.14	4721
850.275	4668
850.41	4542
850.545	4592
850.68	4637
850.815	4664
850.95	4660
851.085	4904
851.22	4786
851.355	4687
851.49	4645
851.625	4668
851.76	4656
851.895	4580
852.03	4554
852.165	4706
852.299	4694
852.434	4816
852.569	4759
852.703	4828
852.838	4866
852.973	4949
853.107	4972
853.242	4778
853.376	4668
853.511	4531
853.645	4607
853.78	4828
853.914	4717
854.048	4679
854.183	4649
854.317	4714
854.451	4831
854.585	4717
854.72	4622
854.854	4793
854.988	4611
855.122	4645
855.256	4561
855.39	4687
855.524	4824
855.658	4771
855.792	4759
855.926	4778
856.06	4763
856.194	4828
856.327	4748
856.461	4645
856.595	4641
856.729	4660
856.862	4782
856.996	4717
857.13	4740
857.263	4774
857.397	4786
857.53	4714
857.664	4725
857.797	4778
857.931	4835
858.064	4744
858.197	4816
858.331	4656
858.464	4653
858.597	4592
858.731	4702
858.864	4687
858.997	4599
859.13	4710
859.263	4717
859.396	4805
859.529	4618
859.662	4626
859.795	4523
859.928	4656
860.061	4755
860.194	4797
860.327	4622
860.46	4573
860.592	4733
860.725	4767
860.858	4759
860.99	4607
861.123	4554
861.256	4558
861.388	4656
861.521	5357
861.653	4538
861.786	4497
861.918	4481
862.05	4588
862.183	4573
862.315	4660
862.447	4714
862.58	4660
862.712	4352
862.844	4371
862.976	4489
863.108	4497
863.24	4786
863.372	4322
863.504	4481
863.636	4466
863.768	4500
863.9	4447
864.032	4402
864.164	4409
864.296	4523
864.428	4550
864.559	4584
864.691	4542
864.823	4558
864.954	4538
865.086	4565
865.217	4504
865.349	4386
865.48	4440
865.612	4516
865.743	4660
865.875	4481
866.006	4470
866.137	4481
866.269	4478
866.4	4428
866.531	4409
866.662	4417
866.793	4413
866.924	4417
867.055	4527
867.186	4466
867.317	4432
867.448	4390
867.579	4432
867.71	4402
867.841	4459
867.972	4497
868.103	4500
868.233	4447
868.364	4516
868.495	4531
868.625	4687
868.756	4790
868.886	4573
869.017	4668
869.147	4824
869.278	4755
869.408	4691
869.539	4649
869.669	4740
869.799	4675
869.929	4812
870.06	4774
870.19	4987
870.32	4934
870.45	4968
870.58	4957
870.71	5098
870.84	5159
870.97	4961
871.1	4934
871.23	5151
871.36	5132
871.489	4995
871.619	5060
871.749	5117
871.879	5113
872.008	5193
872.138	5090
872.267	5075
872.397	4877
872.526	4870
872.656	4740
872.785	4850
872.915	4934
873.044	5086
873.173	5006
873.303	5018
873.432	4953
873.561	4980
873.69	4919
873.819	4919
873.948	4957
874.077	4850
874.206	4790
874.335	4824
874.464	4919
874.593	5094
874.722	4995
874.851	5124
874.979	5140
875.108	5079
875.237	4965
875.365	4923
875.494	4919
875.623	5010
875.751	4904
875.88	4896
876.008	4987
876.136	5067
876.265	5166
876.393	5383
876.521	5273
876.65	5223
876.778	5216
876.906	5094
877.034	5083
877.162	5086
877.29	4984
877.418	5102
877.546	5079
877.674	5056
877.802	5037
877.93	5064
878.058	4957
878.185	4908
878.313	5022
878.441	4961
878.568	4755
878.696	4885
878.824	4980
878.951	5067
879.079	5121
879.206	5337
879.333	5098
879.461	4953
879.588	5056
879.715	5136
879.842	5258
879.97	5006
880.097	4809
880.224	4755
880.351	4805
880.478	4843
880.605	4805
880.732	4797
880.859	5067
880.986	4923
881.112	4930
881.239	4812
881.366	4691
881.493	4603
881.619	4603
881.746	4664
881.872	4672
881.999	4744
882.125	4710
882.252	4862
882.378	4831
882.505	4957
882.631	4805
882.757	4706
882.883	4767
883.01	4717
883.136	4664
883.262	4630
883.388	4622
883.514	4786
883.64	4873
883.766	4812
883.892	4653
884.018	4740
884.143	4915
884.269	5071
884.395	4733
884.52	4698
884.646	4603
884.772	4596
884.897	4542
885.023	4694
885.148	4763
885.274	4870
885.399	4908
885.524	4717
885.65	4744
885.775	4755
885.9	4679
886.025	4820
886.15	4782
886.275	4698
886.4	4672
886.525	4714
886.65	4683
886.775	4725
886.9	4930
887.025	5033
887.149	4801
887.274	4626
887.399	4584
887.523	4569
887.648	4622
887.773	4592
887.897	4786
888.021	4809
888.146	4672
888.27	4835
888.395	4896
888.519	4812
888.643	4854
888.767	4866
888.891	4698
889.015	4626
889.139	4664
889.263	4580
889.387	4748
889.511	4908
889.635	4847
889.759	4611
889.883	4634
890.006	4725
890.13	4858
890.254	4615
890.377	4668
890.501	4527
890.624	4554
890.748	4611
890.871	4516
890.995	4451
891.118	4367
891.241	4527
891.364	4569
891.488	4660
891.611	4523
891.734	4508
891.857	4615
891.98	4512
892.103	4664
892.226	4603
892.349	4527
892.471	4428
892.594	4542
892.717	4645
892.839	4523
892.962	4596
893.085	4637
893.207	4645
893.33	4440
893.452	4493
893.575	4649
893.697	4580
893.819	4820
893.941	4816
894.064	4748
894.186	4611
894.308	4569
894.43	4744
894.552	4858
894.674	4714
894.796	4588
894.918	4634
895.04	4554
895.161	4717
895.283	4702
895.405	4538
895.526	4656
895.648	4721
895.769	4672
895.891	4755
896.012	4744
896.134	4710
896.255	4656
896.376	4607
896.498	4611
896.619	4683
896.74	4615
896.861	4637
896.982	4911
897.103	5117
897.224	4873
897.345	4782
897.466	4698
897.587	4717
897.708	4831
897.828	4816
897.949	4668
898.07	4569
898.19	4702
898.311	4847
898.431	4668
898.552	4748
898.672	4843
898.792	4801
898.913	4736
899.033	4683
899.153	4508
899.273	4417
899.393	4462
899.513	4481
899.633	4599
899.753	4558
899.873	4546
899.993	4588
900.113	4512
900.232	4596
900.352	4546
900.472	4504
900.591	4371
900.711	4478
900.83	4436
900.95	4603
901.069	4664
901.189	4558
901.308	4394
901.427	4325
901.546	4394
901.665	4497
901.784	4489
901.904	4398
902.023	4325
902.141	4188
902.26	4185
902.379	4299
902.498	4295
902.617	4211
902.735	4383
902.854	4394
902.973	4337
903.091	4211
903.21	4188
903.328	4276
903.446	4284
903.565	4265
903.683	4325
903.801	4284
903.919	4443
904.038	4428
904.156	4333
904.274	4462
904.392	4371
904.51	4409
904.627	4440
904.745	4584
904.863	4603
904.981	4375
905.098	4348
905.216	4352
905.334	4447
905.451	4432
905.569	4451
905.686	4516
905.803	4584
905.921	4432
906.038	4599
906.155	4443
906.272	4379
906.389	4497
906.506	4333
906.623	4371
906.74	4402
906.857	4314
906.974	4371
907.091	4561
907.208	4660
907.324	4592
907.441	4485
907.557	4363
907.674	4306
907.79	4390
907.907	4341
908.023	4504
908.139	4455
908.256	4421
908.372	4443
908.488	4500
908.604	4363
908.72	4329
908.836	4386
908.952	4352
909.068	4447
909.184	4542
909.3	4500
909.415	4584
909.531	4558
909.647	4363
909.762	4390
909.878	4348
909.993	4432
910.108	4455
910.224	4447
910.339	4523
910.454	4432
910.57	4398
910.685	4295
910.8	4672
910.915	4618
911.03	4504
911.145	4341
911.259	4322
911.374	4436
911.489	4280
911.604	4344
911.718	4173
911.833	4204
911.947	4082
912.062	4051
912.176	4211
912.291	4249
912.405	4268
912.519	4493
912.633	4538
912.748	4352
912.862	4306
912.976	4192
913.09	4109
913.204	4169
913.318	4276
913.431	4322
913.545	4348
913.659	4455
913.772	4402
913.886	4227
914	4242
914.113	4398
914.226	4436
914.34	4421
914.453	4204
914.566	4390
914.68	4306
914.793	4329
914.906	4169
915.019	4109
915.132	4120
915.245	4192
915.358	4215
915.47	4211
915.583	4265
915.696	4303
915.809	4402
915.921	4432
916.034	4280
916.146	4268
916.259	4227
916.371	4379
916.483	4356
916.595	4249
916.708	4306
916.82	4310
916.932	4337
917.044	4371
917.156	4352
917.268	4234
917.38	4253
917.491	4253
917.603	4352
917.715	4436
917.826	4432
917.938	4379
918.049	4242
918.161	4421
918.272	4538
918.384	4573
918.495	4462
918.606	4276
918.717	4242
918.828	4344
918.939	4333
919.05	4284
919.161	4314
919.272	4139
919.383	4242
919.494	4428
919.604	4653
919.715	4348
919.826	4329
919.936	4371
920.047	4527
920.157	4443
920.267	4694
920.378	4504
920.488	4538
920.598	4710
920.708	4904
920.818	4744
920.928	4778
921.038	4968
921.148	4919
921.258	4649
921.368	4538
921.477	4485
921.587	4436
921.697	4348
921.806	4512
921.916	4459
922.025	4265
922.134	4268
922.244	4188
922.353	4303
922.462	4162
922.571	4139
922.68	3953
922.789	3994
922.898	4002
923.007	4013
923.116	4090
923.224	4074
923.333	4055
923.442	3979
923.55	4044
923.659	4036
923.767	4124
923.876	4006
923.984	4177
924.092	3975
924.201	4032
924.309	4082
924.417	4150
924.525	4051
924.633	4128
924.741	5022
924.849	3953
924.956	4124
925.064	3964
925.172	3892
925.279	3945
925.387	4051
925.494	4109
925.602	4238
925.709	4169
925.816	4036
925.924	4158
926.031	4223
926.138	4131
926.245	4211
926.352	4078
926.459	4272
926.566	4284
926.673	4169
926.779	4086
926.886	4112
926.993	3975
927.099	3979
927.206	3930
927.312	3964
927.419	4093
927.525	4044
927.631	4105
927.737	3953
927.843	3896
927.95	3838
928.056	3945
928.162	3960
928.267	4131
928.373	4714
928.479	4143
928.585	3884
928.69	4029
928.796	4120
928.901	3956
929.007	3812
929.112	4010
929.218	3949
929.323	3960
929.428	3994
929.533	4162
929.638	3899
929.743	3979
929.848	4032
929.953	4010
930.058	3911
930.163	3812
930.267	3812
930.372	3964
930.477	3835
930.581	4059
930.685	3991
930.79	3854
930.894	3911
930.998	3842
931.103	4006
931.207	3720
931.311	3656
931.415	3675
931.519	3523
931.623	3564
