Data from test_V78500241_997.txt Node
Date: Fri Mar 25 16:55:56 CST 2022
User: usil
Spectrometer: V785-0024
Trigger mode: 0
Integration Time (sec): 4.000000E-1
Scans to average: 1
Nonlinearity correction enabled: false
Boxcar width: 0
Storing dark spectrum: false
XAxis mode: Wavelengths
Number of Pixels in Spectrum: 1024
>>>>>Begin Spectral Data<<<<<
801.071	8058
801.214	8012
801.356	7909
801.499	7826
801.641	7833
801.783	7757
801.926	7951
802.068	7921
802.211	7932
802.353	7925
802.496	7814
802.638	7803
802.78	7830
802.923	7898
803.065	7788
803.208	7925
803.35	7944
803.492	8081
803.635	8126
803.777	8020
803.919	8153
804.061	8457
804.204	8111
804.346	8069
804.488	7951
804.63	8077
804.773	8069
804.915	8058
805.057	8320
805.199	8195
805.341	8263
805.483	8180
805.626	8187
805.768	8081
805.91	8191
806.052	8176
806.194	8073
806.336	8149
806.478	8088
806.62	7993
806.762	8149
806.904	8256
807.046	8393
807.188	8298
807.33	8332
807.472	8324
807.614	8092
807.756	8134
807.898	8016
808.04	7814
808.182	7890
808.324	7864
808.465	7913
808.607	8054
808.749	8005
808.891	8088
809.033	8282
809.174	8138
809.316	8020
809.458	8001
809.6	7986
809.741	7959
809.883	7963
810.025	8081
810.166	8111
810.308	7993
810.45	8001
810.591	7856
810.733	7677
810.875	7655
811.016	7483
811.158	7445
811.299	7571
811.441	7636
811.582	7708
811.724	7540
811.865	7563
812.007	7605
812.148	7620
812.29	7544
812.431	7753
812.573	7799
812.714	7967
812.855	8100
812.997	8191
813.138	8244
813.279	8168
813.421	8119
813.562	7993
813.703	7871
813.845	7761
813.986	7411
814.127	7255
814.268	7270
814.41	7171
814.551	7126
814.692	7244
814.833	7065
814.974	7091
815.115	7057
815.256	6947
815.397	6935
815.539	6993
815.68	6859
815.821	6829
815.962	6829
816.103	6818
816.244	6772
816.385	6623
816.526	6597
816.666	6502
816.807	6315
816.948	6441
817.089	6483
817.23	6467
817.371	6376
817.512	6410
817.653	6323
817.793	6346
817.934	6407
818.075	6418
818.216	6437
818.356	6357
818.497	6213
818.638	6091
818.778	6129
818.919	6140
819.06	6129
819.2	6350
819.341	6281
819.481	6327
819.622	6460
819.762	6738
819.903	6642
820.043	6570
820.184	6502
820.324	6582
820.465	6711
820.605	6662
820.746	6612
820.886	6570
821.026	6612
821.167	6696
821.307	6802
821.447	6700
821.588	6673
821.728	6521
821.868	6452
822.008	6350
822.149	6327
822.289	6327
822.429	6129
822.569	6091
822.709	6083
822.849	5916
822.99	5950
823.13	5893
823.27	5904
823.41	5790
823.55	5798
823.69	5733
823.83	5783
823.97	5649
824.11	5528
824.25	5490
824.389	5532
824.529	5585
824.669	5532
824.809	5619
824.949	5608
825.089	5570
825.228	5516
825.368	5383
825.508	5334
825.648	5318
825.787	5345
825.927	5368
826.067	5265
826.206	5292
826.346	5345
826.485	5341
826.625	5395
826.765	5554
826.904	5528
827.044	5231
827.183	5204
827.323	5132
827.462	5261
827.601	5143
827.741	5162
827.88	5189
828.02	5056
828.159	5201
828.298	5250
828.437	5334
828.577	5231
828.716	5493
828.855	5326
828.994	5181
829.134	5147
829.273	5170
829.412	5136
829.551	5048
829.69	5083
829.829	5204
829.968	5387
830.107	5242
830.246	5246
830.385	5105
830.524	5117
830.663	5064
830.802	4942
830.941	4881
831.08	4824
831.219	4946
831.357	4949
831.496	5136
831.635	4881
831.774	4820
831.913	4816
832.051	4714
832.19	4755
832.329	4801
832.467	4717
832.606	4607
832.744	4668
832.883	4714
833.022	4714
833.16	4759
833.299	4778
833.437	4797
833.576	4847
833.714	4831
833.852	4828
833.991	4885
834.129	4919
834.267	4949
834.406	4900
834.544	4961
834.682	4980
834.821	4919
834.959	5136
835.097	4961
835.235	5174
835.373	5067
835.511	5094
835.65	5048
835.788	5052
835.926	4881
836.064	4839
836.202	4915
836.34	5109
836.478	5197
836.615	5124
836.753	5197
836.891	5246
837.029	5288
837.167	5212
837.305	5220
837.443	5155
837.58	5086
837.718	5250
837.856	5159
837.993	5045
838.131	5231
838.269	5201
838.406	5212
838.544	5159
838.681	4957
838.819	5003
838.956	4900
839.094	4908
839.231	4995
839.369	5094
839.506	5433
839.643	5197
839.781	5041
839.918	5033
840.055	5029
840.193	5117
840.33	5098
840.467	5143
840.604	5124
840.742	5459
840.879	5102
841.016	5033
841.153	5113
841.29	5372
841.427	5326
841.564	5280
841.701	5318
841.838	5258
841.975	5162
842.112	5220
842.249	5151
842.385	5056
842.522	5288
842.659	5151
842.796	5166
842.933	5117
843.069	5094
843.206	5121
843.343	5307
843.479	5250
843.616	5239
843.752	5014
843.889	4942
844.025	5246
844.162	5022
844.298	5178
844.435	5022
844.571	4961
844.708	5155
844.844	5288
844.98	5379
845.117	5364
845.253	5159
845.389	5045
845.525	5178
845.661	5151
845.798	5056
845.934	5079
846.07	5003
846.206	5178
846.342	5277
846.478	5193
846.614	4965
846.75	4892
846.886	4908
847.022	5136
847.158	4984
847.294	5086
847.429	5075
847.565	5025
847.701	5273
847.837	4835
847.972	4816
848.108	4968
848.244	4904
848.379	4778
848.515	4675
848.65	4717
848.786	4687
848.921	4744
849.057	4885
849.192	4812
849.328	4820
849.463	4850
849.598	4767
849.734	4740
849.869	4668
850.004	4588
850.14	4672
850.275	4603
850.41	4500
850.545	4565
850.68	4561
850.815	4611
850.95	4599
851.085	4866
851.22	4717
851.355	4649
851.49	4615
851.625	4641
851.76	4653
851.895	4538
852.03	4538
852.165	4618
852.299	4706
852.434	4729
852.569	4683
852.703	4759
852.838	4797
852.973	4866
853.107	4873
853.242	4698
853.376	4668
853.511	4554
853.645	4592
853.78	4771
853.914	4679
854.048	4660
854.183	4664
854.317	4649
854.451	4828
854.585	4687
854.72	4607
854.854	4725
854.988	4577
855.122	4641
855.256	4478
855.39	4626
855.524	4774
855.658	4717
855.792	4683
855.926	4702
856.06	4771
856.194	4790
856.327	4668
856.461	4611
856.595	4603
856.729	4592
856.862	4767
856.996	4653
857.13	4683
857.263	4729
857.397	4774
857.53	4675
857.664	4721
857.797	4816
857.931	4786
858.064	4660
858.197	4786
858.331	4660
858.464	4618
858.597	4440
858.731	4641
858.864	4637
858.997	4546
859.13	4615
859.263	4679
859.396	4710
859.529	4569
859.662	4561
859.795	4554
859.928	4607
860.061	4687
860.194	4778
860.327	4599
860.46	4558
860.592	4691
860.725	4687
860.858	4752
860.99	4554
861.123	4474
861.256	4497
861.388	4584
861.521	5220
861.653	4497
861.786	4489
861.918	4462
862.05	4500
862.183	4592
862.315	4550
862.447	4599
862.58	4527
862.712	4333
862.844	4348
862.976	4443
863.108	4424
863.24	4858
863.372	4344
863.504	4390
863.636	4367
863.768	4478
863.9	4375
864.032	4329
864.164	4421
864.296	4493
864.428	4531
864.559	4554
864.691	4481
864.823	4481
864.954	4493
865.086	4527
865.217	4474
865.349	4451
865.48	4459
865.612	4485
865.743	4641
865.875	4462
866.006	4417
866.137	4443
866.269	4413
866.4	4451
866.531	4436
866.662	4360
866.793	4405
866.924	4352
867.055	4497
867.186	4443
867.317	4367
867.448	4352
867.579	4360
867.71	4394
867.841	4329
867.972	4451
868.103	4440
868.233	4386
868.364	4417
868.495	4481
868.625	4630
868.756	4778
868.886	4554
869.017	4577
869.147	4748
869.278	4740
869.408	4622
869.539	4611
869.669	4710
869.799	4634
869.929	4733
870.06	4717
870.19	4919
870.32	4889
870.45	4946
870.58	5014
870.71	5071
870.84	5048
870.97	4991
871.1	4866
871.23	5117
871.36	5098
871.489	5033
871.619	5071
871.749	5083
871.879	5121
872.008	5201
872.138	5037
872.267	4991
872.397	4843
872.526	4812
872.656	4710
872.785	4767
872.915	4870
873.044	5014
873.173	4911
873.303	4965
873.432	4927
873.561	4919
873.69	4850
873.819	4828
873.948	4858
874.077	4793
874.206	4748
874.335	4748
874.464	4942
874.593	5064
874.722	4934
874.851	5056
874.979	5041
875.108	5056
875.237	4866
875.365	4824
875.494	4839
875.623	4957
875.751	4839
875.88	4896
876.008	4904
876.136	4972
876.265	5181
876.393	5273
876.521	5277
876.65	5170
876.778	5201
876.906	5109
877.034	4980
877.162	5045
877.29	5022
877.418	5010
877.546	5037
877.674	4995
877.802	5006
877.93	4987
878.058	4919
878.185	4885
878.313	4972
878.441	4934
878.568	4763
878.696	4847
878.824	4942
878.951	4968
879.079	5136
879.206	5265
879.333	5113
879.461	4946
879.588	4968
879.715	5113
879.842	5181
879.97	5022
880.097	4812
880.224	4721
880.351	4778
880.478	4847
880.605	4805
880.732	4752
880.859	5045
880.986	4809
881.112	4870
881.239	4771
881.366	4664
881.493	4615
881.619	4596
881.746	4615
881.872	4653
881.999	4599
882.125	4637
882.252	4782
882.378	4824
882.505	4927
882.631	4801
882.757	4710
882.883	4736
883.01	4687
883.136	4626
883.262	4546
883.388	4596
883.514	4778
883.64	4843
883.766	4767
883.892	4630
884.018	4729
884.143	4949
884.269	5025
884.395	4645
884.52	4615
884.646	4615
884.772	4546
884.897	4573
885.023	4668
885.148	4816
885.274	4809
885.399	4694
885.524	4721
885.65	4679
885.775	4675
885.9	4698
886.025	4831
886.15	4771
886.275	4656
886.4	4618
886.525	4675
886.65	4672
886.775	4691
886.9	4896
887.025	5045
887.149	4759
887.274	4645
887.399	4615
887.523	4592
887.648	4584
887.773	4531
887.897	4714
888.021	4778
888.146	4694
888.27	4816
888.395	4927
888.519	4729
888.643	4782
888.767	4774
888.891	4675
889.015	4580
889.139	4664
889.263	4584
889.387	4702
889.511	4862
889.635	4793
889.759	4596
889.883	4630
890.006	4694
890.13	4847
890.254	4611
890.377	4645
890.501	4519
890.624	4519
890.748	4622
890.871	4497
890.995	4428
891.118	4402
891.241	4519
891.364	4519
891.488	4645
891.611	4421
891.734	4527
891.857	4550
891.98	4497
892.103	4664
892.226	4561
892.349	4489
892.471	4375
892.594	4527
892.717	4615
892.839	4554
892.962	4573
893.085	4622
893.207	4588
893.33	4455
893.452	4523
893.575	4615
893.697	4542
893.819	4759
893.941	4820
894.064	4771
894.186	4554
894.308	4523
894.43	4767
894.552	4786
894.674	4736
894.796	4531
894.918	4584
895.04	4569
895.161	4656
895.283	4645
895.405	4558
895.526	4626
895.648	4683
895.769	4656
895.891	4679
896.012	4694
896.134	4664
896.255	4626
896.376	4599
896.498	4626
896.619	4679
896.74	4607
896.861	4607
896.982	4889
897.103	5086
897.224	4835
897.345	4793
897.466	4634
897.587	4725
897.708	4843
897.828	4778
897.949	4656
898.07	4550
898.19	4592
898.311	4790
898.431	4649
898.552	4691
898.672	4786
898.792	4786
898.913	4687
899.033	4584
899.153	4546
899.273	4436
899.393	4516
899.513	4538
899.633	4504
899.753	4558
899.873	4474
899.993	4554
900.113	4489
900.232	4565
900.352	4519
900.472	4432
900.591	4417
900.711	4478
900.83	4432
900.95	4611
901.069	4687
901.189	4542
901.308	4356
901.427	4287
901.546	4306
901.665	4474
901.784	4462
901.904	4405
902.023	4341
902.141	4196
902.26	4147
902.379	4295
902.498	4234
902.617	4219
902.735	4394
902.854	4383
902.973	4360
903.091	4207
903.21	4227
903.328	4284
903.446	4284
903.565	4284
903.683	4318
903.801	4287
903.919	4383
904.038	4459
904.156	4329
904.274	4443
904.392	4356
904.51	4409
904.627	4436
904.745	4580
904.863	4569
904.981	4424
905.098	4299
905.216	4341
905.334	4398
905.451	4493
905.569	4424
905.686	4519
905.803	4504
905.921	4443
906.038	4542
906.155	4466
906.272	4383
906.389	4405
906.506	4333
906.623	4367
906.74	4363
906.857	4314
906.974	4367
907.091	4561
907.208	4653
907.324	4493
907.441	4436
907.557	4352
907.674	4291
907.79	4314
907.907	4356
908.023	4466
908.139	4474
908.256	4455
908.372	4489
908.488	4474
908.604	4367
908.72	4246
908.836	4375
908.952	4356
909.068	4481
909.184	4535
909.3	4497
909.415	4535
909.531	4519
909.647	4306
909.762	4360
909.878	4337
909.993	4459
910.108	4394
910.224	4386
910.339	4508
910.454	4402
910.57	4379
910.685	4310
910.8	4588
910.915	4603
911.03	4485
911.145	4322
911.259	4333
911.374	4299
911.489	4306
911.604	4299
911.718	4143
911.833	4219
911.947	4063
912.062	4074
912.176	4249
912.291	4280
912.405	4223
912.519	4459
912.633	4462
912.748	4363
912.862	4253
912.976	4154
913.09	4048
913.204	4196
913.318	4234
913.431	4299
913.545	4360
913.659	4409
913.772	4348
913.886	4188
914	4215
914.113	4356
914.226	4455
914.34	4402
914.453	4173
914.566	4398
914.68	4257
914.793	4280
914.906	4139
915.019	4131
915.132	4097
915.245	4166
915.358	4188
915.47	4234
915.583	4249
915.696	4310
915.809	4409
915.921	4383
916.034	4257
916.146	4261
916.259	4211
916.371	4344
916.483	4306
916.595	4268
916.708	4333
916.82	4261
916.932	4322
917.044	4303
917.156	4306
917.268	4238
917.38	4314
917.491	4276
917.603	4287
917.715	4360
917.826	4421
917.938	4303
918.049	4249
918.161	4383
918.272	4512
918.384	4519
918.495	4481
918.606	4242
918.717	4200
918.828	4306
918.939	4322
919.05	4230
919.161	4287
919.272	4078
919.383	4219
919.494	4386
919.604	4618
919.715	4428
919.826	4314
919.936	4371
920.047	4523
920.157	4455
920.267	4679
920.378	4500
920.488	4474
920.598	4687
920.708	4900
920.818	4721
920.928	4687
921.038	4965
921.148	4911
921.258	4615
921.368	4527
921.477	4466
921.587	4432
921.697	4390
921.806	4497
921.916	4455
922.025	4295
922.134	4276
922.244	4211
922.353	4287
922.462	4169
922.571	4131
922.68	3972
922.789	3991
922.898	4055
923.007	4002
923.116	4051
923.224	4059
923.333	4116
923.442	4002
923.55	3956
923.659	4059
923.767	4086
923.876	4010
923.984	4158
924.092	3964
924.201	4135
924.309	4116
924.417	4147
924.525	4105
924.633	4109
924.741	5083
924.849	3945
924.956	4139
925.064	3979
925.172	3987
925.279	3979
925.387	4071
925.494	4086
925.602	4268
925.709	4177
925.816	4040
925.924	4192
926.031	4253
926.138	4204
926.245	4253
926.352	4086
926.459	4291
926.566	4356
926.673	4173
926.779	4082
926.886	4124
926.993	3991
927.099	4032
927.206	3972
927.312	3987
927.419	4071
927.525	4059
927.631	4143
927.737	3968
927.843	4010
927.95	3888
928.056	3994
928.162	4021
928.267	4074
928.373	4744
928.479	4131
928.585	3945
928.69	4032
928.796	4090
928.901	4010
929.007	3869
929.112	4017
929.218	4059
929.323	4013
929.428	3979
929.533	4147
929.638	3956
929.743	3960
929.848	4036
929.953	3983
930.058	3979
930.163	3774
930.267	3857
930.372	4029
930.477	3873
930.581	4128
930.685	3998
930.79	3838
930.894	3953
930.998	3911
931.103	4074
931.207	3732
931.311	3747
931.415	3717
931.519	3526
931.623	3603
