Data from test_V78500241_2141.txt Node
Date: Fri Mar 25 17:03:53 CST 2022
User: usil
Spectrometer: V785-0024
Trigger mode: 0
Integration Time (sec): 4.000000E-1
Scans to average: 1
Nonlinearity correction enabled: false
Boxcar width: 0
Storing dark spectrum: false
XAxis mode: Wavelengths
Number of Pixels in Spectrum: 1024
>>>>>Begin Spectral Data<<<<<
801.071	8005
801.214	8027
801.356	7906
801.499	7822
801.641	7837
801.783	7826
801.926	8008
802.068	7982
802.211	7959
802.353	8043
802.496	7944
802.638	7803
802.78	7883
802.923	7970
803.065	7792
803.208	7917
803.35	7955
803.492	8084
803.635	8172
803.777	7940
803.919	8138
804.061	8446
804.204	8267
804.346	8058
804.488	7959
804.63	8134
804.773	7986
804.915	8123
805.057	8313
805.199	8161
805.341	8183
805.483	8233
805.626	8210
805.768	8191
805.91	8149
806.052	8195
806.194	8149
806.336	8252
806.478	8115
806.62	8088
806.762	8145
806.904	8313
807.046	8457
807.188	8404
807.33	8275
807.472	8309
807.614	8191
807.756	8103
807.898	7978
808.04	7902
808.182	7875
808.324	7932
808.465	7925
808.607	8100
808.749	8054
808.891	8218
809.033	8332
809.174	8191
809.316	8046
809.458	8115
809.6	7978
809.741	8016
809.883	8081
810.025	8153
810.166	8016
810.308	8046
810.45	7982
810.591	7795
810.733	7776
810.875	7708
811.016	7487
811.158	7480
811.299	7578
811.441	7750
811.582	7651
811.724	7567
811.865	7559
812.007	7609
812.148	7563
812.29	7594
812.431	7795
812.573	7856
812.714	7932
812.855	8161
812.997	8229
813.138	8305
813.279	8176
813.421	8065
813.562	7974
813.703	7807
813.845	7696
813.986	7434
814.127	7289
814.268	7209
814.41	7232
814.551	7171
814.692	7263
814.833	7072
814.974	7114
815.115	7069
815.256	6935
815.397	6928
815.539	6954
815.68	6787
815.821	6764
815.962	6901
816.103	6802
816.244	6684
816.385	6582
816.526	6589
816.666	6517
816.807	6296
816.948	6414
817.089	6506
817.23	6475
817.371	6418
817.512	6384
817.653	6365
817.793	6350
817.934	6331
818.075	6426
818.216	6418
818.356	6441
818.497	6266
818.638	6125
818.778	6167
818.919	6148
819.06	6163
819.2	6292
819.341	6338
819.481	6391
819.622	6566
819.762	6810
819.903	6772
820.043	6563
820.184	6593
820.324	6646
820.465	6757
820.605	6654
820.746	6662
820.886	6559
821.026	6635
821.167	6753
821.307	6810
821.447	6783
821.588	6669
821.728	6589
821.868	6528
822.008	6346
822.149	6327
822.289	6346
822.429	6144
822.569	6129
822.709	6079
822.849	5885
822.99	5855
823.13	5904
823.27	5893
823.41	5786
823.55	5817
823.69	5729
823.83	5741
823.97	5642
824.11	5501
824.25	5524
824.389	5528
824.529	5532
824.669	5524
824.809	5627
824.949	5714
825.089	5630
825.228	5577
825.368	5387
825.508	5353
825.648	5334
825.787	5364
825.927	5402
826.067	5341
826.206	5288
826.346	5421
826.485	5372
826.625	5402
826.765	5562
826.904	5474
827.044	5273
827.183	5212
827.323	5124
827.462	5265
827.601	5178
827.741	5155
827.88	5246
828.02	5071
828.159	5280
828.298	5337
828.437	5448
828.577	5246
828.716	5474
828.855	5307
828.994	5178
829.134	5151
829.273	5220
829.412	5109
829.551	5140
829.69	5193
829.829	5261
829.968	5391
830.107	5292
830.246	5254
830.385	5147
830.524	5151
830.663	5090
830.802	4942
830.941	4896
831.08	4870
831.219	4984
831.357	4995
831.496	5155
831.635	4957
831.774	4820
831.913	4828
832.051	4736
832.19	4759
832.329	4828
832.467	4729
832.606	4634
832.744	4744
832.883	4721
833.022	4725
833.16	4759
833.299	4782
833.437	4828
833.576	4850
833.714	4866
833.852	4870
833.991	4896
834.129	4968
834.267	4927
834.406	4908
834.544	4980
834.682	4999
834.821	4984
834.959	5170
835.097	4968
835.235	5162
835.373	5086
835.511	5102
835.65	5018
835.788	5006
835.926	4904
836.064	4824
836.202	4904
836.34	5140
836.478	5204
836.615	5113
836.753	5128
836.891	5277
837.029	5220
837.167	5166
837.305	5151
837.443	5204
837.58	5162
837.718	5231
837.856	5174
837.993	5117
838.131	5216
838.269	5212
838.406	5193
838.544	5185
838.681	5067
838.819	4968
838.956	4881
839.094	4919
839.231	4942
839.369	5136
839.506	5467
839.643	5303
839.781	5052
839.918	4976
840.055	5048
840.193	5094
840.33	5094
840.467	5151
840.604	5181
840.742	5429
840.879	5064
841.016	5064
841.153	5045
841.29	5448
841.427	5341
841.564	5322
841.701	5307
841.838	5311
841.975	5212
842.112	5261
842.249	5147
842.385	5018
842.522	5341
842.659	5151
842.796	5166
842.933	5242
843.069	5105
843.206	5162
843.343	5265
843.479	5212
843.616	5254
843.752	4995
843.889	5018
844.025	5166
844.162	5045
844.298	5261
844.435	5037
844.571	5022
844.708	5155
844.844	5326
844.98	5357
845.117	5265
845.253	5166
845.389	5048
845.525	5204
845.661	5185
845.798	5022
845.934	5151
846.07	5052
846.206	5178
846.342	5250
846.478	5193
846.614	5025
846.75	4946
846.886	4957
847.022	5128
847.158	5045
847.294	5006
847.429	5071
847.565	5067
847.701	5326
847.837	4892
847.972	4839
848.108	4965
848.244	4991
848.379	4763
848.515	4717
848.65	4664
848.786	4771
848.921	4820
849.057	4850
849.192	4847
849.328	4797
849.463	4847
849.598	4778
849.734	4771
849.869	4687
850.004	4641
850.14	4694
850.275	4611
850.41	4493
850.545	4558
850.68	4573
850.815	4618
850.95	4592
851.085	4839
851.22	4736
851.355	4641
851.49	4618
851.625	4630
851.76	4611
851.895	4519
852.03	4519
852.165	4645
852.299	4672
852.434	4748
852.569	4759
852.703	4771
852.838	4858
852.973	4904
853.107	4942
853.242	4736
853.376	4618
853.511	4550
853.645	4656
853.78	4748
853.914	4714
854.048	4634
854.183	4626
854.317	4774
854.451	4816
854.585	4694
854.72	4683
854.854	4733
854.988	4588
855.122	4577
855.256	4489
855.39	4687
855.524	4759
855.658	4729
855.792	4698
855.926	4672
856.06	4706
856.194	4824
856.327	4683
856.461	4660
856.595	4588
856.729	4691
856.862	4733
856.996	4694
857.13	4714
857.263	4786
857.397	4820
857.53	4660
857.664	4744
857.797	4763
857.931	4748
858.064	4740
858.197	4748
858.331	4634
858.464	4626
858.597	4531
858.731	4626
858.864	4622
858.997	4573
859.13	4637
859.263	4668
859.396	4637
859.529	4592
859.662	4554
859.795	4569
859.928	4622
860.061	4736
860.194	4748
860.327	4626
860.46	4554
860.592	4694
860.725	4771
860.858	4714
860.99	4618
861.123	4523
861.256	4527
861.388	4664
861.521	5448
861.653	4470
861.786	4402
861.918	4462
862.05	4519
862.183	4546
862.315	4569
862.447	4630
862.58	4523
862.712	4379
862.844	4306
862.976	4462
863.108	4478
863.24	4698
863.372	4363
863.504	4455
863.636	4394
863.768	4481
863.9	4424
864.032	4337
864.164	4379
864.296	4459
864.428	4546
864.559	4538
864.691	4523
864.823	4493
864.954	4451
865.086	4443
865.217	4432
865.349	4409
865.48	4436
865.612	4531
865.743	4637
865.875	4424
866.006	4432
866.137	4462
866.269	4462
866.4	4443
866.531	4390
866.662	4405
866.793	4383
866.924	4379
867.055	4504
867.186	4451
867.317	4394
867.448	4352
867.579	4356
867.71	4417
867.841	4348
867.972	4455
868.103	4447
868.233	4481
868.364	4462
868.495	4478
868.625	4656
868.756	4725
868.886	4569
869.017	4634
869.147	4759
869.278	4733
869.408	4664
869.539	4694
869.669	4721
869.799	4656
869.929	4740
870.06	4721
870.19	4953
870.32	4927
870.45	4927
870.58	4976
870.71	5037
870.84	5083
870.97	4968
871.1	4919
871.23	5147
871.36	5109
871.489	5056
871.619	5014
871.749	5086
871.879	5181
872.008	5220
872.138	5052
872.267	4949
872.397	4816
872.526	4778
872.656	4733
872.785	4801
872.915	4968
873.044	4976
873.173	4930
873.303	4923
873.432	4987
873.561	4991
873.69	4858
873.819	4850
873.948	4873
874.077	4782
874.206	4733
874.335	4797
874.464	4896
874.593	5071
874.722	4961
874.851	5037
874.979	5067
875.108	5041
875.237	4919
875.365	4904
875.494	4862
875.623	5003
875.751	4854
875.88	4824
876.008	5003
876.136	5037
876.265	5174
876.393	5337
876.521	5254
876.65	5193
876.778	5178
876.906	5033
877.034	5018
877.162	5067
877.29	4976
877.418	5094
877.546	5022
877.674	5048
877.802	4987
877.93	5003
878.058	4911
878.185	4911
878.313	4885
878.441	4972
878.568	4759
878.696	4858
878.824	4980
878.951	4961
879.079	5102
879.206	5269
879.333	5086
879.461	5010
879.588	5010
879.715	5136
879.842	5189
879.97	5018
880.097	4736
880.224	4763
880.351	4809
880.478	4805
880.605	4801
880.732	4801
880.859	5045
880.986	4904
881.112	4892
881.239	4797
881.366	4694
881.493	4584
881.619	4561
881.746	4607
881.872	4683
881.999	4653
882.125	4729
882.252	4771
882.378	4816
882.505	4946
882.631	4835
882.757	4675
882.883	4725
883.01	4752
883.136	4622
883.262	4615
883.388	4615
883.514	4824
883.64	4889
883.766	4797
883.892	4675
884.018	4729
884.143	4885
884.269	4991
884.395	4698
884.52	4637
884.646	4653
884.772	4588
884.897	4569
885.023	4637
885.148	4786
885.274	4820
885.399	4843
885.524	4668
885.65	4733
885.775	4748
885.9	4694
886.025	4820
886.15	4824
886.275	4733
886.4	4668
886.525	4740
886.65	4717
886.775	4736
886.9	4900
887.025	5056
887.149	4812
887.274	4691
887.399	4592
887.523	4569
887.648	4599
887.773	4596
887.897	4740
888.021	4771
888.146	4656
888.27	4828
888.395	4942
888.519	4774
888.643	4854
888.767	4797
888.891	4637
889.015	4554
889.139	4664
889.263	4561
889.387	4736
889.511	4816
889.635	4801
889.759	4672
889.883	4630
890.006	4725
890.13	4805
890.254	4641
890.377	4729
890.501	4519
890.624	4459
890.748	4630
890.871	4516
890.995	4398
891.118	4405
891.241	4504
891.364	4531
891.488	4660
891.611	4474
891.734	4519
891.857	4584
891.98	4554
892.103	4706
892.226	4573
892.349	4493
892.471	4344
892.594	4527
892.717	4596
892.839	4519
892.962	4588
893.085	4622
893.207	4630
893.33	4440
893.452	4462
893.575	4664
893.697	4603
893.819	4790
893.941	4839
894.064	4790
894.186	4573
894.308	4584
894.43	4717
894.552	4805
894.674	4748
894.796	4531
894.918	4618
895.04	4531
895.161	4717
895.283	4702
895.405	4561
895.526	4611
895.648	4694
895.769	4664
895.891	4683
896.012	4748
896.134	4721
896.255	4634
896.376	4645
896.498	4573
896.619	4634
896.74	4542
896.861	4653
896.982	4957
897.103	5121
897.224	4843
897.345	4740
897.466	4649
897.587	4706
897.708	4858
897.828	4755
897.949	4656
898.07	4561
898.19	4622
898.311	4862
898.431	4687
898.552	4710
898.672	4831
898.792	4793
898.913	4843
899.033	4641
899.153	4497
899.273	4447
899.393	4512
899.513	4519
899.633	4504
899.753	4535
899.873	4485
899.993	4535
900.113	4489
900.232	4569
900.352	4588
900.472	4538
900.591	4417
900.711	4436
900.83	4421
900.95	4588
901.069	4702
901.189	4577
901.308	4333
901.427	4299
901.546	4402
901.665	4451
901.784	4466
901.904	4371
902.023	4371
902.141	4207
902.26	4181
902.379	4341
902.498	4272
902.617	4219
902.735	4413
902.854	4386
902.973	4356
903.091	4185
903.21	4227
903.328	4265
903.446	4287
903.565	4230
903.683	4352
903.801	4295
903.919	4375
904.038	4455
904.156	4295
904.274	4428
904.392	4386
904.51	4428
904.627	4462
904.745	4615
904.863	4649
904.981	4356
905.098	4287
905.216	4390
905.334	4428
905.451	4405
905.569	4447
905.686	4573
905.803	4550
905.921	4371
906.038	4561
906.155	4512
906.272	4432
906.389	4447
906.506	4333
906.623	4356
906.74	4390
906.857	4284
906.974	4360
907.091	4588
907.208	4710
907.324	4622
907.441	4489
907.557	4348
907.674	4344
907.79	4367
907.907	4371
908.023	4481
908.139	4481
908.256	4459
908.372	4474
908.488	4451
908.604	4375
908.72	4314
908.836	4356
908.952	4394
909.068	4462
909.184	4592
909.3	4470
909.415	4577
909.531	4531
909.647	4341
909.762	4360
909.878	4360
909.993	4500
910.108	4413
910.224	4386
910.339	4531
910.454	4390
910.57	4348
910.685	4287
910.8	4668
910.915	4622
911.03	4459
911.145	4329
911.259	4303
911.374	4383
911.489	4268
911.604	4314
911.718	4185
911.833	4185
911.947	4086
912.062	3994
912.176	4196
912.291	4246
912.405	4276
912.519	4474
912.633	4459
912.748	4383
912.862	4318
912.976	4230
913.09	4055
913.204	4166
913.318	4223
913.431	4341
913.545	4360
913.659	4470
913.772	4348
913.886	4249
914	4227
914.113	4379
914.226	4470
914.34	4363
914.453	4207
914.566	4428
914.68	4318
914.793	4287
914.906	4169
915.019	4120
915.132	4021
915.245	4166
915.358	4211
915.47	4265
915.583	4204
915.696	4303
915.809	4436
915.921	4386
916.034	4253
916.146	4227
916.259	4238
916.371	4344
916.483	4310
916.595	4219
916.708	4295
916.82	4314
916.932	4310
917.044	4333
917.156	4325
917.268	4234
917.38	4234
917.491	4249
917.603	4337
917.715	4421
917.826	4398
917.938	4352
918.049	4238
918.161	4398
918.272	4531
918.384	4508
918.495	4455
918.606	4280
918.717	4268
918.828	4352
918.939	4390
919.05	4272
919.161	4352
919.272	4124
919.383	4230
919.494	4432
919.604	4599
919.715	4402
919.826	4348
919.936	4398
920.047	4523
920.157	4485
920.267	4694
920.378	4573
920.488	4527
920.598	4675
920.708	4892
920.818	4683
920.928	4774
921.038	4919
921.148	4908
921.258	4660
921.368	4596
921.477	4497
921.587	4470
921.697	4424
921.806	4512
921.916	4363
922.025	4306
922.134	4238
922.244	4207
922.353	4356
922.462	4173
922.571	4135
922.68	3991
922.789	3903
922.898	4063
923.007	3991
923.116	4078
923.224	4036
923.333	4101
923.442	3979
923.55	3968
923.659	4036
923.767	4044
923.876	3991
923.984	4074
924.092	3979
924.201	4090
924.309	4048
924.417	4139
924.525	4112
924.633	4090
924.741	5090
924.849	3892
924.956	4135
925.064	3968
925.172	3876
925.279	3975
925.387	4059
925.494	4051
925.602	4181
925.709	4223
925.816	4048
925.924	4128
926.031	4223
926.138	4124
926.245	4234
926.352	4078
926.459	4268
926.566	4299
926.673	4109
926.779	4086
926.886	4071
926.993	3953
927.099	3968
927.206	3949
927.312	3926
927.419	4071
927.525	4036
927.631	4071
927.737	3964
927.843	3945
927.95	3823
928.056	3949
928.162	3968
928.267	4071
928.373	4634
928.479	4116
928.585	3880
928.69	4048
928.796	4074
928.901	3975
929.007	3835
929.112	3991
929.218	3994
929.323	3918
929.428	3930
929.533	4128
929.638	3918
929.743	3964
929.848	4025
929.953	3983
930.058	3930
930.163	3781
930.267	3838
930.372	3968
930.477	3823
930.581	4109
930.685	3964
930.79	3835
930.894	3865
930.998	3831
931.103	4025
931.207	3717
931.311	3686
931.415	3694
931.519	3477
931.623	3557
