Data from test_V78500241_704.txt Node
Date: Fri Mar 25 16:53:53 CST 2022
User: usil
Spectrometer: V785-0024
Trigger mode: 0
Integration Time (sec): 4.000000E-1
Scans to average: 1
Nonlinearity correction enabled: false
Boxcar width: 0
Storing dark spectrum: false
XAxis mode: Wavelengths
Number of Pixels in Spectrum: 1024
>>>>>Begin Spectral Data<<<<<
801.071	8024
801.214	7993
801.356	7860
801.499	7883
801.641	7803
801.783	7890
801.926	8024
802.068	7940
802.211	7955
802.353	8005
802.496	7887
802.638	8005
802.78	8039
802.923	7936
803.065	7879
803.208	7894
803.35	7951
803.492	8092
803.635	8214
803.777	8035
803.919	8020
804.061	8415
804.204	8142
804.346	7993
804.488	7944
804.63	8103
804.773	8046
804.915	8142
805.057	8229
805.199	8107
805.341	8229
805.483	8271
805.626	8168
805.768	8103
805.91	8206
806.052	8199
806.194	8077
806.336	8282
806.478	8088
806.62	8058
806.762	8161
806.904	8305
807.046	8503
807.188	8362
807.33	8256
807.472	8271
807.614	8183
807.756	8157
807.898	7982
808.04	7917
808.182	7932
808.324	7894
808.465	7921
808.607	8065
808.749	8142
808.891	8206
809.033	8271
809.174	8138
809.316	8088
809.458	8069
809.6	7955
809.741	8062
809.883	7989
810.025	8092
810.166	8054
810.308	8005
810.45	8035
810.591	7871
810.733	7715
810.875	7670
811.016	7544
811.158	7483
811.299	7597
811.441	7765
811.582	7651
811.724	7521
811.865	7510
812.007	7529
812.148	7506
812.29	7601
812.431	7753
812.573	7826
812.714	7989
812.855	8134
812.997	8271
813.138	8282
813.279	8153
813.421	8123
813.562	7993
813.703	7818
813.845	7723
813.986	7518
814.127	7350
814.268	7190
814.41	7228
814.551	7137
814.692	7240
814.833	7069
814.974	7069
815.115	7050
815.256	6935
815.397	6935
815.539	6920
815.68	6818
815.821	6783
815.962	6871
816.103	6829
816.244	6684
816.385	6646
816.526	6574
816.666	6486
816.807	6243
816.948	6479
817.089	6471
817.23	6498
817.371	6376
817.512	6376
817.653	6414
817.793	6361
817.934	6433
818.075	6483
818.216	6395
818.356	6384
818.497	6201
818.638	6133
818.778	6098
818.919	6140
819.06	6155
819.2	6334
819.341	6315
819.481	6338
819.622	6589
819.762	6741
819.903	6688
820.043	6585
820.184	6559
820.324	6555
820.465	6635
820.605	6593
820.746	6593
820.886	6566
821.026	6654
821.167	6776
821.307	6825
821.447	6741
821.588	6616
821.728	6532
821.868	6456
822.008	6304
822.149	6369
822.289	6331
822.429	6171
822.569	6064
822.709	6110
822.849	5897
822.99	5874
823.13	5901
823.27	5939
823.41	5805
823.55	5790
823.69	5767
823.83	5790
823.97	5680
824.11	5570
824.25	5512
824.389	5562
824.529	5577
824.669	5478
824.809	5634
824.949	5630
825.089	5672
825.228	5532
825.368	5410
825.508	5341
825.648	5387
825.787	5364
825.927	5379
826.067	5261
826.206	5280
826.346	5452
826.485	5433
826.625	5410
826.765	5558
826.904	5459
827.044	5273
827.183	5181
827.323	5064
827.462	5227
827.601	5159
827.741	5174
827.88	5216
828.02	5102
828.159	5254
828.298	5337
828.437	5337
828.577	5273
828.716	5520
828.855	5322
828.994	5155
829.134	5159
829.273	5178
829.412	5132
829.551	5193
829.69	5143
829.829	5284
829.968	5315
830.107	5288
830.246	5277
830.385	5216
830.524	5147
830.663	5052
830.802	4942
830.941	4885
831.08	4870
831.219	5003
831.357	4942
831.496	5117
831.635	4942
831.774	4953
831.913	4828
832.051	4725
832.19	4729
832.329	4873
832.467	4702
832.606	4641
832.744	4717
832.883	4725
833.022	4691
833.16	4790
833.299	4870
833.437	4797
833.576	4839
833.714	4858
833.852	4828
833.991	4900
834.129	4995
834.267	4938
834.406	4946
834.544	4980
834.682	5033
834.821	4953
834.959	5143
835.097	4938
835.235	5147
835.373	5056
835.511	5102
835.65	5056
835.788	5075
835.926	4896
836.064	4919
836.202	4949
836.34	5170
836.478	5250
836.615	5174
836.753	5201
836.891	5296
837.029	5223
837.167	5246
837.305	5121
837.443	5185
837.58	5037
837.718	5246
837.856	5216
837.993	5124
838.131	5246
838.269	5273
838.406	5227
838.544	5231
838.681	5086
838.819	5067
838.956	4862
839.094	4919
839.231	4976
839.369	5090
839.506	5391
839.643	5227
839.781	5105
839.918	4999
840.055	5094
840.193	5098
840.33	5170
840.467	5147
840.604	5124
840.742	5467
840.879	5102
841.016	5056
841.153	5113
841.29	5357
841.427	5334
841.564	5345
841.701	5398
841.838	5296
841.975	5292
842.112	5242
842.249	5166
842.385	5090
842.522	5299
842.659	5181
842.796	5185
842.933	5162
843.069	5178
843.206	5185
843.343	5261
843.479	5212
843.616	5288
843.752	5022
843.889	4995
844.025	5254
844.162	5041
844.298	5311
844.435	5086
844.571	5033
844.708	5193
844.844	5330
844.98	5337
845.117	5250
845.253	5128
845.389	5090
845.525	5151
845.661	5170
845.798	5086
845.934	5060
846.07	5056
846.206	5140
846.342	5296
846.478	5181
846.614	5052
846.75	4984
846.886	4938
847.022	5132
847.158	5045
847.294	5121
847.429	5113
847.565	5037
847.701	5330
847.837	4824
847.972	4812
848.108	4915
848.244	4904
848.379	4786
848.515	4717
848.65	4691
848.786	4759
848.921	4736
849.057	4862
849.192	4881
849.328	4782
849.463	4801
849.598	4759
849.734	4729
849.869	4714
850.004	4611
850.14	4626
850.275	4622
850.41	4538
850.545	4584
850.68	4603
850.815	4618
850.95	4668
851.085	4790
851.22	4736
851.355	4660
851.49	4618
851.625	4622
851.76	4596
851.895	4554
852.03	4523
852.165	4675
852.299	4759
852.434	4744
852.569	4733
852.703	4767
852.838	4824
852.973	4896
853.107	4892
853.242	4698
853.376	4679
853.511	4611
853.645	4649
853.78	4805
853.914	4687
854.048	4679
854.183	4645
854.317	4717
854.451	4782
854.585	4660
854.72	4679
854.854	4748
854.988	4584
855.122	4649
855.256	4493
855.39	4687
855.524	4793
855.658	4706
855.792	4702
855.926	4736
856.06	4725
856.194	4721
856.327	4725
856.461	4580
856.595	4645
856.729	4626
856.862	4774
856.996	4675
857.13	4748
857.263	4752
857.397	4786
857.53	4626
857.664	4725
857.797	4778
857.931	4755
858.064	4653
858.197	4748
858.331	4679
858.464	4596
858.597	4500
858.731	4626
858.864	4664
858.997	4580
859.13	4630
859.263	4736
859.396	4702
859.529	4550
859.662	4573
859.795	4516
859.928	4649
860.061	4790
860.194	4725
860.327	4641
860.46	4611
860.592	4733
860.725	4748
860.858	4786
860.99	4588
861.123	4523
861.256	4504
861.388	4603
861.521	5326
861.653	4504
861.786	4497
861.918	4398
862.05	4493
862.183	4565
862.315	4584
862.447	4645
862.58	4565
862.712	4443
862.844	4344
862.976	4485
863.108	4470
863.24	4889
863.372	4325
863.504	4436
863.636	4413
863.768	4455
863.9	4417
864.032	4367
864.164	4421
864.296	4489
864.428	4485
864.559	4592
864.691	4542
864.823	4500
864.954	4478
865.086	4538
865.217	4478
865.349	4447
865.48	4504
865.612	4474
865.743	4649
865.875	4466
866.006	4379
866.137	4466
866.269	4466
866.4	4440
866.531	4405
866.662	4398
866.793	4398
866.924	4432
867.055	4519
867.186	4413
867.317	4405
867.448	4356
867.579	4409
867.71	4383
867.841	4379
867.972	4436
868.103	4405
868.233	4432
868.364	4375
868.495	4531
868.625	4672
868.756	4744
868.886	4580
869.017	4592
869.147	4774
869.278	4736
869.408	4626
869.539	4618
869.669	4714
869.799	4641
869.929	4786
870.06	4698
870.19	4965
870.32	4934
870.45	4911
870.58	5006
870.71	5083
870.84	5132
870.97	4946
871.1	4908
871.23	5132
871.36	5140
871.489	5014
871.619	5079
871.749	5025
871.879	5083
872.008	5181
872.138	5071
872.267	5003
872.397	4847
872.526	4850
872.656	4725
872.785	4820
872.915	4919
873.044	5071
873.173	4972
873.303	4980
873.432	4908
873.561	4972
873.69	4858
873.819	4862
873.948	4885
874.077	4767
874.206	4744
874.335	4839
874.464	4927
874.593	5033
874.722	4972
874.851	5102
874.979	5071
875.108	5071
875.237	4904
875.365	4862
875.494	4854
875.623	4976
875.751	4839
875.88	4854
876.008	4957
876.136	4999
876.265	5216
876.393	5292
876.521	5227
876.65	5136
876.778	5193
876.906	5071
877.034	5003
877.162	5094
877.29	4961
877.418	5014
877.546	5041
877.674	5060
877.802	5006
877.93	5003
878.058	4930
878.185	4900
878.313	4949
878.441	4965
878.568	4812
878.696	4904
878.824	4919
878.951	4957
879.079	5105
879.206	5246
879.333	5098
879.461	5018
879.588	5029
879.715	5143
879.842	5235
879.97	4987
880.097	4790
880.224	4755
880.351	4809
880.478	4831
880.605	4847
880.732	4771
880.859	5117
880.986	4904
881.112	4908
881.239	4755
881.366	4675
881.493	4573
881.619	4577
881.746	4637
881.872	4634
881.999	4611
882.125	4683
882.252	4820
882.378	4828
882.505	4892
882.631	4816
882.757	4649
882.883	4721
883.01	4748
883.136	4675
883.262	4645
883.388	4577
883.514	4809
883.64	4889
883.766	4782
883.892	4683
884.018	4675
884.143	4892
884.269	5056
884.395	4668
884.52	4653
884.646	4656
884.772	4607
884.897	4565
885.023	4675
885.148	4824
885.274	4881
885.399	4786
885.524	4721
885.65	4698
885.775	4717
885.9	4721
886.025	4885
886.15	4744
886.275	4744
886.4	4645
886.525	4698
886.65	4672
886.775	4694
886.9	4911
887.025	5022
887.149	4805
887.274	4641
887.399	4611
887.523	4596
887.648	4531
887.773	4531
887.897	4782
888.021	4729
888.146	4694
888.27	4847
888.395	4923
888.519	4767
888.643	4778
888.767	4820
888.891	4668
889.015	4611
889.139	4634
889.263	4637
889.387	4748
889.511	4866
889.635	4759
889.759	4603
889.883	4637
890.006	4752
890.13	4873
890.254	4634
890.377	4694
890.501	4546
890.624	4481
890.748	4618
890.871	4546
890.995	4428
891.118	4409
891.241	4546
891.364	4535
891.488	4641
891.611	4485
891.734	4497
891.857	4599
891.98	4535
892.103	4653
892.226	4580
892.349	4470
892.471	4421
892.594	4527
892.717	4538
892.839	4588
892.962	4588
893.085	4607
893.207	4577
893.33	4459
893.452	4531
893.575	4649
893.697	4519
893.819	4797
893.941	4820
894.064	4740
894.186	4599
894.308	4565
894.43	4721
894.552	4809
894.674	4767
894.796	4519
894.918	4558
895.04	4577
895.161	4683
895.283	4679
895.405	4618
895.526	4630
895.648	4679
895.769	4675
895.891	4725
896.012	4725
896.134	4763
896.255	4691
896.376	4607
896.498	4687
896.619	4691
896.74	4637
896.861	4615
896.982	4949
897.103	5136
897.224	4847
897.345	4786
897.466	4660
897.587	4698
897.708	4911
897.828	4809
897.949	4660
898.07	4546
898.19	4660
898.311	4812
898.431	4698
898.552	4721
898.672	4839
898.792	4793
898.913	4740
899.033	4637
899.153	4512
899.273	4428
899.393	4512
899.513	4519
899.633	4474
899.753	4535
899.873	4497
899.993	4603
900.113	4497
900.232	4542
900.352	4523
900.472	4466
900.591	4379
900.711	4508
900.83	4432
900.95	4596
901.069	4714
901.189	4538
901.308	4371
901.427	4291
901.546	4375
901.665	4466
901.784	4470
901.904	4360
902.023	4303
902.141	4227
902.26	4162
902.379	4318
902.498	4227
902.617	4211
902.735	4341
902.854	4417
902.973	4386
903.091	4196
903.21	4204
903.328	4280
903.446	4257
903.565	4268
903.683	4314
903.801	4265
903.919	4360
904.038	4386
904.156	4348
904.274	4409
904.392	4337
904.51	4462
904.627	4504
904.745	4607
904.863	4668
904.981	4386
905.098	4348
905.216	4344
905.334	4405
905.451	4451
905.569	4394
905.686	4508
905.803	4535
905.921	4379
906.038	4462
906.155	4481
906.272	4390
906.389	4478
906.506	4318
906.623	4398
906.74	4428
906.857	4333
906.974	4367
907.091	4573
907.208	4672
907.324	4599
907.441	4512
907.557	4299
907.674	4295
907.79	4303
907.907	4383
908.023	4500
908.139	4459
908.256	4413
908.372	4455
908.488	4413
908.604	4356
908.72	4291
908.836	4417
908.952	4356
909.068	4432
909.184	4550
909.3	4405
909.415	4584
909.531	4497
909.647	4360
909.762	4348
909.878	4344
909.993	4398
910.108	4390
910.224	4432
910.339	4474
910.454	4367
910.57	4337
910.685	4333
910.8	4637
910.915	4607
911.03	4470
911.145	4322
911.259	4310
911.374	4363
911.489	4341
911.604	4253
911.718	4185
911.833	4173
911.947	4082
912.062	4048
912.176	4173
912.291	4219
912.405	4242
912.519	4493
912.633	4489
912.748	4417
912.862	4318
912.976	4223
913.09	4063
913.204	4169
913.318	4238
913.431	4344
913.545	4318
913.659	4459
913.772	4386
913.886	4234
914	4215
914.113	4337
914.226	4470
914.34	4424
914.453	4230
914.566	4428
914.68	4253
914.793	4310
914.906	4131
915.019	4120
915.132	4051
915.245	4188
915.358	4249
915.47	4223
915.583	4295
915.696	4265
915.809	4432
915.921	4398
916.034	4280
916.146	4246
916.259	4230
916.371	4383
916.483	4398
916.595	4249
916.708	4333
916.82	4318
916.932	4341
917.044	4356
917.156	4306
917.268	4242
917.38	4284
917.491	4291
917.603	4371
917.715	4443
917.826	4455
917.938	4375
918.049	4223
918.161	4394
918.272	4535
918.384	4569
918.495	4508
918.606	4291
918.717	4265
918.828	4379
918.939	4386
919.05	4200
919.161	4356
919.272	4143
919.383	4207
919.494	4451
919.604	4649
919.715	4459
919.826	4360
919.936	4394
920.047	4542
920.157	4440
920.267	4679
920.378	4554
920.488	4535
920.598	4683
920.708	4961
920.818	4778
920.928	4771
921.038	4965
921.148	4919
921.258	4656
921.368	4554
921.477	4504
921.587	4478
921.697	4348
921.806	4489
921.916	4455
922.025	4280
922.134	4322
922.244	4223
922.353	4329
922.462	4196
922.571	4154
922.68	4032
922.789	3956
922.898	4040
923.007	3991
923.116	4135
923.224	4071
923.333	4093
923.442	3987
923.55	3979
923.659	4017
923.767	4109
923.876	3972
923.984	4063
924.092	3991
924.201	4074
924.309	4116
924.417	4105
924.525	4044
924.633	4071
924.741	5037
924.849	3934
924.956	4116
925.064	3972
925.172	3888
925.279	3964
925.387	4017
925.494	4021
925.602	4211
925.709	4200
925.816	4032
925.924	4109
926.031	4234
926.138	4181
926.245	4215
926.352	4086
926.459	4261
926.566	4272
926.673	4147
926.779	4097
926.886	4032
926.993	3983
927.099	3918
927.206	3918
927.312	3945
927.419	4040
927.525	4010
927.631	4109
927.737	3926
927.843	3922
927.95	3876
928.056	3968
928.162	3998
928.267	4021
928.373	4660
928.479	4147
928.585	3896
928.69	3983
928.796	4063
928.901	3979
929.007	3823
929.112	3934
929.218	4013
929.323	3937
929.428	3956
929.533	4078
929.638	3934
929.743	3922
929.848	4032
929.953	4032
930.058	3892
930.163	3728
930.267	3854
930.372	3949
930.477	3804
930.581	4109
930.685	3972
930.79	3827
930.894	3873
930.998	3846
931.103	4021
931.207	3762
931.311	3675
931.415	3644
931.519	3504
931.623	3534
