Data from test_V78500241_2518.txt Node
Date: Fri Mar 25 17:06:30 CST 2022
User: usil
Spectrometer: V785-0024
Trigger mode: 0
Integration Time (sec): 4.000000E-1
Scans to average: 1
Nonlinearity correction enabled: false
Boxcar width: 0
Storing dark spectrum: false
XAxis mode: Wavelengths
Number of Pixels in Spectrum: 1024
>>>>>Begin Spectral Data<<<<<
801.071	8039
801.214	7978
801.356	7837
801.499	7883
801.641	7811
801.783	7769
801.926	7967
802.068	7947
802.211	7986
802.353	7967
802.496	7814
802.638	7864
802.78	7906
802.923	7951
803.065	7845
803.208	7830
803.35	7936
803.492	8054
803.635	8100
803.777	8058
803.919	8202
804.061	8480
804.204	8107
804.346	8035
804.488	7944
804.63	8092
804.773	8058
804.915	8145
805.057	8294
805.199	8221
805.341	8199
805.483	8309
805.626	8233
805.768	8180
805.91	8237
806.052	8145
806.194	8088
806.336	8320
806.478	8043
806.62	8069
806.762	8149
806.904	8271
807.046	8434
807.188	8370
807.33	8301
807.472	8423
807.614	8103
807.756	8168
807.898	8001
808.04	7887
808.182	7974
808.324	7921
808.465	7925
808.607	8065
808.749	8115
808.891	8237
809.033	8290
809.174	8233
809.316	8001
809.458	8107
809.6	8031
809.741	8035
809.883	8088
810.025	8138
810.166	8073
810.308	8035
810.45	8012
810.591	7883
810.733	7723
810.875	7616
811.016	7533
811.158	7480
811.299	7590
811.441	7772
811.582	7575
811.724	7559
811.865	7582
812.007	7571
812.148	7666
812.29	7548
812.431	7750
812.573	7944
812.714	7963
812.855	8157
812.997	8286
813.138	8328
813.279	8126
813.421	8111
813.562	8001
813.703	7833
813.845	7784
813.986	7533
814.127	7263
814.268	7232
814.41	7221
814.551	7255
814.692	7251
814.833	7149
814.974	7114
815.115	7103
815.256	6954
815.397	6954
815.539	6939
815.68	6791
815.821	6791
815.962	6825
816.103	6840
816.244	6703
816.385	6627
816.526	6620
816.666	6555
816.807	6296
816.948	6426
817.089	6426
817.23	6426
817.371	6422
817.512	6407
817.653	6429
817.793	6319
817.934	6479
818.075	6540
818.216	6452
818.356	6346
818.497	6292
818.638	6121
818.778	6171
818.919	6114
819.06	6159
819.2	6304
819.341	6384
819.481	6350
819.622	6506
819.762	6749
819.903	6730
820.043	6608
820.184	6597
820.324	6616
820.465	6669
820.605	6703
820.746	6662
820.886	6544
821.026	6711
821.167	6726
821.307	6821
821.447	6783
821.588	6719
821.728	6631
821.868	6528
822.008	6323
822.149	6422
822.289	6395
822.429	6232
822.569	6125
822.709	6125
822.849	5980
822.99	5920
823.13	5961
823.27	5946
823.41	5817
823.55	5771
823.69	5786
823.83	5809
823.97	5703
824.11	5547
824.25	5516
824.389	5543
824.529	5589
824.669	5570
824.809	5573
824.949	5707
825.089	5672
825.228	5585
825.368	5429
825.508	5357
825.648	5357
825.787	5364
825.927	5463
826.067	5296
826.206	5277
826.346	5448
826.485	5429
826.625	5398
826.765	5554
826.904	5455
827.044	5239
827.183	5239
827.323	5140
827.462	5231
827.601	5159
827.741	5178
827.88	5250
828.02	5121
828.159	5235
828.298	5311
828.437	5406
828.577	5261
828.716	5429
828.855	5360
828.994	5208
829.134	5159
829.273	5231
829.412	5151
829.551	5094
829.69	5136
829.829	5296
829.968	5364
830.107	5307
830.246	5239
830.385	5220
830.524	5162
830.663	5056
830.802	4957
830.941	4854
831.08	4862
831.219	5014
831.357	4938
831.496	5185
831.635	4892
831.774	4892
831.913	4858
832.051	4706
832.19	4763
832.329	4835
832.467	4691
832.606	4649
832.744	4721
832.883	4744
833.022	4748
833.16	4740
833.299	4801
833.437	4824
833.576	4839
833.714	4858
833.852	4847
833.991	4885
834.129	5003
834.267	4900
834.406	4930
834.544	4919
834.682	4999
834.821	4915
834.959	5136
835.097	5014
835.235	5208
835.373	5124
835.511	5113
835.65	5003
835.788	5048
835.926	4877
836.064	4896
836.202	4896
836.34	5140
836.478	5280
836.615	5098
836.753	5155
836.891	5292
837.029	5288
837.167	5231
837.305	5220
837.443	5170
837.58	5052
837.718	5284
837.856	5155
837.993	5174
838.131	5235
838.269	5216
838.406	5204
838.544	5170
838.681	5041
838.819	5010
838.956	4923
839.094	4915
839.231	4976
839.369	5033
839.506	5436
839.643	5315
839.781	5124
839.918	5025
840.055	5075
840.193	5117
840.33	5109
840.467	5124
840.604	5121
840.742	5471
840.879	5037
841.016	5064
841.153	5178
841.29	5383
841.427	5372
841.564	5353
841.701	5387
841.838	5273
841.975	5235
842.112	5223
842.249	5143
842.385	5128
842.522	5383
842.659	5193
842.796	5159
842.933	5193
843.069	5121
843.206	5185
843.343	5337
843.479	5292
843.616	5235
843.752	5037
843.889	5052
844.025	5216
844.162	5003
844.298	5220
844.435	5124
844.571	5033
844.708	5189
844.844	5311
844.98	5326
845.117	5322
845.253	5201
845.389	5136
845.525	5201
845.661	5155
845.798	5124
845.934	5136
846.07	5071
846.206	5212
846.342	5254
846.478	5155
846.614	5022
846.75	4957
846.886	4995
847.022	5151
847.158	5041
847.294	5109
847.429	5075
847.565	5090
847.701	5349
847.837	4843
847.972	4828
848.108	4930
848.244	4930
848.379	4759
848.515	4733
848.65	4736
848.786	4748
848.921	4782
849.057	4866
849.192	4904
849.328	4797
849.463	4870
849.598	4805
849.734	4736
849.869	4691
850.004	4664
850.14	4641
850.275	4615
850.41	4565
850.545	4565
850.68	4618
850.815	4580
850.95	4607
851.085	4786
851.22	4687
851.355	4641
851.49	4630
851.625	4626
851.76	4596
851.895	4573
852.03	4573
852.165	4656
852.299	4721
852.434	4797
852.569	4717
852.703	4771
852.838	4839
852.973	4915
853.107	4866
853.242	4744
853.376	4679
853.511	4554
853.645	4668
853.78	4816
853.914	4664
854.048	4675
854.183	4645
854.317	4736
854.451	4839
854.585	4672
854.72	4641
854.854	4740
854.988	4611
855.122	4656
855.256	4550
855.39	4679
855.524	4744
855.658	4729
855.792	4687
855.926	4698
856.06	4763
856.194	4812
856.327	4721
856.461	4641
856.595	4656
856.729	4641
856.862	4763
856.996	4664
857.13	4725
857.263	4752
857.397	4778
857.53	4637
857.664	4774
857.797	4736
857.931	4774
858.064	4683
858.197	4740
858.331	4672
858.464	4592
858.597	4516
858.731	4599
858.864	4622
858.997	4622
859.13	4607
859.263	4710
859.396	4698
859.529	4554
859.662	4558
859.795	4512
859.928	4603
860.061	4782
860.194	4774
860.327	4618
860.46	4535
860.592	4714
860.725	4767
860.858	4752
860.99	4516
861.123	4535
861.256	4531
861.388	4588
861.521	5174
861.653	4485
861.786	4459
861.918	4531
862.05	4508
862.183	4508
862.315	4554
862.447	4645
862.58	4523
862.712	4405
862.844	4306
862.976	4493
863.108	4462
863.24	4885
863.372	4379
863.504	4424
863.636	4386
863.768	4466
863.9	4428
864.032	4367
864.164	4424
864.296	4485
864.428	4584
864.559	4554
864.691	4538
864.823	4493
864.954	4535
865.086	4527
865.217	4485
865.349	4455
865.48	4512
865.612	4497
865.743	4615
865.875	4436
866.006	4417
866.137	4451
866.269	4417
866.4	4489
866.531	4462
866.662	4379
866.793	4413
866.924	4428
867.055	4577
867.186	4428
867.317	4409
867.448	4333
867.579	4352
867.71	4421
867.841	4383
867.972	4409
868.103	4459
868.233	4451
868.364	4394
868.495	4512
868.625	4660
868.756	4771
868.886	4573
869.017	4615
869.147	4702
869.278	4771
869.408	4672
869.539	4569
869.669	4679
869.799	4637
869.929	4774
870.06	4725
870.19	4949
870.32	4930
870.45	4892
870.58	4987
870.71	5113
870.84	5064
870.97	4889
871.1	4923
871.23	5143
871.36	5151
871.489	4984
871.619	5060
871.749	5079
871.879	5132
872.008	5166
872.138	5037
872.267	4938
872.397	4816
872.526	4774
872.656	4706
872.785	4812
872.915	4923
873.044	5029
873.173	4946
873.303	4934
873.432	4934
873.561	4965
873.69	4839
873.819	4858
873.948	4919
874.077	4873
874.206	4736
874.335	4782
874.464	4961
874.593	5060
874.722	4980
874.851	5113
874.979	5048
875.108	5022
875.237	4927
875.365	4881
875.494	4953
875.623	4984
875.751	4839
875.88	4896
876.008	4976
876.136	5037
876.265	5201
876.393	5368
876.521	5258
876.65	5208
876.778	5166
876.906	5075
877.034	5056
877.162	5022
877.29	5025
877.418	5045
877.546	5037
877.674	5014
877.802	5045
877.93	5037
878.058	4900
878.185	4870
878.313	4957
878.441	4957
878.568	4873
878.696	4881
878.824	4957
878.951	4987
879.079	5098
879.206	5307
879.333	5086
879.461	4976
879.588	4987
879.715	5155
879.842	5269
879.97	4991
880.097	4812
880.224	4740
880.351	4816
880.478	4816
880.605	4790
880.732	4843
880.859	5083
880.986	4877
881.112	4938
881.239	4774
881.366	4702
881.493	4607
881.619	4622
881.746	4653
881.872	4645
881.999	4603
882.125	4702
882.252	4771
882.378	4839
882.505	4961
882.631	4828
882.757	4668
882.883	4767
883.01	4702
883.136	4660
883.262	4596
883.388	4641
883.514	4835
883.64	4847
883.766	4778
883.892	4710
884.018	4736
884.143	4858
884.269	4938
884.395	4664
884.52	4634
884.646	4599
884.772	4561
884.897	4558
885.023	4664
885.148	4759
885.274	4866
885.399	4866
885.524	4694
885.65	4721
885.775	4748
885.9	4675
886.025	4870
886.15	4782
886.275	4725
886.4	4653
886.525	4729
886.65	4656
886.775	4725
886.9	4889
887.025	4980
887.149	4786
887.274	4714
887.399	4531
887.523	4641
887.648	4580
887.773	4618
887.897	4702
888.021	4778
888.146	4717
888.27	4816
888.395	4938
888.519	4805
888.643	4805
888.767	4793
888.891	4698
889.015	4565
889.139	4630
889.263	4611
889.387	4782
889.511	4839
889.635	4786
889.759	4660
889.883	4664
890.006	4714
890.13	4797
890.254	4660
890.377	4717
890.501	4542
890.624	4538
890.748	4645
890.871	4485
890.995	4394
891.118	4398
891.241	4550
891.364	4569
891.488	4630
891.611	4485
891.734	4546
891.857	4611
891.98	4542
892.103	4611
892.226	4558
892.349	4550
892.471	4443
892.594	4504
892.717	4588
892.839	4569
892.962	4573
893.085	4660
893.207	4592
893.33	4428
893.452	4546
893.575	4683
893.697	4611
893.819	4786
893.941	4801
894.064	4820
894.186	4607
894.308	4588
894.43	4736
894.552	4801
894.674	4771
894.796	4497
894.918	4626
895.04	4580
895.161	4744
895.283	4664
895.405	4554
895.526	4653
895.648	4679
895.769	4645
895.891	4725
896.012	4771
896.134	4759
896.255	4683
896.376	4577
896.498	4577
896.619	4660
896.74	4622
896.861	4668
896.982	4953
897.103	5064
897.224	4824
897.345	4740
897.466	4630
897.587	4744
897.708	4866
897.828	4771
897.949	4626
898.07	4573
898.19	4641
898.311	4809
898.431	4694
898.552	4755
898.672	4767
898.792	4778
898.913	4744
899.033	4607
899.153	4504
899.273	4398
899.393	4489
899.513	4531
899.633	4497
899.753	4542
899.873	4546
899.993	4580
900.113	4603
900.232	4565
900.352	4538
900.472	4512
900.591	4432
900.711	4519
900.83	4455
900.95	4622
901.069	4664
901.189	4554
901.308	4424
901.427	4303
901.546	4322
901.665	4459
901.784	4493
901.904	4375
902.023	4284
902.141	4169
902.26	4173
902.379	4314
902.498	4238
902.617	4185
902.735	4394
902.854	4379
902.973	4367
903.091	4185
903.21	4200
903.328	4306
903.446	4291
903.565	4242
903.683	4367
903.801	4291
903.919	4386
904.038	4383
904.156	4276
904.274	4394
904.392	4409
904.51	4386
904.627	4432
904.745	4527
904.863	4656
904.981	4363
905.098	4314
905.216	4398
905.334	4417
905.451	4405
905.569	4424
905.686	4550
905.803	4565
905.921	4455
906.038	4489
906.155	4497
906.272	4409
906.389	4455
906.506	4341
906.623	4363
906.74	4428
906.857	4295
906.974	4394
907.091	4550
907.208	4668
907.324	4584
907.441	4489
907.557	4367
907.674	4348
907.79	4337
907.907	4421
908.023	4436
908.139	4519
908.256	4443
908.372	4417
908.488	4409
908.604	4341
908.72	4363
908.836	4318
908.952	4356
909.068	4436
909.184	4569
909.3	4481
909.415	4596
909.531	4554
909.647	4341
909.762	4386
909.878	4333
909.993	4459
910.108	4402
910.224	4413
910.339	4462
910.454	4390
910.57	4398
910.685	4284
910.8	4664
910.915	4546
911.03	4485
911.145	4280
911.259	4337
911.374	4337
911.489	4341
911.604	4272
911.718	4120
911.833	4185
911.947	4059
912.062	3998
912.176	4230
912.291	4249
912.405	4204
912.519	4455
912.633	4462
912.748	4360
912.862	4318
912.976	4173
913.09	4105
913.204	4200
913.318	4253
913.431	4367
913.545	4333
913.659	4413
913.772	4360
913.886	4261
914	4204
914.113	4390
914.226	4462
914.34	4417
914.453	4230
914.566	4394
914.68	4299
914.793	4314
914.906	4150
915.019	4109
915.132	4082
915.245	4196
915.358	4223
915.47	4261
915.583	4303
915.696	4280
915.809	4443
915.921	4466
916.034	4272
916.146	4188
916.259	4223
916.371	4398
916.483	4363
916.595	4257
916.708	4325
916.82	4322
916.932	4329
917.044	4306
917.156	4291
917.268	4207
917.38	4272
917.491	4310
917.603	4352
917.715	4421
917.826	4390
917.938	4333
918.049	4249
918.161	4394
918.272	4504
918.384	4535
918.495	4455
918.606	4280
918.717	4230
918.828	4341
918.939	4383
919.05	4257
919.161	4356
919.272	4120
919.383	4204
919.494	4447
919.604	4637
919.715	4417
919.826	4352
919.936	4398
920.047	4554
920.157	4481
920.267	4653
920.378	4538
920.488	4546
920.598	4725
920.708	4927
920.818	4771
920.928	4778
921.038	4892
921.148	4923
921.258	4637
921.368	4519
921.477	4485
921.587	4447
921.697	4367
921.806	4535
921.916	4436
922.025	4276
922.134	4333
922.244	4265
922.353	4314
922.462	4154
922.571	4128
922.68	3991
922.789	3972
922.898	4048
923.007	3991
923.116	4124
923.224	4055
923.333	4093
923.442	3968
923.55	3998
923.659	4082
923.767	4124
923.876	3987
923.984	4135
924.092	4002
924.201	4082
924.309	4074
924.417	4116
924.525	4063
924.633	4082
924.741	5037
924.849	3903
924.956	4078
925.064	3945
925.172	3964
925.279	3953
925.387	4059
925.494	4040
925.602	4238
925.709	4204
925.816	4029
925.924	4147
926.031	4207
926.138	4169
926.245	4215
926.352	4116
926.459	4230
926.566	4322
926.673	4124
926.779	4105
926.886	4044
926.993	4006
927.099	3941
927.206	3930
927.312	3922
927.419	4017
927.525	4013
927.631	4097
927.737	3968
927.843	3949
927.95	3869
928.056	3896
928.162	3979
928.267	4055
928.373	4542
928.479	4078
928.585	3846
928.69	4025
928.796	4093
928.901	3991
929.007	3854
929.112	4029
929.218	3972
929.323	3930
929.428	3945
929.533	4044
929.638	3934
929.743	3991
929.848	4017
929.953	4010
930.058	3945
930.163	3785
930.267	3827
930.372	3987
930.477	3823
930.581	4097
930.685	3964
930.79	3816
930.894	3861
930.998	3880
931.103	4086
931.207	3736
931.311	3682
931.415	3694
931.519	3534
931.623	3561
