Data from test_V78500241_317.txt Node
Date: Fri Mar 25 16:51:12 CST 2022
User: usil
Spectrometer: V785-0024
Trigger mode: 0
Integration Time (sec): 4.000000E-1
Scans to average: 1
Nonlinearity correction enabled: false
Boxcar width: 0
Storing dark spectrum: false
XAxis mode: Wavelengths
Number of Pixels in Spectrum: 1024
>>>>>Begin Spectral Data<<<<<
801.071	8043
801.214	8039
801.356	7906
801.499	7921
801.641	7917
801.783	7818
801.926	8012
802.068	7909
802.211	8092
802.353	8001
802.496	7928
802.638	7917
802.78	8008
802.923	8001
803.065	7868
803.208	7860
803.35	7967
803.492	8161
803.635	8157
803.777	8043
803.919	8058
804.061	8480
804.204	8206
804.346	8081
804.488	7963
804.63	8077
804.773	8012
804.915	8126
805.057	8240
805.199	8176
805.341	8225
805.483	8244
805.626	8191
805.768	8123
805.91	8096
806.052	8206
806.194	8115
806.336	8336
806.478	8187
806.62	8096
806.762	8267
806.904	8240
807.046	8507
807.188	8404
807.33	8237
807.472	8343
807.614	8100
807.756	8161
807.898	7978
808.04	7875
808.182	7963
808.324	7932
808.465	7932
808.607	8115
808.749	8134
808.891	8221
809.033	8309
809.174	8229
809.316	8069
809.458	8096
809.6	8035
809.741	8077
809.883	7989
810.025	8187
810.166	8084
810.308	8115
810.45	8031
810.591	7868
810.733	7723
810.875	7643
811.016	7502
811.158	7525
811.299	7632
811.441	7776
811.582	7753
811.724	7620
811.865	7540
812.007	7674
812.148	7647
812.29	7590
812.431	7700
812.573	7879
812.714	7989
812.855	8153
812.997	8126
813.138	8294
813.279	8157
813.421	8176
813.562	7997
813.703	7902
813.845	7830
813.986	7480
814.127	7335
814.268	7236
814.41	7278
814.551	7213
814.692	7213
814.833	7118
814.974	7072
815.115	7088
815.256	6958
815.397	6913
815.539	6993
815.68	6863
815.821	6719
815.962	6848
816.103	6810
816.244	6760
816.385	6654
816.526	6673
816.666	6498
816.807	6296
816.948	6464
817.089	6445
817.23	6452
817.371	6422
817.512	6388
817.653	6391
817.793	6331
817.934	6464
818.075	6471
818.216	6441
818.356	6471
818.497	6232
818.638	6121
818.778	6148
818.919	6194
819.06	6098
819.2	6304
819.341	6365
819.481	6380
819.622	6551
819.762	6700
819.903	6745
820.043	6559
820.184	6589
820.324	6532
820.465	6681
820.605	6658
820.746	6696
820.886	6448
821.026	6707
821.167	6757
821.307	6795
821.447	6791
821.588	6642
821.728	6608
821.868	6445
822.008	6346
822.149	6399
822.289	6361
822.429	6133
822.569	6114
822.709	6171
822.849	5923
822.99	5950
823.13	5927
823.27	5931
823.41	5832
823.55	5836
823.69	5783
823.83	5897
823.97	5691
824.11	5547
824.25	5482
824.389	5581
824.529	5585
824.669	5490
824.809	5615
824.949	5668
825.089	5611
825.228	5539
825.368	5379
825.508	5368
825.648	5410
825.787	5364
825.927	5391
826.067	5360
826.206	5273
826.346	5425
826.485	5417
826.625	5429
826.765	5554
826.904	5455
827.044	5296
827.183	5220
827.323	5155
827.462	5261
827.601	5170
827.741	5269
827.88	5216
828.02	5159
828.159	5292
828.298	5307
828.437	5360
828.577	5227
828.716	5501
828.855	5360
828.994	5166
829.134	5132
829.273	5227
829.412	5170
829.551	5155
829.69	5147
829.829	5231
829.968	5402
830.107	5284
830.246	5280
830.385	5208
830.524	5147
830.663	5098
830.802	4995
830.941	4877
831.08	4866
831.219	5041
831.357	4930
831.496	5189
831.635	4934
831.774	4847
831.913	4870
832.051	4767
832.19	4733
832.329	4824
832.467	4721
832.606	4641
832.744	4759
832.883	4721
833.022	4710
833.16	4733
833.299	4847
833.437	4820
833.576	4812
833.714	4881
833.852	4877
833.991	4854
834.129	4938
834.267	4927
834.406	4900
834.544	5056
834.682	4976
834.821	4991
834.959	5204
835.097	5003
835.235	5189
835.373	5052
835.511	5193
835.65	5086
835.788	5045
835.926	4881
836.064	4885
836.202	4972
836.34	5136
836.478	5178
836.615	5143
836.753	5170
836.891	5307
837.029	5189
837.167	5208
837.305	5212
837.443	5143
837.58	5124
837.718	5235
837.856	5197
837.993	5159
838.131	5265
838.269	5223
838.406	5235
838.544	5227
838.681	5056
838.819	4972
838.956	4938
839.094	4873
839.231	5029
839.369	5113
839.506	5398
839.643	5258
839.781	5045
839.918	5105
840.055	5079
840.193	5090
840.33	5170
840.467	5197
840.604	5223
840.742	5440
840.879	5124
841.016	5094
841.153	5140
841.29	5360
841.427	5322
841.564	5318
841.701	5357
841.838	5258
841.975	5261
842.112	5311
842.249	5162
842.385	5109
842.522	5341
842.659	5239
842.796	5162
842.933	5220
843.069	5170
843.206	5162
843.343	5311
843.479	5231
843.616	5258
843.752	5029
843.889	5006
844.025	5212
844.162	5060
844.298	5227
844.435	5071
844.571	5052
844.708	5235
844.844	5235
844.98	5360
845.117	5292
845.253	5113
845.389	5086
845.525	5208
845.661	5128
845.798	5045
845.934	5109
846.07	5018
846.206	5212
846.342	5258
846.478	5201
846.614	4999
846.75	4968
846.886	4919
847.022	5121
847.158	4995
847.294	5045
847.429	5086
847.565	5071
847.701	5357
847.837	4881
847.972	4812
848.108	4949
848.244	4980
848.379	4786
848.515	4691
848.65	4675
848.786	4755
848.921	4782
849.057	4839
849.192	4923
849.328	4843
849.463	4908
849.598	4801
849.734	4778
849.869	4736
850.004	4630
850.14	4683
850.275	4607
850.41	4527
850.545	4573
850.68	4577
850.815	4611
850.95	4649
851.085	4873
851.22	4778
851.355	4706
851.49	4584
851.625	4630
851.76	4656
851.895	4535
852.03	4542
852.165	4626
852.299	4771
852.434	4797
852.569	4752
852.703	4786
852.838	4900
852.973	4957
853.107	4892
853.242	4721
853.376	4691
853.511	4607
853.645	4554
853.78	4797
853.914	4706
854.048	4683
854.183	4630
854.317	4649
854.451	4809
854.585	4607
854.72	4668
854.854	4771
854.988	4546
855.122	4649
855.256	4554
855.39	4660
855.524	4793
855.658	4740
855.792	4694
855.926	4755
856.06	4748
856.194	4816
856.327	4740
856.461	4645
856.595	4592
856.729	4618
856.862	4710
856.996	4733
857.13	4744
857.263	4698
857.397	4831
857.53	4649
857.664	4706
857.797	4759
857.931	4767
858.064	4694
858.197	4691
858.331	4634
858.464	4592
858.597	4519
858.731	4630
858.864	4664
858.997	4615
859.13	4672
859.263	4717
859.396	4725
859.529	4599
859.662	4554
859.795	4550
859.928	4641
860.061	4771
860.194	4740
860.327	4641
860.46	4542
860.592	4710
860.725	4733
860.858	4702
860.99	4584
861.123	4497
861.256	4497
861.388	4607
861.521	5334
861.653	4459
861.786	4478
861.918	4497
862.05	4573
862.183	4592
862.315	4538
862.447	4668
862.58	4516
862.712	4383
862.844	4310
862.976	4470
863.108	4462
863.24	4877
863.372	4341
863.504	4394
863.636	4440
863.768	4451
863.9	4394
864.032	4352
864.164	4394
864.296	4455
864.428	4569
864.559	4596
864.691	4542
864.823	4508
864.954	4538
865.086	4478
865.217	4466
865.349	4417
865.48	4466
865.612	4462
865.743	4626
865.875	4432
866.006	4436
866.137	4500
866.269	4470
866.4	4485
866.531	4421
866.662	4405
866.793	4462
866.924	4421
867.055	4497
867.186	4462
867.317	4432
867.448	4344
867.579	4409
867.71	4409
867.841	4341
867.972	4462
868.103	4466
868.233	4428
868.364	4447
868.495	4485
868.625	4660
868.756	4729
868.886	4584
869.017	4615
869.147	4782
869.278	4782
869.408	4691
869.539	4603
869.669	4687
869.799	4672
869.929	4755
870.06	4687
870.19	4915
870.32	4942
870.45	5010
870.58	5029
870.71	5090
870.84	5094
870.97	4938
871.1	4911
871.23	5128
871.36	5067
871.489	5010
871.619	5102
871.749	5102
871.879	5143
872.008	5151
872.138	5052
872.267	4972
872.397	4896
872.526	4828
872.656	4763
872.785	4843
872.915	4995
873.044	5037
873.173	5003
873.303	4961
873.432	4938
873.561	4942
873.69	4828
873.819	4889
873.948	4896
874.077	4839
874.206	4763
874.335	4831
874.464	4919
874.593	5071
874.722	5006
874.851	5090
874.979	5113
875.108	5033
875.237	4870
875.365	4934
875.494	4896
875.623	4995
875.751	4892
875.88	4919
876.008	4987
876.136	5052
876.265	5227
876.393	5334
876.521	5273
876.65	5261
876.778	5117
876.906	5056
877.034	5052
877.162	4999
877.29	5014
877.418	5071
877.546	5090
877.674	5022
877.802	4987
877.93	5014
878.058	4908
878.185	4900
878.313	4919
878.441	4972
878.568	4774
878.696	4850
878.824	5033
878.951	4976
879.079	5155
879.206	5280
879.333	5140
879.461	4972
879.588	4984
879.715	5117
879.842	5208
879.97	4953
880.097	4782
880.224	4752
880.351	4793
880.478	4793
880.605	4790
880.732	4801
880.859	5060
880.986	4919
881.112	4942
881.239	4752
881.366	4656
881.493	4637
881.619	4607
881.746	4664
881.872	4668
881.999	4664
882.125	4698
882.252	4831
882.378	4801
882.505	4927
882.631	4824
882.757	4698
882.883	4752
883.01	4740
883.136	4672
883.262	4577
883.388	4565
883.514	4820
883.64	4858
883.766	4831
883.892	4668
884.018	4710
884.143	4923
884.269	5056
884.395	4679
884.52	4653
884.646	4660
884.772	4592
884.897	4580
885.023	4664
885.148	4759
885.274	4820
885.399	4816
885.524	4736
885.65	4729
885.775	4755
885.9	4683
886.025	4843
886.15	4782
886.275	4714
886.4	4645
886.525	4691
886.65	4668
886.775	4721
886.9	4919
887.025	5014
887.149	4774
887.274	4710
887.399	4577
887.523	4588
887.648	4577
887.773	4592
887.897	4736
888.021	4771
888.146	4672
888.27	4820
888.395	4911
888.519	4774
888.643	4820
888.767	4889
888.891	4653
889.015	4622
889.139	4645
889.263	4603
889.387	4790
889.511	4892
889.635	4759
889.759	4653
889.883	4637
890.006	4740
890.13	4805
890.254	4637
890.377	4714
890.501	4516
890.624	4523
890.748	4603
890.871	4531
890.995	4428
891.118	4375
891.241	4523
891.364	4561
891.488	4641
891.611	4493
891.734	4565
891.857	4656
891.98	4588
892.103	4717
892.226	4577
892.349	4508
892.471	4440
892.594	4527
892.717	4630
892.839	4580
892.962	4569
893.085	4691
893.207	4626
893.33	4489
893.452	4565
893.575	4672
893.697	4607
893.819	4812
893.941	4835
894.064	4778
894.186	4588
894.308	4580
894.43	4748
894.552	4839
894.674	4782
894.796	4580
894.918	4622
895.04	4542
895.161	4733
895.283	4675
895.405	4573
895.526	4637
895.648	4691
895.769	4702
895.891	4763
896.012	4736
896.134	4725
896.255	4653
896.376	4641
896.498	4694
896.619	4683
896.74	4607
896.861	4687
896.982	4946
897.103	5102
897.224	4801
897.345	4782
897.466	4668
897.587	4729
897.708	4850
897.828	4820
897.949	4714
898.07	4565
898.19	4664
898.311	4809
898.431	4664
898.552	4740
898.672	4843
898.792	4850
898.913	4733
899.033	4660
899.153	4497
899.273	4436
899.393	4508
899.513	4550
899.633	4462
899.753	4504
899.873	4558
899.993	4637
900.113	4569
900.232	4607
900.352	4596
900.472	4474
900.591	4424
900.711	4497
900.83	4436
900.95	4634
901.069	4691
901.189	4519
901.308	4436
901.427	4348
901.546	4394
901.665	4485
901.784	4531
901.904	4394
902.023	4276
902.141	4204
902.26	4181
902.379	4310
902.498	4246
902.617	4234
902.735	4325
902.854	4390
902.973	4363
903.091	4177
903.21	4230
903.328	4306
903.446	4249
903.565	4253
903.683	4287
903.801	4299
903.919	4424
904.038	4459
904.156	4322
904.274	4432
904.392	4417
904.51	4421
904.627	4451
904.745	4558
904.863	4683
904.981	4417
905.098	4276
905.216	4314
905.334	4398
905.451	4417
905.569	4459
905.686	4573
905.803	4603
905.921	4405
906.038	4580
906.155	4489
906.272	4405
906.389	4481
906.506	4337
906.623	4417
906.74	4383
906.857	4306
906.974	4341
907.091	4573
907.208	4694
907.324	4599
907.441	4466
907.557	4318
907.674	4348
907.79	4299
907.907	4379
908.023	4508
908.139	4478
908.256	4447
908.372	4447
908.488	4451
908.604	4352
908.72	4360
908.836	4367
908.952	4344
909.068	4421
909.184	4611
909.3	4455
909.415	4584
909.531	4516
909.647	4344
909.762	4337
909.878	4314
909.993	4417
910.108	4375
910.224	4436
910.339	4462
910.454	4455
910.57	4360
910.685	4333
910.8	4634
910.915	4599
911.03	4493
911.145	4329
911.259	4322
911.374	4348
911.489	4318
911.604	4287
911.718	4124
911.833	4230
911.947	4120
912.062	3956
912.176	4211
912.291	4242
912.405	4272
912.519	4481
912.633	4474
912.748	4356
912.862	4314
912.976	4215
913.09	4120
913.204	4219
913.318	4268
913.431	4447
913.545	4379
913.659	4455
913.772	4386
913.886	4276
914	4223
914.113	4383
914.226	4462
914.34	4428
914.453	4242
914.566	4421
914.68	4310
914.793	4341
914.906	4162
915.019	4116
915.132	4120
915.245	4177
915.358	4215
915.47	4261
915.583	4295
915.696	4299
915.809	4417
915.921	4421
916.034	4322
916.146	4249
916.259	4238
916.371	4379
916.483	4394
916.595	4291
916.708	4348
916.82	4337
916.932	4333
917.044	4303
917.156	4333
917.268	4234
917.38	4280
917.491	4287
917.603	4291
917.715	4417
917.826	4402
917.938	4329
918.049	4211
918.161	4383
918.272	4546
918.384	4554
918.495	4455
918.606	4284
918.717	4242
918.828	4341
918.939	4398
919.05	4291
919.161	4318
919.272	4158
919.383	4223
919.494	4436
919.604	4630
919.715	4447
919.826	4318
919.936	4375
920.047	4542
920.157	4466
920.267	4725
920.378	4573
920.488	4535
920.598	4698
920.708	4896
920.818	4725
920.928	4752
921.038	4938
921.148	4908
921.258	4622
921.368	4596
921.477	4508
921.587	4474
921.697	4432
921.806	4531
921.916	4432
922.025	4284
922.134	4314
922.244	4207
922.353	4352
922.462	4188
922.571	4158
922.68	3994
922.789	3983
922.898	4021
923.007	3964
923.116	4071
923.224	4101
923.333	4082
923.442	4029
923.55	4013
923.659	4055
923.767	4082
923.876	4010
923.984	4124
924.092	3987
924.201	4097
924.309	4059
924.417	4097
924.525	4059
924.633	4090
924.741	4911
924.849	3907
924.956	4173
925.064	3915
925.172	3865
925.279	3956
925.387	4090
925.494	4078
925.602	4207
925.709	4147
925.816	4044
925.924	4173
926.031	4215
926.138	4192
926.245	4173
926.352	4097
926.459	4246
926.566	4337
926.673	4154
926.779	4074
926.886	4059
926.993	3991
927.099	3949
927.206	3975
927.312	3937
927.419	4051
927.525	4029
927.631	4128
927.737	3945
927.843	3899
927.95	3831
928.056	3987
928.162	4013
928.267	4048
928.373	4660
928.479	4048
928.585	3869
928.69	4029
928.796	4067
928.901	4013
929.007	3846
929.112	4006
929.218	3956
929.323	3915
929.428	3922
929.533	4101
929.638	3918
929.743	3975
929.848	4059
929.953	4040
930.058	3945
930.163	3770
930.267	3876
930.372	3998
930.477	3827
930.581	4029
930.685	3983
930.79	3819
930.894	3892
930.998	3892
931.103	4002
931.207	3705
931.311	3694
931.415	3675
931.519	3515
931.623	3591
