Data from test_V78500241_753.txt Node
Date: Fri Mar 25 16:54:14 CST 2022
User: usil
Spectrometer: V785-0024
Trigger mode: 0
Integration Time (sec): 4.000000E-1
Scans to average: 1
Nonlinearity correction enabled: false
Boxcar width: 0
Storing dark spectrum: false
XAxis mode: Wavelengths
Number of Pixels in Spectrum: 1024
>>>>>Begin Spectral Data<<<<<
801.071	8027
801.214	8035
801.356	7890
801.499	7932
801.641	7780
801.783	7860
801.926	7982
802.068	7909
802.211	7944
802.353	7970
802.496	7860
802.638	7818
802.78	7951
802.923	7906
803.065	7951
803.208	7909
803.35	8001
803.492	8123
803.635	8111
803.777	7982
803.919	8039
804.061	8374
804.204	8043
804.346	7986
804.488	7955
804.63	8191
804.773	7940
804.915	8115
805.057	8309
805.199	8115
805.341	8161
805.483	8145
805.626	8172
805.768	8073
805.91	8199
806.052	8187
806.194	8107
806.336	8305
806.478	8058
806.62	7993
806.762	8153
806.904	8214
807.046	8503
807.188	8362
807.33	8294
807.472	8336
807.614	8096
807.756	8073
807.898	8005
808.04	7868
808.182	7921
808.324	7928
808.465	7936
808.607	8031
808.749	8103
808.891	8168
809.033	8263
809.174	8233
809.316	8046
809.458	8065
809.6	7978
809.741	8046
809.883	8008
810.025	8096
810.166	8035
810.308	8077
810.45	8073
810.591	7803
810.733	7734
810.875	7715
811.016	7559
811.158	7449
811.299	7559
811.441	7757
811.582	7655
811.724	7559
811.865	7438
812.007	7499
812.148	7586
812.29	7655
812.431	7712
812.573	7811
812.714	7970
812.855	8100
812.997	8183
813.138	8279
813.279	8134
813.421	8123
813.562	8054
813.703	7811
813.845	7803
813.986	7430
814.127	7305
814.268	7240
814.41	7236
814.551	7091
814.692	7118
814.833	7053
814.974	7095
815.115	7103
815.256	7000
815.397	6901
815.539	6901
815.68	6894
815.821	6802
815.962	6852
816.103	6791
816.244	6757
816.385	6642
816.526	6597
816.666	6494
816.807	6243
816.948	6369
817.089	6509
817.23	6437
817.371	6388
817.512	6361
817.653	6380
817.793	6365
817.934	6380
818.075	6429
818.216	6384
818.356	6388
818.497	6175
818.638	6133
818.778	6125
818.919	6155
819.06	6095
819.2	6300
819.341	6308
819.481	6273
819.622	6563
819.762	6730
819.903	6738
820.043	6566
820.184	6578
820.324	6563
820.465	6688
820.605	6635
820.746	6639
820.886	6460
821.026	6601
821.167	6688
821.307	6749
821.447	6741
821.588	6703
821.728	6517
821.868	6475
822.008	6327
822.149	6407
822.289	6323
822.429	6136
822.569	6045
822.709	6068
822.849	5916
822.99	5844
823.13	5927
823.27	5878
823.41	5828
823.55	5771
823.69	5733
823.83	5767
823.97	5676
824.11	5524
824.25	5505
824.389	5558
824.529	5592
824.669	5501
824.809	5634
824.949	5680
825.089	5634
825.228	5528
825.368	5376
825.508	5379
825.648	5292
825.787	5383
825.927	5360
826.067	5303
826.206	5284
826.346	5360
826.485	5463
826.625	5357
826.765	5512
826.904	5459
827.044	5303
827.183	5174
827.323	5128
827.462	5261
827.601	5189
827.741	5136
827.88	5201
828.02	5086
828.159	5231
828.298	5239
828.437	5334
828.577	5326
828.716	5501
828.855	5273
828.994	5143
829.134	5124
829.273	5174
829.412	5140
829.551	5083
829.69	5166
829.829	5227
829.968	5364
830.107	5227
830.246	5246
830.385	5178
830.524	5151
830.663	5090
830.802	4946
830.941	4885
831.08	4843
831.219	4934
831.357	5006
831.496	5159
831.635	4881
831.774	4850
831.913	4831
832.051	4714
832.19	4748
832.329	4858
832.467	4675
832.606	4634
832.744	4714
832.883	4717
833.022	4759
833.16	4805
833.299	4801
833.437	4828
833.576	4835
833.714	4839
833.852	4835
833.991	4870
834.129	4972
834.267	4957
834.406	4870
834.544	4927
834.682	4987
834.821	4995
834.959	5204
835.097	5010
835.235	5083
835.373	5121
835.511	5086
835.65	5029
835.788	4999
835.926	4961
836.064	4824
836.202	4904
836.34	5151
836.478	5235
836.615	5185
836.753	5208
836.891	5273
837.029	5223
837.167	5140
837.305	5185
837.443	5166
837.58	5071
837.718	5261
837.856	5204
837.993	5140
838.131	5201
838.269	5258
838.406	5197
838.544	5216
838.681	5060
838.819	5033
838.956	4915
839.094	4949
839.231	4949
839.369	5079
839.506	5429
839.643	5284
839.781	5048
839.918	4976
840.055	5128
840.193	5094
840.33	5094
840.467	5147
840.604	5239
840.742	5433
840.879	5045
841.016	5071
841.153	5189
841.29	5383
841.427	5357
841.564	5292
841.701	5368
841.838	5269
841.975	5250
842.112	5273
842.249	5105
842.385	5041
842.522	5254
842.659	5117
842.796	5159
842.933	5254
843.069	5159
843.206	5155
843.343	5277
843.479	5208
843.616	5212
843.752	5056
843.889	4995
844.025	5193
844.162	5014
844.298	5193
844.435	5090
844.571	5018
844.708	5155
844.844	5296
844.98	5360
845.117	5280
845.253	5140
845.389	5098
845.525	5162
845.661	5132
845.798	5029
845.934	5162
846.07	5048
846.206	5162
846.342	5246
846.478	5185
846.614	4984
846.75	4972
846.886	4930
847.022	5113
847.158	5025
847.294	5045
847.429	5105
847.565	5037
847.701	5296
847.837	4881
847.972	4873
848.108	4934
848.244	4919
848.379	4771
848.515	4767
848.65	4721
848.786	4698
848.921	4759
849.057	4892
849.192	4896
849.328	4839
849.463	4797
849.598	4793
849.734	4759
849.869	4660
850.004	4687
850.14	4660
850.275	4622
850.41	4558
850.545	4546
850.68	4599
850.815	4569
850.95	4561
851.085	4824
851.22	4733
851.355	4664
851.49	4596
851.625	4611
851.76	4668
851.895	4611
852.03	4523
852.165	4698
852.299	4733
852.434	4774
852.569	4774
852.703	4717
852.838	4786
852.973	4930
853.107	4965
853.242	4698
853.376	4691
853.511	4577
853.645	4626
853.78	4801
853.914	4733
854.048	4668
854.183	4618
854.317	4706
854.451	4816
854.585	4729
854.72	4622
854.854	4733
854.988	4580
855.122	4637
855.256	4531
855.39	4691
855.524	4744
855.658	4710
855.792	4706
855.926	4729
856.06	4774
856.194	4793
856.327	4679
856.461	4592
856.595	4558
856.729	4626
856.862	4752
856.996	4691
857.13	4721
857.263	4763
857.397	4790
857.53	4630
857.664	4740
857.797	4721
857.931	4774
858.064	4656
858.197	4717
858.331	4656
858.464	4683
858.597	4474
858.731	4603
858.864	4603
858.997	4565
859.13	4611
859.263	4675
859.396	4675
859.529	4622
859.662	4611
859.795	4489
859.928	4603
860.061	4748
860.194	4816
860.327	4607
860.46	4531
860.592	4740
860.725	4683
860.858	4710
860.99	4554
861.123	4485
861.256	4531
861.388	4588
861.521	5353
861.653	4470
861.786	4451
861.918	4470
862.05	4500
862.183	4527
862.315	4580
862.447	4679
862.58	4542
862.712	4375
862.844	4344
862.976	4466
863.108	4424
863.24	4915
863.372	4295
863.504	4421
863.636	4363
863.768	4447
863.9	4443
864.032	4386
864.164	4363
864.296	4455
864.428	4516
864.559	4527
864.691	4500
864.823	4516
864.954	4508
865.086	4481
865.217	4447
865.349	4417
865.48	4436
865.612	4508
865.743	4649
865.875	4413
866.006	4386
866.137	4451
866.269	4405
866.4	4405
866.531	4413
866.662	4390
866.793	4432
866.924	4394
867.055	4466
867.186	4405
867.317	4447
867.448	4367
867.579	4367
867.71	4402
867.841	4402
867.972	4424
868.103	4504
868.233	4451
868.364	4432
868.495	4470
868.625	4668
868.756	4774
868.886	4550
869.017	4634
869.147	4698
869.278	4744
869.408	4687
869.539	4660
869.669	4733
869.799	4626
869.929	4714
870.06	4698
870.19	4934
870.32	4923
870.45	4942
870.58	5029
870.71	5094
870.84	5067
870.97	4946
871.1	4904
871.23	5102
871.36	5079
871.489	5045
871.619	5071
871.749	5048
871.879	5086
872.008	5174
872.138	5033
872.267	4938
872.397	4820
872.526	4805
872.656	4744
872.785	4812
872.915	4987
873.044	5045
873.173	4927
873.303	4934
873.432	4968
873.561	4957
873.69	4889
873.819	4904
873.948	4877
874.077	4767
874.206	4786
874.335	4809
874.464	4927
874.593	5018
874.722	4915
874.851	5098
874.979	5060
875.108	5064
875.237	4885
875.365	4847
875.494	4873
875.623	4968
875.751	4824
875.88	4915
876.008	4949
876.136	5052
876.265	5174
876.393	5311
876.521	5181
876.65	5212
876.778	5136
876.906	5052
877.034	4995
877.162	5048
877.29	4980
877.418	5041
877.546	5060
877.674	5033
877.802	4991
877.93	5029
878.058	4915
878.185	4843
878.313	4927
878.441	4923
878.568	4786
878.696	4892
878.824	4942
878.951	5010
879.079	5174
879.206	5231
879.333	5105
879.461	5045
879.588	5029
879.715	5086
879.842	5220
879.97	5010
880.097	4755
880.224	4710
880.351	4801
880.478	4843
880.605	4778
880.732	4740
880.859	5079
880.986	4866
881.112	4862
881.239	4763
881.366	4668
881.493	4622
881.619	4618
881.746	4607
881.872	4645
881.999	4706
882.125	4694
882.252	4793
882.378	4835
882.505	4934
882.631	4824
882.757	4622
882.883	4698
883.01	4736
883.136	4664
883.262	4615
883.388	4626
883.514	4809
883.64	4828
883.766	4828
883.892	4668
884.018	4691
884.143	4930
884.269	5048
884.395	4653
884.52	4592
884.646	4733
884.772	4603
884.897	4565
885.023	4675
885.148	4790
885.274	4824
885.399	4740
885.524	4763
885.65	4710
885.775	4721
885.9	4641
886.025	4896
886.15	4805
886.275	4729
886.4	4698
886.525	4755
886.65	4660
886.775	4702
886.9	4873
887.025	4984
887.149	4824
887.274	4599
887.399	4599
887.523	4584
887.648	4630
887.773	4588
887.897	4733
888.021	4793
888.146	4660
888.27	4797
888.395	4919
888.519	4824
888.643	4771
888.767	4816
888.891	4691
889.015	4618
889.139	4687
889.263	4611
889.387	4774
889.511	4847
889.635	4774
889.759	4618
889.883	4599
890.006	4740
890.13	4843
890.254	4577
890.377	4675
890.501	4538
890.624	4508
890.748	4622
890.871	4489
890.995	4417
891.118	4360
891.241	4470
891.364	4603
891.488	4630
891.611	4554
891.734	4519
891.857	4565
891.98	4542
892.103	4664
892.226	4584
892.349	4512
892.471	4443
892.594	4504
892.717	4607
892.839	4588
892.962	4550
893.085	4706
893.207	4607
893.33	4485
893.452	4512
893.575	4630
893.697	4573
893.819	4778
893.941	4805
894.064	4763
894.186	4588
894.308	4599
894.43	4698
894.552	4854
894.674	4736
894.796	4577
894.918	4626
895.04	4527
895.161	4710
895.283	4634
895.405	4569
895.526	4596
895.648	4656
895.769	4672
895.891	4710
896.012	4721
896.134	4694
896.255	4664
896.376	4630
896.498	4634
896.619	4714
896.74	4611
896.861	4630
896.982	4938
897.103	5083
897.224	4805
897.345	4755
897.466	4706
897.587	4706
897.708	4858
897.828	4809
897.949	4618
898.07	4519
898.19	4630
898.311	4809
898.431	4626
898.552	4763
898.672	4809
898.792	4843
898.913	4725
899.033	4634
899.153	4497
899.273	4436
899.393	4440
899.513	4542
899.633	4538
899.753	4527
899.873	4512
899.993	4584
900.113	4584
900.232	4542
900.352	4523
900.472	4489
900.591	4417
900.711	4489
900.83	4402
900.95	4584
901.069	4653
901.189	4516
901.308	4356
901.427	4287
901.546	4409
901.665	4440
901.784	4451
901.904	4402
902.023	4261
902.141	4196
902.26	4169
902.379	4333
902.498	4219
902.617	4242
902.735	4363
902.854	4348
902.973	4337
903.091	4204
903.21	4188
903.328	4314
903.446	4299
903.565	4284
903.683	4310
903.801	4223
903.919	4428
904.038	4436
904.156	4325
904.274	4405
904.392	4402
904.51	4402
904.627	4478
904.745	4577
904.863	4584
904.981	4409
905.098	4318
905.216	4356
905.334	4424
905.451	4421
905.569	4390
905.686	4527
905.803	4569
905.921	4421
906.038	4535
906.155	4504
906.272	4402
906.389	4500
906.506	4337
906.623	4379
906.74	4371
906.857	4284
906.974	4367
907.091	4550
907.208	4660
907.324	4558
907.441	4493
907.557	4363
907.674	4348
907.79	4291
907.907	4383
908.023	4481
908.139	4462
908.256	4436
908.372	4470
908.488	4447
908.604	4325
908.72	4352
908.836	4341
908.952	4329
909.068	4432
909.184	4573
909.3	4451
909.415	4584
909.531	4554
909.647	4356
909.762	4367
909.878	4303
909.993	4394
910.108	4394
910.224	4424
910.339	4466
910.454	4402
910.57	4402
910.685	4333
910.8	4679
910.915	4596
911.03	4500
911.145	4360
911.259	4348
911.374	4371
911.489	4284
911.604	4268
911.718	4147
911.833	4188
911.947	4116
912.062	3998
912.176	4169
912.291	4257
912.405	4265
912.519	4432
912.633	4474
912.748	4383
912.862	4306
912.976	4177
913.09	4074
913.204	4143
913.318	4284
913.431	4356
913.545	4363
913.659	4402
913.772	4352
913.886	4234
914	4223
914.113	4424
914.226	4405
914.34	4417
914.453	4238
914.566	4447
914.68	4310
914.793	4299
914.906	4147
915.019	4090
915.132	4059
915.245	4192
915.358	4227
915.47	4211
915.583	4265
915.696	4299
915.809	4432
915.921	4424
916.034	4238
916.146	4295
916.259	4200
916.371	4352
916.483	4344
916.595	4242
916.708	4348
916.82	4280
916.932	4363
917.044	4322
917.156	4291
917.268	4272
917.38	4291
917.491	4249
917.603	4337
917.715	4371
917.826	4440
917.938	4363
918.049	4276
918.161	4417
918.272	4512
918.384	4489
918.495	4413
918.606	4280
918.717	4238
918.828	4333
918.939	4363
919.05	4238
919.161	4322
919.272	4139
919.383	4230
919.494	4451
919.604	4611
919.715	4405
919.826	4356
919.936	4447
920.047	4554
920.157	4508
920.267	4725
920.378	4569
920.488	4474
920.598	4710
920.708	4854
920.818	4710
920.928	4797
921.038	4987
921.148	4885
921.258	4649
921.368	4584
921.477	4459
921.587	4432
921.697	4402
921.806	4550
921.916	4413
922.025	4246
922.134	4249
922.244	4219
922.353	4363
922.462	4177
922.571	4109
922.68	4017
922.789	3991
922.898	4063
923.007	4013
923.116	4109
923.224	4051
923.333	4048
923.442	3968
923.55	3975
923.659	4029
923.767	4147
923.876	4010
923.984	4120
924.092	3994
924.201	4063
924.309	4112
924.417	4124
924.525	3979
924.633	4074
924.741	4862
924.849	3922
924.956	4109
925.064	3941
925.172	3888
925.279	3979
925.387	4036
925.494	4029
925.602	4173
925.709	4166
925.816	4017
925.924	4105
926.031	4246
926.138	4166
926.245	4242
926.352	4067
926.459	4234
926.566	4310
926.673	4124
926.779	4105
926.886	4067
926.993	3945
927.099	3926
927.206	3918
927.312	3956
927.419	4032
927.525	3998
927.631	4093
927.737	3953
927.843	3918
927.95	3861
928.056	3960
928.162	3983
928.267	4074
928.373	4698
928.479	4166
928.585	3903
928.69	4029
928.796	4051
928.901	3953
929.007	3808
929.112	3998
929.218	3991
929.323	3956
929.428	3911
929.533	4074
929.638	3892
929.743	3979
929.848	4025
929.953	3964
930.058	3907
930.163	3800
930.267	3835
930.372	3987
930.477	3816
930.581	4120
930.685	3941
930.79	3838
930.894	3911
930.998	3869
931.103	4017
931.207	3701
931.311	3701
931.415	3686
931.519	3519
931.623	3557
