Data from test_V78500241_1851.txt Node
Date: Fri Mar 25 17:01:52 CST 2022
User: usil
Spectrometer: V785-0024
Trigger mode: 0
Integration Time (sec): 4.000000E-1
Scans to average: 1
Nonlinearity correction enabled: false
Boxcar width: 0
Storing dark spectrum: false
XAxis mode: Wavelengths
Number of Pixels in Spectrum: 1024
>>>>>Begin Spectral Data<<<<<
801.071	7967
801.214	8027
801.356	7822
801.499	7837
801.641	7769
801.783	7841
801.926	8024
802.068	7951
802.211	7986
802.353	8001
802.496	7856
802.638	7811
802.78	7868
802.923	7879
803.065	7841
803.208	7856
803.35	7986
803.492	8073
803.635	8134
803.777	7974
803.919	8180
804.061	8419
804.204	8081
804.346	8043
804.488	7909
804.63	8092
804.773	7989
804.915	8046
805.057	8286
805.199	8100
805.341	8142
805.483	8229
805.626	8248
805.768	8088
805.91	8180
806.052	8271
806.194	8077
806.336	8240
806.478	8046
806.62	8035
806.762	8199
806.904	8305
807.046	8438
807.188	8317
807.33	8374
807.472	8267
807.614	8176
807.756	8145
807.898	7993
808.04	7875
808.182	7864
808.324	7868
808.465	7864
808.607	8069
808.749	8123
808.891	8229
809.033	8374
809.174	8210
809.316	8073
809.458	8145
809.6	8005
809.741	8065
809.883	8054
810.025	8111
810.166	8039
810.308	8058
810.45	8024
810.591	7883
810.733	7750
810.875	7715
811.016	7514
811.158	7445
811.299	7590
811.441	7685
811.582	7636
811.724	7613
811.865	7525
812.007	7533
812.148	7571
812.29	7651
812.431	7746
812.573	7925
812.714	7963
812.855	8123
812.997	8218
813.138	8248
813.279	8134
813.421	8043
813.562	7959
813.703	7849
813.845	7746
813.986	7430
814.127	7274
814.268	7232
814.41	7217
814.551	7156
814.692	7194
814.833	7057
814.974	7076
815.115	7183
815.256	6920
815.397	6943
815.539	6989
815.68	6829
815.821	6669
815.962	6867
816.103	6867
816.244	6700
816.385	6604
816.526	6570
816.666	6464
816.807	6296
816.948	6426
817.089	6467
817.23	6410
817.371	6407
817.512	6380
817.653	6388
817.793	6384
817.934	6426
818.075	6429
818.216	6479
818.356	6395
818.497	6296
818.638	6117
818.778	6136
818.919	6152
819.06	6171
819.2	6353
819.341	6281
819.481	6342
819.622	6498
819.762	6662
819.903	6703
820.043	6662
820.184	6555
820.324	6506
820.465	6677
820.605	6658
820.746	6589
820.886	6479
821.026	6673
821.167	6650
821.307	6734
821.447	6753
821.588	6730
821.728	6589
821.868	6456
822.008	6327
822.149	6346
822.289	6369
822.429	6098
822.569	6053
822.709	6102
822.849	5840
822.99	5817
823.13	5912
823.27	5851
823.41	5775
823.55	5764
823.69	5756
823.83	5771
823.97	5665
824.11	5509
824.25	5516
824.389	5589
824.529	5554
824.669	5554
824.809	5589
824.949	5634
825.089	5589
825.228	5600
825.368	5387
825.508	5364
825.648	5334
825.787	5364
825.927	5357
826.067	5261
826.206	5254
826.346	5379
826.485	5383
826.625	5414
826.765	5512
826.904	5471
827.044	5201
827.183	5223
827.323	5117
827.462	5189
827.601	5162
827.741	5132
827.88	5185
828.02	5109
828.159	5235
828.298	5280
828.437	5383
828.577	5307
828.716	5410
828.855	5334
828.994	5132
829.134	5102
829.273	5159
829.412	5170
829.551	5105
829.69	5113
829.829	5254
829.968	5387
830.107	5280
830.246	5235
830.385	5147
830.524	5151
830.663	5086
830.802	4908
830.941	4919
831.08	4854
831.219	4927
831.357	4934
831.496	5151
831.635	4908
831.774	4877
831.913	4881
832.051	4748
832.19	4744
832.329	4850
832.467	4694
832.606	4687
832.744	4706
832.883	4679
833.022	4691
833.16	4736
833.299	4793
833.437	4862
833.576	4835
833.714	4816
833.852	4824
833.991	4949
834.129	4957
834.267	4908
834.406	4873
834.544	4904
834.682	4984
834.821	4942
834.959	5159
835.097	4999
835.235	5102
835.373	5083
835.511	5098
835.65	5003
835.788	5052
835.926	4892
836.064	4828
836.202	4881
836.34	5098
836.478	5212
836.615	5109
836.753	5227
836.891	5341
837.029	5265
837.167	5204
837.305	5121
837.443	5174
837.58	5086
837.718	5220
837.856	5166
837.993	5117
838.131	5246
838.269	5197
838.406	5178
838.544	5162
838.681	4972
838.819	4968
838.956	4900
839.094	4896
839.231	4953
839.369	5025
839.506	5440
839.643	5284
839.781	5018
839.918	4957
840.055	5098
840.193	5143
840.33	5102
840.467	5124
840.604	5151
840.742	5433
840.879	5083
841.016	5132
841.153	5079
841.29	5349
841.427	5330
841.564	5303
841.701	5364
841.838	5204
841.975	5242
842.112	5307
842.249	5140
842.385	5090
842.522	5299
842.659	5162
842.796	5136
842.933	5166
843.069	5128
843.206	5204
843.343	5296
843.479	5212
843.616	5303
843.752	5022
843.889	5010
844.025	5185
844.162	5003
844.298	5185
844.435	5090
844.571	4968
844.708	5162
844.844	5284
844.98	5387
845.117	5322
845.253	5181
845.389	5067
845.525	5147
845.661	5143
845.798	5029
845.934	5117
846.07	5018
846.206	5147
846.342	5311
846.478	5166
846.614	5018
846.75	4949
846.886	4919
847.022	5170
847.158	4991
847.294	4995
847.429	5105
847.565	5033
847.701	5337
847.837	4915
847.972	4854
848.108	4980
848.244	4934
848.379	4744
848.515	4752
848.65	4744
848.786	4812
848.921	4786
849.057	4877
849.192	4877
849.328	4782
849.463	4797
849.598	4782
849.734	4721
849.869	4679
850.004	4637
850.14	4664
850.275	4626
850.41	4519
850.545	4569
850.68	4603
850.815	4641
850.95	4607
851.085	4847
851.22	4782
851.355	4607
851.49	4618
851.625	4596
851.76	4603
851.895	4561
852.03	4550
852.165	4645
852.299	4702
852.434	4790
852.569	4752
852.703	4782
852.838	4843
852.973	4892
853.107	4930
853.242	4702
853.376	4664
853.511	4558
853.645	4592
853.78	4797
853.914	4687
854.048	4664
854.183	4668
854.317	4714
854.451	4809
854.585	4687
854.72	4664
854.854	4797
854.988	4630
855.122	4668
855.256	4500
855.39	4645
855.524	4733
855.658	4653
855.792	4645
855.926	4694
856.06	4790
856.194	4748
856.327	4698
856.461	4577
856.595	4626
856.729	4664
856.862	4744
856.996	4698
857.13	4694
857.263	4759
857.397	4744
857.53	4630
857.664	4702
857.797	4759
857.931	4782
858.064	4653
858.197	4748
858.331	4630
858.464	4611
858.597	4500
858.731	4603
858.864	4645
858.997	4558
859.13	4656
859.263	4649
859.396	4687
859.529	4565
859.662	4535
859.795	4512
859.928	4622
860.061	4782
860.194	4721
860.327	4592
860.46	4569
860.592	4721
860.725	4698
860.858	4702
860.99	4561
861.123	4538
861.256	4485
861.388	4577
861.521	5364
861.653	4443
861.786	4367
861.918	4489
862.05	4558
862.183	4554
862.315	4603
862.447	4618
862.58	4527
862.712	4455
862.844	4325
862.976	4440
863.108	4428
863.24	4904
863.372	4402
863.504	4436
863.636	4417
863.768	4504
863.9	4394
864.032	4386
864.164	4386
864.296	4478
864.428	4519
864.559	4554
864.691	4497
864.823	4538
864.954	4497
865.086	4508
865.217	4462
865.349	4440
865.48	4436
865.612	4421
865.743	4607
865.875	4432
866.006	4474
866.137	4474
866.269	4462
866.4	4432
866.531	4428
866.662	4379
866.793	4363
866.924	4413
867.055	4516
867.186	4443
867.317	4421
867.448	4386
867.579	4402
867.71	4409
867.841	4375
867.972	4459
868.103	4447
868.233	4440
868.364	4413
868.495	4489
868.625	4672
868.756	4797
868.886	4546
869.017	4615
869.147	4793
869.278	4759
869.408	4683
869.539	4618
869.669	4759
869.799	4641
869.929	4702
870.06	4706
870.19	4915
870.32	4866
870.45	4919
870.58	5010
870.71	5079
870.84	5109
870.97	4934
871.1	4866
871.23	5128
871.36	5109
871.489	5029
871.619	5052
871.749	5064
871.879	5147
872.008	5151
872.138	5056
872.267	5006
872.397	4839
872.526	4812
872.656	4706
872.785	4816
872.915	4904
873.044	5052
873.173	4923
873.303	4961
873.432	4976
873.561	4915
873.69	4877
873.819	4866
873.948	4896
874.077	4824
874.206	4752
874.335	4831
874.464	4900
874.593	5045
874.722	4984
874.851	5083
874.979	5064
875.108	5010
875.237	4934
875.365	4885
875.494	4938
875.623	4911
875.751	4843
875.88	4850
876.008	4972
876.136	5067
876.265	5193
876.393	5330
876.521	5277
876.65	5178
876.778	5162
876.906	5086
877.034	5014
877.162	5029
877.29	4980
877.418	5029
877.546	5018
877.674	5003
877.802	5010
877.93	5018
878.058	4942
878.185	4835
878.313	4942
878.441	4942
878.568	4736
878.696	4896
878.824	4968
878.951	4968
879.079	5151
879.206	5269
879.333	5102
879.461	4961
879.588	4942
879.715	5109
879.842	5220
879.97	5022
880.097	4801
880.224	4744
880.351	4778
880.478	4809
880.605	4854
880.732	4793
880.859	5056
880.986	4862
881.112	4889
881.239	4721
881.366	4660
881.493	4565
881.619	4596
881.746	4592
881.872	4664
881.999	4664
882.125	4752
882.252	4740
882.378	4862
882.505	4961
882.631	4812
882.757	4588
882.883	4733
883.01	4721
883.136	4672
883.262	4615
883.388	4592
883.514	4828
883.64	4847
883.766	4778
883.892	4660
884.018	4698
884.143	4820
884.269	5003
884.395	4615
884.52	4622
884.646	4645
884.772	4558
884.897	4569
885.023	4660
885.148	4767
885.274	4873
885.399	4820
885.524	4717
885.65	4649
885.775	4710
885.9	4706
886.025	4862
886.15	4790
886.275	4736
886.4	4664
886.525	4714
886.65	4679
886.775	4668
886.9	4866
887.025	5037
887.149	4797
887.274	4641
887.399	4554
887.523	4603
887.648	4592
887.773	4588
887.897	4725
888.021	4812
888.146	4656
888.27	4828
888.395	4949
888.519	4790
888.643	4866
888.767	4850
888.891	4634
889.015	4565
889.139	4672
889.263	4615
889.387	4752
889.511	4854
889.635	4828
889.759	4656
889.883	4637
890.006	4740
890.13	4790
890.254	4649
890.377	4706
890.501	4558
890.624	4447
890.748	4637
890.871	4443
890.995	4421
891.118	4402
891.241	4508
891.364	4531
891.488	4645
891.611	4470
891.734	4531
891.857	4622
891.98	4523
892.103	4649
892.226	4592
892.349	4542
892.471	4413
892.594	4512
892.717	4592
892.839	4561
892.962	4565
893.085	4618
893.207	4588
893.33	4447
893.452	4523
893.575	4668
893.697	4618
893.819	4812
893.941	4839
894.064	4752
894.186	4577
894.308	4584
894.43	4710
894.552	4797
894.674	4748
894.796	4542
894.918	4607
895.04	4573
895.161	4714
895.283	4607
895.405	4592
895.526	4653
895.648	4668
895.769	4691
895.891	4702
896.012	4774
896.134	4725
896.255	4615
896.376	4656
896.498	4622
896.619	4675
896.74	4592
896.861	4660
896.982	4904
897.103	5098
897.224	4847
897.345	4736
897.466	4672
897.587	4683
897.708	4797
897.828	4797
897.949	4649
898.07	4546
898.19	4622
898.311	4755
898.431	4649
898.552	4725
898.672	4767
898.792	4782
898.913	4733
899.033	4664
899.153	4462
899.273	4386
899.393	4508
899.513	4512
899.633	4512
899.753	4527
899.873	4497
899.993	4618
900.113	4546
900.232	4569
900.352	4558
900.472	4500
900.591	4379
900.711	4481
900.83	4451
900.95	4569
901.069	4706
901.189	4550
901.308	4379
901.427	4287
901.546	4363
901.665	4432
901.784	4535
901.904	4367
902.023	4314
902.141	4169
902.26	4192
902.379	4322
902.498	4242
902.617	4227
902.735	4322
902.854	4352
902.973	4337
903.091	4227
903.21	4253
903.328	4329
903.446	4287
903.565	4200
903.683	4318
903.801	4280
903.919	4402
904.038	4428
904.156	4306
904.274	4413
904.392	4371
904.51	4375
904.627	4489
904.745	4580
904.863	4634
904.981	4375
905.098	4276
905.216	4363
905.334	4386
905.451	4405
905.569	4443
905.686	4516
905.803	4573
905.921	4436
906.038	4546
906.155	4516
906.272	4360
906.389	4478
906.506	4348
906.623	4371
906.74	4356
906.857	4303
906.974	4337
907.091	4588
907.208	4683
907.324	4596
907.441	4459
907.557	4352
907.674	4329
907.79	4322
907.907	4363
908.023	4470
908.139	4481
908.256	4436
908.372	4478
908.488	4436
908.604	4337
908.72	4322
908.836	4375
908.952	4360
909.068	4405
909.184	4577
909.3	4462
909.415	4546
909.531	4535
909.647	4356
909.762	4322
909.878	4322
909.993	4390
910.108	4402
910.224	4405
910.339	4512
910.454	4360
910.57	4379
910.685	4325
910.8	4615
910.915	4596
911.03	4462
911.145	4333
911.259	4360
911.374	4405
911.489	4333
911.604	4261
911.718	4173
911.833	4169
911.947	4067
912.062	4017
912.176	4211
912.291	4234
912.405	4234
912.519	4462
912.633	4497
912.748	4356
912.862	4325
912.976	4188
913.09	4059
913.204	4143
913.318	4257
913.431	4333
913.545	4348
913.659	4390
913.772	4337
913.886	4207
914	4207
914.113	4371
914.226	4432
914.34	4390
914.453	4215
914.566	4428
914.68	4303
914.793	4329
914.906	4131
915.019	4143
915.132	4067
915.245	4128
915.358	4192
915.47	4207
915.583	4265
915.696	4268
915.809	4375
915.921	4383
916.034	4230
916.146	4249
916.259	4204
916.371	4379
916.483	4371
916.595	4268
916.708	4310
916.82	4276
916.932	4344
917.044	4291
917.156	4348
917.268	4227
917.38	4310
917.491	4284
917.603	4303
917.715	4436
917.826	4428
917.938	4386
918.049	4234
918.161	4344
918.272	4531
918.384	4538
918.495	4421
918.606	4287
918.717	4261
918.828	4333
918.939	4386
919.05	4249
919.161	4344
919.272	4128
919.383	4242
919.494	4432
919.604	4664
919.715	4451
919.826	4390
919.936	4386
920.047	4504
920.157	4474
920.267	4752
920.378	4527
920.488	4516
920.598	4672
920.708	4911
920.818	4721
920.928	4736
921.038	4915
921.148	4904
921.258	4603
921.368	4573
921.477	4470
921.587	4424
921.697	4386
921.806	4550
921.916	4440
922.025	4215
922.134	4253
922.244	4257
922.353	4322
922.462	4143
922.571	4112
922.68	3987
922.789	3979
922.898	3994
923.007	3991
923.116	4101
923.224	4074
923.333	4051
923.442	4002
923.55	3945
923.659	4044
923.767	4082
923.876	4006
923.984	4105
924.092	3945
924.201	4074
924.309	4128
924.417	4143
924.525	4082
924.633	4071
924.741	5052
924.849	3911
924.956	4135
925.064	3953
925.172	3888
925.279	3960
925.387	4074
925.494	4071
925.602	4215
925.709	4188
925.816	4063
925.924	4162
926.031	4207
926.138	4143
926.245	4234
926.352	4074
926.459	4215
926.566	4306
926.673	4128
926.779	4071
926.886	4109
926.993	3994
927.099	3945
927.206	3918
927.312	3896
927.419	4082
927.525	3991
927.631	4097
927.737	4006
927.843	3915
927.95	3846
928.056	3922
928.162	4002
928.267	4040
928.373	4596
928.479	4082
928.585	3888
928.69	4021
928.796	4063
928.901	3953
929.007	3831
929.112	3991
929.218	3930
929.323	3896
929.428	3907
929.533	4063
929.638	3953
929.743	3941
929.848	4078
929.953	3960
930.058	3899
930.163	3793
930.267	3812
930.372	3983
930.477	3789
930.581	4101
930.685	3941
930.79	3835
930.894	3861
930.998	3850
931.103	4036
931.207	3724
931.311	3717
931.415	3660
931.519	3504
931.623	3572
