Data from test_V78500241_1150.txt Node
Date: Fri Mar 25 16:56:59 CST 2022
User: usil
Spectrometer: V785-0024
Trigger mode: 0
Integration Time (sec): 4.000000E-1
Scans to average: 1
Nonlinearity correction enabled: false
Boxcar width: 0
Storing dark spectrum: false
XAxis mode: Wavelengths
Number of Pixels in Spectrum: 1024
>>>>>Begin Spectral Data<<<<<
801.071	8054
801.214	7982
801.356	7841
801.499	7826
801.641	7700
801.783	7788
801.926	7909
802.068	7913
802.211	7967
802.353	7925
802.496	7860
802.638	7879
802.78	7887
802.923	7967
803.065	7883
803.208	7871
803.35	7959
803.492	8027
803.635	8134
803.777	8054
803.919	8153
804.061	8442
804.204	8145
804.346	8027
804.488	8016
804.63	8058
804.773	8073
804.915	8050
805.057	8218
805.199	8172
805.341	8229
805.483	8317
805.626	8195
805.768	8046
805.91	8225
806.052	8202
806.194	8073
806.336	8240
806.478	8069
806.62	8065
806.762	8161
806.904	8282
807.046	8431
807.188	8317
807.33	8324
807.472	8317
807.614	8142
807.756	8138
807.898	7944
808.04	7898
808.182	7913
808.324	7890
808.465	7883
808.607	8062
808.749	8115
808.891	8123
809.033	8259
809.174	8183
809.316	8031
809.458	8024
809.6	8031
809.741	7936
809.883	8005
810.025	8092
810.166	8005
810.308	8062
810.45	8027
810.591	7909
810.733	7685
810.875	7655
811.016	7533
811.158	7521
811.299	7544
811.441	7662
811.582	7696
811.724	7597
811.865	7468
812.007	7594
812.148	7613
812.29	7586
812.431	7795
812.573	7883
812.714	7978
812.855	8107
812.997	8172
813.138	8351
813.279	8180
813.421	8100
813.562	8012
813.703	7852
813.845	7738
813.986	7388
814.127	7209
814.268	7168
814.41	7133
814.551	7164
814.692	7179
814.833	7050
814.974	7050
815.115	7088
815.256	6935
815.397	6890
815.539	6916
815.68	6859
815.821	6779
815.962	6791
816.103	6753
816.244	6700
816.385	6559
816.526	6563
816.666	6464
816.807	6251
816.948	6391
817.089	6517
817.23	6452
817.371	6353
817.512	6391
817.653	6399
817.793	6353
817.934	6422
818.075	6433
818.216	6395
818.356	6407
818.497	6254
818.638	6136
818.778	6102
818.919	6152
819.06	6178
819.2	6251
819.341	6331
819.481	6350
819.622	6407
819.762	6642
819.903	6669
820.043	6620
820.184	6608
820.324	6566
820.465	6681
820.605	6570
820.746	6673
820.886	6498
821.026	6684
821.167	6700
821.307	6753
821.447	6757
821.588	6623
821.728	6566
821.868	6490
822.008	6304
822.149	6281
822.289	6338
822.429	6186
822.569	6106
822.709	6117
822.849	5912
822.99	5874
823.13	5893
823.27	5874
823.41	5737
823.55	5786
823.69	5775
823.83	5752
823.97	5672
824.11	5528
824.25	5493
824.389	5539
824.529	5573
824.669	5516
824.809	5566
824.949	5661
825.089	5615
825.228	5547
825.368	5368
825.508	5372
825.648	5391
825.787	5357
825.927	5341
826.067	5273
826.206	5280
826.346	5334
826.485	5383
826.625	5341
826.765	5516
826.904	5467
827.044	5231
827.183	5159
827.323	5128
827.462	5208
827.601	5193
827.741	5185
827.88	5193
828.02	5083
828.159	5223
828.298	5227
828.437	5345
828.577	5261
828.716	5463
828.855	5334
828.994	5132
829.134	5151
829.273	5117
829.412	5140
829.551	5121
829.69	5140
829.829	5220
829.968	5353
830.107	5227
830.246	5258
830.385	5216
830.524	5090
830.663	5052
830.802	4923
830.941	4919
831.08	4847
831.219	4968
831.357	4942
831.496	5155
831.635	4911
831.774	4881
831.913	4835
832.051	4752
832.19	4725
832.329	4858
832.467	4698
832.606	4637
832.744	4668
832.883	4752
833.022	4698
833.16	4755
833.299	4809
833.437	4812
833.576	4793
833.714	4801
833.852	4831
833.991	4881
834.129	4919
834.267	4942
834.406	4930
834.544	5014
834.682	4934
834.821	4900
834.959	5178
835.097	5029
835.235	5136
835.373	5052
835.511	5060
835.65	5033
835.788	4987
835.926	4873
836.064	4847
836.202	4927
836.34	5170
836.478	5185
836.615	5094
836.753	5216
836.891	5288
837.029	5212
837.167	5197
837.305	5113
837.443	5102
837.58	5060
837.718	5174
837.856	5124
837.993	5155
838.131	5242
838.269	5208
838.406	5143
838.544	5151
838.681	5037
838.819	5037
838.956	4892
839.094	4843
839.231	4984
839.369	5056
839.506	5395
839.643	5254
839.781	5045
839.918	5048
840.055	5067
840.193	5060
840.33	5037
840.467	5143
840.604	5193
840.742	5410
840.879	5056
841.016	5075
841.153	5113
841.29	5330
841.427	5322
841.564	5322
841.701	5349
841.838	5242
841.975	5193
842.112	5254
842.249	5117
842.385	5140
842.522	5368
842.659	5140
842.796	5151
842.933	5170
843.069	5140
843.206	5113
843.343	5315
843.479	5277
843.616	5318
843.752	4999
843.889	4927
844.025	5223
844.162	4980
844.298	5185
844.435	5060
844.571	5029
844.708	5185
844.844	5212
844.98	5311
845.117	5280
845.253	5178
845.389	5041
845.525	5109
845.661	5094
845.798	4980
845.934	5136
846.07	5041
846.206	5185
846.342	5242
846.478	5140
846.614	4968
846.75	4934
846.886	4923
847.022	5143
847.158	4999
847.294	5064
847.429	5071
847.565	5014
847.701	5296
847.837	4862
847.972	4778
848.108	4896
848.244	4942
848.379	4752
848.515	4706
848.65	4698
848.786	4729
848.921	4759
849.057	4793
849.192	4923
849.328	4733
849.463	4850
849.598	4748
849.734	4710
849.869	4668
850.004	4592
850.14	4656
850.275	4637
850.41	4481
850.545	4535
850.68	4603
850.815	4550
850.95	4630
851.085	4812
851.22	4694
851.355	4634
851.49	4622
851.625	4611
851.76	4634
851.895	4577
852.03	4462
852.165	4675
852.299	4736
852.434	4771
852.569	4725
852.703	4759
852.838	4839
852.973	4908
853.107	4927
853.242	4679
853.376	4702
853.511	4516
853.645	4580
853.78	4778
853.914	4645
854.048	4649
854.183	4577
854.317	4645
854.451	4828
854.585	4668
854.72	4637
854.854	4755
854.988	4641
855.122	4626
855.256	4516
855.39	4630
855.524	4748
855.658	4710
855.792	4675
855.926	4706
856.06	4755
856.194	4835
856.327	4653
856.461	4577
856.595	4577
856.729	4634
856.862	4744
856.996	4664
857.13	4675
857.263	4744
857.397	4786
857.53	4596
857.664	4660
857.797	4694
857.931	4729
858.064	4683
858.197	4733
858.331	4618
858.464	4592
858.597	4489
858.731	4577
858.864	4596
858.997	4618
859.13	4668
859.263	4675
859.396	4618
859.529	4577
859.662	4580
859.795	4569
859.928	4592
860.061	4748
860.194	4771
860.327	4611
860.46	4577
860.592	4714
860.725	4759
860.858	4725
860.99	4554
861.123	4558
861.256	4565
861.388	4618
861.521	5193
861.653	4493
861.786	4481
861.918	4527
862.05	4554
862.183	4584
862.315	4630
862.447	4664
862.58	4542
862.712	4428
862.844	4333
862.976	4470
863.108	4500
863.24	4908
863.372	4348
863.504	4447
863.636	4386
863.768	4550
863.9	4470
864.032	4413
864.164	4424
864.296	4546
864.428	4550
864.559	4596
864.691	4592
864.823	4573
864.954	4500
865.086	4561
865.217	4535
865.349	4485
865.48	4489
865.612	4531
865.743	4634
865.875	4546
866.006	4447
866.137	4478
866.269	4462
866.4	4440
866.531	4474
866.662	4451
866.793	4447
866.924	4466
867.055	4512
867.186	4497
867.317	4462
867.448	4413
867.579	4432
867.71	4459
867.841	4383
867.972	4485
868.103	4485
868.233	4497
868.364	4493
868.495	4508
868.625	4736
868.756	4805
868.886	4599
869.017	4637
869.147	4778
869.278	4831
869.408	4679
869.539	4641
869.669	4767
869.799	4710
869.929	4816
870.06	4763
870.19	4999
870.32	4946
870.45	4984
870.58	5033
870.71	5140
870.84	5113
870.97	4896
871.1	4904
871.23	5197
871.36	5193
871.489	5003
871.619	5079
871.749	5166
871.879	5159
872.008	5181
872.138	5071
872.267	4972
872.397	4881
872.526	4809
872.656	4721
872.785	4847
872.915	4961
873.044	5052
873.173	4987
873.303	4987
873.432	4957
873.561	4980
873.69	4900
873.819	4870
873.948	4930
874.077	4820
874.206	4771
874.335	4801
874.464	4987
874.593	5052
874.722	4976
874.851	5140
874.979	5075
875.108	5003
875.237	4961
875.365	4911
875.494	4915
875.623	4984
875.751	4866
875.88	4927
876.008	4980
876.136	5102
876.265	5185
876.393	5391
876.521	5273
876.65	5155
876.778	5151
876.906	5090
877.034	5067
877.162	5045
877.29	5022
877.418	5071
877.546	5052
877.674	5086
877.802	5010
877.93	5071
878.058	4923
878.185	4877
878.313	5003
878.441	4972
878.568	4812
878.696	4919
878.824	4968
878.951	4991
879.079	5056
879.206	5284
879.333	5060
879.461	4987
879.588	5041
879.715	5117
879.842	5239
879.97	5022
880.097	4797
880.224	4767
880.351	4885
880.478	4870
880.605	4778
880.732	4793
880.859	5098
880.986	4930
881.112	4938
881.239	4774
881.366	4683
881.493	4634
881.619	4599
881.746	4622
881.872	4656
881.999	4733
882.125	4717
882.252	4816
882.378	4805
882.505	5033
882.631	4809
882.757	4694
882.883	4748
883.01	4763
883.136	4660
883.262	4618
883.388	4641
883.514	4835
883.64	4915
883.766	4858
883.892	4740
884.018	4725
884.143	4942
884.269	5071
884.395	4687
884.52	4660
884.646	4687
884.772	4630
884.897	4546
885.023	4672
885.148	4797
885.274	4923
885.399	4778
885.524	4755
885.65	4702
885.775	4771
885.9	4767
886.025	4816
886.15	4801
886.275	4675
886.4	4687
886.525	4752
886.65	4702
886.775	4778
886.9	4938
887.025	5056
887.149	4866
887.274	4694
887.399	4584
887.523	4653
887.648	4577
887.773	4611
887.897	4820
888.021	4828
888.146	4668
888.27	4824
888.395	4972
888.519	4816
888.643	4881
888.767	4828
888.891	4736
889.015	4649
889.139	4694
889.263	4706
889.387	4843
889.511	4934
889.635	4782
889.759	4675
889.883	4660
890.006	4729
890.13	4862
890.254	4645
890.377	4653
890.501	4596
890.624	4599
890.748	4664
890.871	4504
890.995	4447
891.118	4352
891.241	4554
891.364	4573
891.488	4618
891.611	4500
891.734	4558
891.857	4660
891.98	4580
892.103	4641
892.226	4656
892.349	4584
892.471	4405
892.594	4592
892.717	4641
892.839	4622
892.962	4637
893.085	4653
893.207	4668
893.33	4550
893.452	4527
893.575	4607
893.697	4596
893.819	4828
893.941	4877
894.064	4831
894.186	4592
894.308	4634
894.43	4714
894.552	4850
894.674	4755
894.796	4599
894.918	4565
895.04	4573
895.161	4660
895.283	4687
895.405	4588
895.526	4637
895.648	4744
895.769	4725
895.891	4801
896.012	4767
896.134	4740
896.255	4679
896.376	4694
896.498	4596
896.619	4698
896.74	4599
896.861	4649
896.982	4953
897.103	5102
897.224	4812
897.345	4824
897.466	4679
897.587	4767
897.708	4885
897.828	4793
897.949	4660
898.07	4596
898.19	4630
898.311	4812
898.431	4702
898.552	4736
898.672	4820
898.792	4820
898.913	4752
899.033	4660
899.153	4535
899.273	4451
899.393	4481
899.513	4497
899.633	4558
899.753	4550
899.873	4554
899.993	4618
900.113	4519
900.232	4599
900.352	4508
900.472	4516
900.591	4398
900.711	4489
900.83	4462
900.95	4618
901.069	4702
901.189	4512
901.308	4405
901.427	4329
901.546	4394
901.665	4519
901.784	4550
901.904	4356
902.023	4363
902.141	4234
902.26	4207
902.379	4348
902.498	4234
902.617	4280
902.735	4402
902.854	4432
902.973	4344
903.091	4257
903.21	4215
903.328	4325
903.446	4276
903.565	4299
903.683	4360
903.801	4265
903.919	4447
904.038	4421
904.156	4363
904.274	4462
904.392	4413
904.51	4474
904.627	4459
904.745	4538
904.863	4668
904.981	4386
905.098	4367
905.216	4421
905.334	4478
905.451	4447
905.569	4443
905.686	4527
905.803	4588
905.921	4417
906.038	4565
906.155	4500
906.272	4428
906.389	4470
906.506	4337
906.623	4459
906.74	4447
906.857	4325
906.974	4405
907.091	4531
907.208	4729
907.324	4546
907.441	4497
907.557	4356
907.674	4363
907.79	4341
907.907	4379
908.023	4500
908.139	4538
908.256	4466
908.372	4485
908.488	4432
908.604	4356
908.72	4348
908.836	4367
908.952	4386
909.068	4424
909.184	4561
909.3	4432
909.415	4592
909.531	4588
909.647	4386
909.762	4367
909.878	4386
909.993	4455
910.108	4432
910.224	4440
910.339	4519
910.454	4390
910.57	4379
910.685	4371
910.8	4656
910.915	4577
911.03	4504
911.145	4394
911.259	4360
911.374	4383
911.489	4314
911.604	4261
911.718	4207
911.833	4230
911.947	4109
912.062	4010
912.176	4227
912.291	4261
912.405	4249
912.519	4451
912.633	4512
912.748	4367
912.862	4325
912.976	4230
913.09	4139
913.204	4181
913.318	4276
913.431	4394
913.545	4360
913.659	4478
913.772	4398
913.886	4219
914	4261
914.113	4341
914.226	4474
914.34	4383
914.453	4257
914.566	4455
914.68	4303
914.793	4363
914.906	4135
915.019	4143
915.132	4135
915.245	4196
915.358	4177
915.47	4268
915.583	4276
915.696	4348
915.809	4421
915.921	4436
916.034	4287
916.146	4242
916.259	4219
916.371	4375
916.483	4325
916.595	4303
916.708	4375
916.82	4310
916.932	4386
917.044	4318
917.156	4356
917.268	4280
917.38	4303
917.491	4230
917.603	4318
917.715	4409
917.826	4459
917.938	4375
918.049	4280
918.161	4375
918.272	4538
918.384	4516
918.495	4443
918.606	4295
918.717	4257
918.828	4306
918.939	4413
919.05	4257
919.161	4310
919.272	4124
919.383	4246
919.494	4451
919.604	4611
919.715	4455
919.826	4360
919.936	4424
920.047	4474
920.157	4481
920.267	4706
920.378	4573
920.488	4516
920.598	4714
920.708	4919
920.818	4774
920.928	4790
921.038	4999
921.148	4934
921.258	4622
921.368	4626
921.477	4516
921.587	4436
921.697	4386
921.806	4550
921.916	4447
922.025	4265
922.134	4284
922.244	4204
922.353	4348
922.462	4192
922.571	4128
922.68	4032
922.789	3998
922.898	4071
923.007	3983
923.116	4143
923.224	4055
923.333	4112
923.442	3972
923.55	3945
923.659	4044
923.767	4097
923.876	3998
923.984	4116
924.092	3975
924.201	4135
924.309	4086
924.417	4162
924.525	4086
924.633	4109
924.741	5041
924.849	3926
924.956	4139
925.064	3960
925.172	3892
925.279	3922
925.387	4097
925.494	4032
925.602	4162
925.709	4204
925.816	4032
925.924	4173
926.031	4227
926.138	4204
926.245	4276
926.352	4086
926.459	4261
926.566	4303
926.673	4143
926.779	4078
926.886	4112
926.993	3991
927.099	4013
927.206	3960
927.312	3972
927.419	4078
927.525	4032
927.631	4063
927.737	3956
927.843	3941
927.95	3846
928.056	3926
928.162	3998
928.267	4082
928.373	4714
928.479	4207
928.585	3922
928.69	4051
928.796	4112
928.901	3991
929.007	3857
929.112	3991
929.218	4010
929.323	3991
929.428	3991
929.533	4135
929.638	3934
929.743	3998
929.848	4059
929.953	4090
930.058	3979
930.163	3831
930.267	3850
930.372	4032
930.477	3861
930.581	4139
930.685	3994
930.79	3888
930.894	3934
930.998	3960
931.103	4093
931.207	3732
931.311	3743
931.415	3713
931.519	3534
931.623	3625
