Data from test_V78500241_547.txt Node
Date: Fri Mar 25 16:52:48 CST 2022
User: usil
Spectrometer: V785-0024
Trigger mode: 0
Integration Time (sec): 4.000000E-1
Scans to average: 1
Nonlinearity correction enabled: false
Boxcar width: 0
Storing dark spectrum: false
XAxis mode: Wavelengths
Number of Pixels in Spectrum: 1024
>>>>>Begin Spectral Data<<<<<
801.071	7986
801.214	8012
801.356	7852
801.499	7807
801.641	7784
801.783	7890
801.926	8050
802.068	7947
802.211	7959
802.353	8001
802.496	7841
802.638	7909
802.78	7849
802.923	7902
803.065	7807
803.208	7902
803.35	7947
803.492	8100
803.635	8084
803.777	7978
803.919	8069
804.061	8488
804.204	8191
804.346	7974
804.488	7947
804.63	8115
804.773	7989
804.915	8119
805.057	8259
805.199	8180
805.341	8240
805.483	8240
805.626	8161
805.768	8100
805.91	8145
806.052	8153
806.194	8145
806.336	8218
806.478	8054
806.62	8096
806.762	8149
806.904	8237
807.046	8514
807.188	8263
807.33	8256
807.472	8339
807.614	8142
807.756	8077
807.898	7936
808.04	7830
808.182	7947
808.324	7913
808.465	7898
808.607	8081
808.749	8130
808.891	8187
809.033	8263
809.174	8161
809.316	8050
809.458	8046
809.6	7928
809.741	8001
809.883	8027
810.025	8012
810.166	8069
810.308	7970
810.45	8001
810.591	7837
810.733	7719
810.875	7674
811.016	7525
811.158	7510
811.299	7563
811.441	7704
811.582	7662
811.724	7582
811.865	7533
812.007	7624
812.148	7525
812.29	7590
812.431	7761
812.573	7917
812.714	7997
812.855	8183
812.997	8267
813.138	8374
813.279	8195
813.421	8088
813.562	8005
813.703	7845
813.845	7761
813.986	7472
814.127	7301
814.268	7289
814.41	7297
814.551	7149
814.692	7190
814.833	7042
814.974	7031
815.115	7088
815.256	7015
815.397	6954
815.539	6935
815.68	6829
815.821	6867
815.962	6863
816.103	6821
816.244	6734
816.385	6616
816.526	6589
816.666	6517
816.807	6300
816.948	6456
817.089	6456
817.23	6471
817.371	6353
817.512	6414
817.653	6410
817.793	6369
817.934	6391
818.075	6486
818.216	6388
818.356	6361
818.497	6232
818.638	6095
818.778	6167
818.919	6121
819.06	6098
819.2	6319
819.341	6384
819.481	6308
819.622	6506
819.762	6722
819.903	6703
820.043	6536
820.184	6593
820.324	6559
820.465	6688
820.605	6620
820.746	6578
820.886	6456
821.026	6681
821.167	6738
821.307	6772
821.447	6749
821.588	6593
821.728	6566
821.868	6513
822.008	6285
822.149	6350
822.289	6292
822.429	6197
822.569	6148
822.709	6125
822.849	5813
822.99	5912
823.13	5961
823.27	5904
823.41	5733
823.55	5779
823.69	5733
823.83	5779
823.97	5688
824.11	5524
824.25	5452
824.389	5524
824.529	5551
824.669	5532
824.809	5566
824.949	5653
825.089	5570
825.228	5528
825.368	5383
825.508	5337
825.648	5330
825.787	5315
825.927	5391
826.067	5246
826.206	5292
826.346	5379
826.485	5368
826.625	5398
826.765	5543
826.904	5463
827.044	5254
827.183	5151
827.323	5083
827.462	5239
827.601	5128
827.741	5223
827.88	5204
828.02	5147
828.159	5246
828.298	5341
828.437	5402
828.577	5265
828.716	5463
828.855	5288
828.994	5162
829.134	5174
829.273	5189
829.412	5117
829.551	5052
829.69	5140
829.829	5242
829.968	5345
830.107	5277
830.246	5258
830.385	5170
830.524	5166
830.663	5041
830.802	4915
830.941	4892
831.08	4862
831.219	5003
831.357	4972
831.496	5132
831.635	4919
831.774	4828
831.913	4828
832.051	4717
832.19	4786
832.329	4873
832.467	4698
832.606	4626
832.744	4714
832.883	4721
833.022	4710
833.16	4790
833.299	4771
833.437	4797
833.576	4835
833.714	4835
833.852	4862
833.991	4885
834.129	4942
834.267	4930
834.406	4877
834.544	4934
834.682	5010
834.821	4946
834.959	5143
835.097	4953
835.235	5113
835.373	5025
835.511	5075
835.65	5037
835.788	5025
835.926	4889
836.064	4847
836.202	4976
836.34	5197
836.478	5250
836.615	5086
836.753	5239
836.891	5326
837.029	5208
837.167	5208
837.305	5128
837.443	5151
837.58	5140
837.718	5242
837.856	5166
837.993	5128
838.131	5185
838.269	5216
838.406	5162
838.544	5216
838.681	5064
838.819	5018
838.956	4873
839.094	4919
839.231	4942
839.369	5079
839.506	5421
839.643	5258
839.781	4999
839.918	4987
840.055	5067
840.193	5109
840.33	5090
840.467	5151
840.604	5181
840.742	5425
840.879	5117
841.016	5102
841.153	5128
841.29	5337
841.427	5357
841.564	5261
841.701	5410
841.838	5269
841.975	5223
842.112	5273
842.249	5159
842.385	5124
842.522	5318
842.659	5193
842.796	5159
842.933	5223
843.069	5117
843.206	5155
843.343	5299
843.479	5208
843.616	5246
843.752	5056
843.889	4991
844.025	5208
844.162	5064
844.298	5147
844.435	5086
844.571	5075
844.708	5212
844.844	5315
844.98	5349
845.117	5326
845.253	5090
845.389	5048
845.525	5170
845.661	5132
845.798	5041
845.934	5086
846.07	5033
846.206	5201
846.342	5277
846.478	5235
846.614	5003
846.75	4946
846.886	4908
847.022	5136
847.158	5018
847.294	5006
847.429	5109
847.565	5075
847.701	5322
847.837	4824
847.972	4793
848.108	4934
848.244	4957
848.379	4793
848.515	4706
848.65	4752
848.786	4717
848.921	4809
849.057	4850
849.192	4870
849.328	4835
849.463	4858
849.598	4786
849.734	4740
849.869	4645
850.004	4626
850.14	4607
850.275	4565
850.41	4561
850.545	4531
850.68	4592
850.815	4592
850.95	4634
851.085	4854
851.22	4733
851.355	4691
851.49	4634
851.625	4626
851.76	4607
851.895	4546
852.03	4550
852.165	4672
852.299	4733
852.434	4786
852.569	4748
852.703	4759
852.838	4816
852.973	4938
853.107	4904
853.242	4717
853.376	4626
853.511	4550
853.645	4611
853.78	4847
853.914	4721
854.048	4664
854.183	4641
854.317	4672
854.451	4820
854.585	4694
854.72	4637
854.854	4805
854.988	4622
855.122	4660
855.256	4500
855.39	4660
855.524	4786
855.658	4733
855.792	4660
855.926	4694
856.06	4725
856.194	4797
856.327	4717
856.461	4584
856.595	4580
856.729	4592
856.862	4744
856.996	4717
857.13	4740
857.263	4755
857.397	4793
857.53	4656
857.664	4714
857.797	4771
857.931	4767
858.064	4733
858.197	4714
858.331	4694
858.464	4588
858.597	4462
858.731	4603
858.864	4577
858.997	4645
859.13	4672
859.263	4656
859.396	4725
859.529	4611
859.662	4573
859.795	4504
859.928	4615
860.061	4736
860.194	4797
860.327	4634
860.46	4580
860.592	4679
860.725	4717
860.858	4698
860.99	4569
861.123	4508
861.256	4546
861.388	4615
861.521	5398
861.653	4447
861.786	4455
861.918	4428
862.05	4512
862.183	4523
862.315	4603
862.447	4615
862.58	4596
862.712	4341
862.844	4314
862.976	4459
863.108	4447
863.24	4870
863.372	4333
863.504	4413
863.636	4390
863.768	4459
863.9	4383
864.032	4409
864.164	4417
864.296	4424
864.428	4531
864.559	4493
864.691	4527
864.823	4565
864.954	4462
865.086	4531
865.217	4428
865.349	4421
865.48	4466
865.612	4451
865.743	4622
865.875	4459
866.006	4489
866.137	4459
866.269	4443
866.4	4432
866.531	4428
866.662	4394
866.793	4417
866.924	4409
867.055	4493
867.186	4459
867.317	4402
867.448	4417
867.579	4363
867.71	4333
867.841	4383
867.972	4447
868.103	4451
868.233	4447
868.364	4451
868.495	4443
868.625	4694
868.756	4786
868.886	4603
869.017	4649
869.147	4759
869.278	4774
869.408	4653
869.539	4645
869.669	4721
869.799	4664
869.929	4683
870.06	4733
870.19	4953
870.32	4889
870.45	4904
870.58	5010
870.71	5071
870.84	5029
870.97	4965
871.1	4881
871.23	5143
871.36	5140
871.489	5003
871.619	5079
871.749	5117
871.879	5178
872.008	5189
872.138	5147
872.267	5006
872.397	4889
872.526	4820
872.656	4748
872.785	4793
872.915	4976
873.044	5048
873.173	4968
873.303	4961
873.432	4896
873.561	4908
873.69	4896
873.819	4835
873.948	4850
874.077	4847
874.206	4782
874.335	4797
874.464	4934
874.593	5033
874.722	4957
874.851	5014
874.979	5067
875.108	5018
875.237	4923
875.365	4892
875.494	4877
875.623	4938
875.751	4816
875.88	4870
876.008	5022
876.136	5056
876.265	5147
876.393	5326
876.521	5280
876.65	5185
876.778	5189
876.906	5056
877.034	4980
877.162	5037
877.29	4976
877.418	5064
877.546	5048
877.674	5022
877.802	5037
877.93	5022
878.058	4942
878.185	4862
878.313	4949
878.441	4927
878.568	4816
878.696	4850
878.824	4976
878.951	4976
879.079	5159
879.206	5330
879.333	5071
879.461	4995
879.588	4999
879.715	5147
879.842	5242
879.97	4999
880.097	4790
880.224	4725
880.351	4778
880.478	4862
880.605	4759
880.732	4790
880.859	5105
880.986	4870
881.112	4908
881.239	4774
881.366	4660
881.493	4596
881.619	4584
881.746	4649
881.872	4577
881.999	4630
882.125	4710
882.252	4763
882.378	4828
882.505	4995
882.631	4801
882.757	4710
882.883	4698
883.01	4702
883.136	4637
883.262	4599
883.388	4645
883.514	4793
883.64	4778
883.766	4786
883.892	4660
884.018	4771
884.143	4873
884.269	5037
884.395	4653
884.52	4649
884.646	4656
884.772	4649
884.897	4573
885.023	4675
885.148	4782
885.274	4850
885.399	4759
885.524	4744
885.65	4721
885.775	4744
885.9	4714
886.025	4843
886.15	4763
886.275	4744
886.4	4679
886.525	4744
886.65	4691
886.775	4679
886.9	4877
887.025	5075
887.149	4801
887.274	4683
887.399	4599
887.523	4584
887.648	4626
887.773	4580
887.897	4790
888.021	4805
888.146	4668
888.27	4816
888.395	4892
888.519	4782
888.643	4873
888.767	4839
888.891	4687
889.015	4573
889.139	4683
889.263	4618
889.387	4740
889.511	4892
889.635	4816
889.759	4675
889.883	4687
890.006	4740
890.13	4805
890.254	4592
890.377	4687
890.501	4523
890.624	4527
890.748	4706
890.871	4500
890.995	4462
891.118	4390
891.241	4519
891.364	4519
891.488	4656
891.611	4531
891.734	4580
891.857	4577
891.98	4516
892.103	4656
892.226	4599
892.349	4546
892.471	4417
892.594	4565
892.717	4622
892.839	4542
892.962	4607
893.085	4588
893.207	4637
893.33	4447
893.452	4512
893.575	4687
893.697	4634
893.819	4797
893.941	4839
894.064	4771
894.186	4592
894.308	4603
894.43	4759
894.552	4809
894.674	4740
894.796	4565
894.918	4630
895.04	4546
895.161	4675
895.283	4618
895.405	4577
895.526	4615
895.648	4656
895.769	4752
895.891	4702
896.012	4816
896.134	4736
896.255	4660
896.376	4653
896.498	4584
896.619	4691
896.74	4618
896.861	4618
896.982	4949
897.103	5010
897.224	4733
897.345	4740
897.466	4683
897.587	4759
897.708	4843
897.828	4736
897.949	4634
898.07	4599
898.19	4645
898.311	4805
898.431	4740
898.552	4714
898.672	4763
898.792	4805
898.913	4755
899.033	4580
899.153	4500
899.273	4447
899.393	4500
899.513	4504
899.633	4535
899.753	4538
899.873	4535
899.993	4596
900.113	4523
900.232	4584
900.352	4504
900.472	4481
900.591	4405
900.711	4470
900.83	4409
900.95	4584
901.069	4653
901.189	4527
901.308	4348
901.427	4333
901.546	4394
901.665	4470
901.784	4497
901.904	4363
902.023	4314
902.141	4219
902.26	4188
902.379	4295
902.498	4246
902.617	4215
902.735	4348
902.854	4405
902.973	4348
903.091	4242
903.21	4211
903.328	4322
903.446	4265
903.565	4246
903.683	4356
903.801	4223
903.919	4436
904.038	4398
904.156	4333
904.274	4428
904.392	4390
904.51	4413
904.627	4538
904.745	4596
904.863	4679
904.981	4428
905.098	4303
905.216	4348
905.334	4474
905.451	4352
905.569	4451
905.686	4554
905.803	4531
905.921	4402
906.038	4527
906.155	4466
906.272	4421
906.389	4481
906.506	4352
906.623	4363
906.74	4379
906.857	4344
906.974	4398
907.091	4561
907.208	4683
907.324	4607
907.441	4497
907.557	4344
907.674	4344
907.79	4333
907.907	4383
908.023	4519
908.139	4489
908.256	4390
908.372	4504
908.488	4489
908.604	4386
908.72	4318
908.836	4402
908.952	4371
909.068	4394
909.184	4611
909.3	4455
909.415	4588
909.531	4558
909.647	4356
909.762	4383
909.878	4306
909.993	4402
910.108	4356
910.224	4383
910.339	4451
910.454	4409
910.57	4379
910.685	4322
910.8	4653
910.915	4584
911.03	4493
911.145	4295
911.259	4356
911.374	4398
911.489	4249
911.604	4234
911.718	4150
911.833	4215
911.947	4071
912.062	4059
912.176	4230
912.291	4211
912.405	4219
912.519	4519
912.633	4504
912.748	4394
912.862	4303
912.976	4192
913.09	4082
913.204	4211
913.318	4223
913.431	4344
913.545	4367
913.659	4417
913.772	4356
913.886	4234
914	4227
914.113	4322
914.226	4421
914.34	4383
914.453	4219
914.566	4436
914.68	4299
914.793	4322
914.906	4124
915.019	4154
915.132	4097
915.245	4124
915.358	4207
915.47	4280
915.583	4249
915.696	4310
915.809	4390
915.921	4386
916.034	4253
916.146	4272
916.259	4196
916.371	4375
916.483	4379
916.595	4291
916.708	4303
916.82	4325
916.932	4333
917.044	4299
917.156	4322
917.268	4207
917.38	4272
917.491	4299
917.603	4314
917.715	4367
917.826	4462
917.938	4310
918.049	4227
918.161	4375
918.272	4523
918.384	4516
918.495	4474
918.606	4291
918.717	4272
918.828	4337
918.939	4379
919.05	4230
919.161	4318
919.272	4147
919.383	4268
919.494	4481
919.604	4607
919.715	4424
919.826	4280
919.936	4424
920.047	4493
920.157	4508
920.267	4679
920.378	4554
920.488	4500
920.598	4698
920.708	4900
920.818	4752
920.928	4801
921.038	4908
921.148	4896
921.258	4637
921.368	4588
921.477	4523
921.587	4565
921.697	4367
921.806	4531
921.916	4447
922.025	4223
922.134	4299
922.244	4219
922.353	4341
922.462	4177
922.571	4112
922.68	3987
922.789	4006
922.898	4048
923.007	4021
923.116	4086
923.224	4013
923.333	4097
923.442	3964
923.55	3956
923.659	4010
923.767	4082
923.876	3998
923.984	4147
924.092	4006
924.201	4093
924.309	4082
924.417	4078
924.525	4090
924.633	4124
924.741	5045
924.849	3926
924.956	4116
925.064	3960
925.172	3884
925.279	3960
925.387	4078
925.494	4101
925.602	4234
925.709	4204
925.816	4055
925.924	4116
926.031	4192
926.138	4147
926.245	4196
926.352	4112
926.459	4257
926.566	4295
926.673	4147
926.779	4067
926.886	4086
926.993	3972
927.099	3926
927.206	3926
927.312	3953
927.419	4071
927.525	4036
927.631	4078
927.737	4002
927.843	3907
927.95	3850
928.056	3972
928.162	3975
928.267	4082
928.373	4717
928.479	4120
928.585	3865
928.69	4032
928.796	4074
928.901	3956
929.007	3857
929.112	4067
929.218	3964
929.323	3926
929.428	3968
929.533	4116
929.638	3854
929.743	3945
929.848	4032
929.953	3972
930.058	3930
930.163	3808
930.267	3827
930.372	3975
930.477	3823
930.581	4055
930.685	3926
930.79	3850
930.894	3915
930.998	3873
931.103	4078
931.207	3705
931.311	3705
931.415	3660
931.519	3511
931.623	3587
