Data from test_V78500241_2126.txt Node
Date: Fri Mar 25 17:03:47 CST 2022
User: usil
Spectrometer: V785-0024
Trigger mode: 0
Integration Time (sec): 4.000000E-1
Scans to average: 1
Nonlinearity correction enabled: false
Boxcar width: 0
Storing dark spectrum: false
XAxis mode: Wavelengths
Number of Pixels in Spectrum: 1024
>>>>>Begin Spectral Data<<<<<
801.071	8054
801.214	8001
801.356	7822
801.499	7871
801.641	7795
801.783	7860
801.926	7993
802.068	7967
802.211	7993
802.353	7986
802.496	7875
802.638	7871
802.78	7875
802.923	7917
803.065	7879
803.208	7833
803.35	7974
803.492	8069
803.635	8164
803.777	8058
803.919	8126
804.061	8480
804.204	8103
804.346	8024
804.488	8027
804.63	8103
804.773	7967
804.915	8115
805.057	8320
805.199	8115
805.341	8210
805.483	8244
805.626	8233
805.768	8187
805.91	8172
806.052	8263
806.194	8084
806.336	8279
806.478	8164
806.62	8035
806.762	8195
806.904	8263
807.046	8511
807.188	8366
807.33	8275
807.472	8324
807.614	8195
807.756	8164
807.898	8054
808.04	7970
808.182	7909
808.324	7868
808.465	7986
808.607	8115
808.749	8153
808.891	8206
809.033	8282
809.174	8206
809.316	8065
809.458	8111
809.6	7997
809.741	8134
809.883	8027
810.025	8100
810.166	7978
810.308	8035
810.45	7906
810.591	7871
810.733	7712
810.875	7742
811.016	7556
811.158	7472
811.299	7552
811.441	7727
811.582	7666
811.724	7597
811.865	7525
812.007	7605
812.148	7628
812.29	7613
812.431	7734
812.573	7909
812.714	8012
812.855	8088
812.997	8259
813.138	8267
813.279	8168
813.421	8058
813.562	8001
813.703	7830
813.845	7712
813.986	7464
814.127	7202
814.268	7289
814.41	7164
814.551	7190
814.692	7236
814.833	7095
814.974	7168
815.115	7080
815.256	6966
815.397	7015
815.539	6928
815.68	6810
815.821	6745
815.962	6818
816.103	6795
816.244	6658
816.385	6669
816.526	6646
816.666	6483
816.807	6331
816.948	6414
817.089	6471
817.23	6399
817.371	6372
817.512	6380
817.653	6395
817.793	6304
817.934	6433
818.075	6494
818.216	6403
818.356	6445
818.497	6300
818.638	6155
818.778	6197
818.919	6133
819.06	6194
819.2	6365
819.341	6376
819.481	6342
819.622	6521
819.762	6783
819.903	6726
820.043	6684
820.184	6623
820.324	6551
820.465	6673
820.605	6631
820.746	6623
820.886	6456
821.026	6631
821.167	6741
821.307	6897
821.447	6726
821.588	6684
821.728	6597
821.868	6429
822.008	6296
822.149	6410
822.289	6414
822.429	6091
822.569	6060
822.709	6106
822.849	5961
822.99	5893
823.13	5942
823.27	5977
823.41	5840
823.55	5817
823.69	5790
823.83	5779
823.97	5630
824.11	5524
824.25	5501
824.389	5566
824.529	5573
824.669	5562
824.809	5566
824.949	5638
825.089	5596
825.228	5562
825.368	5364
825.508	5334
825.648	5330
825.787	5376
825.927	5391
826.067	5341
826.206	5307
826.346	5353
826.485	5364
826.625	5440
826.765	5547
826.904	5512
827.044	5265
827.183	5189
827.323	5109
827.462	5258
827.601	5239
827.741	5193
827.88	5166
828.02	5105
828.159	5246
828.298	5318
828.437	5376
828.577	5269
828.716	5448
828.855	5334
828.994	5140
829.134	5147
829.273	5216
829.412	5090
829.551	5121
829.69	5178
829.829	5223
829.968	5364
830.107	5242
830.246	5239
830.385	5231
830.524	5162
830.663	5094
830.802	4984
830.941	4934
831.08	4862
831.219	5022
831.357	5010
831.496	5193
831.635	4957
831.774	4862
831.913	4908
832.051	4786
832.19	4774
832.329	4870
832.467	4721
832.606	4656
832.744	4717
832.883	4691
833.022	4717
833.16	4774
833.299	4839
833.437	4839
833.576	4828
833.714	4793
833.852	4854
833.991	4904
834.129	4942
834.267	4972
834.406	4900
834.544	4987
834.682	4949
834.821	4953
834.959	5178
835.097	4999
835.235	5166
835.373	5083
835.511	5121
835.65	5079
835.788	5014
835.926	4904
836.064	4900
836.202	4915
836.34	5178
836.478	5227
836.615	5174
836.753	5178
836.891	5299
837.029	5242
837.167	5250
837.305	5162
837.443	5178
837.58	5117
837.718	5269
837.856	5185
837.993	5143
838.131	5227
838.269	5170
838.406	5193
838.544	5185
838.681	5014
838.819	5064
838.956	4934
839.094	4911
839.231	4938
839.369	5109
839.506	5376
839.643	5303
839.781	5060
839.918	5033
840.055	5083
840.193	5105
840.33	5052
840.467	5102
840.604	5174
840.742	5467
840.879	5132
841.016	5113
841.153	5124
841.29	5391
841.427	5296
841.564	5345
841.701	5372
841.838	5277
841.975	5181
842.112	5242
842.249	5147
842.385	5143
842.522	5387
842.659	5178
842.796	5098
842.933	5197
843.069	5151
843.206	5159
843.343	5273
843.479	5212
843.616	5201
843.752	5025
843.889	5022
844.025	5208
844.162	5045
844.298	5155
844.435	5083
844.571	5071
844.708	5208
844.844	5288
844.98	5326
845.117	5318
845.253	5151
845.389	5067
845.525	5140
845.661	5181
845.798	5022
845.934	5143
846.07	5018
846.206	5143
846.342	5265
846.478	5212
846.614	5060
846.75	5025
846.886	4965
847.022	5117
847.158	4972
847.294	5071
847.429	5067
847.565	5056
847.701	5303
847.837	4812
847.972	4767
848.108	4923
848.244	4938
848.379	4801
848.515	4748
848.65	4721
848.786	4767
848.921	4782
849.057	4885
849.192	4858
849.328	4835
849.463	4790
849.598	4790
849.734	4725
849.869	4717
850.004	4637
850.14	4656
850.275	4607
850.41	4497
850.545	4588
850.68	4554
850.815	4664
850.95	4599
851.085	4824
851.22	4748
851.355	4645
851.49	4588
851.625	4607
851.76	4630
851.895	4512
852.03	4497
852.165	4637
852.299	4698
852.434	4790
852.569	4729
852.703	4805
852.838	4843
852.973	4911
853.107	4942
853.242	4714
853.376	4687
853.511	4637
853.645	4618
853.78	4835
853.914	4698
854.048	4668
854.183	4702
854.317	4706
854.451	4835
854.585	4668
854.72	4611
854.854	4767
854.988	4565
855.122	4637
855.256	4546
855.39	4653
855.524	4733
855.658	4748
855.792	4637
855.926	4710
856.06	4752
856.194	4786
856.327	4717
856.461	4542
856.595	4599
856.729	4599
856.862	4782
856.996	4691
857.13	4759
857.263	4793
857.397	4790
857.53	4634
857.664	4748
857.797	4763
857.931	4748
858.064	4656
858.197	4721
858.331	4679
858.464	4630
858.597	4550
858.731	4653
858.864	4596
858.997	4618
859.13	4691
859.263	4637
859.396	4702
859.529	4599
859.662	4558
859.795	4554
859.928	4611
860.061	4717
860.194	4774
860.327	4592
860.46	4565
860.592	4767
860.725	4740
860.858	4679
860.99	4607
861.123	4493
861.256	4485
861.388	4577
861.521	5410
861.653	4508
861.786	4459
861.918	4443
862.05	4500
862.183	4519
862.315	4592
862.447	4626
862.58	4542
862.712	4363
862.844	4322
862.976	4485
863.108	4432
863.24	4736
863.372	4383
863.504	4436
863.636	4360
863.768	4466
863.9	4440
864.032	4360
864.164	4409
864.296	4500
864.428	4546
864.559	4599
864.691	4497
864.823	4493
864.954	4500
865.086	4519
865.217	4432
865.349	4421
865.48	4451
865.612	4474
865.743	4645
865.875	4493
866.006	4413
866.137	4481
866.269	4451
866.4	4398
866.531	4383
866.662	4394
866.793	4432
866.924	4474
867.055	4428
867.186	4474
867.317	4386
867.448	4390
867.579	4394
867.71	4337
867.841	4375
867.972	4459
868.103	4428
868.233	4455
868.364	4424
868.495	4489
868.625	4611
868.756	4729
868.886	4523
869.017	4622
869.147	4748
869.278	4755
869.408	4668
869.539	4660
869.669	4710
869.799	4664
869.929	4752
870.06	4759
870.19	4957
870.32	4919
870.45	4953
870.58	5006
870.71	5098
870.84	5090
870.97	4911
871.1	4885
871.23	5090
871.36	5174
871.489	5041
871.619	5048
871.749	5102
871.879	5121
872.008	5159
872.138	5022
872.267	5029
872.397	4831
872.526	4797
872.656	4725
872.785	4755
872.915	4923
873.044	5090
873.173	4942
873.303	4984
873.432	4965
873.561	4976
873.69	4877
873.819	4843
873.948	4885
874.077	4812
874.206	4717
874.335	4793
874.464	4942
874.593	5136
874.722	4961
874.851	5098
874.979	5079
875.108	4995
875.237	4911
875.365	4866
875.494	4854
875.623	4946
875.751	4843
875.88	4881
876.008	4976
876.136	4987
876.265	5193
876.393	5345
876.521	5288
876.65	5220
876.778	5162
876.906	5064
877.034	5025
877.162	5064
877.29	5045
877.418	5037
877.546	4995
877.674	5025
877.802	5029
877.93	5037
878.058	4896
878.185	4889
878.313	5006
878.441	4942
878.568	4816
878.696	4927
878.824	4949
878.951	4961
879.079	5132
879.206	5318
879.333	5124
879.461	4927
879.588	5052
879.715	5086
879.842	5239
879.97	4987
880.097	4774
880.224	4706
880.351	4809
880.478	4816
880.605	4790
880.732	4805
880.859	5041
880.986	4892
881.112	4930
881.239	4755
881.366	4645
881.493	4603
881.619	4592
881.746	4645
881.872	4675
881.999	4611
882.125	4698
882.252	4771
882.378	4831
882.505	4953
882.631	4843
882.757	4607
882.883	4687
883.01	4744
883.136	4683
883.262	4569
883.388	4611
883.514	4801
883.64	4828
883.766	4774
883.892	4672
884.018	4736
884.143	4873
884.269	5029
884.395	4698
884.52	4645
884.646	4607
884.772	4565
884.897	4565
885.023	4698
885.148	4721
885.274	4831
885.399	4870
885.524	4721
885.65	4668
885.775	4755
885.9	4706
886.025	4824
886.15	4793
886.275	4733
886.4	4634
886.525	4729
886.65	4668
886.775	4675
886.9	4911
887.025	5029
887.149	4782
887.274	4630
887.399	4580
887.523	4577
887.648	4596
887.773	4603
887.897	4767
888.021	4771
888.146	4694
888.27	4843
888.395	4908
888.519	4816
888.643	4831
888.767	4839
888.891	4672
889.015	4634
889.139	4607
889.263	4637
889.387	4740
889.511	4885
889.635	4782
889.759	4641
889.883	4565
890.006	4717
890.13	4778
890.254	4634
890.377	4656
890.501	4527
890.624	4508
890.748	4603
890.871	4519
890.995	4402
891.118	4432
891.241	4493
891.364	4500
891.488	4599
891.611	4523
891.734	4546
891.857	4588
891.98	4546
892.103	4649
892.226	4607
892.349	4558
892.471	4466
892.594	4538
892.717	4630
892.839	4519
892.962	4565
893.085	4626
893.207	4573
893.33	4466
893.452	4504
893.575	4702
893.697	4558
893.819	4801
893.941	4809
894.064	4771
894.186	4512
894.308	4546
894.43	4721
894.552	4831
894.674	4714
894.796	4550
894.918	4615
895.04	4558
895.161	4698
895.283	4679
895.405	4542
895.526	4660
895.648	4706
895.769	4710
895.891	4698
896.012	4790
896.134	4752
896.255	4687
896.376	4618
896.498	4626
896.619	4710
896.74	4599
896.861	4634
896.982	4896
897.103	5083
897.224	4839
897.345	4710
897.466	4679
897.587	4725
897.708	4843
897.828	4725
897.949	4679
898.07	4542
898.19	4664
898.311	4797
898.431	4637
898.552	4717
898.672	4790
898.792	4797
898.913	4759
899.033	4622
899.153	4493
899.273	4383
899.393	4527
899.513	4500
899.633	4538
899.753	4577
899.873	4474
899.993	4596
900.113	4531
900.232	4622
900.352	4516
900.472	4508
900.591	4371
900.711	4512
900.83	4436
900.95	4637
901.069	4683
901.189	4561
901.308	4337
901.427	4314
901.546	4348
901.665	4462
901.784	4493
901.904	4375
902.023	4295
902.141	4192
902.26	4135
902.379	4303
902.498	4230
902.617	4211
902.735	4371
902.854	4379
902.973	4363
903.091	4211
903.21	4211
903.328	4265
903.446	4253
903.565	4238
903.683	4352
903.801	4242
903.919	4356
904.038	4447
904.156	4299
904.274	4421
904.392	4428
904.51	4459
904.627	4462
904.745	4542
904.863	4645
904.981	4367
905.098	4265
905.216	4341
905.334	4386
905.451	4413
905.569	4390
905.686	4500
905.803	4592
905.921	4413
906.038	4603
906.155	4462
906.272	4371
906.389	4421
906.506	4386
906.623	4356
906.74	4417
906.857	4314
906.974	4394
907.091	4535
907.208	4607
907.324	4573
907.441	4462
907.557	4360
907.674	4333
907.79	4295
907.907	4440
908.023	4481
908.139	4504
908.256	4409
908.372	4500
908.488	4421
908.604	4360
908.72	4333
908.836	4379
908.952	4318
909.068	4428
909.184	4569
909.3	4470
909.415	4550
909.531	4523
909.647	4356
909.762	4409
909.878	4322
909.993	4470
910.108	4402
910.224	4375
910.339	4504
910.454	4394
910.57	4371
910.685	4306
910.8	4668
910.915	4565
911.03	4519
911.145	4356
911.259	4337
911.374	4360
911.489	4341
911.604	4265
911.718	4166
911.833	4230
911.947	4082
912.062	4017
912.176	4211
912.291	4265
912.405	4257
912.519	4508
912.633	4508
912.748	4398
912.862	4375
912.976	4169
913.09	4071
913.204	4169
913.318	4280
913.431	4333
913.545	4379
913.659	4436
913.772	4383
913.886	4207
914	4280
914.113	4367
914.226	4440
914.34	4379
914.453	4219
914.566	4428
914.68	4314
914.793	4344
914.906	4204
915.019	4135
915.132	4055
915.245	4158
915.358	4196
915.47	4200
915.583	4299
915.696	4291
915.809	4379
915.921	4413
916.034	4253
916.146	4253
916.259	4230
916.371	4413
916.483	4398
916.595	4265
916.708	4333
916.82	4287
916.932	4352
917.044	4325
917.156	4329
917.268	4207
917.38	4249
917.491	4276
917.603	4314
917.715	4390
917.826	4428
917.938	4356
918.049	4223
918.161	4421
918.272	4512
918.384	4466
918.495	4470
918.606	4284
918.717	4249
918.828	4337
918.939	4398
919.05	4230
919.161	4325
919.272	4112
919.383	4253
919.494	4436
919.604	4672
919.715	4459
919.826	4360
919.936	4398
920.047	4523
920.157	4527
920.267	4702
920.378	4535
920.488	4546
920.598	4679
920.708	4896
920.818	4809
920.928	4740
921.038	5006
921.148	4885
921.258	4649
921.368	4538
921.477	4485
921.587	4481
921.697	4367
921.806	4546
921.916	4409
922.025	4272
922.134	4249
922.244	4287
922.353	4333
922.462	4166
922.571	4147
922.68	4036
922.789	3937
922.898	4029
923.007	3968
923.116	4086
923.224	4063
923.333	4086
923.442	3972
923.55	4002
923.659	3991
923.767	4097
923.876	3987
923.984	4116
924.092	3949
924.201	4044
924.309	4082
924.417	4128
924.525	4044
924.633	4082
924.741	5064
924.849	3926
924.956	4124
925.064	3975
925.172	3892
925.279	3941
925.387	4021
925.494	4059
925.602	4207
925.709	4204
925.816	4059
925.924	4143
926.031	4230
926.138	4219
926.245	4207
926.352	4082
926.459	4242
926.566	4318
926.673	4188
926.779	4067
926.886	4093
926.993	3960
927.099	3953
927.206	3922
927.312	3956
927.419	4036
927.525	4036
927.631	4105
927.737	3964
927.843	3941
927.95	3854
928.056	3949
928.162	4013
928.267	4040
928.373	4516
928.479	4147
928.585	3915
928.69	4002
928.796	4051
928.901	3979
929.007	3869
929.112	4006
929.218	3964
929.323	3991
929.428	3960
929.533	4101
929.638	3930
929.743	3960
929.848	4040
929.953	3991
930.058	3892
930.163	3800
930.267	3842
930.372	4006
930.477	3808
930.581	4063
930.685	3945
930.79	3800
930.894	3899
930.998	3831
931.103	4036
931.207	3724
931.311	3698
931.415	3644
931.519	3500
931.623	3572
