Data from test_V78500241_135.txt Node
Date: Fri Mar 25 16:49:56 CST 2022
User: usil
Spectrometer: V785-0024
Trigger mode: 0
Integration Time (sec): 4.000000E-1
Scans to average: 1
Nonlinearity correction enabled: false
Boxcar width: 0
Storing dark spectrum: false
XAxis mode: Wavelengths
Number of Pixels in Spectrum: 1024
>>>>>Begin Spectral Data<<<<<
801.071	8092
801.214	8081
801.356	7947
801.499	7894
801.641	7852
801.783	7833
801.926	8031
802.068	8008
802.211	7986
802.353	8039
802.496	7940
802.638	7993
802.78	7959
802.923	7993
803.065	7932
803.208	7822
803.35	8043
803.492	8130
803.635	8176
803.777	8046
803.919	8084
804.061	8396
804.204	8153
804.346	8031
804.488	8024
804.63	8050
804.773	8039
804.915	8142
805.057	8263
805.199	8130
805.341	8195
805.483	8347
805.626	8202
805.768	8088
805.91	8233
806.052	8259
806.194	8130
806.336	8332
806.478	8149
806.62	8138
806.762	8157
806.904	8294
807.046	8480
807.188	8301
807.33	8324
807.472	8393
807.614	8157
807.756	8119
807.898	8031
808.04	7928
808.182	7978
808.324	7947
808.465	7944
808.607	8031
808.749	8123
808.891	8279
809.033	8347
809.174	8309
809.316	8012
809.458	8103
809.6	7959
809.741	8050
809.883	8062
810.025	8187
810.166	8100
810.308	8081
810.45	8084
810.591	7902
810.733	7852
810.875	7666
811.016	7609
811.158	7495
811.299	7700
811.441	7841
811.582	7769
811.724	7636
811.865	7616
812.007	7677
812.148	7677
812.29	7674
812.431	7833
812.573	7997
812.714	8088
812.855	8123
812.997	8358
813.138	8396
813.279	8256
813.421	8221
813.562	8096
813.703	7970
813.845	7772
813.986	7472
814.127	7324
814.268	7316
814.41	7255
814.551	7320
814.692	7209
814.833	7152
814.974	7133
815.115	7190
815.256	7107
815.397	7004
815.539	7012
815.68	6829
815.821	6833
815.962	6913
816.103	6821
816.244	6753
816.385	6662
816.526	6707
816.666	6528
816.807	6384
816.948	6521
817.089	6494
817.23	6506
817.371	6509
817.512	6452
817.653	6403
817.793	6426
817.934	6418
818.075	6486
818.216	6441
818.356	6448
818.497	6315
818.638	6197
818.778	6205
818.919	6155
819.06	6205
819.2	6369
819.341	6353
819.481	6414
819.622	6544
819.762	6787
819.903	6757
820.043	6593
820.184	6604
820.324	6654
820.465	6764
820.605	6719
820.746	6658
820.886	6627
821.026	6692
821.167	6776
821.307	6909
821.447	6802
821.588	6745
821.728	6658
821.868	6528
822.008	6407
822.149	6414
822.289	6433
822.429	6182
822.569	6144
822.709	6125
822.849	5950
822.99	5939
823.13	5988
823.27	5973
823.41	5844
823.55	5817
823.69	5863
823.83	5783
823.97	5699
824.11	5554
824.25	5573
824.389	5611
824.529	5623
824.669	5642
824.809	5676
824.949	5699
825.089	5665
825.228	5615
825.368	5421
825.508	5433
825.648	5410
825.787	5376
825.927	5433
826.067	5345
826.206	5318
826.346	5402
826.485	5459
826.625	5482
826.765	5551
826.904	5482
827.044	5360
827.183	5273
827.323	5132
827.462	5292
827.601	5212
827.741	5261
827.88	5261
828.02	5166
828.159	5280
828.298	5387
828.437	5417
828.577	5376
828.716	5493
828.855	5391
828.994	5181
829.134	5181
829.273	5273
829.412	5204
829.551	5197
829.69	5185
829.829	5303
829.968	5414
830.107	5284
830.246	5292
830.385	5174
830.524	5216
830.663	5124
830.802	5067
830.941	4930
831.08	4946
831.219	5010
831.357	5014
831.496	5189
831.635	5025
831.774	4885
831.913	4881
832.051	4748
832.19	4828
832.329	4896
832.467	4721
832.606	4660
832.744	4748
832.883	4752
833.022	4710
833.16	4820
833.299	4831
833.437	4854
833.576	4908
833.714	4896
833.852	4919
833.991	4930
834.129	5018
834.267	5010
834.406	4911
834.544	4968
834.682	5006
834.821	5022
834.959	5197
835.097	5006
835.235	5181
835.373	5121
835.511	5147
835.65	5083
835.788	5045
835.926	4908
836.064	4900
836.202	4957
836.34	5181
836.478	5246
836.615	5201
836.753	5273
836.891	5330
837.029	5273
837.167	5204
837.305	5246
837.443	5181
837.58	5113
837.718	5280
837.856	5254
837.993	5212
838.131	5277
838.269	5258
838.406	5280
838.544	5231
838.681	5060
838.819	5067
838.956	4946
839.094	4980
839.231	5045
839.369	5109
839.506	5436
839.643	5334
839.781	5121
839.918	5071
840.055	5128
840.193	5159
840.33	5178
840.467	5117
840.604	5216
840.742	5520
840.879	5140
841.016	5140
841.153	5143
841.29	5364
841.427	5357
841.564	5318
841.701	5395
841.838	5288
841.975	5254
842.112	5330
842.249	5178
842.385	5113
842.522	5315
842.659	5212
842.796	5197
842.933	5189
843.069	5212
843.206	5204
843.343	5337
843.479	5239
843.616	5341
843.752	5060
843.889	5052
844.025	5223
844.162	5079
844.298	5299
844.435	5102
844.571	5090
844.708	5299
844.844	5372
844.98	5398
845.117	5307
845.253	5162
845.389	5147
845.525	5151
845.661	5197
845.798	5071
845.934	5208
846.07	5083
846.206	5223
846.342	5326
846.478	5227
846.614	5048
846.75	5064
846.886	5006
847.022	5174
847.158	5094
847.294	5166
847.429	5166
847.565	5113
847.701	5376
847.837	4889
847.972	4835
848.108	5041
848.244	4949
848.379	4854
848.515	4714
848.65	4763
848.786	4839
848.921	4835
849.057	4911
849.192	4938
849.328	4873
849.463	4870
849.598	4839
849.734	4790
849.869	4702
850.004	4645
850.14	4637
850.275	4615
850.41	4622
850.545	4611
850.68	4672
850.815	4611
850.95	4649
851.085	4881
851.22	4805
851.355	4740
851.49	4637
851.625	4683
851.76	4683
851.895	4603
852.03	4569
852.165	4698
852.299	4683
852.434	4816
852.569	4786
852.703	4839
852.838	4892
852.973	4968
853.107	4980
853.242	4774
853.376	4736
853.511	4592
853.645	4645
853.78	4889
853.914	4721
854.048	4694
854.183	4725
854.317	4736
854.451	4904
854.585	4729
854.72	4656
854.854	4778
854.988	4656
855.122	4721
855.256	4538
855.39	4714
855.524	4824
855.658	4729
855.792	4725
855.926	4725
856.06	4805
856.194	4839
856.327	4710
856.461	4641
856.595	4622
856.729	4717
856.862	4816
856.996	4755
857.13	4797
857.263	4816
857.397	4839
857.53	4675
857.664	4744
857.797	4835
857.931	4824
858.064	4729
858.197	4740
858.331	4668
858.464	4622
858.597	4542
858.731	4641
858.864	4714
858.997	4660
859.13	4721
859.263	4725
859.396	4725
859.529	4656
859.662	4592
859.795	4584
859.928	4634
860.061	4809
860.194	4767
860.327	4641
860.46	4580
860.592	4729
860.725	4767
860.858	4698
860.99	4599
861.123	4580
861.256	4512
861.388	4649
861.521	5482
861.653	4508
861.786	4470
861.918	4508
862.05	4546
862.183	4596
862.315	4641
862.447	4683
862.58	4531
862.712	4470
862.844	4314
862.976	4493
863.108	4466
863.24	4915
863.372	4322
863.504	4432
863.636	4417
863.768	4516
863.9	4447
864.032	4379
864.164	4386
864.296	4432
864.428	4558
864.559	4599
864.691	4588
864.823	4569
864.954	4542
865.086	4478
865.217	4550
865.349	4478
865.48	4516
865.612	4535
865.743	4603
865.875	4497
866.006	4447
866.137	4531
866.269	4440
866.4	4504
866.531	4440
866.662	4367
866.793	4504
866.924	4409
867.055	4565
867.186	4485
867.317	4447
867.448	4440
867.579	4398
867.71	4394
867.841	4459
867.972	4489
868.103	4508
868.233	4489
868.364	4466
868.495	4573
868.625	4672
868.756	4767
868.886	4588
869.017	4660
869.147	4824
869.278	4801
869.408	4744
869.539	4679
869.669	4729
869.799	4691
869.929	4786
870.06	4793
870.19	5003
870.32	4961
870.45	4984
870.58	5056
870.71	5117
870.84	5143
870.97	5010
871.1	4885
871.23	5204
871.36	5178
871.489	5075
871.619	5083
871.749	5079
871.879	5174
872.008	5212
872.138	5098
872.267	5029
872.397	4847
872.526	4835
872.656	4706
872.785	4805
872.915	4961
873.044	5067
873.173	4984
873.303	5018
873.432	4999
873.561	4980
873.69	4900
873.819	4858
873.948	4896
874.077	4835
874.206	4786
874.335	4839
874.464	4961
874.593	5064
874.722	4999
874.851	5128
874.979	5067
875.108	5025
875.237	4946
875.365	4828
875.494	4919
875.623	5006
875.751	4870
875.88	4946
876.008	5029
876.136	5064
876.265	5242
876.393	5349
876.521	5258
876.65	5223
876.778	5147
876.906	5086
877.034	5056
877.162	5079
877.29	4965
877.418	5079
877.546	5083
877.674	5056
877.802	5064
877.93	5018
878.058	4976
878.185	4923
878.313	4968
878.441	4995
878.568	4824
878.696	4881
878.824	4976
878.951	4991
879.079	5124
879.206	5254
879.333	5136
879.461	4976
879.588	5113
879.715	5136
879.842	5258
879.97	5025
880.097	4801
880.224	4752
880.351	4839
880.478	4873
880.605	4797
880.732	4797
880.859	5121
880.986	4919
881.112	4961
881.239	4774
881.366	4721
881.493	4626
881.619	4637
881.746	4634
881.872	4691
881.999	4683
882.125	4725
882.252	4805
882.378	4824
882.505	4976
882.631	4831
882.757	4744
882.883	4759
883.01	4736
883.136	4717
883.262	4630
883.388	4588
883.514	4831
883.64	4942
883.766	4774
883.892	4694
884.018	4736
884.143	4915
884.269	5079
884.395	4744
884.52	4630
884.646	4668
884.772	4618
884.897	4626
885.023	4755
885.148	4831
885.274	4805
885.399	4839
885.524	4683
885.65	4725
885.775	4771
885.9	4687
886.025	4889
886.15	4771
886.275	4805
886.4	4641
886.525	4778
886.65	4702
886.775	4736
886.9	4965
887.025	5060
887.149	4831
887.274	4672
887.399	4603
887.523	4580
887.648	4615
887.773	4599
887.897	4774
888.021	4824
888.146	4698
888.27	4835
888.395	4949
888.519	4835
888.643	4870
888.767	4847
888.891	4702
889.015	4607
889.139	4683
889.263	4653
889.387	4820
889.511	4870
889.635	4835
889.759	4645
889.883	4626
890.006	4702
890.13	4824
890.254	4660
890.377	4637
890.501	4554
890.624	4527
890.748	4637
890.871	4542
890.995	4497
891.118	4417
891.241	4535
891.364	4580
891.488	4679
891.611	4516
891.734	4550
891.857	4634
891.98	4592
892.103	4706
892.226	4641
892.349	4561
892.471	4436
892.594	4538
892.717	4596
892.839	4538
892.962	4584
893.085	4672
893.207	4630
893.33	4497
893.452	4561
893.575	4725
893.697	4611
893.819	4805
893.941	4870
894.064	4774
894.186	4592
894.308	4603
894.43	4755
894.552	4816
894.674	4748
894.796	4596
894.918	4565
895.04	4607
895.161	4706
895.283	4668
895.405	4618
895.526	4679
895.648	4698
895.769	4668
895.891	4721
896.012	4744
896.134	4714
896.255	4664
896.376	4637
896.498	4664
896.619	4668
896.74	4615
896.861	4698
896.982	4953
897.103	5064
897.224	4839
897.345	4763
897.466	4664
897.587	4755
897.708	4854
897.828	4767
897.949	4687
898.07	4565
898.19	4641
898.311	4850
898.431	4664
898.552	4717
898.672	4797
898.792	4820
898.913	4744
899.033	4603
899.153	4519
899.273	4443
899.393	4523
899.513	4546
899.633	4500
899.753	4592
899.873	4535
899.993	4626
900.113	4592
900.232	4641
900.352	4558
900.472	4508
900.591	4402
900.711	4538
900.83	4436
900.95	4603
901.069	4698
901.189	4558
901.308	4356
901.427	4325
901.546	4421
901.665	4489
901.784	4535
901.904	4417
902.023	4303
902.141	4200
902.26	4223
902.379	4371
902.498	4249
902.617	4253
902.735	4390
902.854	4424
902.973	4409
903.091	4234
903.21	4291
903.328	4265
903.446	4276
903.565	4261
903.683	4447
903.801	4284
903.919	4440
904.038	4470
904.156	4386
904.274	4447
904.392	4462
904.51	4462
904.627	4474
904.745	4611
904.863	4668
904.981	4379
905.098	4325
905.216	4375
905.334	4432
905.451	4428
905.569	4455
905.686	4592
905.803	4626
905.921	4432
906.038	4580
906.155	4470
906.272	4379
906.389	4443
906.506	4367
906.623	4348
906.74	4379
906.857	4333
906.974	4417
907.091	4550
907.208	4683
907.324	4584
907.441	4478
907.557	4367
907.674	4394
907.79	4322
907.907	4390
908.023	4497
908.139	4481
908.256	4478
908.372	4523
908.488	4459
908.604	4379
908.72	4325
908.836	4413
908.952	4417
909.068	4447
909.184	4588
909.3	4493
909.415	4596
909.531	4538
909.647	4394
909.762	4375
909.878	4405
909.993	4432
910.108	4417
910.224	4402
910.339	4550
910.454	4405
910.57	4341
910.685	4337
910.8	4729
910.915	4649
911.03	4535
911.145	4371
911.259	4352
911.374	4432
911.489	4314
911.604	4329
911.718	4219
911.833	4192
911.947	4086
912.062	4067
912.176	4215
912.291	4242
912.405	4265
912.519	4478
912.633	4542
912.748	4367
912.862	4341
912.976	4204
913.09	4109
913.204	4196
913.318	4322
913.431	4379
913.545	4383
913.659	4447
913.772	4348
913.886	4322
914	4162
914.113	4424
914.226	4432
914.34	4413
914.453	4280
914.566	4398
914.68	4318
914.793	4337
914.906	4192
915.019	4200
915.132	4082
915.245	4192
915.358	4230
915.47	4268
915.583	4299
915.696	4314
915.809	4394
915.921	4436
916.034	4268
916.146	4265
916.259	4242
916.371	4402
916.483	4367
916.595	4295
916.708	4322
916.82	4344
916.932	4352
917.044	4333
917.156	4337
917.268	4257
917.38	4268
917.491	4314
917.603	4341
917.715	4466
917.826	4462
917.938	4356
918.049	4192
918.161	4402
918.272	4565
918.384	4558
918.495	4474
918.606	4280
918.717	4230
918.828	4325
918.939	4360
919.05	4284
919.161	4356
919.272	4169
919.383	4257
919.494	4478
919.604	4630
919.715	4474
919.826	4379
919.936	4409
920.047	4565
920.157	4470
920.267	4698
920.378	4577
920.488	4493
920.598	4748
920.708	4908
920.818	4778
920.928	4778
921.038	4923
921.148	4930
921.258	4645
921.368	4584
921.477	4516
921.587	4500
921.697	4394
921.806	4565
921.916	4455
922.025	4291
922.134	4299
922.244	4215
922.353	4344
922.462	4234
922.571	4055
922.68	3998
922.789	4002
922.898	4078
923.007	3991
923.116	4131
923.224	4112
923.333	4036
923.442	3991
923.55	3994
923.659	4040
923.767	4131
923.876	3998
923.984	4143
924.092	3972
924.201	4150
924.309	4124
924.417	4147
924.525	4078
924.633	4112
924.741	4904
924.849	3960
924.956	4120
925.064	3918
925.172	3926
925.279	3972
925.387	4109
925.494	4101
925.602	4249
925.709	4219
925.816	4036
925.924	4162
926.031	4219
926.138	4154
926.245	4207
926.352	4112
926.459	4310
926.566	4284
926.673	4166
926.779	4116
926.886	4147
926.993	4017
927.099	3956
927.206	3972
927.312	3930
927.419	4040
927.525	4044
927.631	4150
927.737	3968
927.843	3968
927.95	3850
928.056	3964
928.162	4017
928.267	4071
928.373	4611
928.479	4150
928.585	3899
928.69	3994
928.796	4063
928.901	3941
929.007	3850
929.112	4044
929.218	3987
929.323	4013
929.428	3941
929.533	4131
929.638	3941
929.743	3922
929.848	4055
929.953	4040
930.058	3945
930.163	3785
930.267	3880
930.372	4029
930.477	3854
930.581	4158
930.685	3918
930.79	3850
930.894	3899
930.998	3861
931.103	4055
931.207	3720
931.311	3713
931.415	3652
931.519	3538
931.623	3576
