Data from test_V78500241_1123.txt Node
Date: Fri Mar 25 16:56:48 CST 2022
User: usil
Spectrometer: V785-0024
Trigger mode: 0
Integration Time (sec): 4.000000E-1
Scans to average: 1
Nonlinearity correction enabled: false
Boxcar width: 0
Storing dark spectrum: false
XAxis mode: Wavelengths
Number of Pixels in Spectrum: 1024
>>>>>Begin Spectral Data<<<<<
801.071	8081
801.214	8024
801.356	7894
801.499	7879
801.641	7795
801.783	7780
801.926	7936
802.068	7955
802.211	7947
802.353	7951
802.496	7860
802.638	7799
802.78	7879
802.923	7890
803.065	7856
803.208	7883
803.35	7993
803.492	8054
803.635	8168
803.777	8081
803.919	8138
804.061	8495
804.204	8172
804.346	8058
804.488	7989
804.63	8065
804.773	8054
804.915	8084
805.057	8271
805.199	8100
805.341	8248
805.483	8347
805.626	8145
805.768	8081
805.91	8229
806.052	8214
806.194	8081
806.336	8355
806.478	8100
806.62	8088
806.762	8138
806.904	8267
807.046	8404
807.188	8301
807.33	8271
807.472	8313
807.614	8149
807.756	8183
807.898	7986
808.04	7906
808.182	7887
808.324	7982
808.465	7928
808.607	8035
808.749	8100
808.891	8210
809.033	8237
809.174	8214
809.316	8096
809.458	8031
809.6	7986
809.741	8008
809.883	8001
810.025	8069
810.166	8062
810.308	7982
810.45	8054
810.591	7868
810.733	7712
810.875	7632
811.016	7453
811.158	7464
811.299	7624
811.441	7719
811.582	7666
811.724	7529
811.865	7518
812.007	7544
812.148	7548
812.29	7567
812.431	7753
812.573	7875
812.714	7944
812.855	8145
812.997	8161
813.138	8290
813.279	8157
813.421	8069
813.562	7963
813.703	7913
813.845	7780
813.986	7460
814.127	7289
814.268	7183
814.41	7221
814.551	7194
814.692	7129
814.833	7065
814.974	7099
815.115	7072
815.256	6951
815.397	6939
815.539	6958
815.68	6802
815.821	6772
815.962	6859
816.103	6798
816.244	6764
816.385	6642
816.526	6650
816.666	6452
816.807	6300
816.948	6456
817.089	6467
817.23	6483
817.371	6369
817.512	6418
817.653	6418
817.793	6380
817.934	6403
818.075	6456
818.216	6369
818.356	6403
818.497	6224
818.638	6129
818.778	6190
818.919	6205
819.06	6178
819.2	6331
819.341	6338
819.481	6338
819.622	6517
819.762	6681
819.903	6650
820.043	6540
820.184	6551
820.324	6578
820.465	6654
820.605	6650
820.746	6574
820.886	6475
821.026	6582
821.167	6700
821.307	6783
821.447	6757
821.588	6707
821.728	6544
821.868	6494
822.008	6296
822.149	6334
822.289	6342
822.429	6106
822.569	6057
822.709	6129
822.849	5904
822.99	5942
823.13	5912
823.27	5920
823.41	5714
823.55	5794
823.69	5767
823.83	5760
823.97	5657
824.11	5493
824.25	5543
824.389	5509
824.529	5577
824.669	5524
824.809	5608
824.949	5634
825.089	5657
825.228	5509
825.368	5357
825.508	5376
825.648	5345
825.787	5349
825.927	5414
826.067	5315
826.206	5307
826.346	5402
826.485	5315
826.625	5402
826.765	5570
826.904	5509
827.044	5258
827.183	5189
827.323	5102
827.462	5181
827.601	5162
827.741	5220
827.88	5193
828.02	5121
828.159	5258
828.298	5292
828.437	5322
828.577	5231
828.716	5497
828.855	5315
828.994	5143
829.134	5174
829.273	5193
829.412	5147
829.551	5121
829.69	5193
829.829	5239
829.968	5368
830.107	5280
830.246	5231
830.385	5201
830.524	5083
830.663	5075
830.802	4953
830.941	4862
831.08	4854
831.219	4987
831.357	4942
831.496	5121
831.635	4889
831.774	4862
831.913	4847
832.051	4710
832.19	4755
832.329	4828
832.467	4675
832.606	4622
832.744	4698
832.883	4706
833.022	4763
833.16	4744
833.299	4828
833.437	4847
833.576	4797
833.714	4889
833.852	4824
833.991	4889
834.129	4987
834.267	4980
834.406	4896
834.544	4942
834.682	4949
834.821	4972
834.959	5159
835.097	4984
835.235	5083
835.373	5041
835.511	5086
835.65	5018
835.788	5010
835.926	4870
836.064	4881
836.202	4904
836.34	5140
836.478	5273
836.615	5121
836.753	5193
836.891	5212
837.029	5277
837.167	5143
837.305	5117
837.443	5128
837.58	5064
837.718	5231
837.856	5181
837.993	5143
838.131	5212
838.269	5151
838.406	5227
838.544	5178
838.681	5033
838.819	5006
838.956	4870
839.094	4866
839.231	4938
839.369	5048
839.506	5372
839.643	5216
839.781	5052
839.918	5029
840.055	5086
840.193	5075
840.33	5079
840.467	5121
840.604	5181
840.742	5421
840.879	5075
841.016	5083
841.153	5136
841.29	5357
841.427	5330
841.564	5303
841.701	5334
841.838	5277
841.975	5246
842.112	5250
842.249	5128
842.385	5060
842.522	5303
842.659	5212
842.796	5140
842.933	5136
843.069	5197
843.206	5155
843.343	5326
843.479	5250
843.616	5250
843.752	5018
843.889	5041
844.025	5189
844.162	4965
844.298	5201
844.435	5018
844.571	5041
844.708	5162
844.844	5288
844.98	5303
845.117	5292
845.253	5121
845.389	5022
845.525	5143
845.661	5124
845.798	5029
845.934	5132
846.07	5033
846.206	5181
846.342	5239
846.478	5113
846.614	5052
846.75	4987
846.886	4908
847.022	5132
847.158	4999
847.294	5060
847.429	5124
847.565	5052
847.701	5357
847.837	4824
847.972	4793
848.108	4984
848.244	4919
848.379	4752
848.515	4679
848.65	4736
848.786	4752
848.921	4710
849.057	4911
849.192	4870
849.328	4790
849.463	4854
849.598	4710
849.734	4755
849.869	4649
850.004	4641
850.14	4626
850.275	4569
850.41	4523
850.545	4565
850.68	4580
850.815	4599
850.95	4683
851.085	4850
851.22	4702
851.355	4641
851.49	4641
851.625	4603
851.76	4634
851.895	4550
852.03	4500
852.165	4656
852.299	4710
852.434	4782
852.569	4710
852.703	4790
852.838	4858
852.973	4889
853.107	4866
853.242	4725
853.376	4668
853.511	4527
853.645	4596
853.78	4774
853.914	4683
854.048	4634
854.183	4634
854.317	4691
854.451	4854
854.585	4656
854.72	4622
854.854	4733
854.988	4527
855.122	4656
855.256	4508
855.39	4637
855.524	4736
855.658	4714
855.792	4679
855.926	4714
856.06	4740
856.194	4805
856.327	4675
856.461	4577
856.595	4626
856.729	4618
856.862	4793
856.996	4660
857.13	4748
857.263	4748
857.397	4797
857.53	4634
857.664	4679
857.797	4710
857.931	4755
858.064	4714
858.197	4771
858.331	4626
858.464	4580
858.597	4508
858.731	4641
858.864	4634
858.997	4596
859.13	4660
859.263	4656
859.396	4653
859.529	4561
859.662	4584
859.795	4485
859.928	4603
860.061	4763
860.194	4793
860.327	4596
860.46	4546
860.592	4691
860.725	4748
860.858	4744
860.99	4531
861.123	4519
861.256	4504
861.388	4599
861.521	5269
861.653	4516
861.786	4432
861.918	4470
862.05	4481
862.183	4561
862.315	4611
862.447	4615
862.58	4527
862.712	4383
862.844	4310
862.976	4478
863.108	4440
863.24	4812
863.372	4322
863.504	4383
863.636	4409
863.768	4485
863.9	4405
864.032	4375
864.164	4405
864.296	4462
864.428	4523
864.559	4561
864.691	4538
864.823	4470
864.954	4489
865.086	4516
865.217	4474
865.349	4402
865.48	4489
865.612	4470
865.743	4577
865.875	4516
866.006	4390
866.137	4459
866.269	4421
866.4	4440
866.531	4436
866.662	4371
866.793	4352
866.924	4421
867.055	4474
867.186	4424
867.317	4375
867.448	4356
867.579	4398
867.71	4379
867.841	4363
867.972	4417
868.103	4466
868.233	4421
868.364	4424
868.495	4470
868.625	4679
868.756	4782
868.886	4558
869.017	4596
869.147	4767
869.278	4763
869.408	4656
869.539	4634
869.669	4698
869.799	4611
869.929	4755
870.06	4755
870.19	4965
870.32	4896
870.45	4892
870.58	4991
870.71	5045
870.84	5067
870.97	4934
871.1	4847
871.23	5105
871.36	5113
871.489	4980
871.619	5071
871.749	5086
871.879	5098
872.008	5223
872.138	5018
872.267	4984
872.397	4771
872.526	4793
872.656	4721
872.785	4744
872.915	4946
873.044	4980
873.173	4915
873.303	4915
873.432	4904
873.561	4911
873.69	4881
873.819	4774
873.948	4908
874.077	4755
874.206	4679
874.335	4824
874.464	4927
874.593	5041
874.722	4991
874.851	5060
874.979	5071
875.108	5052
875.237	4911
875.365	4843
875.494	4854
875.623	4946
875.751	4790
875.88	4873
876.008	4972
876.136	4995
876.265	5189
876.393	5349
876.521	5250
876.65	5197
876.778	5128
876.906	5037
877.034	4999
877.162	5048
877.29	4965
877.418	5052
877.546	5060
877.674	5025
877.802	5003
877.93	4995
878.058	4946
878.185	4866
878.313	5014
878.441	4946
878.568	4850
878.696	4877
878.824	4942
878.951	4953
879.079	5105
879.206	5284
879.333	5094
879.461	4984
879.588	5018
879.715	5071
879.842	5227
879.97	4949
880.097	4763
880.224	4759
880.351	4816
880.478	4828
880.605	4778
880.732	4801
880.859	5090
880.986	4896
881.112	4870
881.239	4767
881.366	4645
881.493	4584
881.619	4558
881.746	4649
881.872	4664
881.999	4622
882.125	4675
882.252	4790
882.378	4774
882.505	4934
882.631	4763
882.757	4691
882.883	4721
883.01	4729
883.136	4611
883.262	4569
883.388	4592
883.514	4797
883.64	4828
883.766	4774
883.892	4672
884.018	4759
884.143	4889
884.269	5014
884.395	4653
884.52	4584
884.646	4615
884.772	4558
884.897	4569
885.023	4679
885.148	4809
885.274	4854
885.399	4801
885.524	4675
885.65	4714
885.775	4710
885.9	4683
886.025	4870
886.15	4748
886.275	4717
886.4	4656
886.525	4675
886.65	4694
886.775	4664
886.9	4881
887.025	4953
887.149	4774
887.274	4653
887.399	4542
887.523	4569
887.648	4546
887.773	4569
887.897	4793
888.021	4714
888.146	4672
888.27	4812
888.395	4892
888.519	4752
888.643	4790
888.767	4816
888.891	4702
889.015	4618
889.139	4691
889.263	4607
889.387	4698
889.511	4809
889.635	4805
889.759	4630
889.883	4653
890.006	4725
890.13	4809
890.254	4550
890.377	4683
890.501	4538
890.624	4478
890.748	4618
890.871	4485
890.995	4436
891.118	4356
891.241	4489
891.364	4573
891.488	4580
891.611	4523
891.734	4466
891.857	4603
891.98	4558
892.103	4603
892.226	4558
892.349	4497
892.471	4413
892.594	4535
892.717	4630
892.839	4573
892.962	4580
893.085	4630
893.207	4550
893.33	4455
893.452	4516
893.575	4626
893.697	4569
893.819	4763
893.941	4774
894.064	4767
894.186	4535
894.308	4596
894.43	4725
894.552	4835
894.674	4759
894.796	4500
894.918	4603
895.04	4603
895.161	4634
895.283	4656
895.405	4538
895.526	4615
895.648	4702
895.769	4656
895.891	4725
896.012	4702
896.134	4714
896.255	4653
896.376	4626
896.498	4577
896.619	4694
896.74	4618
896.861	4672
896.982	4961
897.103	5060
897.224	4858
897.345	4733
897.466	4649
897.587	4748
897.708	4847
897.828	4752
897.949	4660
898.07	4550
898.19	4660
898.311	4850
898.431	4691
898.552	4774
898.672	4801
898.792	4782
898.913	4744
899.033	4634
899.153	4508
899.273	4455
899.393	4443
899.513	4565
899.633	4497
899.753	4531
899.873	4504
899.993	4580
900.113	4546
900.232	4580
900.352	4508
900.472	4558
900.591	4390
900.711	4485
900.83	4443
900.95	4580
901.069	4653
901.189	4478
901.308	4379
901.427	4284
901.546	4348
901.665	4485
901.784	4508
901.904	4367
902.023	4322
902.141	4143
902.26	4162
902.379	4287
902.498	4253
902.617	4238
902.735	4348
902.854	4390
902.973	4325
903.091	4230
903.21	4200
903.328	4322
903.446	4272
903.565	4265
903.683	4363
903.801	4253
903.919	4375
904.038	4443
904.156	4299
904.274	4424
904.392	4356
904.51	4451
904.627	4436
904.745	4577
904.863	4656
904.981	4383
905.098	4291
905.216	4303
905.334	4447
905.451	4421
905.569	4379
905.686	4561
905.803	4554
905.921	4428
906.038	4512
906.155	4455
906.272	4390
906.389	4455
906.506	4329
906.623	4352
906.74	4341
906.857	4295
906.974	4371
907.091	4577
907.208	4664
907.324	4603
907.441	4440
907.557	4371
907.674	4318
907.79	4341
907.907	4394
908.023	4478
908.139	4481
908.256	4413
908.372	4436
908.488	4462
908.604	4344
908.72	4276
908.836	4352
908.952	4363
909.068	4417
909.184	4554
909.3	4508
909.415	4592
909.531	4569
909.647	4344
909.762	4360
909.878	4417
909.993	4440
910.108	4348
910.224	4409
910.339	4474
910.454	4447
910.57	4390
910.685	4295
910.8	4596
910.915	4561
911.03	4508
911.145	4333
911.259	4379
911.374	4352
911.489	4329
911.604	4291
911.718	4169
911.833	4188
911.947	4055
912.062	4010
912.176	4188
912.291	4223
912.405	4265
912.519	4485
912.633	4485
912.748	4348
912.862	4276
912.976	4234
913.09	4086
913.204	4166
913.318	4234
913.431	4322
913.545	4329
913.659	4417
913.772	4375
913.886	4223
914	4215
914.113	4360
914.226	4447
914.34	4356
914.453	4276
914.566	4428
914.68	4284
914.793	4272
914.906	4128
915.019	4090
915.132	4059
915.245	4196
915.358	4135
915.47	4177
915.583	4246
915.696	4287
915.809	4402
915.921	4417
916.034	4249
916.146	4246
916.259	4192
916.371	4318
916.483	4379
916.595	4257
916.708	4318
916.82	4341
916.932	4295
917.044	4329
917.156	4360
917.268	4204
917.38	4295
917.491	4246
917.603	4367
917.715	4421
917.826	4417
917.938	4314
918.049	4276
918.161	4367
918.272	4542
918.384	4493
918.495	4466
918.606	4325
918.717	4257
918.828	4314
918.939	4337
919.05	4215
919.161	4318
919.272	4116
919.383	4204
919.494	4451
919.604	4615
919.715	4432
919.826	4306
919.936	4390
920.047	4519
920.157	4489
920.267	4656
920.378	4565
920.488	4500
920.598	4702
920.708	4915
920.818	4744
920.928	4786
921.038	4930
921.148	4934
921.258	4626
921.368	4531
921.477	4500
921.587	4508
921.697	4394
921.806	4573
921.916	4375
922.025	4238
922.134	4215
922.244	4173
922.353	4314
922.462	4158
922.571	4139
922.68	3968
922.789	3960
922.898	4006
923.007	3979
923.116	4109
923.224	4059
923.333	3991
923.442	3964
923.55	3983
923.659	4002
923.767	4093
923.876	3998
923.984	4150
924.092	3956
924.201	4090
924.309	4063
924.417	4158
924.525	4055
924.633	4112
924.741	4995
924.849	3876
924.956	4090
925.064	3960
925.172	3884
925.279	3918
925.387	4025
925.494	4044
925.602	4219
925.709	4223
925.816	3994
925.924	4120
926.031	4242
926.138	4116
926.245	4207
926.352	4078
926.459	4265
926.566	4257
926.673	4143
926.779	4071
926.886	4097
926.993	3953
927.099	3926
927.206	3983
927.312	3937
927.419	4006
927.525	4032
927.631	4059
927.737	3915
927.843	3896
927.95	3823
928.056	3915
928.162	3972
928.267	4082
928.373	4675
928.479	4097
928.585	3880
928.69	4010
928.796	4074
928.901	3945
929.007	3876
929.112	4032
929.218	4006
929.323	3873
929.428	3960
929.533	4090
929.638	3884
929.743	3979
929.848	4021
929.953	3956
930.058	3899
930.163	3728
930.267	3838
930.372	3945
930.477	3797
930.581	4078
930.685	3934
930.79	3873
930.894	3892
930.998	3869
931.103	4013
931.207	3743
931.311	3682
931.415	3675
931.519	3515
931.623	3542
