Data from test_V78500241_2255.txt Node
Date: Fri Mar 25 17:04:40 CST 2022
User: usil
Spectrometer: V785-0024
Trigger mode: 0
Integration Time (sec): 4.000000E-1
Scans to average: 1
Nonlinearity correction enabled: false
Boxcar width: 0
Storing dark spectrum: false
XAxis mode: Wavelengths
Number of Pixels in Spectrum: 1024
>>>>>Begin Spectral Data<<<<<
801.071	7970
801.214	7993
801.356	7871
801.499	7871
801.641	7769
801.783	7792
801.926	7963
802.068	7963
802.211	7967
802.353	7970
802.496	7860
802.638	7902
802.78	7849
802.923	7963
803.065	7955
803.208	7833
803.35	7928
803.492	8058
803.635	8138
803.777	8050
803.919	8115
804.061	8434
804.204	8191
804.346	8084
804.488	7959
804.63	8035
804.773	8024
804.915	8123
805.057	8221
805.199	8210
805.341	8149
805.483	8202
805.626	8237
805.768	8229
805.91	8233
806.052	8263
806.194	8100
806.336	8336
806.478	8111
806.62	8046
806.762	8138
806.904	8290
807.046	8400
807.188	8339
807.33	8332
807.472	8358
807.614	8191
807.756	8115
807.898	8046
808.04	7845
808.182	7932
808.324	7883
808.465	7909
808.607	8046
808.749	8115
808.891	8202
809.033	8286
809.174	8252
809.316	8065
809.458	8130
809.6	7940
809.741	8035
809.883	8020
810.025	8096
810.166	7993
810.308	7974
810.45	7997
810.591	7841
810.733	7761
810.875	7655
811.016	7544
811.158	7506
811.299	7571
811.441	7647
811.582	7628
811.724	7632
811.865	7571
812.007	7613
812.148	7544
812.29	7693
812.431	7723
812.573	7917
812.714	8039
812.855	8142
812.997	8191
813.138	8271
813.279	8115
813.421	8016
813.562	7940
813.703	7887
813.845	7734
813.986	7411
814.127	7285
814.268	7171
814.41	7263
814.551	7160
814.692	7297
814.833	7080
814.974	7061
815.115	7114
815.256	6977
815.397	6928
815.539	6897
815.68	6749
815.821	6757
815.962	6859
816.103	6844
816.244	6688
816.385	6642
816.526	6646
816.666	6506
816.807	6300
816.948	6422
817.089	6464
817.23	6464
817.371	6369
817.512	6376
817.653	6418
817.793	6380
817.934	6342
818.075	6494
818.216	6448
818.356	6429
818.497	6228
818.638	6163
818.778	6152
818.919	6155
819.06	6224
819.2	6262
819.341	6323
819.481	6346
819.622	6536
819.762	6753
819.903	6707
820.043	6604
820.184	6612
820.324	6589
820.465	6722
820.605	6631
820.746	6642
820.886	6593
821.026	6642
821.167	6738
821.307	6875
821.447	6795
821.588	6677
821.728	6532
821.868	6483
822.008	6376
822.149	6369
822.289	6311
822.429	6197
822.569	6079
822.709	6133
822.849	5939
822.99	5882
823.13	5916
823.27	5897
823.41	5779
823.55	5790
823.69	5760
823.83	5737
823.97	5646
824.11	5474
824.25	5471
824.389	5535
824.529	5589
824.669	5512
824.809	5627
824.949	5604
825.089	5600
825.228	5558
825.368	5387
825.508	5326
825.648	5318
825.787	5360
825.927	5387
826.067	5315
826.206	5261
826.346	5387
826.485	5360
826.625	5410
826.765	5532
826.904	5463
827.044	5307
827.183	5197
827.323	5117
827.462	5216
827.601	5155
827.741	5220
827.88	5227
828.02	5105
828.159	5227
828.298	5299
828.437	5364
828.577	5315
828.716	5459
828.855	5284
828.994	5147
829.134	5185
829.273	5185
829.412	5143
829.551	5136
829.69	5128
829.829	5269
829.968	5387
830.107	5242
830.246	5227
830.385	5216
830.524	5140
830.663	5075
830.802	4961
830.941	4850
831.08	4862
831.219	5045
831.357	4949
831.496	5159
831.635	4911
831.774	4839
831.913	4858
832.051	4748
832.19	4752
832.329	4820
832.467	4702
832.606	4630
832.744	4714
832.883	4736
833.022	4710
833.16	4793
833.299	4790
833.437	4839
833.576	4858
833.714	4820
833.852	4850
833.991	4885
834.129	4900
834.267	4911
834.406	4919
834.544	4930
834.682	4991
834.821	4946
834.959	5147
835.097	4972
835.235	5117
835.373	5079
835.511	5090
835.65	4995
835.788	4984
835.926	4919
836.064	4828
836.202	4892
836.34	5151
836.478	5178
836.615	5140
836.753	5223
836.891	5246
837.029	5239
837.167	5181
837.305	5166
837.443	5204
837.58	5045
837.718	5254
837.856	5166
837.993	5162
838.131	5212
838.269	5201
838.406	5197
838.544	5136
838.681	5022
838.819	4991
838.956	4927
839.094	4904
839.231	4999
839.369	5033
839.506	5395
839.643	5216
839.781	5071
839.918	5014
840.055	5086
840.193	5132
840.33	5090
840.467	5136
840.604	5197
840.742	5478
840.879	5094
841.016	5090
841.153	5151
841.29	5353
841.427	5341
841.564	5280
841.701	5357
841.838	5315
841.975	5235
842.112	5280
842.249	5117
842.385	5098
842.522	5265
842.659	5181
842.796	5113
842.933	5159
843.069	5147
843.206	5185
843.343	5242
843.479	5246
843.616	5269
843.752	5025
843.889	4949
844.025	5216
844.162	5029
844.298	5201
844.435	5075
844.571	5022
844.708	5140
844.844	5292
844.98	5318
845.117	5330
845.253	5124
845.389	5140
845.525	5121
845.661	5193
845.798	4980
845.934	5143
846.07	4995
846.206	5204
846.342	5307
846.478	5197
846.614	5022
846.75	4953
846.886	4961
847.022	5155
847.158	5006
847.294	5071
847.429	5140
847.565	5060
847.701	5261
847.837	4839
847.972	4790
848.108	4934
848.244	4938
848.379	4778
848.515	4691
848.65	4725
848.786	4736
848.921	4820
849.057	4816
849.192	4911
849.328	4778
849.463	4809
849.598	4748
849.734	4786
849.869	4755
850.004	4653
850.14	4626
850.275	4596
850.41	4508
850.545	4546
850.68	4542
850.815	4622
850.95	4683
851.085	4881
851.22	4740
851.355	4672
851.49	4577
851.625	4615
851.76	4584
851.895	4565
852.03	4546
852.165	4645
852.299	4679
852.434	4729
852.569	4725
852.703	4774
852.838	4828
852.973	4923
853.107	4915
853.242	4679
853.376	4618
853.511	4489
853.645	4611
853.78	4812
853.914	4634
854.048	4637
854.183	4649
854.317	4706
854.451	4835
854.585	4634
854.72	4626
854.854	4752
854.988	4607
855.122	4630
855.256	4523
855.39	4615
855.524	4801
855.658	4672
855.792	4717
855.926	4748
856.06	4752
856.194	4736
856.327	4702
856.461	4641
856.595	4626
856.729	4645
856.862	4767
856.996	4679
857.13	4694
857.263	4771
857.397	4755
857.53	4645
857.664	4694
857.797	4767
857.931	4740
858.064	4679
858.197	4714
858.331	4660
858.464	4618
858.597	4493
858.731	4584
858.864	4637
858.997	4599
859.13	4645
859.263	4668
859.396	4649
859.529	4546
859.662	4516
859.795	4527
859.928	4603
860.061	4755
860.194	4721
860.327	4592
860.46	4542
860.592	4679
860.725	4675
860.858	4683
860.99	4577
861.123	4516
861.256	4516
861.388	4622
861.521	5288
861.653	4508
861.786	4409
861.918	4489
862.05	4512
862.183	4558
862.315	4649
862.447	4675
862.58	4538
862.712	4436
862.844	4329
862.976	4470
863.108	4497
863.24	4881
863.372	4348
863.504	4402
863.636	4421
863.768	4519
863.9	4447
864.032	4386
864.164	4390
864.296	4531
864.428	4550
864.559	4588
864.691	4573
864.823	4569
864.954	4527
865.086	4577
865.217	4508
865.349	4421
865.48	4447
865.612	4504
865.743	4645
865.875	4512
866.006	4519
866.137	4550
866.269	4519
866.4	4497
866.531	4478
866.662	4417
866.793	4424
866.924	4447
867.055	4546
867.186	4504
867.317	4462
867.448	4413
867.579	4405
867.71	4413
867.841	4375
867.972	4558
868.103	4489
868.233	4508
868.364	4527
868.495	4527
868.625	4714
868.756	4782
868.886	4615
869.017	4641
869.147	4793
869.278	4790
869.408	4698
869.539	4668
869.669	4771
869.799	4649
869.929	4839
870.06	4809
870.19	5006
870.32	4976
870.45	4942
870.58	5090
870.71	5155
870.84	5159
870.97	4968
871.1	4915
871.23	5181
871.36	5109
871.489	5060
871.619	5090
871.749	5143
871.879	5136
872.008	5273
872.138	5090
872.267	4999
872.397	4870
872.526	4892
872.656	4763
872.785	4843
872.915	5003
873.044	5071
873.173	4999
873.303	4995
873.432	4991
873.561	5025
873.69	4919
873.819	4946
873.948	4949
874.077	4805
874.206	4786
874.335	4831
874.464	4934
874.593	5060
874.722	5018
874.851	5204
874.979	5094
875.108	5102
875.237	4911
875.365	4870
875.494	4919
875.623	4961
875.751	4850
875.88	4885
876.008	5006
876.136	5048
876.265	5189
876.393	5398
876.521	5227
876.65	5292
876.778	5189
876.906	5086
877.034	5090
877.162	5094
877.29	5029
877.418	5102
877.546	5022
877.674	5052
877.802	5067
877.93	5045
878.058	4957
878.185	4949
878.313	4972
878.441	5006
878.568	4835
878.696	4923
878.824	4942
878.951	4987
879.079	5162
879.206	5296
879.333	5121
879.461	5003
879.588	5052
879.715	5162
879.842	5197
879.97	5056
880.097	4774
880.224	4752
880.351	4850
880.478	4881
880.605	4835
880.732	4816
880.859	5136
880.986	4900
881.112	4927
881.239	4782
881.366	4691
881.493	4580
881.619	4622
881.746	4630
881.872	4672
881.999	4698
882.125	4740
882.252	4790
882.378	4885
882.505	4984
882.631	4839
882.757	4668
882.883	4786
883.01	4797
883.136	4675
883.262	4607
883.388	4626
883.514	4824
883.64	4847
883.766	4793
883.892	4691
884.018	4710
884.143	4900
884.269	5006
884.395	4729
884.52	4668
884.646	4645
884.772	4603
884.897	4622
885.023	4721
885.148	4801
885.274	4930
885.399	4831
885.524	4755
885.65	4721
885.775	4767
885.9	4714
886.025	4885
886.15	4793
886.275	4759
886.4	4656
886.525	4691
886.65	4717
886.775	4679
886.9	4908
887.025	5060
887.149	4828
887.274	4691
887.399	4618
887.523	4603
887.648	4596
887.773	4584
887.897	4755
888.021	4797
888.146	4702
888.27	4797
888.395	4949
888.519	4767
888.643	4828
888.767	4854
888.891	4752
889.015	4634
889.139	4675
889.263	4660
889.387	4759
889.511	4957
889.635	4847
889.759	4641
889.883	4717
890.006	4740
890.13	4816
890.254	4675
890.377	4729
890.501	4565
890.624	4558
890.748	4714
890.871	4546
890.995	4440
891.118	4398
891.241	4561
891.364	4592
891.488	4675
891.611	4527
891.734	4584
891.857	4615
891.98	4569
892.103	4656
892.226	4618
892.349	4577
892.471	4455
892.594	4603
892.717	4626
892.839	4611
892.962	4611
893.085	4630
893.207	4592
893.33	4519
893.452	4573
893.575	4668
893.697	4599
893.819	4839
893.941	4854
894.064	4790
894.186	4611
894.308	4577
894.43	4740
894.552	4870
894.674	4771
894.796	4550
894.918	4645
895.04	4603
895.161	4736
895.283	4729
895.405	4577
895.526	4653
895.648	4675
895.769	4694
895.891	4725
896.012	4759
896.134	4755
896.255	4672
896.376	4653
896.498	4618
896.619	4767
896.74	4630
896.861	4679
896.982	4908
897.103	5102
897.224	4831
897.345	4748
897.466	4649
897.587	4763
897.708	4866
897.828	4805
897.949	4691
898.07	4607
898.19	4691
898.311	4828
898.431	4725
898.552	4740
898.672	4812
898.792	4812
898.913	4725
899.033	4668
899.153	4523
899.273	4478
899.393	4535
899.513	4561
899.633	4519
899.753	4569
899.873	4542
899.993	4584
900.113	4542
900.232	4588
900.352	4611
900.472	4478
900.591	4428
900.711	4500
900.83	4451
900.95	4611
901.069	4706
901.189	4577
901.308	4402
901.427	4356
901.546	4424
901.665	4478
901.784	4535
901.904	4394
902.023	4360
902.141	4227
902.26	4204
902.379	4344
902.498	4211
902.617	4234
902.735	4341
902.854	4405
902.973	4360
903.091	4238
903.21	4234
903.328	4310
903.446	4268
903.565	4291
903.683	4375
903.801	4318
903.919	4371
904.038	4440
904.156	4348
904.274	4451
904.392	4386
904.51	4424
904.627	4455
904.745	4607
904.863	4641
904.981	4447
905.098	4352
905.216	4356
905.334	4462
905.451	4474
905.569	4500
905.686	4546
905.803	4599
905.921	4447
906.038	4558
906.155	4497
906.272	4440
906.389	4493
906.506	4348
906.623	4405
906.74	4405
906.857	4371
906.974	4402
907.091	4580
907.208	4660
907.324	4611
907.441	4478
907.557	4360
907.674	4386
907.79	4329
907.907	4413
908.023	4535
908.139	4489
908.256	4440
908.372	4462
908.488	4451
908.604	4325
908.72	4363
908.836	4405
908.952	4363
909.068	4421
909.184	4577
909.3	4493
909.415	4599
909.531	4519
909.647	4386
909.762	4341
909.878	4356
909.993	4493
910.108	4363
910.224	4417
910.339	4500
910.454	4466
910.57	4409
910.685	4356
910.8	4683
910.915	4596
911.03	4531
911.145	4352
911.259	4318
911.374	4394
911.489	4329
911.604	4310
911.718	4234
911.833	4204
911.947	4101
912.062	4078
912.176	4200
912.291	4242
912.405	4223
912.519	4485
912.633	4588
912.748	4356
912.862	4341
912.976	4192
913.09	4071
913.204	4215
913.318	4272
913.431	4405
913.545	4386
913.659	4428
913.772	4394
913.886	4268
914	4257
914.113	4363
914.226	4485
914.34	4413
914.453	4280
914.566	4474
914.68	4329
914.793	4386
914.906	4147
915.019	4135
915.132	4074
915.245	4219
915.358	4200
915.47	4261
915.583	4238
915.696	4261
915.809	4447
915.921	4421
916.034	4261
916.146	4261
916.259	4204
916.371	4394
916.483	4367
916.595	4261
916.708	4322
916.82	4287
916.932	4337
917.044	4344
917.156	4249
917.268	4246
917.38	4310
917.491	4261
917.603	4318
917.715	4436
917.826	4466
917.938	4360
918.049	4291
918.161	4398
918.272	4599
918.384	4580
918.495	4478
918.606	4341
918.717	4223
918.828	4333
918.939	4383
919.05	4295
919.161	4337
919.272	4150
919.383	4253
919.494	4451
919.604	4622
919.715	4478
919.826	4310
919.936	4447
920.047	4584
920.157	4493
920.267	4702
920.378	4538
920.488	4497
920.598	4729
920.708	4862
920.818	4771
920.928	4793
921.038	4915
921.148	4896
921.258	4622
921.368	4573
921.477	4470
921.587	4550
921.697	4394
921.806	4558
921.916	4432
922.025	4303
922.134	4276
922.244	4246
922.353	4367
922.462	4185
922.571	4162
922.68	4059
922.789	3991
922.898	4059
923.007	3994
923.116	4135
923.224	4040
923.333	4055
923.442	3998
923.55	3998
923.659	4040
923.767	4093
923.876	4017
923.984	4150
924.092	4010
924.201	4086
924.309	4105
924.417	4143
924.525	4082
924.633	4143
924.741	5064
924.849	3930
924.956	4124
925.064	3968
925.172	3922
925.279	3991
925.387	4063
925.494	4051
925.602	4215
925.709	4150
925.816	4044
925.924	4169
926.031	4230
926.138	4169
926.245	4185
926.352	4090
926.459	4272
926.566	4299
926.673	4166
926.779	4071
926.886	4048
926.993	3968
927.099	3937
927.206	3960
927.312	3956
927.419	4055
927.525	4048
927.631	4124
927.737	3956
927.843	3960
927.95	3842
928.056	3975
928.162	4010
928.267	4067
928.373	4672
928.479	4105
928.585	3915
928.69	4013
928.796	4093
928.901	3991
929.007	3861
929.112	3994
929.218	3953
929.323	3979
929.428	3964
929.533	4071
929.638	3934
929.743	3972
929.848	3998
929.953	4044
930.058	3991
930.163	3766
930.267	3884
930.372	3975
930.477	3850
930.581	4139
930.685	3975
930.79	3880
930.894	3922
930.998	3922
931.103	4048
931.207	3736
931.311	3724
931.415	3728
931.519	3572
931.623	3591
