Data from test_V78500241_1963.txt Node
Date: Fri Mar 25 17:02:38 CST 2022
User: usil
Spectrometer: V785-0024
Trigger mode: 0
Integration Time (sec): 4.000000E-1
Scans to average: 1
Nonlinearity correction enabled: false
Boxcar width: 0
Storing dark spectrum: false
XAxis mode: Wavelengths
Number of Pixels in Spectrum: 1024
>>>>>Begin Spectral Data<<<<<
801.071	7989
801.214	8035
801.356	7814
801.499	7845
801.641	7860
801.783	7830
801.926	8031
802.068	7898
802.211	7978
802.353	7928
802.496	7826
802.638	7868
802.78	7852
802.923	7909
803.065	7887
803.208	7871
803.35	7970
803.492	8050
803.635	8084
803.777	7936
803.919	8115
804.061	8396
804.204	8202
804.346	8027
804.488	7970
804.63	8149
804.773	8012
804.915	8069
805.057	8286
805.199	8149
805.341	8199
805.483	8267
805.626	8240
805.768	8157
805.91	8191
806.052	8191
806.194	8142
806.336	8275
806.478	8100
806.62	7993
806.762	8123
806.904	8279
807.046	8476
807.188	8366
807.33	8355
807.472	8320
807.614	8111
807.756	8130
807.898	7982
808.04	7868
808.182	7902
808.324	7879
808.465	7898
808.607	8027
808.749	8046
808.891	8248
809.033	8305
809.174	8229
809.316	8073
809.458	8107
809.6	8058
809.741	8081
809.883	7967
810.025	8100
810.166	8035
810.308	7967
810.45	8016
810.591	7780
810.733	7765
810.875	7651
811.016	7510
811.158	7521
811.299	7540
811.441	7712
811.582	7708
811.724	7533
811.865	7552
812.007	7597
812.148	7613
812.29	7582
812.431	7738
812.573	7890
812.714	7906
812.855	8058
812.997	8218
813.138	8290
813.279	8191
813.421	8005
813.562	7955
813.703	7856
813.845	7731
813.986	7434
814.127	7183
814.268	7183
814.41	7198
814.551	7149
814.692	7247
814.833	7145
814.974	7145
815.115	7099
815.256	6996
815.397	6985
815.539	6886
815.68	6787
815.821	6745
815.962	6871
816.103	6730
816.244	6726
816.385	6620
816.526	6635
816.666	6555
816.807	6350
816.948	6471
817.089	6464
817.23	6426
817.371	6365
817.512	6361
817.653	6407
817.793	6365
817.934	6380
818.075	6437
818.216	6414
818.356	6433
818.497	6243
818.638	6079
818.778	6144
818.919	6152
819.06	6159
819.2	6388
819.341	6346
819.481	6365
819.622	6483
819.762	6719
819.903	6681
820.043	6639
820.184	6608
820.324	6559
820.465	6692
820.605	6654
820.746	6669
820.886	6506
821.026	6662
821.167	6673
821.307	6810
821.447	6791
821.588	6631
821.728	6532
821.868	6460
822.008	6391
822.149	6334
822.289	6403
822.429	6114
822.569	6087
822.709	6106
822.849	6003
822.99	5882
823.13	5889
823.27	5855
823.41	5752
823.55	5779
823.69	5748
823.83	5817
823.97	5672
824.11	5554
824.25	5539
824.389	5535
824.529	5539
824.669	5520
824.809	5615
824.949	5695
825.089	5589
825.228	5562
825.368	5429
825.508	5322
825.648	5368
825.787	5395
825.927	5406
826.067	5288
826.206	5231
826.346	5372
826.485	5425
826.625	5406
826.765	5558
826.904	5440
827.044	5204
827.183	5166
827.323	5159
827.462	5284
827.601	5201
827.741	5170
827.88	5189
828.02	5121
828.159	5235
828.298	5330
828.437	5311
828.577	5265
828.716	5547
828.855	5265
828.994	5166
829.134	5132
829.273	5204
829.412	5140
829.551	5147
829.69	5193
829.829	5235
829.968	5326
830.107	5280
830.246	5307
830.385	5189
830.524	5147
830.663	5056
830.802	4953
830.941	4877
831.08	4835
831.219	5010
831.357	4972
831.496	5155
831.635	4984
831.774	4854
831.913	4831
832.051	4721
832.19	4721
832.329	4847
832.467	4717
832.606	4675
832.744	4706
832.883	4729
833.022	4725
833.16	4831
833.299	4793
833.437	4809
833.576	4870
833.714	4850
833.852	4885
833.991	4862
834.129	4957
834.267	4946
834.406	4908
834.544	4965
834.682	4961
834.821	4930
834.959	5136
835.097	4980
835.235	5155
835.373	5109
835.511	5121
835.65	4949
835.788	4972
835.926	4896
836.064	4889
836.202	4877
836.34	5147
836.478	5216
836.615	5140
836.753	5193
836.891	5269
837.029	5242
837.167	5216
837.305	5117
837.443	5159
837.58	5079
837.718	5216
837.856	5220
837.993	5162
838.131	5288
838.269	5170
838.406	5204
838.544	5220
838.681	5037
838.819	5025
838.956	4911
839.094	4915
839.231	5003
839.369	5086
839.506	5459
839.643	5277
839.781	5033
839.918	5022
840.055	5109
840.193	5048
840.33	5132
840.467	5162
840.604	5178
840.742	5433
840.879	5105
841.016	5079
841.153	5132
841.29	5337
841.427	5303
841.564	5292
841.701	5406
841.838	5318
841.975	5204
842.112	5292
842.249	5140
842.385	5121
842.522	5341
842.659	5189
842.796	5178
842.933	5189
843.069	5166
843.206	5136
843.343	5330
843.479	5273
843.616	5239
843.752	5006
843.889	4995
844.025	5239
844.162	4995
844.298	5181
844.435	5083
844.571	5014
844.708	5201
844.844	5303
844.98	5353
845.117	5341
845.253	5155
845.389	5075
845.525	5170
845.661	5155
845.798	5060
845.934	5147
846.07	5037
846.206	5178
846.342	5296
846.478	5189
846.614	4938
846.75	4991
846.886	4904
847.022	5121
847.158	5033
847.294	5067
847.429	5071
847.565	5022
847.701	5303
847.837	4847
847.972	4828
848.108	4946
848.244	4919
848.379	4774
848.515	4725
848.65	4698
848.786	4797
848.921	4717
849.057	4870
849.192	4839
849.328	4801
849.463	4866
849.598	4809
849.734	4778
849.869	4702
850.004	4637
850.14	4687
850.275	4637
850.41	4489
850.545	4607
850.68	4577
850.815	4596
850.95	4660
851.085	4831
851.22	4698
851.355	4649
851.49	4645
851.625	4630
851.76	4626
851.895	4565
852.03	4497
852.165	4656
852.299	4714
852.434	4725
852.569	4755
852.703	4812
852.838	4843
852.973	4927
853.107	4889
853.242	4759
853.376	4656
853.511	4580
853.645	4626
853.78	4778
853.914	4660
854.048	4668
854.183	4641
854.317	4691
854.451	4847
854.585	4675
854.72	4611
854.854	4744
854.988	4569
855.122	4637
855.256	4504
855.39	4645
855.524	4778
855.658	4710
855.792	4683
855.926	4767
856.06	4755
856.194	4774
856.327	4721
856.461	4622
856.595	4607
856.729	4637
856.862	4729
856.996	4706
857.13	4717
857.263	4782
857.397	4782
857.53	4694
857.664	4664
857.797	4736
857.931	4763
858.064	4694
858.197	4752
858.331	4641
858.464	4675
858.597	4508
858.731	4615
858.864	4637
858.997	4615
859.13	4660
859.263	4634
859.396	4679
859.529	4550
859.662	4546
859.795	4535
859.928	4634
860.061	4679
860.194	4744
860.327	4599
860.46	4550
860.592	4710
860.725	4694
860.858	4729
860.99	4618
861.123	4478
861.256	4519
861.388	4596
861.521	5254
861.653	4508
861.786	4432
861.918	4436
862.05	4493
862.183	4531
862.315	4592
862.447	4649
862.58	4558
862.712	4367
862.844	4329
862.976	4493
863.108	4443
863.24	4714
863.372	4333
863.504	4375
863.636	4440
863.768	4440
863.9	4394
864.032	4348
864.164	4436
864.296	4462
864.428	4565
864.559	4527
864.691	4523
864.823	4523
864.954	4462
865.086	4500
865.217	4417
865.349	4421
865.48	4451
865.612	4474
865.743	4565
865.875	4402
866.006	4443
866.137	4459
866.269	4440
866.4	4375
866.531	4409
866.662	4383
866.793	4436
866.924	4402
867.055	4489
867.186	4462
867.317	4383
867.448	4371
867.579	4413
867.71	4390
867.841	4348
867.972	4447
868.103	4432
868.233	4436
868.364	4417
868.495	4512
868.625	4649
868.756	4793
868.886	4573
869.017	4599
869.147	4782
869.278	4733
869.408	4603
869.539	4596
869.669	4683
869.799	4660
869.929	4736
870.06	4782
870.19	4976
870.32	4877
870.45	4949
870.58	5003
870.71	5079
870.84	5064
870.97	4961
871.1	4896
871.23	5128
871.36	5143
871.489	5041
871.619	5014
871.749	5128
871.879	5132
872.008	5185
872.138	5014
872.267	4927
872.397	4839
872.526	4828
872.656	4683
872.785	4774
872.915	4911
873.044	5060
873.173	4957
873.303	5010
873.432	4892
873.561	4984
873.69	4885
873.819	4866
873.948	4889
874.077	4797
874.206	4752
874.335	4748
874.464	4904
874.593	5037
874.722	4942
874.851	5121
874.979	5056
875.108	5075
875.237	4961
875.365	4892
875.494	4854
875.623	4961
875.751	4839
875.88	4904
876.008	4942
876.136	5071
876.265	5147
876.393	5376
876.521	5246
876.65	5193
876.778	5140
876.906	5098
877.034	5033
877.162	5056
877.29	5006
877.418	5022
877.546	5025
877.674	5037
877.802	5003
877.93	5056
878.058	4957
878.185	4862
878.313	4942
878.441	4942
878.568	4748
878.696	4896
878.824	4976
878.951	4927
879.079	5105
879.206	5303
879.333	5083
879.461	4991
879.588	5006
879.715	5124
879.842	5242
879.97	4999
880.097	4793
880.224	4759
880.351	4812
880.478	4805
880.605	4774
880.732	4763
880.859	5094
880.986	4889
881.112	4911
881.239	4801
881.366	4702
881.493	4577
881.619	4554
881.746	4626
881.872	4622
881.999	4630
882.125	4672
882.252	4767
882.378	4824
882.505	4972
882.631	4801
882.757	4634
882.883	4740
883.01	4702
883.136	4664
883.262	4558
883.388	4599
883.514	4839
883.64	4900
883.766	4816
883.892	4653
884.018	4740
884.143	4896
884.269	5003
884.395	4691
884.52	4645
884.646	4668
884.772	4588
884.897	4550
885.023	4573
885.148	4820
885.274	4866
885.399	4790
885.524	4679
885.65	4721
885.775	4778
885.9	4649
886.025	4839
886.15	4786
886.275	4736
886.4	4656
886.525	4691
886.65	4706
886.775	4702
886.9	4892
887.025	5033
887.149	4839
887.274	4664
887.399	4599
887.523	4599
887.648	4634
887.773	4592
887.897	4759
888.021	4759
888.146	4656
888.27	4843
888.395	4896
888.519	4805
888.643	4812
888.767	4866
888.891	4645
889.015	4588
889.139	4672
889.263	4588
889.387	4752
889.511	4873
889.635	4752
889.759	4634
889.883	4637
890.006	4717
890.13	4873
890.254	4603
890.377	4645
890.501	4584
890.624	4535
890.748	4618
890.871	4527
890.995	4424
891.118	4390
891.241	4497
891.364	4550
891.488	4611
891.611	4497
891.734	4577
891.857	4584
891.98	4546
892.103	4668
892.226	4592
892.349	4512
892.471	4421
892.594	4497
892.717	4577
892.839	4554
892.962	4588
893.085	4615
893.207	4599
893.33	4443
893.452	4542
893.575	4641
893.697	4546
893.819	4801
893.941	4816
894.064	4736
894.186	4542
894.308	4596
894.43	4763
894.552	4835
894.674	4774
894.796	4558
894.918	4603
895.04	4546
895.161	4706
895.283	4668
895.405	4626
895.526	4618
895.648	4721
895.769	4683
895.891	4710
896.012	4744
896.134	4752
896.255	4641
896.376	4656
896.498	4649
896.619	4710
896.74	4599
896.861	4630
896.982	4957
897.103	5022
897.224	4854
897.345	4786
897.466	4721
897.587	4717
897.708	4843
897.828	4790
897.949	4672
898.07	4561
898.19	4634
898.311	4831
898.431	4675
898.552	4706
898.672	4835
898.792	4786
898.913	4752
899.033	4618
899.153	4512
899.273	4451
899.393	4466
899.513	4519
899.633	4512
899.753	4500
899.873	4516
899.993	4637
900.113	4489
900.232	4573
900.352	4584
900.472	4489
900.591	4390
900.711	4512
900.83	4459
900.95	4634
901.069	4656
901.189	4516
901.308	4409
901.427	4314
901.546	4390
901.665	4455
901.784	4519
901.904	4367
902.023	4348
902.141	4207
902.26	4150
902.379	4261
902.498	4223
902.617	4268
902.735	4352
902.854	4405
902.973	4329
903.091	4173
903.21	4261
903.328	4287
903.446	4249
903.565	4306
903.683	4360
903.801	4257
903.919	4363
904.038	4421
904.156	4333
904.274	4413
904.392	4375
904.51	4417
904.627	4466
904.745	4569
904.863	4577
904.981	4413
905.098	4295
905.216	4371
905.334	4386
905.451	4428
905.569	4489
905.686	4554
905.803	4546
905.921	4440
906.038	4546
906.155	4489
906.272	4394
906.389	4489
906.506	4348
906.623	4367
906.74	4443
906.857	4325
906.974	4405
907.091	4607
907.208	4702
907.324	4618
907.441	4508
907.557	4360
907.674	4379
907.79	4295
907.907	4367
908.023	4523
908.139	4462
908.256	4428
908.372	4462
908.488	4428
908.604	4367
908.72	4318
908.836	4386
908.952	4375
909.068	4405
909.184	4611
909.3	4421
909.415	4630
909.531	4599
909.647	4352
909.762	4367
909.878	4341
909.993	4436
910.108	4451
910.224	4398
910.339	4523
910.454	4394
910.57	4329
910.685	4318
910.8	4641
910.915	4565
911.03	4481
911.145	4291
911.259	4371
911.374	4390
911.489	4268
911.604	4257
911.718	4207
911.833	4207
911.947	4116
912.062	4017
912.176	4246
912.291	4257
912.405	4234
912.519	4512
912.633	4474
912.748	4379
912.862	4314
912.976	4234
913.09	4078
913.204	4177
913.318	4246
913.431	4348
913.545	4356
913.659	4447
913.772	4360
913.886	4230
914	4204
914.113	4344
914.226	4398
914.34	4402
914.453	4169
914.566	4462
914.68	4272
914.793	4344
914.906	4185
915.019	4074
915.132	4112
915.245	4154
915.358	4196
915.47	4253
915.583	4299
915.696	4265
915.809	4413
915.921	4440
916.034	4295
916.146	4230
916.259	4242
916.371	4383
916.483	4363
916.595	4268
916.708	4322
916.82	4299
916.932	4287
917.044	4272
917.156	4310
917.268	4238
917.38	4261
917.491	4265
917.603	4284
917.715	4390
917.826	4470
917.938	4386
918.049	4242
918.161	4383
918.272	4573
918.384	4550
918.495	4485
918.606	4299
918.717	4192
918.828	4363
918.939	4363
919.05	4246
919.161	4303
919.272	4131
919.383	4211
919.494	4470
919.604	4687
919.715	4409
919.826	4367
919.936	4379
920.047	4504
920.157	4440
920.267	4691
920.378	4542
920.488	4527
920.598	4706
920.708	4911
920.818	4740
920.928	4710
921.038	4896
921.148	4881
921.258	4645
921.368	4558
921.477	4474
921.587	4417
921.697	4287
921.806	4527
921.916	4440
922.025	4268
922.134	4261
922.244	4192
922.353	4337
922.462	4196
922.571	4086
922.68	4006
922.789	3975
922.898	3991
923.007	4044
923.116	4105
923.224	4074
923.333	4097
923.442	3953
923.55	3964
923.659	4055
923.767	4086
923.876	3949
923.984	4112
924.092	3964
924.201	4063
924.309	4071
924.417	4105
924.525	4097
924.633	4101
924.741	4984
924.849	3945
924.956	4135
925.064	3991
925.172	3896
925.279	3972
925.387	4063
925.494	4051
925.602	4242
925.709	4143
925.816	4090
925.924	4116
926.031	4223
926.138	4215
926.245	4196
926.352	4109
926.459	4257
926.566	4295
926.673	4207
926.779	4097
926.886	4078
926.993	3968
927.099	3972
927.206	3941
927.312	3945
927.419	4032
927.525	4048
927.631	4112
927.737	3972
927.843	3930
927.95	3854
928.056	3945
928.162	3994
928.267	4082
928.373	4630
928.479	4093
928.585	3861
928.69	4048
928.796	4067
928.901	3991
929.007	3823
929.112	4029
929.218	3998
929.323	3903
929.428	3922
929.533	4120
929.638	3911
929.743	4002
929.848	4074
929.953	3975
930.058	3934
930.163	3797
930.267	3781
930.372	3991
930.477	3842
930.581	4105
930.685	3960
930.79	3857
930.894	3865
930.998	3896
931.103	4071
931.207	3728
931.311	3656
931.415	3675
931.519	3500
931.623	3580
