Data from test_V78500241_2296.txt Node
Date: Fri Mar 25 17:04:58 CST 2022
User: usil
Spectrometer: V785-0024
Trigger mode: 0
Integration Time (sec): 4.000000E-1
Scans to average: 1
Nonlinearity correction enabled: false
Boxcar width: 0
Storing dark spectrum: false
XAxis mode: Wavelengths
Number of Pixels in Spectrum: 1024
>>>>>Begin Spectral Data<<<<<
801.071	7982
801.214	7970
801.356	7887
801.499	7822
801.641	7875
801.783	7883
801.926	7993
802.068	7986
802.211	7967
802.353	7940
802.496	7795
802.638	7799
802.78	7913
802.923	7917
803.065	7887
803.208	7830
803.35	7989
803.492	8088
803.635	8153
803.777	8039
803.919	8084
804.061	8442
804.204	8138
804.346	8058
804.488	7947
804.63	8145
804.773	7986
804.915	8073
805.057	8381
805.199	8176
805.341	8237
805.483	8279
805.626	8240
805.768	8126
805.91	8199
806.052	8195
806.194	8123
806.336	8294
806.478	8092
806.62	7978
806.762	8130
806.904	8252
807.046	8511
807.188	8381
807.33	8347
807.472	8290
807.614	8138
807.756	8157
807.898	8016
808.04	7944
808.182	7894
808.324	7822
808.465	7890
808.607	8001
808.749	8024
808.891	8168
809.033	8351
809.174	8168
809.316	8138
809.458	8103
809.6	7993
809.741	8016
809.883	8050
810.025	8107
810.166	8096
810.308	7959
810.45	8005
810.591	7799
810.733	7780
810.875	7632
811.016	7559
811.158	7457
811.299	7586
811.441	7734
811.582	7639
811.724	7533
811.865	7506
812.007	7552
812.148	7563
812.29	7632
812.431	7746
812.573	7864
812.714	7997
812.855	8142
812.997	8240
813.138	8320
813.279	8157
813.421	8084
813.562	7989
813.703	7879
813.845	7666
813.986	7388
814.127	7301
814.268	7255
814.41	7179
814.551	7156
814.692	7228
814.833	7091
814.974	7164
815.115	7129
815.256	6935
815.397	6924
815.539	6916
815.68	6802
815.821	6738
815.962	6882
816.103	6863
816.244	6669
816.385	6639
816.526	6601
816.666	6521
816.807	6270
816.948	6445
817.089	6448
817.23	6456
817.371	6380
817.512	6361
817.653	6384
817.793	6327
817.934	6437
818.075	6464
818.216	6452
818.356	6422
818.497	6273
818.638	6159
818.778	6117
818.919	6186
819.06	6197
819.2	6315
819.341	6311
819.481	6353
819.622	6589
819.762	6760
819.903	6722
820.043	6585
820.184	6566
820.324	6597
820.465	6734
820.605	6646
820.746	6703
820.886	6467
821.026	6696
821.167	6673
821.307	6798
821.447	6798
821.588	6654
821.728	6555
821.868	6399
822.008	6338
822.149	6361
822.289	6338
822.429	6144
822.569	6091
822.709	6190
822.849	5920
822.99	5859
823.13	5935
823.27	5946
823.41	5832
823.55	5813
823.69	5733
823.83	5798
823.97	5665
824.11	5539
824.25	5509
824.389	5528
824.529	5630
824.669	5516
824.809	5676
824.949	5623
825.089	5649
825.228	5543
825.368	5433
825.508	5284
825.648	5376
825.787	5368
825.927	5364
826.067	5296
826.206	5296
826.346	5433
826.485	5383
826.625	5410
826.765	5509
826.904	5497
827.044	5242
827.183	5197
827.323	5105
827.462	5258
827.601	5201
827.741	5113
827.88	5185
828.02	5060
828.159	5258
828.298	5345
828.437	5410
828.577	5284
828.716	5486
828.855	5402
828.994	5140
829.134	5178
829.273	5162
829.412	5128
829.551	5140
829.69	5140
829.829	5292
829.968	5372
830.107	5235
830.246	5254
830.385	5216
830.524	5166
830.663	5048
830.802	5003
830.941	4850
831.08	4847
831.219	5025
831.357	4953
831.496	5136
831.635	4919
831.774	4870
831.913	4828
832.051	4714
832.19	4748
832.329	4870
832.467	4687
832.606	4649
832.744	4706
832.883	4740
833.022	4710
833.16	4782
833.299	4839
833.437	4790
833.576	4835
833.714	4805
833.852	4873
833.991	4850
834.129	4984
834.267	4923
834.406	4957
834.544	4942
834.682	4999
834.821	4946
834.959	5159
835.097	4938
835.235	5128
835.373	5083
835.511	5056
835.65	4984
835.788	4980
835.926	4835
836.064	4873
836.202	4919
836.34	5170
836.478	5227
836.615	5128
836.753	5220
836.891	5250
837.029	5197
837.167	5185
837.305	5155
837.443	5102
837.58	5102
837.718	5235
837.856	5147
837.993	5197
838.131	5227
838.269	5197
838.406	5201
838.544	5185
838.681	5037
838.819	5014
838.956	4854
839.094	4828
839.231	4953
839.369	5075
839.506	5406
839.643	5265
839.781	5071
839.918	5045
840.055	5117
840.193	5048
840.33	5094
840.467	5166
840.604	5162
840.742	5406
840.879	5143
841.016	5067
841.153	5140
841.29	5345
841.427	5322
841.564	5322
841.701	5284
841.838	5239
841.975	5212
842.112	5277
842.249	5151
842.385	5132
842.522	5341
842.659	5166
842.796	5159
842.933	5235
843.069	5121
843.206	5121
843.343	5357
843.479	5269
843.616	5239
843.752	5064
843.889	5060
844.025	5212
844.162	4976
844.298	5197
844.435	5075
844.571	5033
844.708	5204
844.844	5296
844.98	5307
845.117	5311
845.253	5140
845.389	5086
845.525	5159
845.661	5204
845.798	4972
845.934	5159
846.07	5045
846.206	5197
846.342	5254
846.478	5181
846.614	5033
846.75	4984
846.886	4961
847.022	5121
847.158	4946
847.294	5014
847.429	5094
847.565	5048
847.701	5250
847.837	4850
847.972	4778
848.108	4934
848.244	4957
848.379	4748
848.515	4706
848.65	4729
848.786	4725
848.921	4729
849.057	4896
849.192	4877
849.328	4759
849.463	4828
849.598	4782
849.734	4748
849.869	4694
850.004	4637
850.14	4664
850.275	4618
850.41	4542
850.545	4558
850.68	4622
850.815	4641
850.95	4603
851.085	4816
851.22	4763
851.355	4668
851.49	4565
851.625	4592
851.76	4664
851.895	4584
852.03	4523
852.165	4649
852.299	4740
852.434	4763
852.569	4729
852.703	4782
852.838	4816
852.973	4881
853.107	4896
853.242	4717
853.376	4637
853.511	4554
853.645	4565
853.78	4816
853.914	4664
854.048	4660
854.183	4649
854.317	4672
854.451	4820
854.585	4714
854.72	4664
854.854	4755
854.988	4645
855.122	4637
855.256	4554
855.39	4653
855.524	4801
855.658	4752
855.792	4702
855.926	4702
856.06	4721
856.194	4786
856.327	4672
856.461	4596
856.595	4615
856.729	4611
856.862	4748
856.996	4733
857.13	4679
857.263	4736
857.397	4809
857.53	4615
857.664	4714
857.797	4725
857.931	4824
858.064	4687
858.197	4702
858.331	4637
858.464	4596
858.597	4485
858.731	4615
858.864	4660
858.997	4588
859.13	4672
859.263	4649
859.396	4687
859.529	4565
859.662	4618
859.795	4531
859.928	4622
860.061	4744
860.194	4767
860.327	4607
860.46	4565
860.592	4733
860.725	4679
860.858	4740
860.99	4565
861.123	4489
861.256	4519
861.388	4573
861.521	5246
861.653	4481
861.786	4424
861.918	4466
862.05	4478
862.183	4565
862.315	4607
862.447	4714
862.58	4527
862.712	4394
862.844	4314
862.976	4455
863.108	4481
863.24	4904
863.372	4337
863.504	4447
863.636	4383
863.768	4481
863.9	4417
864.032	4390
864.164	4390
864.296	4508
864.428	4542
864.559	4554
864.691	4554
864.823	4478
864.954	4466
865.086	4497
865.217	4466
865.349	4417
865.48	4405
865.612	4466
865.743	4630
865.875	4443
866.006	4440
866.137	4481
866.269	4375
866.4	4432
866.531	4394
866.662	4383
866.793	4398
866.924	4424
867.055	4474
867.186	4455
867.317	4440
867.448	4402
867.579	4394
867.71	4421
867.841	4379
867.972	4489
868.103	4440
868.233	4443
868.364	4451
868.495	4470
868.625	4656
868.756	4694
868.886	4577
869.017	4641
869.147	4767
869.278	4748
869.408	4656
869.539	4634
869.669	4721
869.799	4683
869.929	4801
870.06	4706
870.19	4976
870.32	4930
870.45	4927
870.58	5018
870.71	5086
870.84	5113
870.97	4968
871.1	4892
871.23	5181
871.36	5113
871.489	5006
871.619	5067
871.749	5105
871.879	5060
872.008	5147
872.138	5086
872.267	4972
872.397	4854
872.526	4809
872.656	4729
872.785	4858
872.915	4984
873.044	5033
873.173	4972
873.303	4957
873.432	4908
873.561	4961
873.69	4847
873.819	4877
873.948	4896
874.077	4824
874.206	4774
874.335	4752
874.464	4946
874.593	5022
874.722	4984
874.851	5117
874.979	5067
875.108	4995
875.237	4946
875.365	4850
875.494	4930
875.623	5041
875.751	4866
875.88	4927
876.008	5006
876.136	4995
876.265	5170
876.393	5353
876.521	5261
876.65	5178
876.778	5178
876.906	5090
877.034	4980
877.162	5075
877.29	4987
877.418	5029
877.546	5056
877.674	5041
877.802	5025
877.93	4984
878.058	4968
878.185	4866
878.313	4972
878.441	4927
878.568	4847
878.696	4831
878.824	4991
878.951	5010
879.079	5105
879.206	5258
879.333	5045
879.461	4961
879.588	5052
879.715	5045
879.842	5227
879.97	5048
880.097	4763
880.224	4771
880.351	4805
880.478	4839
880.605	4847
880.732	4774
880.859	5117
880.986	4873
881.112	4915
881.239	4767
881.366	4675
881.493	4542
881.619	4550
881.746	4611
881.872	4664
881.999	4672
882.125	4694
882.252	4820
882.378	4797
882.505	4896
882.631	4809
882.757	4672
882.883	4691
883.01	4717
883.136	4653
883.262	4615
883.388	4626
883.514	4778
883.64	4881
883.766	4752
883.892	4622
884.018	4668
884.143	4862
884.269	5010
884.395	4668
884.52	4664
884.646	4626
884.772	4569
884.897	4561
885.023	4649
885.148	4790
885.274	4858
885.399	4774
885.524	4694
885.65	4694
885.775	4725
885.9	4687
886.025	4881
886.15	4767
886.275	4710
886.4	4672
886.525	4740
886.65	4683
886.775	4698
886.9	4938
887.025	5029
887.149	4801
887.274	4656
887.399	4580
887.523	4569
887.648	4554
887.773	4561
887.897	4755
888.021	4820
888.146	4622
888.27	4797
888.395	4938
888.519	4843
888.643	4850
888.767	4816
888.891	4653
889.015	4592
889.139	4630
889.263	4584
889.387	4767
889.511	4824
889.635	4774
889.759	4698
889.883	4660
890.006	4714
890.13	4797
890.254	4618
890.377	4672
890.501	4481
890.624	4523
890.748	4641
890.871	4489
890.995	4413
891.118	4383
891.241	4512
891.364	4508
891.488	4656
891.611	4535
891.734	4500
891.857	4637
891.98	4558
892.103	4630
892.226	4565
892.349	4512
892.471	4405
892.594	4554
892.717	4558
892.839	4596
892.962	4607
893.085	4683
893.207	4588
893.33	4462
893.452	4519
893.575	4660
893.697	4554
893.819	4801
893.941	4797
894.064	4736
894.186	4565
894.308	4523
894.43	4725
894.552	4782
894.674	4744
894.796	4596
894.918	4603
895.04	4538
895.161	4675
895.283	4634
895.405	4558
895.526	4588
895.648	4668
895.769	4706
895.891	4725
896.012	4710
896.134	4729
896.255	4664
896.376	4679
896.498	4634
896.619	4668
896.74	4649
896.861	4656
896.982	4908
897.103	5064
897.224	4877
897.345	4771
897.466	4672
897.587	4721
897.708	4862
897.828	4778
897.949	4668
898.07	4561
898.19	4641
898.311	4881
898.431	4714
898.552	4752
898.672	4805
898.792	4790
898.913	4725
899.033	4645
899.153	4497
899.273	4443
899.393	4493
899.513	4485
899.633	4504
899.753	4561
899.873	4546
899.993	4615
900.113	4535
900.232	4588
900.352	4531
900.472	4405
900.591	4413
900.711	4478
900.83	4413
900.95	4641
901.069	4691
901.189	4531
901.308	4356
901.427	4318
901.546	4371
901.665	4443
901.784	4478
901.904	4352
902.023	4303
902.141	4223
902.26	4131
902.379	4341
902.498	4265
902.617	4268
902.735	4375
902.854	4375
902.973	4383
903.091	4207
903.21	4219
903.328	4284
903.446	4287
903.565	4246
903.683	4352
903.801	4272
903.919	4402
904.038	4493
904.156	4318
904.274	4424
904.392	4459
904.51	4462
904.627	4474
904.745	4584
904.863	4649
904.981	4375
905.098	4314
905.216	4402
905.334	4428
905.451	4443
905.569	4493
905.686	4538
905.803	4584
905.921	4405
906.038	4527
906.155	4462
906.272	4402
906.389	4443
906.506	4360
906.623	4413
906.74	4371
906.857	4318
906.974	4352
907.091	4531
907.208	4653
907.324	4573
907.441	4459
907.557	4360
907.674	4329
907.79	4295
907.907	4375
908.023	4462
908.139	4443
908.256	4424
908.372	4447
908.488	4455
908.604	4310
908.72	4356
908.836	4356
908.952	4390
909.068	4398
909.184	4561
909.3	4478
909.415	4584
909.531	4512
909.647	4413
909.762	4360
909.878	4287
909.993	4455
910.108	4428
910.224	4409
910.339	4459
910.454	4386
910.57	4341
910.685	4253
910.8	4626
910.915	4599
911.03	4466
911.145	4291
911.259	4329
911.374	4390
911.489	4291
911.604	4257
911.718	4181
911.833	4215
911.947	4082
912.062	4055
912.176	4196
912.291	4303
912.405	4242
912.519	4481
912.633	4470
912.748	4390
912.862	4314
912.976	4200
913.09	4063
913.204	4162
913.318	4234
913.431	4303
913.545	4398
913.659	4405
913.772	4356
913.886	4249
914	4249
914.113	4344
914.226	4398
914.34	4417
914.453	4276
914.566	4459
914.68	4329
914.793	4314
914.906	4143
915.019	4124
915.132	4116
915.245	4192
915.358	4227
915.47	4249
915.583	4234
915.696	4280
915.809	4398
915.921	4386
916.034	4272
916.146	4215
916.259	4238
916.371	4367
916.483	4314
916.595	4246
916.708	4291
916.82	4325
916.932	4337
917.044	4287
917.156	4329
917.268	4215
917.38	4272
917.491	4276
917.603	4363
917.715	4451
917.826	4455
917.938	4341
918.049	4268
918.161	4383
918.272	4535
918.384	4523
918.495	4493
918.606	4261
918.717	4223
918.828	4337
918.939	4348
919.05	4246
919.161	4360
919.272	4124
919.383	4227
919.494	4440
919.604	4569
919.715	4443
919.826	4383
919.936	4440
920.047	4531
920.157	4497
920.267	4714
920.378	4542
920.488	4462
920.598	4683
920.708	4866
920.818	4763
920.928	4752
921.038	4942
921.148	4885
921.258	4607
921.368	4565
921.477	4497
921.587	4436
921.697	4402
921.806	4538
921.916	4428
922.025	4280
922.134	4265
922.244	4177
922.353	4318
922.462	4173
922.571	4139
922.68	3991
922.789	3960
922.898	4051
923.007	4021
923.116	4143
923.224	4067
923.333	4086
923.442	4013
923.55	3945
923.659	3998
923.767	4040
923.876	3979
923.984	4135
924.092	3964
924.201	4090
924.309	4051
924.417	4124
924.525	4059
924.633	4101
924.741	5037
924.849	3926
924.956	4051
925.064	3960
925.172	3873
925.279	3968
925.387	4040
925.494	4120
925.602	4188
925.709	4200
925.816	4051
925.924	4169
926.031	4204
926.138	4166
926.245	4211
926.352	4135
926.459	4230
926.566	4318
926.673	4150
926.779	4067
926.886	4128
926.993	3964
927.099	3911
927.206	3953
927.312	3926
927.419	4067
927.525	4013
927.631	4090
927.737	3991
927.843	3953
927.95	3850
928.056	3964
928.162	3960
928.267	4055
928.373	4626
928.479	4131
928.585	3922
928.69	4010
928.796	4101
928.901	3937
929.007	3835
929.112	3994
929.218	3956
929.323	3964
929.428	3911
929.533	4086
929.638	3888
929.743	3937
929.848	4055
929.953	4013
930.058	3930
930.163	3743
930.267	3835
930.372	3949
930.477	3823
930.581	4101
930.685	3972
930.79	3793
930.894	3922
930.998	3838
931.103	4044
931.207	3717
931.311	3690
931.415	3690
931.519	3523
931.623	3564
