Data from test_V78500241_2038.txt Node
Date: Fri Mar 25 17:03:10 CST 2022
User: usil
Spectrometer: V785-0024
Trigger mode: 0
Integration Time (sec): 4.000000E-1
Scans to average: 1
Nonlinearity correction enabled: false
Boxcar width: 0
Storing dark spectrum: false
XAxis mode: Wavelengths
Number of Pixels in Spectrum: 1024
>>>>>Begin Spectral Data<<<<<
801.071	7986
801.214	7932
801.356	7856
801.499	7871
801.641	7792
801.783	7833
801.926	7974
802.068	7963
802.211	7925
802.353	8031
802.496	7788
802.638	7925
802.78	7928
802.923	7833
803.065	7837
803.208	7837
803.35	7951
803.492	7993
803.635	8123
803.777	7989
803.919	8111
804.061	8480
804.204	8168
804.346	8077
804.488	8039
804.63	8050
804.773	7982
804.915	8050
805.057	8301
805.199	8145
805.341	8199
805.483	8180
805.626	8214
805.768	8088
805.91	8233
806.052	8191
806.194	8157
806.336	8244
806.478	8012
806.62	8084
806.762	8168
806.904	8305
807.046	8488
807.188	8358
807.33	8290
807.472	8385
807.614	8111
807.756	8123
807.898	7993
808.04	7890
808.182	7845
808.324	7890
808.465	7879
808.607	8046
808.749	8123
808.891	8229
809.033	8309
809.174	8259
809.316	8130
809.458	8142
809.6	8043
809.741	8043
809.883	7940
810.025	8092
810.166	8024
810.308	8050
810.45	7940
810.591	7799
810.733	7704
810.875	7647
811.016	7460
811.158	7510
811.299	7518
811.441	7723
811.582	7655
811.724	7559
811.865	7506
812.007	7586
812.148	7590
812.29	7700
812.431	7696
812.573	7898
812.714	7974
812.855	8164
812.997	8248
813.138	8279
813.279	8168
813.421	8119
813.562	7997
813.703	7814
813.845	7719
813.986	7331
814.127	7187
814.268	7194
814.41	7190
814.551	7194
814.692	7217
814.833	7053
814.974	7175
815.115	7168
815.256	7004
815.397	6867
815.539	6954
815.68	6764
815.821	6760
815.962	6871
816.103	6768
816.244	6696
816.385	6627
816.526	6642
816.666	6490
816.807	6308
816.948	6399
817.089	6479
817.23	6456
817.371	6384
817.512	6399
817.653	6441
817.793	6346
817.934	6403
818.075	6486
818.216	6414
818.356	6479
818.497	6178
818.638	6098
818.778	6102
818.919	6117
819.06	6163
819.2	6342
819.341	6334
819.481	6338
819.622	6483
819.762	6707
819.903	6665
820.043	6566
820.184	6544
820.324	6570
820.465	6684
820.605	6677
820.746	6635
820.886	6494
821.026	6711
821.167	6738
821.307	6738
821.447	6787
821.588	6700
821.728	6612
821.868	6502
822.008	6338
822.149	6346
822.289	6292
822.429	6121
822.569	6095
822.709	6110
822.849	5935
822.99	5847
823.13	5882
823.27	5950
823.41	5767
823.55	5809
823.69	5729
823.83	5760
823.97	5710
824.11	5505
824.25	5512
824.389	5532
824.529	5638
824.669	5516
824.809	5600
824.949	5707
825.089	5611
825.228	5592
825.368	5421
825.508	5307
825.648	5330
825.787	5353
825.927	5326
826.067	5345
826.206	5292
826.346	5406
826.485	5410
826.625	5376
826.765	5505
826.904	5501
827.044	5231
827.183	5189
827.323	5113
827.462	5201
827.601	5189
827.741	5185
827.88	5204
828.02	5109
828.159	5231
828.298	5322
828.437	5414
828.577	5265
828.716	5444
828.855	5307
828.994	5231
829.134	5170
829.273	5147
829.412	5132
829.551	5090
829.69	5189
829.829	5277
829.968	5387
830.107	5277
830.246	5231
830.385	5159
830.524	5132
830.663	5041
830.802	4980
830.941	4831
831.08	4877
831.219	4999
831.357	4976
831.496	5151
831.635	4927
831.774	4816
831.913	4801
832.051	4714
832.19	4752
832.329	4831
832.467	4714
832.606	4592
832.744	4702
832.883	4694
833.022	4752
833.16	4790
833.299	4797
833.437	4797
833.576	4809
833.714	4870
833.852	4850
833.991	4862
834.129	4915
834.267	4961
834.406	4908
834.544	4957
834.682	4976
834.821	4938
834.959	5147
835.097	5037
835.235	5174
835.373	5079
835.511	5105
835.65	5018
835.788	5033
835.926	4866
836.064	4862
836.202	4892
836.34	5170
836.478	5151
836.615	5060
836.753	5170
836.891	5273
837.029	5239
837.167	5216
837.305	5151
837.443	5143
837.58	5094
837.718	5223
837.856	5136
837.993	5155
838.131	5212
838.269	5166
838.406	5155
838.544	5174
838.681	4965
838.819	5014
838.956	4877
839.094	4923
839.231	4968
839.369	5052
839.506	5463
839.643	5265
839.781	5018
839.918	5033
840.055	5056
840.193	5033
840.33	5079
840.467	5143
840.604	5174
840.742	5436
840.879	5048
841.016	5029
841.153	5128
841.29	5345
841.427	5322
841.564	5280
841.701	5353
841.838	5292
841.975	5170
842.112	5212
842.249	5189
842.385	5083
842.522	5337
842.659	5147
842.796	5086
842.933	5204
843.069	5109
843.206	5094
843.343	5322
843.479	5246
843.616	5227
843.752	5041
843.889	4987
844.025	5201
844.162	5006
844.298	5178
844.435	5067
844.571	5025
844.708	5170
844.844	5288
844.98	5303
845.117	5269
845.253	5143
845.389	5060
845.525	5140
845.661	5105
845.798	5018
845.934	5155
846.07	5067
846.206	5197
846.342	5277
846.478	5174
846.614	5010
846.75	4976
846.886	4896
847.022	5140
847.158	4999
847.294	5083
847.429	5109
847.565	5056
847.701	5337
847.837	4839
847.972	4820
848.108	4953
848.244	4972
848.379	4824
848.515	4771
848.65	4721
848.786	4767
848.921	4831
849.057	4873
849.192	4942
849.328	4839
849.463	4889
849.598	4839
849.734	4805
849.869	4717
850.004	4645
850.14	4729
850.275	4653
850.41	4588
850.545	4584
850.68	4660
850.815	4694
850.95	4679
851.085	4904
851.22	4824
851.355	4710
851.49	4607
851.625	4679
851.76	4721
851.895	4584
852.03	4565
852.165	4691
852.299	4782
852.434	4812
852.569	4797
852.703	4820
852.838	4877
852.973	4984
853.107	4938
853.242	4774
853.376	4698
853.511	4596
853.645	4672
853.78	4801
853.914	4733
854.048	4687
854.183	4714
854.317	4714
854.451	4900
854.585	4691
854.72	4675
854.854	4824
854.988	4634
855.122	4702
855.256	4542
855.39	4672
855.524	4812
855.658	4721
855.792	4748
855.926	4771
856.06	4809
856.194	4870
856.327	4736
856.461	4721
856.595	4683
856.729	4679
856.862	4774
856.996	4717
857.13	4778
857.263	4748
857.397	4892
857.53	4653
857.664	4717
857.797	4824
857.931	4793
858.064	4725
858.197	4793
858.331	4717
858.464	4637
858.597	4554
858.731	4710
858.864	4672
858.997	4641
859.13	4725
859.263	4656
859.396	4733
859.529	4656
859.662	4607
859.795	4580
859.928	4683
860.061	4831
860.194	4839
860.327	4653
860.46	4542
860.592	4740
860.725	4778
860.858	4778
860.99	4596
861.123	4558
861.256	4531
861.388	4615
861.521	5284
861.653	4500
861.786	4443
861.918	4531
862.05	4577
862.183	4584
862.315	4599
862.447	4698
862.58	4588
862.712	4459
862.844	4367
862.976	4531
863.108	4508
863.24	4801
863.372	4367
863.504	4489
863.636	4493
863.768	4531
863.9	4462
864.032	4383
864.164	4451
864.296	4489
864.428	4577
864.559	4607
864.691	4584
864.823	4478
864.954	4558
865.086	4516
865.217	4519
865.349	4451
865.48	4489
865.612	4561
865.743	4649
865.875	4508
866.006	4470
866.137	4485
866.269	4481
866.4	4455
866.531	4523
866.662	4455
866.793	4451
866.924	4421
867.055	4546
867.186	4459
867.317	4443
867.448	4386
867.579	4398
867.71	4443
867.841	4383
867.972	4493
868.103	4489
868.233	4497
868.364	4443
868.495	4516
868.625	4668
868.756	4839
868.886	4580
869.017	4637
869.147	4805
869.278	4816
869.408	4668
869.539	4649
869.669	4744
869.799	4675
869.929	4782
870.06	4782
870.19	4972
870.32	4972
870.45	4953
870.58	5010
870.71	5121
870.84	5086
870.97	5014
871.1	4915
871.23	5178
871.36	5155
871.489	5056
871.619	5067
871.749	5105
871.879	5105
872.008	5162
872.138	5060
872.267	5025
872.397	4862
872.526	4824
872.656	4744
872.785	4847
872.915	4965
873.044	5033
873.173	4919
873.303	5018
873.432	4961
873.561	4987
873.69	4908
873.819	4847
873.948	4961
874.077	4911
874.206	4786
874.335	4862
874.464	4942
874.593	5045
874.722	5022
874.851	5113
874.979	5064
875.108	5098
875.237	4949
875.365	4904
875.494	4938
875.623	5014
875.751	4797
875.88	4896
876.008	5006
876.136	5045
876.265	5223
876.393	5364
876.521	5265
876.65	5197
876.778	5193
876.906	5075
877.034	5056
877.162	5056
877.29	5014
877.418	5083
877.546	5048
877.674	5086
877.802	5025
877.93	4995
878.058	4965
878.185	4927
878.313	4953
878.441	4957
878.568	4873
878.696	4862
878.824	4957
878.951	5037
879.079	5159
879.206	5296
879.333	5147
879.461	5006
879.588	5060
879.715	5162
879.842	5239
879.97	5045
880.097	4843
880.224	4801
880.351	4831
880.478	4828
880.605	4839
880.732	4831
880.859	5147
880.986	4961
881.112	4930
881.239	4805
881.366	4687
881.493	4645
881.619	4596
881.746	4679
881.872	4672
881.999	4679
882.125	4717
882.252	4816
882.378	4835
882.505	4968
882.631	4835
882.757	4729
882.883	4733
883.01	4748
883.136	4714
883.262	4626
883.388	4607
883.514	4828
883.64	4881
883.766	4786
883.892	4698
884.018	4771
884.143	4896
884.269	5060
884.395	4691
884.52	4611
884.646	4668
884.772	4615
884.897	4580
885.023	4683
885.148	4812
885.274	4904
885.399	4812
885.524	4733
885.65	4740
885.775	4793
885.9	4786
886.025	4854
886.15	4873
886.275	4729
886.4	4691
886.525	4759
886.65	4691
886.775	4767
886.9	4927
887.025	5056
887.149	4793
887.274	4664
887.399	4630
887.523	4675
887.648	4596
887.773	4637
887.897	4797
888.021	4790
888.146	4702
888.27	4847
888.395	4927
888.519	4809
888.643	4801
888.767	4824
888.891	4691
889.015	4626
889.139	4645
889.263	4653
889.387	4790
889.511	4889
889.635	4824
889.759	4714
889.883	4618
890.006	4763
890.13	4858
890.254	4664
890.377	4710
890.501	4554
890.624	4580
890.748	4630
890.871	4535
890.995	4455
891.118	4390
891.241	4550
891.364	4569
891.488	4672
891.611	4485
891.734	4565
891.857	4641
891.98	4622
892.103	4698
892.226	4611
892.349	4538
892.471	4440
892.594	4527
892.717	4641
892.839	4569
892.962	4641
893.085	4653
893.207	4637
893.33	4512
893.452	4500
893.575	4660
893.697	4535
893.819	4790
893.941	4866
894.064	4828
894.186	4588
894.308	4599
894.43	4740
894.552	4889
894.674	4793
894.796	4577
894.918	4615
895.04	4573
895.161	4752
895.283	4675
895.405	4596
895.526	4653
895.648	4702
895.769	4687
895.891	4717
896.012	4752
896.134	4748
896.255	4660
896.376	4637
896.498	4618
896.619	4698
896.74	4618
896.861	4649
896.982	4968
897.103	5109
897.224	4866
897.345	4679
897.466	4672
897.587	4736
897.708	4850
897.828	4774
897.949	4675
898.07	4531
898.19	4664
898.311	4843
898.431	4660
898.552	4736
898.672	4835
898.792	4816
898.913	4763
899.033	4618
899.153	4542
899.273	4497
899.393	4500
899.513	4561
899.633	4538
899.753	4508
899.873	4542
899.993	4573
900.113	4538
900.232	4573
900.352	4542
900.472	4519
900.591	4417
900.711	4508
900.83	4432
900.95	4615
901.069	4691
901.189	4577
901.308	4386
901.427	4363
901.546	4371
901.665	4527
901.784	4546
901.904	4413
902.023	4325
902.141	4230
902.26	4234
902.379	4337
902.498	4284
902.617	4253
902.735	4371
902.854	4417
902.973	4405
903.091	4204
903.21	4261
903.328	4295
903.446	4284
903.565	4265
903.683	4386
903.801	4287
903.919	4424
904.038	4447
904.156	4356
904.274	4470
904.392	4390
904.51	4443
904.627	4512
904.745	4542
904.863	4664
904.981	4390
905.098	4287
905.216	4375
905.334	4413
905.451	4462
905.569	4508
905.686	4580
905.803	4599
905.921	4409
906.038	4561
906.155	4497
906.272	4375
906.389	4470
906.506	4386
906.623	4386
906.74	4383
906.857	4352
906.974	4394
907.091	4531
907.208	4717
907.324	4584
907.441	4531
907.557	4325
907.674	4348
907.79	4333
907.907	4383
908.023	4474
908.139	4493
908.256	4409
908.372	4470
908.488	4436
908.604	4432
908.72	4284
908.836	4383
908.952	4436
909.068	4417
909.184	4615
909.3	4516
909.415	4603
909.531	4550
909.647	4402
909.762	4398
909.878	4314
909.993	4447
910.108	4409
910.224	4413
910.339	4504
910.454	4386
910.57	4386
910.685	4337
910.8	4626
910.915	4592
911.03	4493
911.145	4329
911.259	4367
911.374	4367
911.489	4295
911.604	4303
911.718	4177
911.833	4207
911.947	4074
912.062	4071
912.176	4234
912.291	4234
912.405	4257
912.519	4485
912.633	4451
912.748	4398
912.862	4333
912.976	4188
913.09	4135
913.204	4188
913.318	4272
913.431	4413
913.545	4356
913.659	4451
913.772	4329
913.886	4215
914	4204
914.113	4363
914.226	4443
914.34	4402
914.453	4257
914.566	4405
914.68	4329
914.793	4348
914.906	4162
915.019	4177
915.132	4082
915.245	4192
915.358	4253
915.47	4303
915.583	4276
915.696	4344
915.809	4424
915.921	4481
916.034	4314
916.146	4261
916.259	4257
916.371	4428
916.483	4402
916.595	4329
916.708	4363
916.82	4348
916.932	4337
917.044	4318
917.156	4360
917.268	4276
917.38	4322
917.491	4287
917.603	4394
917.715	4474
917.826	4459
917.938	4352
918.049	4238
918.161	4436
918.272	4561
918.384	4580
918.495	4478
918.606	4348
918.717	4299
918.828	4375
918.939	4405
919.05	4310
919.161	4409
919.272	4246
919.383	4310
919.494	4500
919.604	4698
919.715	4478
919.826	4413
919.936	4428
920.047	4584
920.157	4577
920.267	4782
920.378	4592
920.488	4573
920.598	4774
920.708	4942
920.818	4778
920.928	4831
921.038	4984
921.148	4995
921.258	4717
921.368	4634
921.477	4588
921.587	4519
921.697	4432
921.806	4592
921.916	4440
922.025	4325
922.134	4310
922.244	4310
922.353	4386
922.462	4227
922.571	4227
922.68	4063
922.789	4017
922.898	4078
923.007	4017
923.116	4154
923.224	4128
923.333	4090
923.442	4032
923.55	4044
923.659	4040
923.767	4158
923.876	4025
923.984	4188
924.092	4055
924.201	4105
924.309	4135
924.417	4139
924.525	4093
924.633	4173
924.741	5124
924.849	3953
924.956	4196
925.064	4010
925.172	3968
925.279	4010
925.387	4105
925.494	4147
925.602	4223
925.709	4249
925.816	4082
925.924	4185
926.031	4242
926.138	4215
926.245	4291
926.352	4158
926.459	4272
926.566	4352
926.673	4192
926.779	4120
926.886	4105
926.993	4025
927.099	4017
927.206	4006
927.312	3972
927.419	4097
927.525	4078
927.631	4150
927.737	4048
927.843	4002
927.95	3861
928.056	4021
928.162	4006
928.267	4105
928.373	4653
928.479	4139
928.585	3892
928.69	4048
928.796	4093
928.901	3987
929.007	3899
929.112	4040
929.218	4051
929.323	3987
929.428	3945
929.533	4135
929.638	3930
929.743	3994
929.848	4067
929.953	3994
930.058	3941
930.163	3850
930.267	3827
930.372	4063
930.477	3880
930.581	4150
930.685	4006
930.79	3838
930.894	3937
930.998	3899
931.103	4120
931.207	3785
931.311	3701
931.415	3713
931.519	3557
931.623	3572
