Data from test_V78500241_2013.txt Node
Date: Fri Mar 25 17:02:59 CST 2022
User: usil
Spectrometer: V785-0024
Trigger mode: 0
Integration Time (sec): 4.000000E-1
Scans to average: 1
Nonlinearity correction enabled: false
Boxcar width: 0
Storing dark spectrum: false
XAxis mode: Wavelengths
Number of Pixels in Spectrum: 1024
>>>>>Begin Spectral Data<<<<<
801.071	7940
801.214	8005
801.356	7833
801.499	7799
801.641	7860
801.783	7799
801.926	8008
802.068	7925
802.211	7913
802.353	8008
802.496	7845
802.638	7871
802.78	7875
802.923	7913
803.065	7833
803.208	7841
803.35	7970
803.492	8069
803.635	8157
803.777	8027
803.919	8157
804.061	8499
804.204	8134
804.346	8050
804.488	7963
804.63	8149
804.773	7974
804.915	8111
805.057	8279
805.199	8191
805.341	8256
805.483	8279
805.626	8259
805.768	8107
805.91	8248
806.052	8183
806.194	8145
806.336	8237
806.478	8103
806.62	8054
806.762	8191
806.904	8313
807.046	8473
807.188	8377
807.33	8320
807.472	8366
807.614	8149
807.756	8195
807.898	8027
808.04	7906
808.182	7860
808.324	7875
808.465	7841
808.607	8054
808.749	8153
808.891	8195
809.033	8301
809.174	8263
809.316	8084
809.458	8081
809.6	8035
809.741	8115
809.883	8054
810.025	8100
810.166	8035
810.308	7978
810.45	7970
810.591	7833
810.733	7746
810.875	7757
811.016	7525
811.158	7483
811.299	7601
811.441	7761
811.582	7689
811.724	7590
811.865	7544
812.007	7529
812.148	7575
812.29	7559
812.431	7731
812.573	7890
812.714	7989
812.855	8180
812.997	8168
813.138	8294
813.279	8206
813.421	8088
813.562	7928
813.703	7875
813.845	7712
813.986	7381
814.127	7255
814.268	7247
814.41	7152
814.551	7187
814.692	7175
814.833	7088
814.974	7107
815.115	7171
815.256	6981
815.397	6943
815.539	6897
815.68	6878
815.821	6719
815.962	6856
816.103	6768
816.244	6696
816.385	6563
816.526	6623
816.666	6498
816.807	6350
816.948	6471
817.089	6422
817.23	6418
817.371	6399
817.512	6395
817.653	6433
817.793	6346
817.934	6437
818.075	6433
818.216	6437
818.356	6445
818.497	6323
818.638	6159
818.778	6171
818.919	6095
819.06	6254
819.2	6338
819.341	6365
819.481	6357
819.622	6483
819.762	6764
819.903	6730
820.043	6589
820.184	6555
820.324	6563
820.465	6715
820.605	6684
820.746	6642
820.886	6513
821.026	6673
821.167	6722
821.307	6776
821.447	6749
821.588	6635
821.728	6578
821.868	6498
822.008	6315
822.149	6380
822.289	6395
822.429	6175
822.569	6076
822.709	6091
822.849	5935
822.99	5961
823.13	5874
823.27	5897
823.41	5756
823.55	5779
823.69	5824
823.83	5809
823.97	5661
824.11	5516
824.25	5490
824.389	5524
824.529	5592
824.669	5551
824.809	5592
824.949	5604
825.089	5585
825.228	5570
825.368	5478
825.508	5376
825.648	5349
825.787	5395
825.927	5402
826.067	5239
826.206	5322
826.346	5391
826.485	5379
826.625	5417
826.765	5524
826.904	5493
827.044	5277
827.183	5185
827.323	5117
827.462	5265
827.601	5208
827.741	5193
827.88	5227
828.02	5143
828.159	5220
828.298	5277
828.437	5372
828.577	5311
828.716	5452
828.855	5357
828.994	5166
829.134	5227
829.273	5261
829.412	5178
829.551	5094
829.69	5227
829.829	5303
829.968	5368
830.107	5231
830.246	5269
830.385	5189
830.524	5105
830.663	5086
830.802	4991
830.941	4908
831.08	4835
831.219	5025
831.357	5006
831.496	5124
831.635	4923
831.774	4850
831.913	4831
832.051	4736
832.19	4782
832.329	4843
832.467	4694
832.606	4660
832.744	4675
832.883	4714
833.022	4733
833.16	4797
833.299	4793
833.437	4858
833.576	4812
833.714	4866
833.852	4854
833.991	4885
834.129	4976
834.267	4927
834.406	4908
834.544	4965
834.682	4984
834.821	4991
834.959	5216
835.097	4976
835.235	5143
835.373	5056
835.511	5079
835.65	4999
835.788	5003
835.926	4854
836.064	4927
836.202	4881
836.34	5170
836.478	5242
836.615	5159
836.753	5223
836.891	5288
837.029	5231
837.167	5265
837.305	5212
837.443	5155
837.58	5098
837.718	5280
837.856	5189
837.993	5140
838.131	5250
838.269	5181
838.406	5197
838.544	5166
838.681	5037
838.819	4980
838.956	4870
839.094	4904
839.231	5006
839.369	5071
839.506	5410
839.643	5280
839.781	5033
839.918	5029
840.055	5102
840.193	5071
840.33	5109
840.467	5185
840.604	5166
840.742	5429
840.879	5056
841.016	5090
841.153	5132
841.29	5391
841.427	5349
841.564	5341
841.701	5376
841.838	5277
841.975	5220
842.112	5284
842.249	5140
842.385	5060
842.522	5296
842.659	5155
842.796	5193
842.933	5227
843.069	5117
843.206	5159
843.343	5280
843.479	5250
843.616	5212
843.752	5033
843.889	5029
844.025	5197
844.162	4980
844.298	5166
844.435	5098
844.571	5025
844.708	5185
844.844	5357
844.98	5334
845.117	5322
845.253	5147
845.389	5090
845.525	5143
845.661	5143
845.798	5083
845.934	5185
846.07	5041
846.206	5231
846.342	5239
846.478	5178
846.614	4995
846.75	5022
846.886	4892
847.022	5094
847.158	5048
847.294	5071
847.429	5117
847.565	5033
847.701	5337
847.837	4831
847.972	4828
848.108	4965
848.244	4892
848.379	4717
848.515	4733
848.65	4706
848.786	4702
848.921	4793
849.057	4850
849.192	4816
849.328	4805
849.463	4828
849.598	4755
849.734	4759
849.869	4706
850.004	4649
850.14	4672
850.275	4634
850.41	4531
850.545	4531
850.68	4573
850.815	4634
850.95	4630
851.085	4877
851.22	4733
851.355	4740
851.49	4569
851.625	4653
851.76	4641
851.895	4531
852.03	4550
852.165	4660
852.299	4687
852.434	4740
852.569	4744
852.703	4782
852.838	4809
852.973	4927
853.107	4911
853.242	4691
853.376	4649
853.511	4535
853.645	4630
853.78	4782
853.914	4683
854.048	4656
854.183	4641
854.317	4683
854.451	4839
854.585	4698
854.72	4645
854.854	4736
854.988	4611
855.122	4637
855.256	4500
855.39	4702
855.524	4774
855.658	4694
855.792	4683
855.926	4702
856.06	4763
856.194	4847
856.327	4694
856.461	4596
856.595	4622
856.729	4637
856.862	4763
856.996	4687
857.13	4698
857.263	4736
857.397	4839
857.53	4664
857.664	4698
857.797	4717
857.931	4740
858.064	4683
858.197	4698
858.331	4668
858.464	4637
858.597	4519
858.731	4653
858.864	4622
858.997	4573
859.13	4637
859.263	4668
859.396	4675
859.529	4523
859.662	4516
859.795	4538
859.928	4634
860.061	4767
860.194	4744
860.327	4611
860.46	4599
860.592	4748
860.725	4752
860.858	4710
860.99	4592
861.123	4527
861.256	4542
861.388	4599
861.521	5265
861.653	4470
861.786	4424
861.918	4432
862.05	4485
862.183	4573
862.315	4577
862.447	4645
862.58	4500
862.712	4409
862.844	4295
862.976	4459
863.108	4409
863.24	4778
863.372	4306
863.504	4417
863.636	4398
863.768	4459
863.9	4417
864.032	4329
864.164	4417
864.296	4466
864.428	4542
864.559	4542
864.691	4550
864.823	4500
864.954	4512
865.086	4485
865.217	4440
865.349	4386
865.48	4462
865.612	4512
865.743	4630
865.875	4424
866.006	4409
866.137	4413
866.269	4459
866.4	4481
866.531	4424
866.662	4409
866.793	4402
866.924	4379
867.055	4485
867.186	4455
867.317	4375
867.448	4390
867.579	4360
867.71	4386
867.841	4360
867.972	4417
868.103	4451
868.233	4394
868.364	4447
868.495	4500
868.625	4668
868.756	4748
868.886	4607
869.017	4577
869.147	4744
869.278	4801
869.408	4672
869.539	4592
869.669	4752
869.799	4664
869.929	4725
870.06	4729
870.19	4942
870.32	4904
870.45	4938
870.58	4968
870.71	5090
870.84	5121
870.97	4961
871.1	4850
871.23	5155
871.36	5105
871.489	4984
871.619	5090
871.749	5113
871.879	5083
872.008	5166
872.138	5037
872.267	4965
872.397	4797
872.526	4831
872.656	4725
872.785	4801
872.915	4911
873.044	5064
873.173	4873
873.303	4946
873.432	4980
873.561	4930
873.69	4904
873.819	4858
873.948	4934
874.077	4828
874.206	4801
874.335	4782
874.464	4946
874.593	5018
874.722	4938
874.851	5117
874.979	5071
875.108	5033
875.237	4885
875.365	4873
875.494	4889
875.623	4972
875.751	4778
875.88	4873
876.008	4976
876.136	5022
876.265	5189
876.393	5345
876.521	5216
876.65	5216
876.778	5178
876.906	5056
877.034	5064
877.162	5048
877.29	4953
877.418	5052
877.546	5045
877.674	5029
877.802	4999
877.93	4999
878.058	4919
878.185	4877
878.313	4923
878.441	4953
878.568	4797
878.696	4858
878.824	4949
878.951	5056
879.079	5151
879.206	5239
879.333	5151
879.461	4968
879.588	5006
879.715	5094
879.842	5235
879.97	4972
880.097	4778
880.224	4744
880.351	4793
880.478	4828
880.605	4816
880.732	4782
880.859	5041
880.986	4881
881.112	4915
881.239	4778
881.366	4668
881.493	4618
881.619	4573
881.746	4580
881.872	4679
881.999	4637
882.125	4691
882.252	4786
882.378	4858
882.505	4953
882.631	4805
882.757	4698
882.883	4744
883.01	4736
883.136	4683
883.262	4618
883.388	4611
883.514	4755
883.64	4927
883.766	4812
883.892	4645
884.018	4752
884.143	4885
884.269	5033
884.395	4691
884.52	4645
884.646	4611
884.772	4558
884.897	4569
885.023	4649
885.148	4809
885.274	4831
885.399	4805
885.524	4691
885.65	4714
885.775	4717
885.9	4706
886.025	4843
886.15	4793
886.275	4691
886.4	4656
886.525	4702
886.65	4710
886.775	4698
886.9	4877
887.025	4984
887.149	4748
887.274	4607
887.399	4599
887.523	4577
887.648	4607
887.773	4565
887.897	4767
888.021	4774
888.146	4702
888.27	4778
888.395	4934
888.519	4858
888.643	4786
888.767	4858
888.891	4694
889.015	4603
889.139	4653
889.263	4588
889.387	4752
889.511	4908
889.635	4752
889.759	4645
889.883	4634
890.006	4729
890.13	4828
890.254	4588
890.377	4675
890.501	4565
890.624	4535
890.748	4603
890.871	4504
890.995	4447
891.118	4371
891.241	4497
891.364	4565
891.488	4660
891.611	4531
891.734	4527
891.857	4596
891.98	4546
892.103	4660
892.226	4603
892.349	4535
892.471	4428
892.594	4558
892.717	4611
892.839	4538
892.962	4603
893.085	4660
893.207	4561
893.33	4459
893.452	4478
893.575	4668
893.697	4516
893.819	4752
893.941	4820
894.064	4763
894.186	4588
894.308	4565
894.43	4729
894.552	4877
894.674	4725
894.796	4531
894.918	4607
895.04	4508
895.161	4714
895.283	4702
895.405	4592
895.526	4634
895.648	4702
895.769	4656
895.891	4702
896.012	4683
896.134	4694
896.255	4618
896.376	4622
896.498	4607
896.619	4683
896.74	4607
896.861	4622
896.982	4904
897.103	5064
897.224	4812
897.345	4763
897.466	4653
897.587	4691
897.708	4835
897.828	4820
897.949	4630
898.07	4516
898.19	4641
898.311	4828
898.431	4679
898.552	4710
898.672	4858
898.792	4877
898.913	4725
899.033	4656
899.153	4462
899.273	4413
899.393	4527
899.513	4519
899.633	4531
899.753	4519
899.873	4542
899.993	4599
900.113	4535
900.232	4588
900.352	4565
900.472	4451
900.591	4390
900.711	4519
900.83	4443
900.95	4626
901.069	4687
901.189	4565
901.308	4333
901.427	4310
901.546	4428
901.665	4440
901.784	4516
901.904	4356
902.023	4333
902.141	4211
902.26	4169
902.379	4272
902.498	4196
902.617	4242
902.735	4337
902.854	4436
902.973	4348
903.091	4162
903.21	4261
903.328	4314
903.446	4284
903.565	4238
903.683	4329
903.801	4314
903.919	4383
904.038	4432
904.156	4337
904.274	4428
904.392	4390
904.51	4386
904.627	4459
904.745	4569
904.863	4618
904.981	4394
905.098	4325
905.216	4413
905.334	4436
905.451	4432
905.569	4451
905.686	4538
905.803	4565
905.921	4417
906.038	4634
906.155	4474
906.272	4383
906.389	4485
906.506	4333
906.623	4390
906.74	4375
906.857	4303
906.974	4394
907.091	4558
907.208	4660
907.324	4607
907.441	4512
907.557	4375
907.674	4367
907.79	4306
907.907	4367
908.023	4455
908.139	4462
908.256	4440
908.372	4451
908.488	4424
908.604	4409
908.72	4325
908.836	4383
908.952	4379
909.068	4390
909.184	4538
909.3	4432
909.415	4599
909.531	4580
909.647	4348
909.762	4356
909.878	4344
909.993	4466
910.108	4428
910.224	4428
910.339	4451
910.454	4421
910.57	4344
910.685	4325
910.8	4660
910.915	4588
911.03	4489
911.145	4287
911.259	4337
911.374	4371
911.489	4272
911.604	4276
911.718	4188
911.833	4185
911.947	4093
912.062	4021
912.176	4223
912.291	4268
912.405	4284
912.519	4478
912.633	4550
912.748	4383
912.862	4306
912.976	4227
913.09	4112
913.204	4135
913.318	4261
913.431	4337
913.545	4379
913.659	4436
913.772	4333
913.886	4238
914	4181
914.113	4348
914.226	4478
914.34	4363
914.453	4223
914.566	4417
914.68	4314
914.793	4310
914.906	4162
915.019	4105
915.132	4078
915.245	4192
915.358	4207
915.47	4188
915.583	4306
915.696	4257
915.809	4413
915.921	4413
916.034	4299
916.146	4276
916.259	4192
916.371	4352
916.483	4367
916.595	4272
916.708	4314
916.82	4314
916.932	4295
917.044	4325
917.156	4306
917.268	4181
917.38	4253
917.491	4238
917.603	4363
917.715	4405
917.826	4443
917.938	4341
918.049	4249
918.161	4367
918.272	4546
918.384	4550
918.495	4481
918.606	4284
918.717	4249
918.828	4356
918.939	4363
919.05	4276
919.161	4333
919.272	4162
919.383	4211
919.494	4421
919.604	4630
919.715	4405
919.826	4383
919.936	4432
920.047	4485
920.157	4497
920.267	4694
920.378	4607
920.488	4466
920.598	4733
920.708	4900
920.818	4771
920.928	4797
921.038	4987
921.148	4930
921.258	4630
921.368	4554
921.477	4519
921.587	4493
921.697	4348
921.806	4558
921.916	4402
922.025	4318
922.134	4261
922.244	4249
922.353	4348
922.462	4112
922.571	4162
922.68	4021
922.789	3975
922.898	4017
923.007	3991
923.116	4090
923.224	4101
923.333	4036
923.442	3964
923.55	3998
923.659	4021
923.767	4086
923.876	3956
923.984	4150
924.092	4002
924.201	4063
924.309	4090
924.417	4112
924.525	4063
924.633	4063
924.741	5010
924.849	3892
924.956	4143
925.064	3934
925.172	3934
925.279	3972
925.387	4059
925.494	4055
925.602	4215
925.709	4158
925.816	4032
925.924	4097
926.031	4246
926.138	4173
926.245	4192
926.352	4097
926.459	4299
926.566	4318
926.673	4223
926.779	4059
926.886	4093
926.993	3960
927.099	3930
927.206	3972
927.312	3949
927.419	4002
927.525	4063
927.631	4097
927.737	3991
927.843	3945
927.95	3869
928.056	3949
928.162	3964
928.267	4040
928.373	4584
928.479	4120
928.585	3846
928.69	4021
928.796	4067
928.901	4021
929.007	3827
929.112	4002
929.218	4010
929.323	3964
929.428	3964
929.533	4090
929.638	3930
929.743	3937
929.848	4032
929.953	3968
930.058	3911
930.163	3743
930.267	3774
930.372	3968
930.477	3823
930.581	4051
930.685	3922
930.79	3854
930.894	3854
930.998	3876
931.103	4025
931.207	3701
931.311	3724
931.415	3682
931.519	3504
931.623	3553
