Data from test_V78500241_2228.txt Node
Date: Fri Mar 25 17:04:29 CST 2022
User: usil
Spectrometer: V785-0024
Trigger mode: 0
Integration Time (sec): 4.000000E-1
Scans to average: 1
Nonlinearity correction enabled: false
Boxcar width: 0
Storing dark spectrum: false
XAxis mode: Wavelengths
Number of Pixels in Spectrum: 1024
>>>>>Begin Spectral Data<<<<<
801.071	8008
801.214	7986
801.356	7837
801.499	7818
801.641	7784
801.783	7837
801.926	7898
802.068	7932
802.211	7917
802.353	7967
802.496	7887
802.638	7856
802.78	7833
802.923	7909
803.065	7811
803.208	7849
803.35	7944
803.492	8069
803.635	8081
803.777	7989
803.919	8069
804.061	8457
804.204	8187
804.346	8035
804.488	7917
804.63	8130
804.773	8058
804.915	8062
805.057	8240
805.199	8134
805.341	8180
805.483	8229
805.626	8256
805.768	8111
805.91	8187
806.052	8263
806.194	8107
806.336	8271
806.478	8096
806.62	8065
806.762	8096
806.904	8279
807.046	8431
807.188	8332
807.33	8199
807.472	8358
807.614	8183
807.756	8145
807.898	8020
808.04	7860
808.182	7898
808.324	7864
808.465	7947
808.607	8103
808.749	8069
808.891	8123
809.033	8347
809.174	8191
809.316	8115
809.458	8001
809.6	7997
809.741	8035
809.883	8016
810.025	8088
810.166	8107
810.308	8046
810.45	7982
810.591	7864
810.733	7712
810.875	7674
811.016	7483
811.158	7407
811.299	7495
811.441	7704
811.582	7708
811.724	7506
811.865	7529
812.007	7609
812.148	7575
812.29	7670
812.431	7765
812.573	7883
812.714	7982
812.855	8088
812.997	8202
813.138	8298
813.279	8142
813.421	8065
813.562	7963
813.703	7860
813.845	7719
813.986	7419
814.127	7232
814.268	7206
814.41	7198
814.551	7110
814.692	7225
814.833	6993
814.974	7072
815.115	7080
815.256	6985
815.397	6943
815.539	6932
815.68	6783
815.821	6734
815.962	6871
816.103	6818
816.244	6635
816.385	6597
816.526	6536
816.666	6506
816.807	6251
816.948	6372
817.089	6410
817.23	6399
817.371	6395
817.512	6384
817.653	6353
817.793	6346
817.934	6437
818.075	6418
818.216	6380
818.356	6391
818.497	6235
818.638	6140
818.778	6163
818.919	6159
819.06	6171
819.2	6292
819.341	6311
819.481	6384
819.622	6490
819.762	6711
819.903	6646
820.043	6563
820.184	6555
820.324	6532
820.465	6662
820.605	6639
820.746	6623
820.886	6536
821.026	6665
821.167	6734
821.307	6779
821.447	6692
821.588	6669
821.728	6559
821.868	6471
822.008	6338
822.149	6365
822.289	6285
822.429	6209
822.569	6068
822.709	6087
822.849	5958
822.99	6011
823.13	5923
823.27	5889
823.41	5764
823.55	5836
823.69	5764
823.83	5779
823.97	5680
824.11	5528
824.25	5543
824.389	5558
824.529	5627
824.669	5505
824.809	5684
824.949	5661
825.089	5688
825.228	5585
825.368	5452
825.508	5433
825.648	5311
825.787	5376
825.927	5364
826.067	5322
826.206	5345
826.346	5410
826.485	5425
826.625	5471
826.765	5573
826.904	5589
827.044	5273
827.183	5280
827.323	5159
827.462	5261
827.601	5254
827.741	5166
827.88	5269
828.02	5197
828.159	5235
828.298	5402
828.437	5341
828.577	5303
828.716	5554
828.855	5330
828.994	5170
829.134	5220
829.273	5201
829.412	5242
829.551	5140
829.69	5174
829.829	5315
829.968	5440
830.107	5337
830.246	5303
830.385	5227
830.524	5193
830.663	5067
830.802	5037
830.941	4934
831.08	4934
831.219	5075
831.357	4972
831.496	5239
831.635	4957
831.774	4908
831.913	4881
832.051	4782
832.19	4816
832.329	4870
832.467	4733
832.606	4706
832.744	4759
832.883	4790
833.022	4786
833.16	4831
833.299	4915
833.437	4889
833.576	4866
833.714	4904
833.852	4866
833.991	4946
834.129	5003
834.267	4987
834.406	4919
834.544	5010
834.682	5022
834.821	5010
834.959	5208
835.097	5071
835.235	5174
835.373	5155
835.511	5174
835.65	5083
835.788	5064
835.926	4942
836.064	4885
836.202	4972
836.34	5201
836.478	5299
836.615	5220
836.753	5227
836.891	5269
837.029	5277
837.167	5197
837.305	5189
837.443	5159
837.58	5105
837.718	5273
837.856	5212
837.993	5143
838.131	5231
838.269	5258
838.406	5189
838.544	5201
838.681	5071
838.819	5037
838.956	4972
839.094	4934
839.231	5018
839.369	5071
839.506	5425
839.643	5315
839.781	5052
839.918	5029
840.055	5117
840.193	5155
840.33	5151
840.467	5185
840.604	5204
840.742	5478
840.879	5079
841.016	5117
841.153	5170
841.29	5353
841.427	5360
841.564	5357
841.701	5376
841.838	5299
841.975	5277
842.112	5284
842.249	5124
842.385	5109
842.522	5387
842.659	5212
842.796	5189
842.933	5212
843.069	5178
843.206	5185
843.343	5353
843.479	5258
843.616	5296
843.752	5025
843.889	5048
844.025	5212
844.162	5067
844.298	5201
844.435	5109
844.571	5117
844.708	5277
844.844	5353
844.98	5391
845.117	5315
845.253	5170
845.389	5121
845.525	5201
845.661	5109
845.798	5090
845.934	5140
846.07	5109
846.206	5235
846.342	5349
846.478	5170
846.614	5045
846.75	5003
846.886	5010
847.022	5132
847.158	5060
847.294	5113
847.429	5121
847.565	5075
847.701	5299
847.837	4889
847.972	4809
848.108	5010
848.244	4972
848.379	4801
848.515	4740
848.65	4771
848.786	4755
848.921	4828
849.057	4908
849.192	4923
849.328	4900
849.463	4870
849.598	4850
849.734	4831
849.869	4748
850.004	4645
850.14	4721
850.275	4565
850.41	4607
850.545	4558
850.68	4607
850.815	4649
850.95	4653
851.085	4908
851.22	4733
851.355	4729
851.49	4630
851.625	4668
851.76	4733
851.895	4603
852.03	4626
852.165	4687
852.299	4744
852.434	4801
852.569	4752
852.703	4816
852.838	4866
852.973	4995
853.107	4980
853.242	4786
853.376	4675
853.511	4565
853.645	4607
853.78	4824
853.914	4710
854.048	4687
854.183	4668
854.317	4748
854.451	4850
854.585	4698
854.72	4645
854.854	4850
854.988	4641
855.122	4687
855.256	4584
855.39	4706
855.524	4759
855.658	4755
855.792	4714
855.926	4767
856.06	4740
856.194	4858
856.327	4672
856.461	4630
856.595	4626
856.729	4668
856.862	4740
856.996	4717
857.13	4733
857.263	4774
857.397	4767
857.53	4702
857.664	4733
857.797	4752
857.931	4786
858.064	4733
858.197	4744
858.331	4645
858.464	4649
858.597	4558
858.731	4664
858.864	4672
858.997	4596
859.13	4656
859.263	4653
859.396	4740
859.529	4588
859.662	4561
859.795	4550
859.928	4618
860.061	4809
860.194	4748
860.327	4611
860.46	4550
860.592	4729
860.725	4733
860.858	4721
860.99	4561
861.123	4512
861.256	4584
861.388	4603
861.521	5345
861.653	4504
861.786	4462
861.918	4470
862.05	4538
862.183	4584
862.315	4626
862.447	4634
862.58	4554
862.712	4409
862.844	4337
862.976	4497
863.108	4489
863.24	4862
863.372	4360
863.504	4459
863.636	4394
863.768	4466
863.9	4459
864.032	4394
864.164	4443
864.296	4512
864.428	4592
864.559	4569
864.691	4535
864.823	4550
864.954	4550
865.086	4504
865.217	4447
865.349	4409
865.48	4500
865.612	4550
865.743	4649
865.875	4481
866.006	4436
866.137	4455
866.269	4432
866.4	4493
866.531	4470
866.662	4428
866.793	4462
866.924	4424
867.055	4504
867.186	4481
867.317	4478
867.448	4402
867.579	4394
867.71	4424
867.841	4367
867.972	4504
868.103	4493
868.233	4493
868.364	4466
868.495	4527
868.625	4683
868.756	4763
868.886	4611
869.017	4683
869.147	4774
869.278	4797
869.408	4660
869.539	4679
869.669	4691
869.799	4687
869.929	4831
870.06	4771
870.19	4999
870.32	4915
870.45	4987
870.58	5056
870.71	5136
870.84	5109
870.97	5029
871.1	4915
871.23	5159
871.36	5155
871.489	5048
871.619	5102
871.749	5128
871.879	5155
872.008	5223
872.138	5090
872.267	5033
872.397	4847
872.526	4816
872.656	4736
872.785	4862
872.915	4961
873.044	4976
873.173	4968
873.303	4999
873.432	4957
873.561	4987
873.69	4889
873.819	4854
873.948	4946
874.077	4835
874.206	4809
874.335	4820
874.464	4942
874.593	5109
874.722	5006
874.851	5140
874.979	5113
875.108	5037
875.237	4911
875.365	4919
875.494	4881
875.623	4976
875.751	4820
875.88	4938
876.008	5006
876.136	5064
876.265	5216
876.393	5357
876.521	5269
876.65	5265
876.778	5197
876.906	5079
877.034	5025
877.162	5098
877.29	5045
877.418	5132
877.546	5086
877.674	5056
877.802	5029
877.93	5037
878.058	4949
878.185	4866
878.313	4927
878.441	4938
878.568	4839
878.696	4904
878.824	4965
878.951	5067
879.079	5151
879.206	5311
879.333	5136
879.461	5006
879.588	4991
879.715	5143
879.842	5242
879.97	5048
880.097	4790
880.224	4771
880.351	4873
880.478	4831
880.605	4862
880.732	4801
880.859	5113
880.986	4942
881.112	4923
881.239	4782
881.366	4710
881.493	4679
881.619	4626
881.746	4679
881.872	4649
881.999	4653
882.125	4706
882.252	4793
882.378	4866
882.505	4984
882.631	4820
882.757	4691
882.883	4736
883.01	4710
883.136	4698
883.262	4603
883.388	4630
883.514	4812
883.64	4866
883.766	4809
883.892	4687
884.018	4729
884.143	4881
884.269	5014
884.395	4691
884.52	4653
884.646	4679
884.772	4599
884.897	4546
885.023	4630
885.148	4763
885.274	4854
885.399	4812
885.524	4733
885.65	4740
885.775	4740
885.9	4706
886.025	4881
886.15	4809
886.275	4706
886.4	4672
886.525	4793
886.65	4656
886.775	4733
886.9	4904
887.025	5052
887.149	4850
887.274	4687
887.399	4626
887.523	4618
887.648	4561
887.773	4630
887.897	4797
888.021	4828
888.146	4725
888.27	4816
888.395	4934
888.519	4820
888.643	4847
888.767	4824
888.891	4660
889.015	4626
889.139	4634
889.263	4660
889.387	4744
889.511	4881
889.635	4801
889.759	4615
889.883	4634
890.006	4759
890.13	4839
890.254	4611
890.377	4691
890.501	4561
890.624	4481
890.748	4645
890.871	4497
890.995	4409
891.118	4409
891.241	4519
891.364	4565
891.488	4649
891.611	4531
891.734	4538
891.857	4603
891.98	4596
892.103	4649
892.226	4580
892.349	4538
892.471	4432
892.594	4497
892.717	4561
892.839	4523
892.962	4607
893.085	4706
893.207	4603
893.33	4478
893.452	4538
893.575	4649
893.697	4535
893.819	4843
893.941	4877
894.064	4793
894.186	4603
894.308	4584
894.43	4740
894.552	4816
894.674	4759
894.796	4516
894.918	4660
895.04	4596
895.161	4717
895.283	4664
895.405	4569
895.526	4622
895.648	4664
895.769	4740
895.891	4706
896.012	4698
896.134	4706
896.255	4672
896.376	4637
896.498	4622
896.619	4679
896.74	4630
896.861	4672
896.982	4923
897.103	5094
897.224	4820
897.345	4733
897.466	4694
897.587	4740
897.708	4828
897.828	4717
897.949	4706
898.07	4588
898.19	4656
898.311	4793
898.431	4694
898.552	4809
898.672	4835
898.792	4866
898.913	4748
899.033	4645
899.153	4500
899.273	4440
899.393	4519
899.513	4535
899.633	4538
899.753	4550
899.873	4508
899.993	4588
900.113	4527
900.232	4588
900.352	4565
900.472	4493
900.591	4421
900.711	4500
900.83	4428
900.95	4596
901.069	4660
901.189	4523
901.308	4363
901.427	4356
901.546	4360
901.665	4481
901.784	4527
901.904	4424
902.023	4325
902.141	4181
902.26	4173
902.379	4291
902.498	4230
902.617	4261
902.735	4356
902.854	4413
902.973	4341
903.091	4200
903.21	4219
903.328	4280
903.446	4299
903.565	4276
903.683	4379
903.801	4287
903.919	4394
904.038	4455
904.156	4344
904.274	4424
904.392	4432
904.51	4417
904.627	4504
904.745	4596
904.863	4645
904.981	4394
905.098	4318
905.216	4337
905.334	4402
905.451	4443
905.569	4417
905.686	4573
905.803	4577
905.921	4394
906.038	4527
906.155	4512
906.272	4356
906.389	4436
906.506	4390
906.623	4386
906.74	4409
906.857	4295
906.974	4390
907.091	4561
907.208	4691
907.324	4599
907.441	4504
907.557	4344
907.674	4367
907.79	4344
907.907	4375
908.023	4470
908.139	4485
908.256	4428
908.372	4470
908.488	4398
908.604	4337
908.72	4341
908.836	4344
908.952	4348
909.068	4417
909.184	4569
909.3	4478
909.415	4584
909.531	4599
909.647	4424
909.762	4325
909.878	4344
909.993	4421
910.108	4398
910.224	4436
910.339	4478
910.454	4421
910.57	4421
910.685	4295
910.8	4664
910.915	4546
911.03	4459
911.145	4367
911.259	4299
911.374	4367
911.489	4295
911.604	4261
911.718	4150
911.833	4181
911.947	4044
912.062	4055
912.176	4242
912.291	4257
912.405	4253
912.519	4489
912.633	4519
912.748	4386
912.862	4333
912.976	4207
913.09	4120
913.204	4150
913.318	4223
913.431	4341
913.545	4386
913.659	4451
913.772	4325
913.886	4276
914	4188
914.113	4390
914.226	4428
914.34	4386
914.453	4287
914.566	4428
914.68	4341
914.793	4280
914.906	4150
915.019	4109
915.132	4090
915.245	4173
915.358	4234
915.47	4268
915.583	4265
915.696	4306
915.809	4409
915.921	4421
916.034	4215
916.146	4246
916.259	4257
916.371	4394
916.483	4379
916.595	4242
916.708	4367
916.82	4379
916.932	4360
917.044	4303
917.156	4360
917.268	4238
917.38	4272
917.491	4314
917.603	4318
917.715	4383
917.826	4474
917.938	4344
918.049	4287
918.161	4352
918.272	4573
918.384	4516
918.495	4481
918.606	4303
918.717	4246
918.828	4348
918.939	4383
919.05	4223
919.161	4341
919.272	4154
919.383	4234
919.494	4455
919.604	4668
919.715	4432
919.826	4398
919.936	4436
920.047	4519
920.157	4451
920.267	4706
920.378	4580
920.488	4508
920.598	4725
920.708	4892
920.818	4748
920.928	4755
921.038	4949
921.148	4923
921.258	4645
921.368	4531
921.477	4436
921.587	4447
921.697	4367
921.806	4542
921.916	4390
922.025	4284
922.134	4223
922.244	4219
922.353	4329
922.462	4192
922.571	4097
922.68	3998
922.789	3968
922.898	4013
923.007	4025
923.116	4116
923.224	4040
923.333	4051
923.442	3991
923.55	3983
923.659	4029
923.767	4181
923.876	4010
923.984	4109
924.092	3991
924.201	4093
924.309	4063
924.417	4150
924.525	4063
924.633	4074
924.741	5090
924.849	3975
924.956	4120
925.064	3968
925.172	3880
925.279	3930
925.387	4078
925.494	4055
925.602	4219
925.709	4166
925.816	4063
925.924	4143
926.031	4272
926.138	4101
926.245	4162
926.352	4067
926.459	4234
926.566	4325
926.673	4154
926.779	4071
926.886	4082
926.993	3987
927.099	3979
927.206	3888
927.312	3930
927.419	4105
927.525	3975
927.631	4105
927.737	3964
927.843	3972
927.95	3884
928.056	3964
928.162	3964
928.267	4048
928.373	4641
928.479	4112
928.585	3907
928.69	3998
928.796	4105
928.901	3956
929.007	3846
929.112	3968
929.218	3953
929.323	3922
929.428	3949
929.533	4071
929.638	3918
929.743	3934
929.848	4025
929.953	3941
930.058	3945
930.163	3804
930.267	3846
930.372	3972
930.477	3835
930.581	4036
930.685	3968
930.79	3819
930.894	3880
930.998	3888
931.103	4032
931.207	3709
931.311	3720
931.415	3694
931.519	3477
931.623	3504
