Data from test_V78500241_357.txt Node
Date: Fri Mar 25 16:51:29 CST 2022
User: usil
Spectrometer: V785-0024
Trigger mode: 0
Integration Time (sec): 4.000000E-1
Scans to average: 1
Nonlinearity correction enabled: false
Boxcar width: 0
Storing dark spectrum: false
XAxis mode: Wavelengths
Number of Pixels in Spectrum: 1024
>>>>>Begin Spectral Data<<<<<
801.071	8027
801.214	8012
801.356	7864
801.499	7944
801.641	7890
801.783	7868
801.926	7951
802.068	7940
802.211	8016
802.353	7967
802.496	7833
802.638	7864
802.78	7928
802.923	7944
803.065	7871
803.208	7879
803.35	8001
803.492	8046
803.635	8107
803.777	8001
803.919	8081
804.061	8446
804.204	8149
804.346	8077
804.488	7944
804.63	8138
804.773	7951
804.915	8100
805.057	8282
805.199	8191
805.341	8244
805.483	8263
805.626	8153
805.768	8088
805.91	8161
806.052	8202
806.194	8111
806.336	8263
806.478	8157
806.62	8142
806.762	8168
806.904	8309
807.046	8507
807.188	8366
807.33	8305
807.472	8305
807.614	8168
807.756	8111
807.898	8039
808.04	7890
808.182	7989
808.324	7970
808.465	7909
808.607	8092
808.749	8130
808.891	8244
809.033	8320
809.174	8202
809.316	8058
809.458	8088
809.6	8001
809.741	8073
809.883	7974
810.025	8096
810.166	8202
810.308	8103
810.45	8008
810.591	7871
810.733	7803
810.875	7719
811.016	7525
811.158	7487
811.299	7620
811.441	7860
811.582	7727
811.724	7624
811.865	7620
812.007	7662
812.148	7616
812.29	7605
812.431	7788
812.573	7887
812.714	8016
812.855	8107
812.997	8225
813.138	8256
813.279	8244
813.421	8123
813.562	8115
813.703	7936
813.845	7871
813.986	7518
814.127	7358
814.268	7305
814.41	7263
814.551	7244
814.692	7198
814.833	7099
814.974	7072
815.115	7080
815.256	6924
815.397	6928
815.539	6924
815.68	6821
815.821	6840
815.962	6901
816.103	6859
816.244	6791
816.385	6654
816.526	6658
816.666	6578
816.807	6361
816.948	6456
817.089	6448
817.23	6464
817.371	6357
817.512	6410
817.653	6426
817.793	6357
817.934	6388
818.075	6445
818.216	6486
818.356	6441
818.497	6289
818.638	6098
818.778	6171
818.919	6114
819.06	6129
819.2	6315
819.341	6270
819.481	6410
819.622	6513
819.762	6821
819.903	6772
820.043	6631
820.184	6627
820.324	6616
820.465	6692
820.605	6635
820.746	6673
820.886	6589
821.026	6684
821.167	6688
821.307	6829
821.447	6719
821.588	6684
821.728	6654
821.868	6521
822.008	6380
822.149	6410
822.289	6410
822.429	6182
822.569	6133
822.709	6110
822.849	5950
822.99	5927
823.13	5984
823.27	5965
823.41	5771
823.55	5783
823.69	5805
823.83	5764
823.97	5676
824.11	5543
824.25	5501
824.389	5573
824.529	5630
824.669	5604
824.809	5589
824.949	5688
825.089	5638
825.228	5581
825.368	5436
825.508	5410
825.648	5414
825.787	5402
825.927	5406
826.067	5315
826.206	5303
826.346	5387
826.485	5387
826.625	5406
826.765	5543
826.904	5509
827.044	5254
827.183	5246
827.323	5128
827.462	5250
827.601	5166
827.741	5204
827.88	5250
828.02	5178
828.159	5189
828.298	5296
828.437	5376
828.577	5280
828.716	5471
828.855	5303
828.994	5151
829.134	5166
829.273	5151
829.412	5159
829.551	5166
829.69	5242
829.829	5258
829.968	5349
830.107	5284
830.246	5311
830.385	5246
830.524	5102
830.663	5029
830.802	5022
830.941	4949
831.08	4889
831.219	5033
831.357	4995
831.496	5189
831.635	4957
831.774	4839
831.913	4850
832.051	4725
832.19	4729
832.329	4862
832.467	4710
832.606	4706
832.744	4717
832.883	4740
833.022	4694
833.16	4831
833.299	4831
833.437	4877
833.576	4816
833.714	4877
833.852	4881
833.991	4934
834.129	4957
834.267	4930
834.406	4915
834.544	5022
834.682	5014
834.821	4919
834.959	5174
835.097	5014
835.235	5185
835.373	5102
835.511	5174
835.65	5067
835.788	4972
835.926	4946
836.064	4866
836.202	4911
836.34	5178
836.478	5216
836.615	5102
836.753	5208
836.891	5326
837.029	5231
837.167	5193
837.305	5189
837.443	5162
837.58	5052
837.718	5227
837.856	5185
837.993	5117
838.131	5250
838.269	5277
838.406	5227
838.544	5227
838.681	5064
838.819	5060
838.956	4927
839.094	4934
839.231	5014
839.369	5086
839.506	5433
839.643	5288
839.781	5056
839.918	5067
840.055	5174
840.193	5132
840.33	5151
840.467	5143
840.604	5235
840.742	5452
840.879	5079
841.016	5109
841.153	5143
841.29	5402
841.427	5337
841.564	5360
841.701	5337
841.838	5280
841.975	5254
842.112	5269
842.249	5162
842.385	5162
842.522	5337
842.659	5147
842.796	5159
842.933	5235
843.069	5159
843.206	5193
843.343	5299
843.479	5254
843.616	5246
843.752	5079
843.889	4995
844.025	5220
844.162	5105
844.298	5273
844.435	5105
844.571	5018
844.708	5277
844.844	5341
844.98	5345
845.117	5284
845.253	5102
845.389	5117
845.525	5121
845.661	5105
845.798	5064
845.934	5121
846.07	5060
846.206	5143
846.342	5284
846.478	5197
846.614	4995
846.75	4991
846.886	4870
847.022	5094
847.158	5033
847.294	5079
847.429	5075
847.565	5056
847.701	5311
847.837	4866
847.972	4866
848.108	4991
848.244	5003
848.379	4820
848.515	4755
848.65	4717
848.786	4786
848.921	4782
849.057	4892
849.192	4889
849.328	4839
849.463	4889
849.598	4774
849.734	4771
849.869	4744
850.004	4645
850.14	4714
850.275	4634
850.41	4569
850.545	4569
850.68	4618
850.815	4630
850.95	4569
851.085	4816
851.22	4748
851.355	4675
851.49	4641
851.625	4649
851.76	4626
851.895	4592
852.03	4527
852.165	4634
852.299	4755
852.434	4782
852.569	4752
852.703	4774
852.838	4854
852.973	4892
853.107	4927
853.242	4721
853.376	4615
853.511	4512
853.645	4653
853.78	4828
853.914	4702
854.048	4675
854.183	4641
854.317	4645
854.451	4801
854.585	4687
854.72	4637
854.854	4778
854.988	4615
855.122	4641
855.256	4523
855.39	4710
855.524	4805
855.658	4752
855.792	4736
855.926	4729
856.06	4759
856.194	4828
856.327	4706
856.461	4599
856.595	4607
856.729	4607
856.862	4729
856.996	4729
857.13	4782
857.263	4729
857.397	4839
857.53	4653
857.664	4702
857.797	4767
857.931	4809
858.064	4725
858.197	4725
858.331	4656
858.464	4630
858.597	4531
858.731	4615
858.864	4588
858.997	4615
859.13	4660
859.263	4706
859.396	4725
859.529	4630
859.662	4565
859.795	4546
859.928	4637
860.061	4809
860.194	4759
860.327	4607
860.46	4558
860.592	4694
860.725	4721
860.858	4744
860.99	4584
861.123	4546
861.256	4580
861.388	4603
861.521	5326
861.653	4436
861.786	4436
861.918	4447
862.05	4459
862.183	4565
862.315	4641
862.447	4645
862.58	4618
862.712	4363
862.844	4344
862.976	4474
863.108	4500
863.24	4793
863.372	4352
863.504	4459
863.636	4398
863.768	4455
863.9	4424
864.032	4383
864.164	4386
864.296	4489
864.428	4558
864.559	4580
864.691	4542
864.823	4573
864.954	4519
865.086	4527
865.217	4478
865.349	4394
865.48	4474
865.612	4554
865.743	4637
865.875	4474
866.006	4466
866.137	4470
866.269	4481
866.4	4527
866.531	4428
866.662	4481
866.793	4398
866.924	4474
867.055	4466
867.186	4466
867.317	4436
867.448	4394
867.579	4417
867.71	4428
867.841	4386
867.972	4485
868.103	4489
868.233	4466
868.364	4394
868.495	4481
868.625	4672
868.756	4759
868.886	4569
869.017	4599
869.147	4740
869.278	4771
869.408	4645
869.539	4653
869.669	4721
869.799	4626
869.929	4782
870.06	4736
870.19	4934
870.32	4919
870.45	4892
870.58	4987
870.71	5151
870.84	5136
870.97	4946
871.1	4968
871.23	5174
871.36	5113
871.489	5010
871.619	5098
871.749	5083
871.879	5109
872.008	5220
872.138	5090
872.267	5006
872.397	4843
872.526	4831
872.656	4755
872.785	4828
872.915	4957
873.044	5102
873.173	4934
873.303	4965
873.432	4968
873.561	4934
873.69	4911
873.819	4904
873.948	4904
874.077	4801
874.206	4790
874.335	4843
874.464	4854
874.593	5037
874.722	4987
874.851	5109
874.979	5075
875.108	5052
875.237	4946
875.365	4915
875.494	4885
875.623	4991
875.751	4831
875.88	4824
876.008	4999
876.136	5090
876.265	5212
876.393	5341
876.521	5269
876.65	5258
876.778	5155
876.906	5102
877.034	4999
877.162	5052
877.29	4972
877.418	5067
877.546	5018
877.674	5018
877.802	5056
877.93	4961
878.058	4949
878.185	4923
878.313	4999
878.441	4949
878.568	4771
878.696	4885
878.824	4953
878.951	4938
879.079	5117
879.206	5288
879.333	5102
879.461	5006
879.588	4991
879.715	5174
879.842	5242
879.97	4976
880.097	4790
880.224	4744
880.351	4858
880.478	4843
880.605	4797
880.732	4771
880.859	5094
880.986	4858
881.112	4896
881.239	4805
881.366	4683
881.493	4622
881.619	4645
881.746	4656
881.872	4698
881.999	4653
882.125	4729
882.252	4797
882.378	4790
882.505	4927
882.631	4824
882.757	4664
882.883	4733
883.01	4748
883.136	4664
883.262	4634
883.388	4615
883.514	4835
883.64	4854
883.766	4755
883.892	4637
884.018	4790
884.143	4862
884.269	5029
884.395	4702
884.52	4611
884.646	4706
884.772	4603
884.897	4573
885.023	4641
885.148	4820
885.274	4839
885.399	4805
885.524	4740
885.65	4683
885.775	4748
885.9	4706
886.025	4828
886.15	4809
886.275	4755
886.4	4672
886.525	4725
886.65	4683
886.775	4721
886.9	4904
887.025	5037
887.149	4801
887.274	4611
887.399	4588
887.523	4588
887.648	4588
887.773	4615
887.897	4702
888.021	4790
888.146	4729
888.27	4831
888.395	4900
888.519	4771
888.643	4835
888.767	4847
888.891	4694
889.015	4603
889.139	4656
889.263	4607
889.387	4782
889.511	4870
889.635	4793
889.759	4630
889.883	4675
890.006	4729
890.13	4843
890.254	4653
890.377	4694
890.501	4554
890.624	4527
890.748	4653
890.871	4485
890.995	4424
891.118	4413
891.241	4527
891.364	4558
891.488	4634
891.611	4497
891.734	4550
891.857	4622
891.98	4527
892.103	4668
892.226	4577
892.349	4565
892.471	4390
892.594	4592
892.717	4615
892.839	4622
892.962	4660
893.085	4675
893.207	4592
893.33	4424
893.452	4546
893.575	4637
893.697	4637
893.819	4774
893.941	4820
894.064	4755
894.186	4588
894.308	4542
894.43	4767
894.552	4870
894.674	4763
894.796	4580
894.918	4577
895.04	4626
895.161	4717
895.283	4702
895.405	4603
895.526	4641
895.648	4675
895.769	4683
895.891	4694
896.012	4748
896.134	4679
896.255	4706
896.376	4622
896.498	4637
896.619	4637
896.74	4569
896.861	4660
896.982	4953
897.103	5037
897.224	4828
897.345	4736
897.466	4660
897.587	4733
897.708	4873
897.828	4790
897.949	4687
898.07	4531
898.19	4641
898.311	4854
898.431	4717
898.552	4755
898.672	4790
898.792	4778
898.913	4691
899.033	4607
899.153	4504
899.273	4421
899.393	4512
899.513	4558
899.633	4554
899.753	4596
899.873	4577
899.993	4588
900.113	4603
900.232	4565
900.352	4580
900.472	4535
900.591	4432
900.711	4508
900.83	4447
900.95	4634
901.069	4683
901.189	4588
901.308	4398
901.427	4280
901.546	4424
901.665	4459
901.784	4455
901.904	4325
902.023	4333
902.141	4200
902.26	4162
902.379	4344
902.498	4249
902.617	4219
902.735	4356
902.854	4375
902.973	4390
903.091	4249
903.21	4242
903.328	4337
903.446	4265
903.565	4314
903.683	4356
903.801	4284
903.919	4451
904.038	4447
904.156	4306
904.274	4402
904.392	4424
904.51	4443
904.627	4474
904.745	4565
904.863	4672
904.981	4436
905.098	4322
905.216	4371
905.334	4447
905.451	4440
905.569	4398
905.686	4649
905.803	4588
905.921	4451
906.038	4573
906.155	4489
906.272	4421
906.389	4466
906.506	4375
906.623	4367
906.74	4394
906.857	4280
906.974	4405
907.091	4577
907.208	4664
907.324	4550
907.441	4440
907.557	4341
907.674	4284
907.79	4284
907.907	4386
908.023	4519
908.139	4550
908.256	4462
908.372	4459
908.488	4455
908.604	4386
908.72	4390
908.836	4383
908.952	4386
909.068	4455
909.184	4561
909.3	4500
909.415	4569
909.531	4561
909.647	4402
909.762	4344
909.878	4356
909.993	4436
910.108	4405
910.224	4432
910.339	4470
910.454	4394
910.57	4375
910.685	4329
910.8	4664
910.915	4649
911.03	4508
911.145	4409
911.259	4375
911.374	4371
911.489	4287
911.604	4295
911.718	4177
911.833	4215
911.947	4082
912.062	4025
912.176	4234
912.291	4253
912.405	4257
912.519	4481
912.633	4478
912.748	4379
912.862	4325
912.976	4177
913.09	4074
913.204	4162
913.318	4265
913.431	4344
913.545	4398
913.659	4451
913.772	4417
913.886	4261
914	4242
914.113	4394
914.226	4405
914.34	4428
914.453	4246
914.566	4481
914.68	4348
914.793	4356
914.906	4166
915.019	4139
915.132	4105
915.245	4185
915.358	4181
915.47	4238
915.583	4253
915.696	4257
915.809	4413
915.921	4424
916.034	4261
916.146	4287
916.259	4253
916.371	4352
916.483	4348
916.595	4306
916.708	4287
916.82	4322
916.932	4337
917.044	4325
917.156	4303
917.268	4215
917.38	4299
917.491	4318
917.603	4310
917.715	4390
917.826	4451
917.938	4371
918.049	4223
918.161	4424
918.272	4538
918.384	4527
918.495	4462
918.606	4306
918.717	4265
918.828	4322
918.939	4413
919.05	4211
919.161	4329
919.272	4166
919.383	4268
919.494	4462
919.604	4599
919.715	4455
919.826	4375
919.936	4428
920.047	4519
920.157	4489
920.267	4706
920.378	4542
920.488	4512
920.598	4729
920.708	4934
920.818	4752
920.928	4790
921.038	5003
921.148	4904
921.258	4660
921.368	4611
921.477	4489
921.587	4497
921.697	4363
921.806	4592
921.916	4489
922.025	4246
922.134	4295
922.244	4200
922.353	4318
922.462	4230
922.571	4124
922.68	4006
922.789	4036
922.898	4055
923.007	3975
923.116	4105
923.224	4071
923.333	4093
923.442	4021
923.55	3994
923.659	3987
923.767	4109
923.876	3987
923.984	4162
924.092	4002
924.201	4093
924.309	4051
924.417	4162
924.525	4055
924.633	4067
924.741	4854
924.849	3937
924.956	4109
925.064	3945
925.172	3934
925.279	3956
925.387	4059
925.494	4097
925.602	4234
925.709	4196
925.816	4051
925.924	4131
926.031	4219
926.138	4181
926.245	4200
926.352	4109
926.459	4257
926.566	4333
926.673	4169
926.779	4150
926.886	4139
926.993	4002
927.099	4006
927.206	3960
927.312	3945
927.419	4074
927.525	4040
927.631	4112
927.737	4010
927.843	3979
927.95	3838
928.056	3949
928.162	3953
928.267	4086
928.373	4706
928.479	4109
928.585	3854
928.69	4010
928.796	4059
928.901	4006
929.007	3838
929.112	4025
929.218	3994
929.323	3937
929.428	3903
929.533	4166
929.638	3926
929.743	3979
929.848	4055
929.953	3975
930.058	3960
930.163	3781
930.267	3857
930.372	3983
930.477	3838
930.581	4071
930.685	3975
930.79	3808
930.894	3857
930.998	3869
931.103	4048
931.207	3724
931.311	3724
931.415	3682
931.519	3530
931.623	3526
