Data from test_V78500241_2091.txt Node
Date: Fri Mar 25 17:03:32 CST 2022
User: usil
Spectrometer: V785-0024
Trigger mode: 0
Integration Time (sec): 4.000000E-1
Scans to average: 1
Nonlinearity correction enabled: false
Boxcar width: 0
Storing dark spectrum: false
XAxis mode: Wavelengths
Number of Pixels in Spectrum: 1024
>>>>>Begin Spectral Data<<<<<
801.071	7986
801.214	7970
801.356	7803
801.499	7887
801.641	7780
801.783	7784
801.926	8008
802.068	7902
802.211	7944
802.353	7993
802.496	7803
802.638	7921
802.78	7883
802.923	7890
803.065	7833
803.208	7868
803.35	8001
803.492	8073
803.635	8100
803.777	8016
803.919	8157
804.061	8362
804.204	8153
804.346	8058
804.488	7917
804.63	8062
804.773	8005
804.915	8077
805.057	8271
805.199	8138
805.341	8134
805.483	8244
805.626	8168
805.768	8123
805.91	8168
806.052	8221
806.194	8107
806.336	8233
806.478	8043
806.62	8069
806.762	8107
806.904	8244
807.046	8457
807.188	8320
807.33	8324
807.472	8305
807.614	8119
807.756	8145
807.898	7940
808.04	7845
808.182	7887
808.324	7837
808.465	7879
808.607	8081
808.749	8065
808.891	8176
809.033	8282
809.174	8237
809.316	8088
809.458	7993
809.6	8050
809.741	8084
809.883	7963
810.025	8054
810.166	8031
810.308	7986
810.45	7932
810.591	7807
810.733	7674
810.875	7636
811.016	7472
811.158	7476
811.299	7483
811.441	7636
811.582	7647
811.724	7525
811.865	7487
812.007	7571
812.148	7613
812.29	7601
812.431	7685
812.573	7852
812.714	8050
812.855	8111
812.997	8130
813.138	8275
813.279	8142
813.421	8012
813.562	7951
813.703	7814
813.845	7757
813.986	7392
814.127	7270
814.268	7228
814.41	7198
814.551	7179
814.692	7244
814.833	7141
814.974	7080
815.115	7179
815.256	6973
815.397	6852
815.539	6871
815.68	6810
815.821	6795
815.962	6791
816.103	6840
816.244	6715
816.385	6578
816.526	6593
816.666	6464
816.807	6296
816.948	6437
817.089	6483
817.23	6433
817.371	6361
817.512	6342
817.653	6365
817.793	6311
817.934	6380
818.075	6456
818.216	6433
818.356	6372
818.497	6292
818.638	6224
818.778	6091
818.919	6144
819.06	6152
819.2	6338
819.341	6300
819.481	6380
819.622	6547
819.762	6700
819.903	6654
820.043	6582
820.184	6551
820.324	6601
820.465	6734
820.605	6730
820.746	6547
820.886	6582
821.026	6658
821.167	6696
821.307	6795
821.447	6802
821.588	6665
821.728	6616
821.868	6521
822.008	6327
822.149	6334
822.289	6292
822.429	6159
822.569	6133
822.709	6114
822.849	5935
822.99	5870
823.13	5946
823.27	5961
823.41	5817
823.55	5828
823.69	5722
823.83	5844
823.97	5653
824.11	5482
824.25	5524
824.389	5520
824.529	5581
824.669	5493
824.809	5611
824.949	5668
825.089	5600
825.228	5551
825.368	5357
825.508	5337
825.648	5322
825.787	5357
825.927	5353
826.067	5318
826.206	5277
826.346	5372
826.485	5353
826.625	5368
826.765	5558
826.904	5486
827.044	5254
827.183	5189
827.323	5117
827.462	5254
827.601	5162
827.741	5117
827.88	5212
828.02	5098
828.159	5269
828.298	5265
828.437	5357
828.577	5261
828.716	5505
828.855	5372
828.994	5212
829.134	5143
829.273	5208
829.412	5105
829.551	5151
829.69	5105
829.829	5273
829.968	5360
830.107	5258
830.246	5265
830.385	5124
830.524	5124
830.663	5086
830.802	4930
830.941	4889
831.08	4889
831.219	4953
831.357	4953
831.496	5132
831.635	4919
831.774	4820
831.913	4854
832.051	4752
832.19	4740
832.329	4824
832.467	4679
832.606	4611
832.744	4694
832.883	4755
833.022	4725
833.16	4797
833.299	4778
833.437	4858
833.576	4904
833.714	4835
833.852	4866
833.991	4889
834.129	4919
834.267	4892
834.406	4900
834.544	4946
834.682	5003
834.821	4965
834.959	5212
835.097	4987
835.235	5143
835.373	5071
835.511	5124
835.65	5006
835.788	5014
835.926	4896
836.064	4824
836.202	4930
836.34	5128
836.478	5204
836.615	5067
836.753	5159
836.891	5277
837.029	5204
837.167	5155
837.305	5124
837.443	5132
837.58	5075
837.718	5280
837.856	5227
837.993	5143
838.131	5250
838.269	5197
838.406	5174
838.544	5178
838.681	5003
838.819	4949
838.956	4858
839.094	4828
839.231	4968
839.369	5060
839.506	5455
839.643	5315
839.781	5060
839.918	4987
840.055	5052
840.193	5052
840.33	5140
840.467	5128
840.604	5189
840.742	5440
840.879	5071
841.016	5003
841.153	5117
841.29	5406
841.427	5337
841.564	5296
841.701	5307
841.838	5357
841.975	5261
842.112	5212
842.249	5102
842.385	5094
842.522	5322
842.659	5193
842.796	5140
842.933	5223
843.069	5189
843.206	5117
843.343	5315
843.479	5223
843.616	5254
843.752	5025
843.889	5052
844.025	5155
844.162	5029
844.298	5201
844.435	5083
844.571	5060
844.708	5220
844.844	5299
844.98	5337
845.117	5254
845.253	5117
845.389	5083
845.525	5170
845.661	5143
845.798	5045
845.934	5212
846.07	5067
846.206	5212
846.342	5277
846.478	5242
846.614	5022
846.75	5041
846.886	4927
847.022	5151
847.158	5071
847.294	5060
847.429	5098
847.565	5098
847.701	5299
847.837	4820
847.972	4793
848.108	4976
848.244	4965
848.379	4797
848.515	4774
848.65	4744
848.786	4790
848.921	4847
849.057	4866
849.192	4896
849.328	4820
849.463	4908
849.598	4866
849.734	4786
849.869	4721
850.004	4698
850.14	4698
850.275	4664
850.41	4535
850.545	4596
850.68	4603
850.815	4679
850.95	4630
851.085	4904
851.22	4763
851.355	4698
851.49	4656
851.625	4664
851.76	4679
851.895	4580
852.03	4618
852.165	4721
852.299	4752
852.434	4805
852.569	4797
852.703	4839
852.838	4889
852.973	4942
853.107	4915
853.242	4816
853.376	4679
853.511	4634
853.645	4660
853.78	4812
853.914	4729
854.048	4721
854.183	4691
854.317	4790
854.451	4877
854.585	4736
854.72	4637
854.854	4774
854.988	4649
855.122	4645
855.256	4516
855.39	4721
855.524	4790
855.658	4752
855.792	4748
855.926	4782
856.06	4763
856.194	4824
856.327	4664
856.461	4641
856.595	4645
856.729	4691
856.862	4828
856.996	4702
857.13	4797
857.263	4793
857.397	4870
857.53	4721
857.664	4729
857.797	4831
857.931	4755
858.064	4691
858.197	4790
858.331	4649
858.464	4634
858.597	4558
858.731	4694
858.864	4675
858.997	4634
859.13	4660
859.263	4740
859.396	4714
859.529	4561
859.662	4573
859.795	4512
859.928	4596
860.061	4805
860.194	4809
860.327	4645
860.46	4615
860.592	4721
860.725	4740
860.858	4733
860.99	4592
861.123	4523
861.256	4527
861.388	4573
861.521	5357
861.653	4546
861.786	4489
861.918	4466
862.05	4569
862.183	4565
862.315	4649
862.447	4687
862.58	4577
862.712	4413
862.844	4360
862.976	4481
863.108	4489
863.24	4771
863.372	4352
863.504	4451
863.636	4459
863.768	4493
863.9	4481
864.032	4360
864.164	4383
864.296	4523
864.428	4550
864.559	4611
864.691	4546
864.823	4558
864.954	4546
865.086	4497
865.217	4485
865.349	4447
865.48	4493
865.612	4550
865.743	4637
865.875	4519
866.006	4428
866.137	4455
866.269	4493
866.4	4409
866.531	4466
866.662	4428
866.793	4447
866.924	4432
867.055	4561
867.186	4466
867.317	4440
867.448	4405
867.579	4417
867.71	4402
867.841	4356
867.972	4478
868.103	4481
868.233	4554
868.364	4424
868.495	4558
868.625	4672
868.756	4793
868.886	4596
869.017	4649
869.147	4774
869.278	4786
869.408	4675
869.539	4653
869.669	4736
869.799	4626
869.929	4858
870.06	4763
870.19	4995
870.32	4896
870.45	4949
870.58	5041
870.71	5117
870.84	5166
870.97	4930
871.1	4946
871.23	5121
871.36	5159
871.489	5102
871.619	5140
871.749	5086
871.879	5201
872.008	5201
872.138	5067
872.267	4968
872.397	4885
872.526	4866
872.656	4733
872.785	4858
872.915	4972
873.044	5010
873.173	4984
873.303	5018
873.432	4976
873.561	4995
873.69	4927
873.819	4877
873.948	4934
874.077	4881
874.206	4793
874.335	4835
874.464	4980
874.593	5064
874.722	4968
874.851	5075
874.979	5037
875.108	5105
875.237	4942
875.365	4923
875.494	4904
875.623	5079
875.751	4896
875.88	4873
876.008	5006
876.136	5048
876.265	5261
876.393	5334
876.521	5330
876.65	5235
876.778	5181
876.906	5113
877.034	5033
877.162	5109
877.29	5048
877.418	5124
877.546	5048
877.674	5067
877.802	5048
877.93	5067
878.058	4953
878.185	4923
878.313	4965
878.441	4968
878.568	4870
878.696	4911
878.824	4968
878.951	4995
879.079	5201
879.206	5303
879.333	5136
879.461	5029
879.588	4961
879.715	5189
879.842	5242
879.97	4995
880.097	4812
880.224	4793
880.351	4850
880.478	4873
880.605	4839
880.732	4809
880.859	5105
880.986	4911
881.112	4934
881.239	4778
881.366	4664
881.493	4622
881.619	4615
881.746	4649
881.872	4664
881.999	4653
882.125	4675
882.252	4782
882.378	4831
882.505	4987
882.631	4816
882.757	4660
882.883	4771
883.01	4774
883.136	4679
883.262	4637
883.388	4630
883.514	4828
883.64	4919
883.766	4831
883.892	4694
884.018	4748
884.143	4927
884.269	4976
884.395	4691
884.52	4626
884.646	4637
884.772	4618
884.897	4637
885.023	4615
885.148	4805
885.274	4904
885.399	4797
885.524	4736
885.65	4725
885.775	4782
885.9	4736
886.025	4908
886.15	4801
886.275	4733
886.4	4660
886.525	4759
886.65	4740
886.775	4748
886.9	4885
887.025	5048
887.149	4835
887.274	4706
887.399	4641
887.523	4565
887.648	4607
887.773	4664
887.897	4752
888.021	4801
888.146	4752
888.27	4778
888.395	4908
888.519	4858
888.643	4816
888.767	4854
888.891	4755
889.015	4637
889.139	4626
889.263	4592
889.387	4786
889.511	4858
889.635	4873
889.759	4668
889.883	4706
890.006	4759
890.13	4835
890.254	4618
890.377	4679
890.501	4546
890.624	4550
890.748	4622
890.871	4516
890.995	4443
891.118	4436
891.241	4523
891.364	4561
891.488	4675
891.611	4504
891.734	4546
891.857	4615
891.98	4603
892.103	4653
892.226	4607
892.349	4535
892.471	4443
892.594	4535
892.717	4634
892.839	4569
892.962	4634
893.085	4668
893.207	4573
893.33	4500
893.452	4538
893.575	4736
893.697	4592
893.819	4828
893.941	4847
894.064	4752
894.186	4535
894.308	4592
894.43	4714
894.552	4850
894.674	4744
894.796	4569
894.918	4637
895.04	4584
895.161	4744
895.283	4668
895.405	4588
895.526	4656
895.648	4710
895.769	4675
895.891	4725
896.012	4771
896.134	4805
896.255	4691
896.376	4618
896.498	4637
896.619	4694
896.74	4618
896.861	4687
896.982	4927
897.103	5128
897.224	4870
897.345	4755
897.466	4683
897.587	4733
897.708	4866
897.828	4755
897.949	4664
898.07	4603
898.19	4649
898.311	4805
898.431	4714
898.552	4771
898.672	4847
898.792	4801
898.913	4755
899.033	4637
899.153	4535
899.273	4402
899.393	4504
899.513	4542
899.633	4531
899.753	4569
899.873	4504
899.993	4603
900.113	4565
900.232	4569
900.352	4584
900.472	4489
900.591	4436
900.711	4516
900.83	4478
900.95	4626
901.069	4721
901.189	4550
901.308	4379
901.427	4386
901.546	4390
901.665	4481
901.784	4497
901.904	4405
902.023	4348
902.141	4200
902.26	4169
902.379	4310
902.498	4280
902.617	4265
902.735	4379
902.854	4466
902.973	4367
903.091	4211
903.21	4287
903.328	4318
903.446	4306
903.565	4299
903.683	4363
903.801	4303
903.919	4413
904.038	4402
904.156	4318
904.274	4489
904.392	4459
904.51	4413
904.627	4481
904.745	4550
904.863	4615
904.981	4436
905.098	4356
905.216	4405
905.334	4421
905.451	4443
905.569	4432
905.686	4519
905.803	4569
905.921	4481
906.038	4569
906.155	4523
906.272	4371
906.389	4428
906.506	4383
906.623	4379
906.74	4436
906.857	4314
906.974	4394
907.091	4542
907.208	4664
907.324	4611
907.441	4546
907.557	4375
907.674	4322
907.79	4325
907.907	4379
908.023	4459
908.139	4485
908.256	4466
908.372	4481
908.488	4443
908.604	4371
908.72	4276
908.836	4352
908.952	4371
909.068	4413
909.184	4561
909.3	4470
909.415	4569
909.531	4554
909.647	4390
909.762	4367
909.878	4371
909.993	4470
910.108	4424
910.224	4417
910.339	4470
910.454	4417
910.57	4379
910.685	4306
910.8	4645
910.915	4626
911.03	4489
911.145	4314
911.259	4383
911.374	4371
911.489	4295
911.604	4348
911.718	4185
911.833	4211
911.947	4112
912.062	4048
912.176	4211
912.291	4249
912.405	4238
912.519	4481
912.633	4531
912.748	4421
912.862	4333
912.976	4238
913.09	4120
913.204	4181
913.318	4238
913.431	4421
913.545	4379
913.659	4424
913.772	4386
913.886	4257
914	4238
914.113	4383
914.226	4443
914.34	4428
914.453	4268
914.566	4462
914.68	4318
914.793	4356
914.906	4185
915.019	4128
915.132	4116
915.245	4223
915.358	4227
915.47	4276
915.583	4291
915.696	4303
915.809	4474
915.921	4474
916.034	4268
916.146	4310
916.259	4268
916.371	4436
916.483	4413
916.595	4325
916.708	4383
916.82	4398
916.932	4367
917.044	4379
917.156	4390
917.268	4238
917.38	4268
917.491	4314
917.603	4409
917.715	4462
917.826	4512
917.938	4432
918.049	4303
918.161	4470
918.272	4573
918.384	4573
918.495	4512
918.606	4371
918.717	4276
918.828	4367
918.939	4409
919.05	4284
919.161	4371
919.272	4124
919.383	4253
919.494	4478
919.604	4687
919.715	4447
919.826	4417
919.936	4504
920.047	4573
920.157	4481
920.267	4782
920.378	4603
920.488	4580
920.598	4759
920.708	4900
920.818	4790
920.928	4774
921.038	5052
921.148	4972
921.258	4672
921.368	4584
921.477	4554
921.587	4493
921.697	4428
921.806	4554
921.916	4421
922.025	4310
922.134	4325
922.244	4249
922.353	4390
922.462	4207
922.571	4207
922.68	4032
922.789	4006
922.898	4112
923.007	4013
923.116	4150
923.224	4116
923.333	4143
923.442	4063
923.55	4029
923.659	4044
923.767	4131
923.876	4063
923.984	4196
924.092	4067
924.201	4112
924.309	4147
924.417	4200
924.525	4105
924.633	4143
924.741	5060
924.849	3983
924.956	4185
925.064	3968
925.172	3968
925.279	3968
925.387	4109
925.494	4082
925.602	4249
925.709	4196
925.816	4055
925.924	4177
926.031	4268
926.138	4192
926.245	4234
926.352	4162
926.459	4265
926.566	4352
926.673	4192
926.779	4128
926.886	4086
926.993	4017
927.099	3994
927.206	3968
927.312	3983
927.419	4090
927.525	4051
927.631	4147
927.737	3945
927.843	3960
927.95	3899
928.056	3979
928.162	4029
928.267	4116
928.373	4607
928.479	4124
928.585	3903
928.69	4074
928.796	4082
928.901	3979
929.007	3899
929.112	4044
929.218	3979
929.323	3960
929.428	3953
929.533	4166
929.638	4021
929.743	4002
929.848	4055
929.953	4044
930.058	3972
930.163	3804
930.267	3857
930.372	4025
930.477	3838
930.581	4147
930.685	3983
930.79	3876
930.894	3907
930.998	3899
931.103	4063
931.207	3793
931.311	3740
931.415	3736
931.519	3553
931.623	3580
