Data from test_V78500241_277.txt Node
Date: Fri Mar 25 16:50:55 CST 2022
User: usil
Spectrometer: V785-0024
Trigger mode: 0
Integration Time (sec): 4.000000E-1
Scans to average: 1
Nonlinearity correction enabled: false
Boxcar width: 0
Storing dark spectrum: false
XAxis mode: Wavelengths
Number of Pixels in Spectrum: 1024
>>>>>Begin Spectral Data<<<<<
801.071	8043
801.214	8062
801.356	7963
801.499	7925
801.641	7856
801.783	7818
801.926	7982
802.068	7982
802.211	8024
802.353	8012
802.496	7894
802.638	7928
802.78	8008
802.923	7909
803.065	7913
803.208	7837
803.35	7982
803.492	8084
803.635	8134
803.777	8001
803.919	8107
804.061	8419
804.204	8142
804.346	7993
804.488	7970
804.63	8084
804.773	7959
804.915	8081
805.057	8317
805.199	8142
805.341	8237
805.483	8248
805.626	8161
805.768	8058
805.91	8214
806.052	8191
806.194	8100
806.336	8191
806.478	8126
806.62	8126
806.762	8206
806.904	8225
807.046	8492
807.188	8385
807.33	8332
807.472	8271
807.614	8176
807.756	8195
807.898	8005
808.04	7879
808.182	7894
808.324	7947
808.465	7970
808.607	8130
808.749	8088
808.891	8229
809.033	8275
809.174	8195
809.316	8043
809.458	8073
809.6	7970
809.741	8046
809.883	8012
810.025	8115
810.166	8050
810.308	8084
810.45	7986
810.591	7833
810.733	7689
810.875	7689
811.016	7540
811.158	7457
811.299	7567
811.441	7696
811.582	7643
811.724	7499
811.865	7510
812.007	7624
812.148	7601
812.29	7651
812.431	7826
812.573	7982
812.714	7925
812.855	8096
812.997	8183
813.138	8336
813.279	8096
813.421	8088
813.562	8020
813.703	7864
813.845	7769
813.986	7449
814.127	7236
814.268	7221
814.41	7141
814.551	7145
814.692	7225
814.833	7103
814.974	7053
815.115	7141
815.256	6958
815.397	6875
815.539	6932
815.68	6795
815.821	6768
815.962	6802
816.103	6867
816.244	6776
816.385	6677
816.526	6597
816.666	6559
816.807	6319
816.948	6433
817.089	6441
817.23	6426
817.371	6334
817.512	6353
817.653	6399
817.793	6369
817.934	6486
818.075	6490
818.216	6460
818.356	6418
818.497	6254
818.638	6091
818.778	6133
818.919	6152
819.06	6114
819.2	6292
819.341	6285
819.481	6369
819.622	6563
819.762	6650
819.903	6654
820.043	6540
820.184	6521
820.324	6601
820.465	6642
820.605	6612
820.746	6665
820.886	6532
821.026	6631
821.167	6692
821.307	6867
821.447	6738
821.588	6642
821.728	6608
821.868	6479
822.008	6338
822.149	6357
822.289	6319
822.429	6178
822.569	6064
822.709	6068
822.849	5950
822.99	5920
823.13	5870
823.27	5882
823.41	5783
823.55	5726
823.69	5764
823.83	5752
823.97	5688
824.11	5543
824.25	5512
824.389	5520
824.529	5551
824.669	5501
824.809	5608
824.949	5691
825.089	5634
825.228	5596
825.368	5436
825.508	5368
825.648	5353
825.787	5448
825.927	5379
826.067	5330
826.206	5258
826.346	5326
826.485	5493
826.625	5410
826.765	5528
826.904	5486
827.044	5246
827.183	5223
827.323	5151
827.462	5288
827.601	5162
827.741	5197
827.88	5208
828.02	5132
828.159	5265
828.298	5334
828.437	5349
828.577	5242
828.716	5482
828.855	5353
828.994	5090
829.134	5155
829.273	5235
829.412	5174
829.551	5166
829.69	5151
829.829	5193
829.968	5353
830.107	5318
830.246	5311
830.385	5181
830.524	5132
830.663	5060
830.802	4980
830.941	4866
831.08	4866
831.219	4968
831.357	4984
831.496	5124
831.635	4949
831.774	4866
831.913	4866
832.051	4717
832.19	4793
832.329	4858
832.467	4691
832.606	4630
832.744	4710
832.883	4736
833.022	4736
833.16	4752
833.299	4786
833.437	4850
833.576	4835
833.714	4858
833.852	4858
833.991	4900
834.129	4984
834.267	4976
834.406	4927
834.544	4976
834.682	4946
834.821	4984
834.959	5143
835.097	4999
835.235	5193
835.373	5083
835.511	5075
835.65	5010
835.788	4984
835.926	4904
836.064	4892
836.202	4873
836.34	5162
836.478	5265
836.615	5124
836.753	5208
836.891	5337
837.029	5227
837.167	5201
837.305	5132
837.443	5185
837.58	5117
837.718	5220
837.856	5250
837.993	5132
838.131	5189
838.269	5261
838.406	5208
838.544	5216
838.681	5010
838.819	4987
838.956	4934
839.094	4919
839.231	4961
839.369	5109
839.506	5440
839.643	5303
839.781	5083
839.918	4995
840.055	5098
840.193	5124
840.33	5102
840.467	5166
840.604	5193
840.742	5452
840.879	5155
841.016	5083
841.153	5181
841.29	5326
841.427	5322
841.564	5334
841.701	5372
841.838	5296
841.975	5178
842.112	5277
842.249	5136
842.385	5113
842.522	5318
842.659	5201
842.796	5155
842.933	5155
843.069	5121
843.206	5102
843.343	5330
843.479	5284
843.616	5246
843.752	5041
843.889	5033
844.025	5227
844.162	5014
844.298	5193
844.435	5136
844.571	5067
844.708	5170
844.844	5364
844.98	5315
845.117	5288
845.253	5113
845.389	5029
845.525	5178
845.661	5159
845.798	5010
845.934	5197
846.07	5098
846.206	5178
846.342	5220
846.478	5185
846.614	5056
846.75	4938
846.886	4946
847.022	5083
847.158	5052
847.294	5014
847.429	5128
847.565	5090
847.701	5315
847.837	4850
847.972	4790
848.108	4995
848.244	4953
848.379	4816
848.515	4694
848.65	4698
848.786	4812
848.921	4740
849.057	4904
849.192	4927
849.328	4831
849.463	4885
849.598	4820
849.734	4805
849.869	4698
850.004	4611
850.14	4645
850.275	4588
850.41	4523
850.545	4542
850.68	4592
850.815	4611
850.95	4611
851.085	4900
851.22	4721
851.355	4687
851.49	4630
851.625	4630
851.76	4603
851.895	4558
852.03	4542
852.165	4675
852.299	4687
852.434	4748
852.569	4748
852.703	4801
852.838	4911
852.973	4972
853.107	4946
853.242	4759
853.376	4694
853.511	4599
853.645	4622
853.78	4828
853.914	4714
854.048	4649
854.183	4649
854.317	4675
854.451	4847
854.585	4641
854.72	4630
854.854	4698
854.988	4596
855.122	4679
855.256	4554
855.39	4679
855.524	4820
855.658	4774
855.792	4729
855.926	4706
856.06	4717
856.194	4774
856.327	4714
856.461	4580
856.595	4599
856.729	4588
856.862	4725
856.996	4702
857.13	4653
857.263	4793
857.397	4835
857.53	4679
857.664	4714
857.797	4809
857.931	4752
858.064	4748
858.197	4710
858.331	4588
858.464	4630
858.597	4523
858.731	4573
858.864	4694
858.997	4622
859.13	4641
859.263	4664
859.396	4656
859.529	4550
859.662	4554
859.795	4550
859.928	4615
860.061	4782
860.194	4710
860.327	4592
860.46	4573
860.592	4710
860.725	4721
860.858	4733
860.99	4577
861.123	4527
861.256	4531
861.388	4683
861.521	5326
861.653	4489
861.786	4493
861.918	4481
862.05	4535
862.183	4550
862.315	4573
862.447	4626
862.58	4558
862.712	4383
862.844	4352
862.976	4478
863.108	4421
863.24	4824
863.372	4371
863.504	4413
863.636	4386
863.768	4462
863.9	4462
864.032	4337
864.164	4383
864.296	4462
864.428	4603
864.559	4584
864.691	4508
864.823	4527
864.954	4508
865.086	4489
865.217	4440
865.349	4417
865.48	4466
865.612	4466
865.743	4653
865.875	4493
866.006	4375
866.137	4447
866.269	4478
866.4	4440
866.531	4432
866.662	4386
866.793	4375
866.924	4455
867.055	4504
867.186	4451
867.317	4356
867.448	4371
867.579	4390
867.71	4424
867.841	4413
867.972	4478
868.103	4432
868.233	4451
868.364	4436
868.495	4500
868.625	4649
868.756	4759
868.886	4542
869.017	4603
869.147	4793
869.278	4755
869.408	4694
869.539	4675
869.669	4710
869.799	4672
869.929	4763
870.06	4759
870.19	4980
870.32	4919
870.45	4900
870.58	5037
870.71	5075
870.84	5117
870.97	4976
871.1	4930
871.23	5166
871.36	5075
871.489	5071
871.619	5090
871.749	5071
871.879	5071
872.008	5162
872.138	5052
872.267	5010
872.397	4809
872.526	4839
872.656	4694
872.785	4839
872.915	4946
873.044	4980
873.173	4900
873.303	4949
873.432	4953
873.561	4949
873.69	4877
873.819	4866
873.948	4942
874.077	4774
874.206	4752
874.335	4755
874.464	4892
874.593	5045
874.722	4972
874.851	5124
874.979	5056
875.108	5064
875.237	4938
875.365	4831
875.494	4850
875.623	4976
875.751	4801
875.88	4877
876.008	4999
876.136	5014
876.265	5140
876.393	5307
876.521	5201
876.65	5231
876.778	5143
876.906	5090
877.034	5060
877.162	5006
877.29	4987
877.418	5029
877.546	5033
877.674	5056
877.802	5022
877.93	5041
878.058	4911
878.185	4831
878.313	4972
878.441	4961
878.568	4801
878.696	4850
878.824	4934
878.951	5029
879.079	5140
879.206	5303
879.333	5121
879.461	4987
879.588	4991
879.715	5121
879.842	5242
879.97	5033
880.097	4809
880.224	4767
880.351	4816
880.478	4824
880.605	4816
880.732	4828
880.859	5105
880.986	4919
881.112	4927
881.239	4797
881.366	4710
881.493	4672
881.619	4611
881.746	4675
881.872	4675
881.999	4698
882.125	4748
882.252	4797
882.378	4873
882.505	5033
882.631	4877
882.757	4721
882.883	4782
883.01	4733
883.136	4691
883.262	4611
883.388	4660
883.514	4892
883.64	4957
883.766	4824
883.892	4748
884.018	4767
884.143	4934
884.269	5029
884.395	4706
884.52	4721
884.646	4694
884.772	4649
884.897	4573
885.023	4710
885.148	4793
885.274	4961
885.399	4820
885.524	4778
885.65	4725
885.775	4809
885.9	4755
886.025	4908
886.15	4850
886.275	4755
886.4	4710
886.525	4763
886.65	4714
886.775	4710
886.9	4923
887.025	5037
887.149	4885
887.274	4687
887.399	4592
887.523	4645
887.648	4626
887.773	4596
887.897	4854
888.021	4866
888.146	4717
888.27	4870
888.395	4968
888.519	4866
888.643	4885
888.767	4896
888.891	4691
889.015	4660
889.139	4717
889.263	4653
889.387	4767
889.511	4911
889.635	4858
889.759	4694
889.883	4694
890.006	4771
890.13	4835
890.254	4626
890.377	4694
890.501	4584
890.624	4565
890.748	4679
890.871	4569
890.995	4481
891.118	4405
891.241	4611
891.364	4603
891.488	4694
891.611	4531
891.734	4561
891.857	4584
891.98	4615
892.103	4698
892.226	4649
892.349	4519
892.471	4481
892.594	4634
892.717	4630
892.839	4607
892.962	4687
893.085	4664
893.207	4698
893.33	4497
893.452	4596
893.575	4733
893.697	4626
893.819	4835
893.941	4892
894.064	4797
894.186	4596
894.308	4596
894.43	4771
894.552	4843
894.674	4839
894.796	4645
894.918	4645
895.04	4599
895.161	4763
895.283	4706
895.405	4550
895.526	4694
895.648	4744
895.769	4694
895.891	4759
896.012	4793
896.134	4782
896.255	4733
896.376	4656
896.498	4683
896.619	4641
896.74	4596
896.861	4672
896.982	4927
897.103	5083
897.224	4870
897.345	4740
897.466	4721
897.587	4744
897.708	4843
897.828	4763
897.949	4694
898.07	4615
898.19	4702
898.311	4873
898.431	4714
898.552	4786
898.672	4870
898.792	4900
898.913	4782
899.033	4653
899.153	4531
899.273	4462
899.393	4508
899.513	4535
899.633	4542
899.753	4542
899.873	4584
899.993	4603
900.113	4596
900.232	4607
900.352	4554
900.472	4584
900.591	4398
900.711	4519
900.83	4478
900.95	4672
901.069	4733
901.189	4577
901.308	4424
901.427	4360
901.546	4432
901.665	4489
901.784	4599
901.904	4440
902.023	4352
902.141	4227
902.26	4219
902.379	4344
902.498	4268
902.617	4253
902.735	4413
902.854	4424
902.973	4386
903.091	4268
903.21	4257
903.328	4325
903.446	4303
903.565	4322
903.683	4436
903.801	4314
903.919	4440
904.038	4512
904.156	4383
904.274	4455
904.392	4459
904.51	4474
904.627	4523
904.745	4649
904.863	4649
904.981	4413
905.098	4348
905.216	4455
905.334	4417
905.451	4459
905.569	4440
905.686	4603
905.803	4634
905.921	4440
906.038	4577
906.155	4489
906.272	4447
906.389	4462
906.506	4375
906.623	4421
906.74	4421
906.857	4356
906.974	4481
907.091	4596
907.208	4706
907.324	4691
907.441	4493
907.557	4375
907.674	4402
907.79	4371
907.907	4424
908.023	4489
908.139	4535
908.256	4493
908.372	4493
908.488	4470
908.604	4379
908.72	4367
908.836	4398
908.952	4394
909.068	4489
909.184	4561
909.3	4546
909.415	4626
909.531	4618
909.647	4390
909.762	4417
909.878	4344
909.993	4428
910.108	4432
910.224	4466
910.339	4546
910.454	4443
910.57	4424
910.685	4352
910.8	4714
910.915	4641
911.03	4538
911.145	4383
911.259	4344
911.374	4413
911.489	4363
911.604	4367
911.718	4200
911.833	4246
911.947	4105
912.062	4082
912.176	4261
912.291	4280
912.405	4272
912.519	4493
912.633	4516
912.748	4352
912.862	4363
912.976	4192
913.09	4166
913.204	4158
913.318	4280
913.431	4375
913.545	4405
913.659	4478
913.772	4394
913.886	4306
914	4318
914.113	4421
914.226	4516
914.34	4424
914.453	4291
914.566	4470
914.68	4386
914.793	4333
914.906	4177
915.019	4154
915.132	4082
915.245	4219
915.358	4253
915.47	4291
915.583	4325
915.696	4341
915.809	4466
915.921	4474
916.034	4303
916.146	4314
916.259	4272
916.371	4447
916.483	4398
916.595	4280
916.708	4356
916.82	4409
916.932	4352
917.044	4367
917.156	4344
917.268	4261
917.38	4318
917.491	4314
917.603	4413
917.715	4478
917.826	4493
917.938	4390
918.049	4268
918.161	4421
918.272	4497
918.384	4554
918.495	4508
918.606	4306
918.717	4337
918.828	4348
918.939	4413
919.05	4261
919.161	4367
919.272	4135
919.383	4223
919.494	4519
919.604	4611
919.715	4470
919.826	4421
919.936	4451
920.047	4538
920.157	4508
920.267	4752
920.378	4599
920.488	4523
920.598	4752
920.708	4896
920.818	4755
920.928	4782
921.038	4976
921.148	4984
921.258	4672
921.368	4584
921.477	4535
921.587	4455
921.697	4428
921.806	4546
921.916	4478
922.025	4299
922.134	4280
922.244	4276
922.353	4383
922.462	4196
922.571	4143
922.68	4010
922.789	3991
922.898	4059
923.007	4013
923.116	4120
923.224	4059
923.333	4105
923.442	4071
923.55	3994
923.659	4040
923.767	4154
923.876	4048
923.984	4154
924.092	4013
924.201	4101
924.309	4116
924.417	4147
924.525	4101
924.633	4162
924.741	5056
924.849	3991
924.956	4162
925.064	3960
925.172	3937
925.279	3998
925.387	4051
925.494	4131
925.602	4238
925.709	4196
925.816	4074
925.924	4158
926.031	4238
926.138	4143
926.245	4234
926.352	4109
926.459	4253
926.566	4310
926.673	4196
926.779	4120
926.886	4116
926.993	4013
927.099	3987
927.206	3960
927.312	3953
927.419	4109
927.525	4082
927.631	4078
927.737	4021
927.843	3949
927.95	3816
928.056	3960
928.162	3972
928.267	4078
928.373	4740
928.479	4150
928.585	3903
928.69	4006
928.796	4105
928.901	4044
929.007	3835
929.112	4044
929.218	4021
929.323	3964
929.428	3964
929.533	4139
929.638	3930
929.743	3998
929.848	4131
929.953	4029
930.058	3937
930.163	3850
930.267	3846
930.372	3979
930.477	3838
930.581	4124
930.685	4002
930.79	3846
930.894	3880
930.998	3892
931.103	4036
931.207	3743
931.311	3724
931.415	3705
931.519	3534
931.623	3580
