Data from test_V78500241_2056.txt Node
Date: Fri Mar 25 17:03:17 CST 2022
User: usil
Spectrometer: V785-0024
Trigger mode: 0
Integration Time (sec): 4.000000E-1
Scans to average: 1
Nonlinearity correction enabled: false
Boxcar width: 0
Storing dark spectrum: false
XAxis mode: Wavelengths
Number of Pixels in Spectrum: 1024
>>>>>Begin Spectral Data<<<<<
801.071	7982
801.214	7928
801.356	7826
801.499	7913
801.641	7784
801.783	7852
801.926	7986
802.068	7955
802.211	7959
802.353	7944
802.496	7803
802.638	7913
802.78	7856
802.923	7967
803.065	7902
803.208	7909
803.35	7944
803.492	8043
803.635	8149
803.777	8046
803.919	8172
804.061	8454
804.204	8218
804.346	8073
804.488	7936
804.63	8111
804.773	8020
804.915	8092
805.057	8358
805.199	8218
805.341	8218
805.483	8233
805.626	8248
805.768	8153
805.91	8256
806.052	8225
806.194	8138
806.336	8332
806.478	8084
806.62	8145
806.762	8168
806.904	8294
807.046	8476
807.188	8377
807.33	8309
807.472	8294
807.614	8256
807.756	8088
807.898	8039
808.04	7936
808.182	7932
808.324	7841
808.465	7947
808.607	8065
808.749	8111
808.891	8263
809.033	8279
809.174	8298
809.316	8039
809.458	8153
809.6	8103
809.741	8024
809.883	8027
810.025	8054
810.166	8103
810.308	8062
810.45	7997
810.591	7818
810.733	7769
810.875	7712
811.016	7506
811.158	7544
811.299	7609
811.441	7776
811.582	7651
811.724	7605
811.865	7613
812.007	7632
812.148	7662
812.29	7674
812.431	7772
812.573	7902
812.714	8001
812.855	8149
812.997	8214
813.138	8324
813.279	8187
813.421	8069
813.562	7970
813.703	7841
813.845	7803
813.986	7468
814.127	7259
814.268	7244
814.41	7274
814.551	7194
814.692	7251
814.833	7080
814.974	7137
815.115	7175
815.256	6947
815.397	7004
815.539	6924
815.68	6844
815.821	6844
815.962	6890
816.103	6833
816.244	6726
816.385	6635
816.526	6654
816.666	6494
816.807	6342
816.948	6437
817.089	6471
817.23	6490
817.371	6407
817.512	6460
817.653	6353
817.793	6365
817.934	6410
818.075	6456
818.216	6479
818.356	6399
818.497	6292
818.638	6133
818.778	6209
818.919	6194
819.06	6197
819.2	6334
819.341	6346
819.481	6418
819.622	6540
819.762	6764
819.903	6753
820.043	6627
820.184	6578
820.324	6608
820.465	6669
820.605	6700
820.746	6688
820.886	6563
821.026	6665
821.167	6734
821.307	6856
821.447	6764
821.588	6688
821.728	6620
821.868	6479
822.008	6346
822.149	6365
822.289	6331
822.429	6178
822.569	6114
822.709	6133
822.849	5988
822.99	5912
823.13	5950
823.27	5980
823.41	5847
823.55	5889
823.69	5783
823.83	5798
823.97	5722
824.11	5577
824.25	5516
824.389	5604
824.529	5600
824.669	5547
824.809	5684
824.949	5722
825.089	5600
825.228	5634
825.368	5455
825.508	5341
825.648	5417
825.787	5436
825.927	5376
826.067	5311
826.206	5299
826.346	5440
826.485	5402
826.625	5391
826.765	5566
826.904	5512
827.044	5273
827.183	5223
827.323	5155
827.462	5265
827.601	5185
827.741	5216
827.88	5258
828.02	5155
828.159	5258
828.298	5330
828.437	5368
828.577	5288
828.716	5490
828.855	5349
828.994	5227
829.134	5105
829.273	5212
829.412	5189
829.551	5185
829.69	5216
829.829	5288
829.968	5383
830.107	5296
830.246	5261
830.385	5178
830.524	5212
830.663	5064
830.802	4968
830.941	4843
831.08	4885
831.219	5018
831.357	4961
831.496	5128
831.635	4965
831.774	4850
831.913	4877
832.051	4759
832.19	4759
832.329	4881
832.467	4679
832.606	4656
832.744	4759
832.883	4721
833.022	4778
833.16	4812
833.299	4793
833.437	4854
833.576	4900
833.714	4843
833.852	4877
833.991	4896
834.129	4987
834.267	4961
834.406	4885
834.544	5022
834.682	4980
834.821	5052
834.959	5159
835.097	5045
835.235	5124
835.373	5075
835.511	5140
835.65	5010
835.788	5025
835.926	4923
836.064	4885
836.202	4961
836.34	5284
836.478	5242
836.615	5162
836.753	5239
836.891	5254
837.029	5231
837.167	5208
837.305	5201
837.443	5178
837.58	5124
837.718	5284
837.856	5223
837.993	5136
838.131	5227
838.269	5235
838.406	5250
838.544	5216
838.681	5052
838.819	5029
838.956	4919
839.094	4877
839.231	5048
839.369	5102
839.506	5406
839.643	5296
839.781	5113
839.918	5037
840.055	5121
840.193	5151
840.33	5128
840.467	5151
840.604	5197
840.742	5474
840.879	5052
841.016	5143
841.153	5185
841.29	5410
841.427	5334
841.564	5318
841.701	5368
841.838	5235
841.975	5223
842.112	5299
842.249	5193
842.385	5105
842.522	5353
842.659	5235
842.796	5189
842.933	5136
843.069	5201
843.206	5159
843.343	5318
843.479	5288
843.616	5254
843.752	5022
843.889	5033
844.025	5220
844.162	5033
844.298	5239
844.435	5086
844.571	5079
844.708	5208
844.844	5322
844.98	5383
845.117	5330
845.253	5105
845.389	5113
845.525	5128
845.661	5212
845.798	5071
845.934	5109
846.07	5060
846.206	5147
846.342	5311
846.478	5185
846.614	4999
846.75	5022
846.886	4957
847.022	5162
847.158	5048
847.294	5064
847.429	5086
847.565	5029
847.701	5326
847.837	4889
847.972	4843
848.108	4968
848.244	4949
848.379	4774
848.515	4729
848.65	4759
848.786	4793
848.921	4793
849.057	4873
849.192	4919
849.328	4767
849.463	4831
849.598	4824
849.734	4744
849.869	4725
850.004	4664
850.14	4706
850.275	4622
850.41	4577
850.545	4596
850.68	4630
850.815	4641
850.95	4668
851.085	4873
851.22	4782
851.355	4683
851.49	4607
851.625	4641
851.76	4668
851.895	4596
852.03	4523
852.165	4649
852.299	4736
852.434	4790
852.569	4755
852.703	4835
852.838	4839
852.973	4942
853.107	4942
853.242	4733
853.376	4706
853.511	4550
853.645	4660
853.78	4782
853.914	4698
854.048	4668
854.183	4679
854.317	4759
854.451	4850
854.585	4679
854.72	4645
854.854	4790
854.988	4634
855.122	4706
855.256	4565
855.39	4653
855.524	4767
855.658	4725
855.792	4653
855.926	4797
856.06	4752
856.194	4843
856.327	4679
856.461	4626
856.595	4626
856.729	4634
856.862	4778
856.996	4687
857.13	4771
857.263	4725
857.397	4820
857.53	4710
857.664	4725
857.797	4744
857.931	4752
858.064	4706
858.197	4736
858.331	4603
858.464	4599
858.597	4565
858.731	4618
858.864	4691
858.997	4596
859.13	4653
859.263	4656
859.396	4729
859.529	4615
859.662	4573
859.795	4569
859.928	4653
860.061	4755
860.194	4828
860.327	4672
860.46	4558
860.592	4744
860.725	4706
860.858	4706
860.99	4531
861.123	4546
861.256	4588
861.388	4611
861.521	5315
861.653	4504
861.786	4413
861.918	4443
862.05	4538
862.183	4592
862.315	4641
862.447	4641
862.58	4577
862.712	4436
862.844	4356
862.976	4466
863.108	4466
863.24	4771
863.372	4379
863.504	4497
863.636	4386
863.768	4493
863.9	4462
864.032	4333
864.164	4428
864.296	4497
864.428	4618
864.559	4546
864.691	4527
864.823	4523
864.954	4493
865.086	4497
865.217	4436
865.349	4398
865.48	4459
865.612	4493
865.743	4615
865.875	4497
866.006	4451
866.137	4470
866.269	4478
866.4	4451
866.531	4447
866.662	4421
866.793	4409
866.924	4462
867.055	4508
867.186	4466
867.317	4447
867.448	4379
867.579	4421
867.71	4341
867.841	4371
867.972	4470
868.103	4440
868.233	4470
868.364	4470
868.495	4535
868.625	4683
868.756	4744
868.886	4573
869.017	4569
869.147	4748
869.278	4847
869.408	4706
869.539	4637
869.669	4698
869.799	4698
869.929	4786
870.06	4721
870.19	4946
870.32	4911
870.45	4892
870.58	5006
870.71	5090
870.84	5067
870.97	4930
871.1	4896
871.23	5113
871.36	5140
871.489	5014
871.619	5060
871.749	5086
871.879	5181
872.008	5185
872.138	5090
872.267	5022
872.397	4850
872.526	4812
872.656	4782
872.785	4805
872.915	4976
873.044	4972
873.173	4908
873.303	5003
873.432	4942
873.561	4976
873.69	4919
873.819	4828
873.948	4919
874.077	4881
874.206	4771
874.335	4809
874.464	4908
874.593	5117
874.722	4919
874.851	5181
874.979	5090
875.108	5037
875.237	4915
875.365	4923
875.494	4915
875.623	4965
875.751	4812
875.88	4915
876.008	4968
876.136	5060
876.265	5227
876.393	5414
876.521	5242
876.65	5246
876.778	5166
876.906	5018
877.034	5010
877.162	5079
877.29	4972
877.418	5086
877.546	5037
877.674	5018
877.802	5052
877.93	5022
878.058	4896
878.185	4850
878.313	5018
878.441	4980
878.568	4843
878.696	4839
878.824	5003
878.951	4991
879.079	5113
879.206	5292
879.333	5105
879.461	5006
879.588	5071
879.715	5121
879.842	5208
879.97	4976
880.097	4763
880.224	4782
880.351	4839
880.478	4805
880.605	4816
880.732	4839
880.859	5098
880.986	4930
881.112	4904
881.239	4759
881.366	4691
881.493	4615
881.619	4596
881.746	4641
881.872	4679
881.999	4664
882.125	4702
882.252	4778
882.378	4805
882.505	4980
882.631	4824
882.757	4672
882.883	4736
883.01	4733
883.136	4694
883.262	4588
883.388	4622
883.514	4870
883.64	4858
883.766	4786
883.892	4679
884.018	4725
884.143	4904
884.269	4984
884.395	4721
884.52	4630
884.646	4630
884.772	4618
884.897	4535
885.023	4641
885.148	4763
885.274	4881
885.399	4843
885.524	4683
885.65	4702
885.775	4717
885.9	4710
886.025	4850
886.15	4752
886.275	4733
886.4	4599
886.525	4733
886.65	4736
886.775	4714
886.9	4866
887.025	5079
887.149	4812
887.274	4653
887.399	4569
887.523	4618
887.648	4592
887.773	4558
887.897	4774
888.021	4744
888.146	4656
888.27	4812
888.395	4889
888.519	4824
888.643	4820
888.767	4786
888.891	4717
889.015	4603
889.139	4656
889.263	4622
889.387	4752
889.511	4839
889.635	4793
889.759	4637
889.883	4660
890.006	4725
890.13	4854
890.254	4580
890.377	4615
890.501	4527
890.624	4512
890.748	4637
890.871	4493
890.995	4440
891.118	4367
891.241	4512
891.364	4535
891.488	4649
891.611	4519
891.734	4554
891.857	4618
891.98	4573
892.103	4649
892.226	4565
892.349	4558
892.471	4432
892.594	4516
892.717	4561
892.839	4580
892.962	4580
893.085	4675
893.207	4588
893.33	4409
893.452	4542
893.575	4634
893.697	4580
893.819	4805
893.941	4801
894.064	4778
894.186	4573
894.308	4618
894.43	4702
894.552	4839
894.674	4755
894.796	4554
894.918	4592
895.04	4584
895.161	4752
895.283	4710
895.405	4592
895.526	4637
895.648	4656
895.769	4698
895.891	4687
896.012	4717
896.134	4733
896.255	4656
896.376	4615
896.498	4649
896.619	4649
896.74	4558
896.861	4660
896.982	4949
897.103	5094
897.224	4873
897.345	4729
897.466	4687
897.587	4683
897.708	4908
897.828	4793
897.949	4668
898.07	4611
898.19	4660
898.311	4820
898.431	4626
898.552	4698
898.672	4790
898.792	4816
898.913	4763
899.033	4653
899.153	4497
899.273	4413
899.393	4485
899.513	4523
899.633	4481
899.753	4542
899.873	4497
899.993	4615
900.113	4523
900.232	4588
900.352	4527
900.472	4497
900.591	4421
900.711	4436
900.83	4451
900.95	4649
901.069	4721
901.189	4538
901.308	4341
901.427	4325
901.546	4356
901.665	4489
901.784	4516
901.904	4394
902.023	4325
902.141	4185
902.26	4162
902.379	4341
902.498	4200
902.617	4230
902.735	4356
902.854	4356
902.973	4394
903.091	4242
903.21	4227
903.328	4287
903.446	4227
903.565	4204
903.683	4344
903.801	4253
903.919	4409
904.038	4432
904.156	4325
904.274	4493
904.392	4402
904.51	4436
904.627	4478
904.745	4618
904.863	4664
904.981	4405
905.098	4318
905.216	4360
905.334	4409
905.451	4417
905.569	4447
905.686	4516
905.803	4516
905.921	4386
906.038	4561
906.155	4493
906.272	4402
906.389	4447
906.506	4348
906.623	4352
906.74	4432
906.857	4299
906.974	4413
907.091	4558
907.208	4641
907.324	4577
907.441	4489
907.557	4363
907.674	4363
907.79	4348
907.907	4352
908.023	4424
908.139	4485
908.256	4417
908.372	4470
908.488	4459
908.604	4371
908.72	4337
908.836	4383
908.952	4344
909.068	4478
909.184	4550
909.3	4493
909.415	4569
909.531	4550
909.647	4325
909.762	4402
909.878	4390
909.993	4421
910.108	4451
910.224	4451
910.339	4474
910.454	4409
910.57	4352
910.685	4303
910.8	4683
910.915	4584
911.03	4481
911.145	4284
911.259	4375
911.374	4371
911.489	4276
911.604	4227
911.718	4158
911.833	4215
911.947	4044
912.062	4032
912.176	4204
912.291	4238
912.405	4196
912.519	4436
912.633	4485
912.748	4367
912.862	4306
912.976	4204
913.09	4082
913.204	4185
913.318	4257
913.431	4348
913.545	4386
913.659	4440
913.772	4386
913.886	4276
914	4257
914.113	4379
914.226	4421
914.34	4394
914.453	4268
914.566	4402
914.68	4253
914.793	4261
914.906	4188
915.019	4105
915.132	4116
915.245	4173
915.358	4246
915.47	4238
915.583	4268
915.696	4337
915.809	4417
915.921	4428
916.034	4242
916.146	4246
916.259	4249
916.371	4360
916.483	4371
916.595	4261
916.708	4272
916.82	4348
916.932	4291
917.044	4333
917.156	4329
917.268	4234
917.38	4234
917.491	4284
917.603	4348
917.715	4386
917.826	4440
917.938	4341
918.049	4188
918.161	4443
918.272	4554
918.384	4569
918.495	4447
918.606	4276
918.717	4230
918.828	4337
918.939	4356
919.05	4230
919.161	4325
919.272	4150
919.383	4249
919.494	4413
919.604	4649
919.715	4432
919.826	4348
919.936	4405
920.047	4512
920.157	4493
920.267	4706
920.378	4531
920.488	4474
920.598	4748
920.708	4858
920.818	4744
920.928	4752
921.038	4953
921.148	4930
921.258	4596
921.368	4569
921.477	4500
921.587	4481
921.697	4333
921.806	4493
921.916	4413
922.025	4284
922.134	4249
922.244	4242
922.353	4325
922.462	4185
922.571	4162
922.68	3994
922.789	3953
922.898	4063
923.007	4002
923.116	4063
923.224	4059
923.333	4074
923.442	4006
923.55	3915
923.659	3991
923.767	4067
923.876	3994
923.984	4059
924.092	3994
924.201	4086
924.309	4112
924.417	4147
924.525	4059
924.633	4124
924.741	5071
924.849	3930
924.956	4109
925.064	3937
925.172	3945
925.279	3949
925.387	4055
925.494	4063
925.602	4196
925.709	4227
925.816	4029
925.924	4154
926.031	4227
926.138	4181
926.245	4227
926.352	4044
926.459	4215
926.566	4268
926.673	4181
926.779	4097
926.886	4093
926.993	3987
927.099	3956
927.206	3960
927.312	3945
927.419	4074
927.525	4032
927.631	4059
927.737	3964
927.843	3903
927.95	3800
928.056	3964
928.162	3964
928.267	4048
928.373	4535
928.479	4086
928.585	3880
928.69	3972
928.796	4074
928.901	3972
929.007	3850
929.112	3994
929.218	3934
929.323	3972
929.428	3964
929.533	4124
929.638	3888
929.743	3998
929.848	4025
929.953	3983
930.058	3865
930.163	3759
930.267	3808
930.372	3987
930.477	3781
930.581	4055
930.685	3945
930.79	3831
930.894	3876
930.998	3915
931.103	4002
931.207	3709
931.311	3709
931.415	3629
931.519	3549
931.623	3557
