Data from test_V78500241_1648.txt Node
Date: Fri Mar 25 17:00:27 CST 2022
User: usil
Spectrometer: V785-0024
Trigger mode: 0
Integration Time (sec): 4.000000E-1
Scans to average: 1
Nonlinearity correction enabled: false
Boxcar width: 0
Storing dark spectrum: false
XAxis mode: Wavelengths
Number of Pixels in Spectrum: 1024
>>>>>Begin Spectral Data<<<<<
801.071	7944
801.214	8012
801.356	7837
801.499	7883
801.641	7734
801.783	7814
801.926	7944
802.068	7921
802.211	7982
802.353	7986
802.496	7864
802.638	7814
802.78	7879
802.923	7913
803.065	7868
803.208	7856
803.35	7974
803.492	8096
803.635	8115
803.777	8069
803.919	8145
804.061	8438
804.204	8183
804.346	8020
804.488	8024
804.63	8081
804.773	8012
804.915	8050
805.057	8324
805.199	8134
805.341	8218
805.483	8298
805.626	8214
805.768	8065
805.91	8233
806.052	8286
806.194	8153
806.336	8286
806.478	8031
806.62	8088
806.762	8153
806.904	8244
807.046	8480
807.188	8389
807.33	8244
807.472	8347
807.614	8153
807.756	8103
807.898	7970
808.04	7845
808.182	7951
808.324	7860
808.465	7928
808.607	8039
808.749	8046
808.891	8225
809.033	8286
809.174	8183
809.316	8020
809.458	8115
809.6	8027
809.741	8058
809.883	8043
810.025	8119
810.166	8016
810.308	8016
810.45	7989
810.591	7818
810.733	7712
810.875	7613
811.016	7480
811.158	7426
811.299	7613
811.441	7715
811.582	7655
811.724	7597
811.865	7540
812.007	7628
812.148	7548
812.29	7658
812.431	7818
812.573	7845
812.714	7940
812.855	8123
812.997	8164
813.138	8286
813.279	8206
813.421	8031
813.562	8035
813.703	7826
813.845	7700
813.986	7460
814.127	7240
814.268	7198
814.41	7194
814.551	7141
814.692	7194
814.833	7072
814.974	7103
815.115	7076
815.256	6932
815.397	7008
815.539	6909
815.68	6806
815.821	6783
815.962	6897
816.103	6726
816.244	6688
816.385	6570
816.526	6585
816.666	6456
816.807	6266
816.948	6460
817.089	6456
817.23	6422
817.371	6323
817.512	6334
817.653	6399
817.793	6334
817.934	6353
818.075	6483
818.216	6429
818.356	6357
818.497	6182
818.638	6148
818.778	6121
818.919	6136
819.06	6201
819.2	6300
819.341	6334
819.481	6331
819.622	6513
819.762	6722
819.903	6673
820.043	6578
820.184	6582
820.324	6566
820.465	6696
820.605	6669
820.746	6578
820.886	6525
821.026	6654
821.167	6700
821.307	6833
821.447	6707
821.588	6715
821.728	6566
821.868	6528
822.008	6319
822.149	6407
822.289	6369
822.429	6091
822.569	6041
822.709	6098
822.849	5901
822.99	5840
823.13	5920
823.27	5942
823.41	5771
823.55	5767
823.69	5760
823.83	5741
823.97	5703
824.11	5539
824.25	5524
824.389	5562
824.529	5566
824.669	5524
824.809	5657
824.949	5676
825.089	5592
825.228	5554
825.368	5440
825.508	5318
825.648	5379
825.787	5379
825.927	5345
826.067	5337
826.206	5368
826.346	5410
826.485	5406
826.625	5459
826.765	5570
826.904	5509
827.044	5280
827.183	5239
827.323	5159
827.462	5242
827.601	5220
827.741	5239
827.88	5254
828.02	5140
828.159	5322
828.298	5357
828.437	5376
828.577	5322
828.716	5493
828.855	5357
828.994	5185
829.134	5235
829.273	5239
829.412	5201
829.551	5162
829.69	5231
829.829	5330
829.968	5383
830.107	5318
830.246	5273
830.385	5250
830.524	5216
830.663	5094
830.802	4968
830.941	4957
831.08	4953
831.219	5045
831.357	5010
831.496	5147
831.635	4968
831.774	4900
831.913	4919
832.051	4778
832.19	4744
832.329	4881
832.467	4778
832.606	4679
832.744	4721
832.883	4771
833.022	4782
833.16	4809
833.299	4858
833.437	4877
833.576	4896
833.714	4885
833.852	4965
833.991	4961
834.129	4972
834.267	4961
834.406	4949
834.544	5025
834.682	5022
834.821	4987
834.959	5170
835.097	5045
835.235	5201
835.373	5124
835.511	5117
835.65	5109
835.788	5071
835.926	4957
836.064	4938
836.202	4915
836.34	5174
836.478	5261
836.615	5121
836.753	5227
836.891	5315
837.029	5261
837.167	5216
837.305	5231
837.443	5140
837.58	5140
837.718	5299
837.856	5212
837.993	5155
838.131	5242
838.269	5250
838.406	5231
838.544	5189
838.681	5025
838.819	4991
838.956	4934
839.094	4987
839.231	4987
839.369	5117
839.506	5455
839.643	5261
839.781	5083
839.918	5086
840.055	5140
840.193	5132
840.33	5113
840.467	5147
840.604	5201
840.742	5417
840.879	5090
841.016	5208
841.153	5174
841.29	5376
841.427	5337
841.564	5322
841.701	5341
841.838	5322
841.975	5254
842.112	5280
842.249	5162
842.385	5109
842.522	5383
842.659	5197
842.796	5212
842.933	5239
843.069	5121
843.206	5178
843.343	5318
843.479	5273
843.616	5303
843.752	5025
843.889	5090
844.025	5235
844.162	5029
844.298	5201
844.435	5155
844.571	5098
844.708	5201
844.844	5368
844.98	5433
845.117	5337
845.253	5170
845.389	5124
845.525	5208
845.661	5143
845.798	5045
845.934	5166
846.07	5056
846.206	5239
846.342	5353
846.478	5231
846.614	5064
846.75	5003
846.886	4976
847.022	5212
847.158	5037
847.294	5064
847.429	5071
847.565	5098
847.701	5315
847.837	4900
847.972	4835
848.108	4991
848.244	4987
848.379	4824
848.515	4790
848.65	4706
848.786	4793
848.921	4778
849.057	4915
849.192	4946
849.328	4778
849.463	4896
849.598	4782
849.734	4782
849.869	4744
850.004	4679
850.14	4706
850.275	4596
850.41	4512
850.545	4588
850.68	4641
850.815	4660
850.95	4641
851.085	4946
851.22	4774
851.355	4702
851.49	4645
851.625	4611
851.76	4672
851.895	4622
852.03	4588
852.165	4740
852.299	4714
852.434	4805
852.569	4748
852.703	4786
852.838	4877
852.973	5003
853.107	4949
853.242	4740
853.376	4641
853.511	4584
853.645	4622
853.78	4839
853.914	4668
854.048	4698
854.183	4687
854.317	4721
854.451	4862
854.585	4691
854.72	4691
854.854	4744
854.988	4611
855.122	4630
855.256	4558
855.39	4714
855.524	4820
855.658	4771
855.792	4702
855.926	4752
856.06	4706
856.194	4771
856.327	4675
856.461	4599
856.595	4641
856.729	4664
856.862	4820
856.996	4755
857.13	4748
857.263	4809
857.397	4793
857.53	4729
857.664	4759
857.797	4793
857.931	4828
858.064	4736
858.197	4748
858.331	4691
858.464	4622
858.597	4565
858.731	4603
858.864	4664
858.997	4596
859.13	4664
859.263	4721
859.396	4733
859.529	4599
859.662	4622
859.795	4596
859.928	4656
860.061	4755
860.194	4812
860.327	4626
860.46	4611
860.592	4721
860.725	4748
860.858	4752
860.99	4599
861.123	4596
861.256	4550
861.388	4683
861.521	5212
861.653	4550
861.786	4447
861.918	4485
862.05	4569
862.183	4599
862.315	4634
862.447	4664
862.58	4573
862.712	4428
862.844	4337
862.976	4493
863.108	4497
863.24	4774
863.372	4341
863.504	4459
863.636	4440
863.768	4527
863.9	4436
864.032	4367
864.164	4424
864.296	4512
864.428	4558
864.559	4599
864.691	4558
864.823	4565
864.954	4535
865.086	4542
865.217	4474
865.349	4428
865.48	4493
865.612	4493
865.743	4645
865.875	4508
866.006	4417
866.137	4497
866.269	4459
866.4	4459
866.531	4462
866.662	4424
866.793	4424
866.924	4409
867.055	4497
867.186	4512
867.317	4462
867.448	4447
867.579	4398
867.71	4413
867.841	4428
867.972	4481
868.103	4523
868.233	4440
868.364	4481
868.495	4527
868.625	4717
868.756	4710
868.886	4546
869.017	4607
869.147	4805
869.278	4786
869.408	4649
869.539	4618
869.669	4736
869.799	4679
869.929	4790
870.06	4755
870.19	4953
870.32	4938
870.45	4972
870.58	4968
870.71	5117
870.84	5102
870.97	4957
871.1	4908
871.23	5121
871.36	5155
871.489	5003
871.619	5094
871.749	5102
871.879	5178
872.008	5181
872.138	5090
872.267	4987
872.397	4839
872.526	4858
872.656	4782
872.785	4847
872.915	4995
873.044	5083
873.173	4949
873.303	5006
873.432	4976
873.561	4957
873.69	4862
873.819	4892
873.948	4923
874.077	4793
874.206	4790
874.335	4839
874.464	4995
874.593	5090
874.722	5003
874.851	5124
874.979	5083
875.108	5060
875.237	4942
875.365	4911
875.494	4881
875.623	5010
875.751	4839
875.88	4904
876.008	4991
876.136	5056
876.265	5231
876.393	5318
876.521	5269
876.65	5231
876.778	5155
876.906	5132
877.034	5010
877.162	5052
877.29	4995
877.418	5064
877.546	5094
877.674	5045
877.802	5022
877.93	5094
878.058	4942
878.185	4919
878.313	5014
878.441	5029
878.568	4801
878.696	4870
878.824	4980
878.951	4965
879.079	5079
879.206	5318
879.333	5143
879.461	4942
879.588	5045
879.715	5132
879.842	5254
879.97	5045
880.097	4790
880.224	4733
880.351	4828
880.478	4843
880.605	4828
880.732	4820
880.859	5086
880.986	4942
881.112	4930
881.239	4812
881.366	4694
881.493	4660
881.619	4599
881.746	4653
881.872	4656
881.999	4687
882.125	4668
882.252	4809
882.378	4824
882.505	4972
882.631	4820
882.757	4675
882.883	4767
883.01	4778
883.136	4733
883.262	4599
883.388	4588
883.514	4866
883.64	4885
883.766	4793
883.892	4672
884.018	4736
884.143	4942
884.269	5048
884.395	4729
884.52	4672
884.646	4675
884.772	4596
884.897	4577
885.023	4717
885.148	4801
885.274	4904
885.399	4809
885.524	4759
885.65	4717
885.775	4786
885.9	4679
886.025	4858
886.15	4797
886.275	4717
886.4	4660
886.525	4786
886.65	4691
886.775	4725
886.9	4904
887.025	5029
887.149	4843
887.274	4630
887.399	4596
887.523	4558
887.648	4630
887.773	4618
887.897	4752
888.021	4774
888.146	4702
888.27	4774
888.395	4980
888.519	4812
888.643	4812
888.767	4896
888.891	4656
889.015	4603
889.139	4653
889.263	4630
889.387	4759
889.511	4850
889.635	4812
889.759	4630
889.883	4675
890.006	4717
890.13	4831
890.254	4634
890.377	4710
890.501	4535
890.624	4508
890.748	4660
890.871	4519
890.995	4451
891.118	4436
891.241	4512
891.364	4535
891.488	4645
891.611	4470
891.734	4531
891.857	4622
891.98	4565
892.103	4653
892.226	4580
892.349	4558
892.471	4443
892.594	4592
892.717	4618
892.839	4561
892.962	4607
893.085	4668
893.207	4626
893.33	4474
893.452	4554
893.575	4664
893.697	4573
893.819	4774
893.941	4816
894.064	4763
894.186	4630
894.308	4569
894.43	4691
894.552	4866
894.674	4771
894.796	4542
894.918	4596
895.04	4599
895.161	4748
895.283	4675
895.405	4577
895.526	4637
895.648	4653
895.769	4664
895.891	4683
896.012	4748
896.134	4740
896.255	4599
896.376	4675
896.498	4637
896.619	4729
896.74	4607
896.861	4634
896.982	4900
897.103	5094
897.224	4843
897.345	4763
897.466	4714
897.587	4752
897.708	4858
897.828	4740
897.949	4702
898.07	4603
898.19	4656
898.311	4839
898.431	4691
898.552	4778
898.672	4774
898.792	4812
898.913	4740
899.033	4641
899.153	4561
899.273	4436
899.393	4466
899.513	4538
899.633	4538
899.753	4550
899.873	4542
899.993	4554
900.113	4523
900.232	4588
900.352	4554
900.472	4443
900.591	4375
900.711	4500
900.83	4451
900.95	4596
901.069	4656
901.189	4542
901.308	4367
901.427	4291
901.546	4363
901.665	4451
901.784	4527
901.904	4390
902.023	4341
902.141	4188
902.26	4223
902.379	4325
902.498	4272
902.617	4234
902.735	4443
902.854	4402
902.973	4329
903.091	4230
903.21	4219
903.328	4295
903.446	4249
903.565	4257
903.683	4344
903.801	4287
903.919	4443
904.038	4485
904.156	4322
904.274	4459
904.392	4466
904.51	4466
904.627	4466
904.745	4660
904.863	4637
904.981	4409
905.098	4322
905.216	4363
905.334	4398
905.451	4440
905.569	4462
905.686	4546
905.803	4504
905.921	4398
906.038	4561
906.155	4512
906.272	4371
906.389	4462
906.506	4333
906.623	4413
906.74	4394
906.857	4356
906.974	4352
907.091	4603
907.208	4691
907.324	4611
907.441	4478
907.557	4348
907.674	4325
907.79	4322
907.907	4394
908.023	4546
908.139	4497
908.256	4466
908.372	4474
908.488	4440
908.604	4310
908.72	4356
908.836	4386
908.952	4348
909.068	4386
909.184	4523
909.3	4497
909.415	4584
909.531	4558
909.647	4360
909.762	4360
909.878	4337
909.993	4413
910.108	4428
910.224	4348
910.339	4485
910.454	4424
910.57	4348
910.685	4344
910.8	4698
910.915	4637
911.03	4489
911.145	4363
911.259	4341
911.374	4383
911.489	4329
911.604	4268
911.718	4188
911.833	4223
911.947	4071
912.062	4051
912.176	4253
912.291	4223
912.405	4246
912.519	4440
912.633	4478
912.748	4375
912.862	4303
912.976	4223
913.09	4055
913.204	4154
913.318	4211
913.431	4375
913.545	4367
913.659	4424
913.772	4352
913.886	4261
914	4223
914.113	4383
914.226	4466
914.34	4386
914.453	4219
914.566	4481
914.68	4333
914.793	4314
914.906	4188
915.019	4147
915.132	4093
915.245	4211
915.358	4219
915.47	4257
915.583	4284
915.696	4291
915.809	4466
915.921	4417
916.034	4276
916.146	4272
916.259	4223
916.371	4383
916.483	4356
916.595	4242
916.708	4314
916.82	4295
916.932	4341
917.044	4348
917.156	4356
917.268	4227
917.38	4280
917.491	4257
917.603	4299
917.715	4421
917.826	4428
917.938	4341
918.049	4249
918.161	4398
918.272	4474
918.384	4527
918.495	4413
918.606	4268
918.717	4246
918.828	4322
918.939	4363
919.05	4246
919.161	4333
919.272	4169
919.383	4227
919.494	4443
919.604	4584
919.715	4493
919.826	4356
919.936	4455
920.047	4531
920.157	4538
920.267	4679
920.378	4523
920.488	4516
920.598	4736
920.708	4873
920.818	4736
920.928	4748
921.038	4957
921.148	4877
921.258	4649
921.368	4546
921.477	4481
921.587	4512
921.697	4367
921.806	4580
921.916	4485
922.025	4303
922.134	4242
922.244	4192
922.353	4322
922.462	4200
922.571	4090
922.68	4006
922.789	4040
922.898	4021
923.007	4017
923.116	4074
923.224	4051
923.333	4071
923.442	3930
923.55	3949
923.659	4029
923.767	4097
923.876	4040
923.984	4101
924.092	3964
924.201	4063
924.309	4124
924.417	4112
924.525	4051
924.633	4112
924.741	5075
924.849	3926
924.956	4147
925.064	3941
925.172	3903
925.279	3972
925.387	4017
925.494	4032
925.602	4276
925.709	4154
925.816	4055
925.924	4158
926.031	4230
926.138	4215
926.245	4211
926.352	4078
926.459	4272
926.566	4318
926.673	4150
926.779	4093
926.886	4112
926.993	3987
927.099	3926
927.206	3915
927.312	3937
927.419	4059
927.525	4063
927.631	4097
927.737	3983
927.843	3983
927.95	3850
928.056	3941
928.162	3991
928.267	4029
928.373	4584
928.479	4169
928.585	3823
928.69	4059
928.796	4090
928.901	3972
929.007	3850
929.112	3994
929.218	3987
929.323	3953
929.428	3949
929.533	4059
929.638	3918
929.743	3975
929.848	4040
929.953	3945
930.058	3956
930.163	3808
930.267	3850
930.372	3987
930.477	3804
930.581	4051
930.685	3937
930.79	3774
930.894	3873
930.998	3812
931.103	4029
931.207	3701
931.311	3720
931.415	3667
931.519	3519
931.623	3534
