Data from test_V78500241_1161.txt Node
Date: Fri Mar 25 16:57:04 CST 2022
User: usil
Spectrometer: V785-0024
Trigger mode: 0
Integration Time (sec): 4.000000E-1
Scans to average: 1
Nonlinearity correction enabled: false
Boxcar width: 0
Storing dark spectrum: false
XAxis mode: Wavelengths
Number of Pixels in Spectrum: 1024
>>>>>Begin Spectral Data<<<<<
801.071	8062
801.214	8058
801.356	7887
801.499	7772
801.641	7780
801.783	7795
801.926	7932
802.068	7894
802.211	8001
802.353	7959
802.496	7856
802.638	7856
802.78	7940
802.923	7906
803.065	7925
803.208	7795
803.35	7963
803.492	8199
803.635	8237
803.777	8043
803.919	8153
804.061	8434
804.204	8123
804.346	8043
804.488	7974
804.63	8027
804.773	8073
804.915	8096
805.057	8286
805.199	8100
805.341	8221
805.483	8347
805.626	8183
805.768	8100
805.91	8279
806.052	8199
806.194	8107
806.336	8225
806.478	8107
806.62	8035
806.762	8134
806.904	8263
807.046	8484
807.188	8320
807.33	8240
807.472	8279
807.614	8161
807.756	8123
807.898	8001
808.04	7917
808.182	7841
808.324	7871
808.465	7944
808.607	8092
808.749	8126
808.891	8164
809.033	8290
809.174	8176
809.316	7989
809.458	8016
809.6	7917
809.741	8008
809.883	8005
810.025	8046
810.166	8088
810.308	8046
810.45	8012
810.591	7894
810.733	7731
810.875	7510
811.016	7544
811.158	7468
811.299	7590
811.441	7715
811.582	7704
811.724	7582
811.865	7586
812.007	7533
812.148	7590
812.29	7655
812.431	7738
812.573	7830
812.714	7940
812.855	8134
812.997	8214
813.138	8282
813.279	8199
813.421	8096
813.562	7955
813.703	7830
813.845	7746
813.986	7422
814.127	7293
814.268	7217
814.41	7175
814.551	7088
814.692	7179
814.833	7061
814.974	7129
815.115	7107
815.256	6951
815.397	6848
815.539	6924
815.68	6814
815.821	6814
815.962	6833
816.103	6757
816.244	6738
816.385	6635
816.526	6585
816.666	6494
816.807	6308
816.948	6441
817.089	6502
817.23	6414
817.371	6399
817.512	6357
817.653	6422
817.793	6372
817.934	6388
818.075	6486
818.216	6414
818.356	6365
818.497	6266
818.638	6140
818.778	6140
818.919	6155
819.06	6175
819.2	6304
819.341	6315
819.481	6308
819.622	6540
819.762	6730
819.903	6700
820.043	6612
820.184	6540
820.324	6563
820.465	6692
820.605	6646
820.746	6559
820.886	6479
821.026	6681
821.167	6734
821.307	6798
821.447	6776
821.588	6681
821.728	6521
821.868	6452
822.008	6331
822.149	6365
822.289	6350
822.429	6125
822.569	6117
822.709	6087
822.849	5882
822.99	5893
823.13	5901
823.27	5882
823.41	5775
823.55	5783
823.69	5748
823.83	5752
823.97	5657
824.11	5497
824.25	5493
824.389	5539
824.529	5585
824.669	5493
824.809	5539
824.949	5676
825.089	5604
825.228	5547
825.368	5337
825.508	5337
825.648	5353
825.787	5360
825.927	5360
826.067	5292
826.206	5307
826.346	5429
826.485	5330
826.625	5395
826.765	5554
826.904	5414
827.044	5265
827.183	5170
827.323	5105
827.462	5242
827.601	5170
827.741	5185
827.88	5178
828.02	5132
828.159	5239
828.298	5254
828.437	5372
828.577	5265
828.716	5539
828.855	5303
828.994	5143
829.134	5189
829.273	5170
829.412	5102
829.551	5121
829.69	5121
829.829	5208
829.968	5330
830.107	5303
830.246	5269
830.385	5147
830.524	5083
830.663	4999
830.802	4953
830.941	4896
831.08	4873
831.219	4980
831.357	4961
831.496	5174
831.635	4904
831.774	4797
831.913	4828
832.051	4649
832.19	4736
832.329	4816
832.467	4702
832.606	4618
832.744	4698
832.883	4683
833.022	4694
833.16	4729
833.299	4820
833.437	4809
833.576	4854
833.714	4839
833.852	4862
833.991	4915
834.129	4949
834.267	4934
834.406	4915
834.544	4946
834.682	4980
834.821	4965
834.959	5162
835.097	4976
835.235	5113
835.373	5086
835.511	5090
835.65	4972
835.788	5041
835.926	4892
836.064	4873
836.202	4930
836.34	5181
836.478	5220
836.615	5037
836.753	5216
836.891	5250
837.029	5220
837.167	5162
837.305	5185
837.443	5170
837.58	5056
837.718	5242
837.856	5105
837.993	5143
838.131	5239
838.269	5208
838.406	5174
838.544	5170
838.681	5006
838.819	4999
838.956	4889
839.094	4923
839.231	5003
839.369	5098
839.506	5421
839.643	5254
839.781	5025
839.918	5003
840.055	5113
840.193	5090
840.33	5159
840.467	5124
840.604	5208
840.742	5406
840.879	5041
841.016	5037
841.153	5155
841.29	5387
841.427	5303
841.564	5280
841.701	5349
841.838	5246
841.975	5235
842.112	5242
842.249	5117
842.385	5075
842.522	5318
842.659	5086
842.796	5159
842.933	5197
843.069	5124
843.206	5124
843.343	5318
843.479	5212
843.616	5216
843.752	5029
843.889	4976
844.025	5250
844.162	4976
844.298	5181
844.435	5060
844.571	5029
844.708	5181
844.844	5280
844.98	5345
845.117	5303
845.253	5136
845.389	5098
845.525	5113
845.661	5124
845.798	5010
845.934	5117
846.07	5041
846.206	5147
846.342	5296
846.478	5174
846.614	4999
846.75	4930
846.886	4927
847.022	5105
847.158	5045
847.294	5033
847.429	5071
847.565	5033
847.701	5307
847.837	4816
847.972	4812
848.108	4976
848.244	4923
848.379	4793
848.515	4683
848.65	4664
848.786	4717
848.921	4790
849.057	4839
849.192	4904
849.328	4736
849.463	4831
849.598	4820
849.734	4759
849.869	4748
850.004	4634
850.14	4675
850.275	4645
850.41	4519
850.545	4527
850.68	4584
850.815	4675
850.95	4649
851.085	4847
851.22	4748
851.355	4668
851.49	4618
851.625	4615
851.76	4634
851.895	4527
852.03	4531
852.165	4599
852.299	4698
852.434	4793
852.569	4721
852.703	4763
852.838	4839
852.973	4923
853.107	4949
853.242	4733
853.376	4664
853.511	4523
853.645	4622
853.78	4752
853.914	4672
854.048	4660
854.183	4607
854.317	4721
854.451	4828
854.585	4683
854.72	4649
854.854	4733
854.988	4618
855.122	4641
855.256	4500
855.39	4679
855.524	4763
855.658	4694
855.792	4748
855.926	4748
856.06	4733
856.194	4809
856.327	4675
856.461	4596
856.595	4577
856.729	4603
856.862	4790
856.996	4702
857.13	4698
857.263	4733
857.397	4763
857.53	4672
857.664	4698
857.797	4755
857.931	4714
858.064	4653
858.197	4748
858.331	4679
858.464	4607
858.597	4516
858.731	4599
858.864	4626
858.997	4611
859.13	4653
859.263	4645
859.396	4668
859.529	4554
859.662	4519
859.795	4516
859.928	4645
860.061	4755
860.194	4752
860.327	4577
860.46	4603
860.592	4694
860.725	4725
860.858	4733
860.99	4531
861.123	4504
861.256	4481
861.388	4618
861.521	5223
861.653	4470
861.786	4394
861.918	4489
862.05	4527
862.183	4558
862.315	4546
862.447	4656
862.58	4527
862.712	4402
862.844	4295
862.976	4474
863.108	4481
863.24	4881
863.372	4344
863.504	4440
863.636	4390
863.768	4413
863.9	4428
864.032	4329
864.164	4386
864.296	4440
864.428	4497
864.559	4512
864.691	4497
864.823	4538
864.954	4481
865.086	4565
865.217	4421
865.349	4390
865.48	4459
865.612	4497
865.743	4542
865.875	4459
866.006	4413
866.137	4466
866.269	4390
866.4	4413
866.531	4424
866.662	4394
866.793	4409
866.924	4402
867.055	4493
867.186	4470
867.317	4398
867.448	4337
867.579	4371
867.71	4402
867.841	4367
867.972	4428
868.103	4462
868.233	4440
868.364	4409
868.495	4493
868.625	4668
868.756	4721
868.886	4546
869.017	4615
869.147	4790
869.278	4752
869.408	4645
869.539	4611
869.669	4706
869.799	4656
869.929	4714
870.06	4706
870.19	4934
870.32	4915
870.45	4938
870.58	5025
870.71	5079
870.84	5117
870.97	4991
871.1	4885
871.23	5132
871.36	5113
871.489	5014
871.619	5094
871.749	5102
871.879	5075
872.008	5208
872.138	5014
872.267	4930
872.397	4839
872.526	4793
872.656	4725
872.785	4828
872.915	4889
873.044	5045
873.173	4923
873.303	4957
873.432	4946
873.561	4938
873.69	4866
873.819	4877
873.948	4930
874.077	4809
874.206	4782
874.335	4816
874.464	4908
874.593	5064
874.722	4915
874.851	5117
874.979	5124
875.108	5067
875.237	4843
875.365	4862
875.494	4873
875.623	4953
875.751	4839
875.88	4877
876.008	5010
876.136	5041
876.265	5170
876.393	5337
876.521	5246
876.65	5212
876.778	5162
876.906	5064
877.034	5025
877.162	5045
877.29	4999
877.418	5079
877.546	5010
877.674	5014
877.802	5033
877.93	4984
878.058	4885
878.185	4873
878.313	4961
878.441	4911
878.568	4862
878.696	4862
878.824	4904
878.951	4980
879.079	5124
879.206	5254
879.333	5105
879.461	4965
879.588	4984
879.715	5098
879.842	5189
879.97	5014
880.097	4812
880.224	4721
880.351	4778
880.478	4816
880.605	4763
880.732	4755
880.859	5067
880.986	4862
881.112	4930
881.239	4778
881.366	4717
881.493	4603
881.619	4584
881.746	4599
881.872	4615
881.999	4599
882.125	4698
882.252	4771
882.378	4801
882.505	4915
882.631	4828
882.757	4679
882.883	4748
883.01	4759
883.136	4687
883.262	4561
883.388	4577
883.514	4820
883.64	4896
883.766	4763
883.892	4679
884.018	4691
884.143	4862
884.269	4953
884.395	4694
884.52	4645
884.646	4584
884.772	4535
884.897	4550
885.023	4691
885.148	4801
885.274	4831
885.399	4778
885.524	4675
885.65	4729
885.775	4763
885.9	4706
886.025	4812
886.15	4729
886.275	4687
886.4	4691
886.525	4740
886.65	4691
886.775	4694
886.9	4828
887.025	5018
887.149	4748
887.274	4656
887.399	4596
887.523	4519
887.648	4538
887.773	4561
887.897	4771
888.021	4774
888.146	4653
888.27	4733
888.395	4911
888.519	4767
888.643	4771
888.767	4805
888.891	4714
889.015	4573
889.139	4668
889.263	4596
889.387	4759
889.511	4847
889.635	4786
889.759	4615
889.883	4660
890.006	4717
890.13	4831
890.254	4637
890.377	4672
890.501	4546
890.624	4497
890.748	4630
890.871	4485
890.995	4413
891.118	4367
891.241	4542
891.364	4554
891.488	4611
891.611	4497
891.734	4481
891.857	4603
891.98	4519
892.103	4649
892.226	4596
892.349	4516
892.471	4386
892.594	4538
892.717	4569
892.839	4569
892.962	4573
893.085	4675
893.207	4599
893.33	4432
893.452	4478
893.575	4649
893.697	4611
893.819	4782
893.941	4797
894.064	4759
894.186	4554
894.308	4573
894.43	4752
894.552	4778
894.674	4725
894.796	4535
894.918	4554
895.04	4527
895.161	4664
895.283	4668
895.405	4554
895.526	4588
895.648	4691
895.769	4641
895.891	4710
896.012	4725
896.134	4683
896.255	4694
896.376	4630
896.498	4599
896.619	4729
896.74	4626
896.861	4694
896.982	4873
897.103	5014
897.224	4714
897.345	4744
897.466	4626
897.587	4744
897.708	4816
897.828	4763
897.949	4683
898.07	4542
898.19	4649
898.311	4839
898.431	4664
898.552	4748
898.672	4839
898.792	4740
898.913	4717
899.033	4622
899.153	4489
899.273	4421
899.393	4462
899.513	4531
899.633	4478
899.753	4546
899.873	4443
899.993	4618
900.113	4546
900.232	4569
900.352	4531
900.472	4478
900.591	4443
900.711	4519
900.83	4447
900.95	4603
901.069	4672
901.189	4561
901.308	4344
901.427	4272
901.546	4386
901.665	4459
901.784	4481
901.904	4405
902.023	4295
902.141	4227
902.26	4139
902.379	4299
902.498	4234
902.617	4253
902.735	4333
902.854	4413
902.973	4325
903.091	4185
903.21	4257
903.328	4276
903.446	4219
903.565	4215
903.683	4413
903.801	4303
903.919	4348
904.038	4447
904.156	4303
904.274	4402
904.392	4363
904.51	4402
904.627	4493
904.745	4538
904.863	4592
904.981	4394
905.098	4348
905.216	4371
905.334	4478
905.451	4402
905.569	4424
905.686	4542
905.803	4573
905.921	4352
906.038	4523
906.155	4478
906.272	4375
906.389	4459
906.506	4322
906.623	4352
906.74	4356
906.857	4230
906.974	4428
907.091	4554
907.208	4683
907.324	4584
907.441	4478
907.557	4329
907.674	4348
907.79	4306
907.907	4432
908.023	4451
908.139	4527
908.256	4417
908.372	4440
908.488	4462
908.604	4379
908.72	4322
908.836	4371
908.952	4356
909.068	4459
909.184	4561
909.3	4459
909.415	4580
909.531	4531
909.647	4360
909.762	4322
909.878	4325
909.993	4459
910.108	4440
910.224	4398
910.339	4500
910.454	4386
910.57	4287
910.685	4272
910.8	4622
910.915	4618
911.03	4493
911.145	4363
911.259	4322
911.374	4379
911.489	4310
911.604	4284
911.718	4158
911.833	4181
911.947	4093
912.062	4002
912.176	4185
912.291	4207
912.405	4223
912.519	4535
912.633	4519
912.748	4386
912.862	4280
912.976	4188
913.09	4078
913.204	4162
913.318	4284
913.431	4383
913.545	4386
913.659	4462
913.772	4310
913.886	4249
914	4238
914.113	4367
914.226	4462
914.34	4375
914.453	4196
914.566	4383
914.68	4318
914.793	4280
914.906	4154
915.019	4097
915.132	4082
915.245	4139
915.358	4185
915.47	4143
915.583	4306
915.696	4287
915.809	4390
915.921	4402
916.034	4238
916.146	4234
916.259	4207
916.371	4356
916.483	4341
916.595	4257
916.708	4318
916.82	4352
916.932	4318
917.044	4375
917.156	4337
917.268	4272
917.38	4291
917.491	4227
917.603	4363
917.715	4405
917.826	4432
917.938	4329
918.049	4215
918.161	4432
918.272	4561
918.384	4489
918.495	4413
918.606	4303
918.717	4204
918.828	4390
918.939	4348
919.05	4227
919.161	4318
919.272	4059
919.383	4219
919.494	4455
919.604	4596
919.715	4421
919.826	4352
919.936	4436
920.047	4497
920.157	4481
920.267	4679
920.378	4512
920.488	4580
920.598	4714
920.708	4866
920.818	4694
920.928	4733
921.038	4927
921.148	4942
921.258	4630
921.368	4588
921.477	4512
921.587	4451
921.697	4379
921.806	4535
921.916	4440
922.025	4276
922.134	4215
922.244	4177
922.353	4322
922.462	4154
922.571	4158
922.68	4025
922.789	3983
922.898	4055
923.007	3972
923.116	4120
923.224	4055
923.333	4078
923.442	3975
923.55	3987
923.659	3968
923.767	4128
923.876	3998
923.984	4158
924.092	4013
924.201	4036
924.309	4063
924.417	4116
924.525	4002
924.633	4074
924.741	5033
924.849	3937
924.956	4116
925.064	3960
925.172	3915
925.279	3937
925.387	4051
925.494	4071
925.602	4242
925.709	4162
925.816	4032
925.924	4147
926.031	4173
926.138	4162
926.245	4173
926.352	4082
926.459	4265
926.566	4287
926.673	4112
926.779	4017
926.886	4124
926.993	3930
927.099	3975
927.206	3968
927.312	3983
927.419	4029
927.525	4010
927.631	4082
927.737	3918
927.843	3968
927.95	3835
928.056	4002
928.162	3979
928.267	4074
928.373	4675
928.479	4109
928.585	3880
928.69	4036
928.796	4032
928.901	3941
929.007	3846
929.112	3994
929.218	4006
929.323	3956
929.428	3941
929.533	4109
929.638	3903
929.743	3945
929.848	4059
929.953	3991
930.058	3876
930.163	3740
930.267	3842
930.372	3994
930.477	3778
930.581	4032
930.685	3930
930.79	3808
930.894	3846
930.998	3869
931.103	4040
931.207	3694
931.311	3671
931.415	3656
931.519	3515
931.623	3542
