Data from test_V78500241_52.txt Node
Date: Fri Mar 25 16:49:21 CST 2022
User: usil
Spectrometer: V785-0024
Trigger mode: 0
Integration Time (sec): 4.000000E-1
Scans to average: 1
Nonlinearity correction enabled: false
Boxcar width: 0
Storing dark spectrum: false
XAxis mode: Wavelengths
Number of Pixels in Spectrum: 1024
>>>>>Begin Spectral Data<<<<<
801.071	8043
801.214	8062
801.356	7970
801.499	7963
801.641	7807
801.783	7925
801.926	8024
802.068	8016
802.211	7940
802.353	8027
802.496	7951
802.638	8005
802.78	8039
802.923	7989
803.065	7944
803.208	7871
803.35	8039
803.492	8107
803.635	8187
803.777	7997
803.919	8107
804.061	8431
804.204	8168
804.346	8050
804.488	7887
804.63	8187
804.773	8062
804.915	8153
805.057	8256
805.199	8161
805.341	8263
805.483	8351
805.626	8218
805.768	8130
805.91	8123
806.052	8237
806.194	8164
806.336	8324
806.478	8183
806.62	8138
806.762	8206
806.904	8282
807.046	8541
807.188	8351
807.33	8313
807.472	8396
807.614	8157
807.756	8191
807.898	8081
808.04	7986
808.182	7932
808.324	7917
808.465	7928
808.607	8065
808.749	8088
808.891	8263
809.033	8294
809.174	8221
809.316	8111
809.458	8088
809.6	7909
809.741	8077
809.883	8020
810.025	8100
810.166	8084
810.308	8084
810.45	8012
810.591	7936
810.733	7765
810.875	7693
811.016	7571
811.158	7537
811.299	7704
811.441	7822
811.582	7727
811.724	7575
811.865	7571
812.007	7674
812.148	7578
812.29	7704
812.431	7871
812.573	7887
812.714	7993
812.855	8103
812.997	8259
813.138	8351
813.279	8218
813.421	8221
813.562	8084
813.703	7890
813.845	7761
813.986	7453
814.127	7305
814.268	7297
814.41	7198
814.551	7168
814.692	7293
814.833	7084
814.974	7095
815.115	7251
815.256	7027
815.397	6947
815.539	6905
815.68	6764
815.821	6810
815.962	6878
816.103	6890
816.244	6738
816.385	6635
816.526	6631
816.666	6563
816.807	6353
816.948	6426
817.089	6528
817.23	6471
817.371	6452
817.512	6456
817.653	6433
817.793	6467
817.934	6399
818.075	6506
818.216	6506
818.356	6418
818.497	6289
818.638	6163
818.778	6167
818.919	6201
819.06	6167
819.2	6331
819.341	6388
819.481	6369
819.622	6582
819.762	6776
819.903	6779
820.043	6570
820.184	6665
820.324	6601
820.465	6734
820.605	6730
820.746	6669
820.886	6593
821.026	6688
821.167	6776
821.307	6783
821.447	6821
821.588	6662
821.728	6650
821.868	6532
822.008	6372
822.149	6353
822.289	6403
822.429	6220
822.569	6102
822.709	6144
822.849	6019
822.99	5859
823.13	5897
823.27	5958
823.41	5836
823.55	5847
823.69	5737
823.83	5851
823.97	5771
824.11	5554
824.25	5562
824.389	5520
824.529	5619
824.669	5558
824.809	5646
824.949	5684
825.089	5657
825.228	5619
825.368	5440
825.508	5353
825.648	5357
825.787	5395
825.927	5425
826.067	5330
826.206	5376
826.346	5376
826.485	5414
826.625	5425
826.765	5592
826.904	5459
827.044	5318
827.183	5227
827.323	5147
827.462	5277
827.601	5212
827.741	5231
827.88	5269
828.02	5174
828.159	5265
828.298	5322
828.437	5383
828.577	5318
828.716	5535
828.855	5353
828.994	5197
829.134	5170
829.273	5189
829.412	5162
829.551	5166
829.69	5189
829.829	5307
829.968	5410
830.107	5349
830.246	5315
830.385	5242
830.524	5193
830.663	5098
830.802	5045
830.941	4946
831.08	4908
831.219	5003
831.357	4991
831.496	5242
831.635	4953
831.774	4900
831.913	4919
832.051	4740
832.19	4778
832.329	4858
832.467	4672
832.606	4694
832.744	4778
832.883	4744
833.022	4759
833.16	4850
833.299	4873
833.437	4885
833.576	4889
833.714	4862
833.852	4930
833.991	4934
834.129	5014
834.267	4953
834.406	4919
834.544	5064
834.682	5060
834.821	5041
834.959	5181
835.097	5018
835.235	5208
835.373	5151
835.511	5109
835.65	5079
835.788	5067
835.926	4953
836.064	4946
836.202	4946
836.34	5151
836.478	5242
836.615	5147
836.753	5288
836.891	5372
837.029	5311
837.167	5235
837.305	5254
837.443	5235
837.58	5079
837.718	5299
837.856	5208
837.993	5185
838.131	5265
838.269	5216
838.406	5261
838.544	5227
838.681	5052
838.819	5064
838.956	4915
839.094	4927
839.231	4984
839.369	5105
839.506	5490
839.643	5292
839.781	5121
839.918	5041
840.055	5121
840.193	5151
840.33	5136
840.467	5159
840.604	5265
840.742	5448
840.879	5124
841.016	5128
841.153	5185
841.29	5414
841.427	5345
841.564	5395
841.701	5425
841.838	5315
841.975	5258
842.112	5360
842.249	5208
842.385	5113
842.522	5368
842.659	5239
842.796	5155
842.933	5246
843.069	5185
843.206	5174
843.343	5349
843.479	5299
843.616	5273
843.752	5067
843.889	4980
844.025	5258
844.162	5018
844.298	5231
844.435	5109
844.571	5052
844.708	5231
844.844	5357
844.98	5341
845.117	5357
845.253	5220
845.389	5117
845.525	5246
845.661	5174
845.798	5075
845.934	5128
846.07	5052
846.206	5318
846.342	5284
846.478	5223
846.614	5064
846.75	4984
846.886	4995
847.022	5193
847.158	5010
847.294	5113
847.429	5102
847.565	5090
847.701	5391
847.837	4915
847.972	4850
848.108	5022
848.244	4980
848.379	4774
848.515	4778
848.65	4744
848.786	4786
848.921	4778
849.057	4847
849.192	4927
849.328	4862
849.463	4854
849.598	4850
849.734	4790
849.869	4744
850.004	4683
850.14	4717
850.275	4630
850.41	4561
850.545	4622
850.68	4645
850.815	4641
850.95	4683
851.085	4873
851.22	4759
851.355	4694
851.49	4660
851.625	4641
851.76	4698
851.895	4607
852.03	4523
852.165	4668
852.299	4698
852.434	4831
852.569	4733
852.703	4843
852.838	4873
852.973	4961
853.107	4984
853.242	4763
853.376	4714
853.511	4592
853.645	4656
853.78	4828
853.914	4702
854.048	4694
854.183	4691
854.317	4797
854.451	4828
854.585	4740
854.72	4668
854.854	4805
854.988	4634
855.122	4656
855.256	4596
855.39	4691
855.524	4790
855.658	4736
855.792	4710
855.926	4782
856.06	4755
856.194	4847
856.327	4767
856.461	4630
856.595	4649
856.729	4615
856.862	4797
856.996	4759
857.13	4729
857.263	4797
857.397	4870
857.53	4736
857.664	4759
857.797	4801
857.931	4774
858.064	4660
858.197	4812
858.331	4683
858.464	4691
858.597	4607
858.731	4691
858.864	4668
858.997	4615
859.13	4706
859.263	4729
859.396	4736
859.529	4607
859.662	4558
859.795	4569
859.928	4687
860.061	4752
860.194	4786
860.327	4622
860.46	4611
860.592	4733
860.725	4771
860.858	4763
860.99	4569
861.123	4596
861.256	4558
861.388	4630
861.521	5337
861.653	4516
861.786	4432
861.918	4443
862.05	4527
862.183	4584
862.315	4645
862.447	4717
862.58	4538
862.712	4443
862.844	4379
862.976	4497
863.108	4493
863.24	4896
863.372	4367
863.504	4409
863.636	4440
863.768	4535
863.9	4459
864.032	4436
864.164	4447
864.296	4512
864.428	4611
864.559	4569
864.691	4596
864.823	4519
864.954	4542
865.086	4573
865.217	4462
865.349	4386
865.48	4478
865.612	4504
865.743	4675
865.875	4466
866.006	4443
866.137	4466
866.269	4455
866.4	4489
866.531	4443
866.662	4421
866.793	4402
866.924	4459
867.055	4489
867.186	4485
867.317	4474
867.448	4375
867.579	4432
867.71	4432
867.841	4409
867.972	4500
868.103	4500
868.233	4523
868.364	4470
868.495	4493
868.625	4702
868.756	4778
868.886	4561
869.017	4656
869.147	4805
869.278	4809
869.408	4710
869.539	4668
869.669	4755
869.799	4736
869.929	4801
870.06	4774
870.19	5045
870.32	4965
870.45	4968
870.58	5006
870.71	5140
870.84	5117
870.97	4946
871.1	4972
871.23	5162
871.36	5185
871.489	5094
871.619	5151
871.749	5113
871.879	5189
872.008	5189
872.138	5086
872.267	5060
872.397	4873
872.526	4812
872.656	4740
872.785	4854
872.915	4991
873.044	5071
873.173	4984
873.303	4984
873.432	5037
873.561	5029
873.69	4915
873.819	4889
873.948	4934
874.077	4858
874.206	4793
874.335	4831
874.464	4953
874.593	5155
874.722	5014
874.851	5128
874.979	5143
875.108	5083
875.237	4968
875.365	4904
875.494	4927
875.623	5018
875.751	4870
875.88	4934
876.008	4999
876.136	5041
876.265	5227
876.393	5368
876.521	5235
876.65	5261
876.778	5227
876.906	5140
877.034	5086
877.162	5048
877.29	5041
877.418	5041
877.546	5079
877.674	5083
877.802	5094
877.93	5071
878.058	4919
878.185	4904
878.313	5045
878.441	4965
878.568	4812
878.696	4923
878.824	4965
878.951	5048
879.079	5223
879.206	5334
879.333	5109
879.461	4965
879.588	5006
879.715	5128
879.842	5296
879.97	5060
880.097	4790
880.224	4778
880.351	4835
880.478	4828
880.605	4809
880.732	4812
880.859	5102
880.986	4908
881.112	4972
881.239	4839
881.366	4664
881.493	4641
881.619	4573
881.746	4706
881.872	4637
881.999	4653
882.125	4736
882.252	4805
882.378	4850
882.505	4991
882.631	4858
882.757	4702
882.883	4755
883.01	4721
883.136	4691
883.262	4626
883.388	4649
883.514	4793
883.64	4896
883.766	4831
883.892	4706
884.018	4740
884.143	4949
884.269	5037
884.395	4683
884.52	4649
884.646	4694
884.772	4599
884.897	4550
885.023	4710
885.148	4816
885.274	4896
885.399	4793
885.524	4748
885.65	4702
885.775	4778
885.9	4748
886.025	4896
886.15	4790
886.275	4748
886.4	4637
886.525	4752
886.65	4729
886.775	4725
886.9	4915
887.025	5060
887.149	4816
887.274	4668
887.399	4588
887.523	4596
887.648	4653
887.773	4637
887.897	4797
888.021	4820
888.146	4706
888.27	4850
888.395	4942
888.519	4862
888.643	4873
888.767	4896
888.891	4702
889.015	4656
889.139	4694
889.263	4630
889.387	4786
889.511	4862
889.635	4854
889.759	4672
889.883	4740
890.006	4774
890.13	4930
890.254	4664
890.377	4729
890.501	4622
890.624	4611
890.748	4698
890.871	4588
890.995	4485
891.118	4443
891.241	4573
891.364	4611
891.488	4725
891.611	4538
891.734	4615
891.857	4702
891.98	4634
892.103	4698
892.226	4698
892.349	4637
892.471	4500
892.594	4622
892.717	4668
892.839	4584
892.962	4679
893.085	4740
893.207	4687
893.33	4531
893.452	4615
893.575	4771
893.697	4691
893.819	4870
893.941	4908
894.064	4820
894.186	4664
894.308	4634
894.43	4824
894.552	4946
894.674	4805
894.796	4653
894.918	4645
895.04	4637
895.161	4805
895.283	4763
895.405	4679
895.526	4744
895.648	4786
895.769	4740
895.891	4782
896.012	4839
896.134	4812
896.255	4740
896.376	4664
896.498	4714
896.619	4755
896.74	4733
896.861	4755
896.982	5025
897.103	5227
897.224	4904
897.345	4812
897.466	4782
897.587	4786
897.708	4908
897.828	4877
897.949	4725
898.07	4599
898.19	4721
898.311	4927
898.431	4755
898.552	4824
898.672	4816
898.792	4854
898.913	4801
899.033	4717
899.153	4565
899.273	4531
899.393	4538
899.513	4550
899.633	4573
899.753	4611
899.873	4588
899.993	4618
900.113	4599
900.232	4683
900.352	4656
900.472	4519
900.591	4493
900.711	4531
900.83	4489
900.95	4702
901.069	4752
901.189	4622
901.308	4402
901.427	4417
901.546	4447
901.665	4531
901.784	4569
901.904	4493
902.023	4394
902.141	4284
902.26	4185
902.379	4390
902.498	4299
902.617	4253
902.735	4462
902.854	4440
902.973	4424
903.091	4265
903.21	4314
903.328	4360
903.446	4318
903.565	4280
903.683	4466
903.801	4360
903.919	4497
904.038	4485
904.156	4367
904.274	4470
904.392	4443
904.51	4478
904.627	4500
904.745	4653
904.863	4656
904.981	4474
905.098	4402
905.216	4474
905.334	4432
905.451	4531
905.569	4538
905.686	4668
905.803	4672
905.921	4512
906.038	4607
906.155	4546
906.272	4398
906.389	4523
906.506	4417
906.623	4417
906.74	4481
906.857	4303
906.974	4481
907.091	4599
907.208	4698
907.324	4645
907.441	4580
907.557	4413
907.674	4379
907.79	4375
907.907	4504
908.023	4546
908.139	4508
908.256	4535
908.372	4508
908.488	4565
908.604	4375
908.72	4417
908.836	4459
908.952	4462
909.068	4489
909.184	4645
909.3	4512
909.415	4683
909.531	4664
909.647	4443
909.762	4417
909.878	4451
909.993	4421
910.108	4512
910.224	4512
910.339	4535
910.454	4493
910.57	4447
910.685	4379
910.8	4759
910.915	4664
911.03	4573
911.145	4394
911.259	4363
911.374	4443
911.489	4360
911.604	4371
911.718	4257
911.833	4276
911.947	4147
912.062	4105
912.176	4287
912.291	4280
912.405	4306
912.519	4527
912.633	4577
912.748	4462
912.862	4371
912.976	4272
913.09	4227
913.204	4223
913.318	4341
913.431	4432
913.545	4459
913.659	4508
913.772	4383
913.886	4295
914	4287
914.113	4417
914.226	4504
914.34	4462
914.453	4246
914.566	4497
914.68	4386
914.793	4367
914.906	4227
915.019	4185
915.132	4150
915.245	4227
915.358	4284
915.47	4329
915.583	4325
915.696	4379
915.809	4493
915.921	4474
916.034	4295
916.146	4329
916.259	4303
916.371	4432
916.483	4417
916.595	4306
916.708	4333
916.82	4333
916.932	4409
917.044	4409
917.156	4394
917.268	4325
917.38	4325
917.491	4344
917.603	4394
917.715	4493
917.826	4527
917.938	4421
918.049	4291
918.161	4459
918.272	4596
918.384	4626
918.495	4569
918.606	4344
918.717	4352
918.828	4383
918.939	4474
919.05	4310
919.161	4421
919.272	4242
919.383	4314
919.494	4527
919.604	4698
919.715	4516
919.826	4394
919.936	4451
920.047	4561
920.157	4577
920.267	4759
920.378	4618
920.488	4615
920.598	4797
920.708	4946
920.818	4820
920.928	4820
921.038	4991
921.148	4934
921.258	4683
921.368	4653
921.477	4554
921.587	4554
921.697	4398
921.806	4561
921.916	4504
922.025	4322
922.134	4352
922.244	4295
922.353	4394
922.462	4200
922.571	4143
922.68	4071
922.789	4044
922.898	4139
923.007	4040
923.116	4162
923.224	4128
923.333	4112
923.442	4112
923.55	4029
923.659	4090
923.767	4154
923.876	4071
923.984	4177
924.092	4051
924.201	4147
924.309	4200
924.417	4116
924.525	4101
924.633	4143
924.741	5132
924.849	4006
924.956	4200
925.064	4040
925.172	3979
925.279	3979
925.387	4158
925.494	4120
925.602	4291
925.709	4246
925.816	4116
925.924	4207
926.031	4318
926.138	4249
926.245	4299
926.352	4177
926.459	4291
926.566	4375
926.673	4204
926.779	4120
926.886	4162
926.993	4048
927.099	4017
927.206	4006
927.312	3956
927.419	4128
927.525	4101
927.631	4154
927.737	3968
927.843	3972
927.95	3869
928.056	4048
928.162	4036
928.267	4120
928.373	4759
928.479	4185
928.585	3888
928.69	4112
928.796	4162
928.901	4036
929.007	3926
929.112	4040
929.218	4051
929.323	4063
929.428	4021
929.533	4154
929.638	3949
929.743	4048
929.848	4090
929.953	4048
930.058	4021
930.163	3857
930.267	3876
930.372	4048
930.477	3831
930.581	4139
930.685	4029
930.79	3846
930.894	3953
930.998	3903
931.103	4090
931.207	3759
931.311	3724
931.415	3705
931.519	3538
931.623	3618
