Data from test_V78500241_2485.txt Node
Date: Fri Mar 25 17:06:16 CST 2022
User: usil
Spectrometer: V785-0024
Trigger mode: 0
Integration Time (sec): 4.000000E-1
Scans to average: 1
Nonlinearity correction enabled: false
Boxcar width: 0
Storing dark spectrum: false
XAxis mode: Wavelengths
Number of Pixels in Spectrum: 1024
>>>>>Begin Spectral Data<<<<<
801.071	8046
801.214	7951
801.356	7925
801.499	7852
801.641	7818
801.783	7879
801.926	7970
802.068	7909
802.211	7978
802.353	7951
802.496	7826
802.638	7879
802.78	7871
802.923	7963
803.065	7868
803.208	7887
803.35	7978
803.492	8088
803.635	8206
803.777	8054
803.919	8142
804.061	8461
804.204	8221
804.346	8096
804.488	7963
804.63	8065
804.773	8058
804.915	8092
805.057	8271
805.199	8191
805.341	8164
805.483	8301
805.626	8313
805.768	8107
805.91	8180
806.052	8218
806.194	8062
806.336	8309
806.478	8092
806.62	8058
806.762	8233
806.904	8286
807.046	8400
807.188	8355
807.33	8275
807.472	8301
807.614	8180
807.756	8176
807.898	7974
808.04	7852
808.182	7879
808.324	7822
808.465	7890
808.607	8119
808.749	8088
808.891	8187
809.033	8336
809.174	8126
809.316	8084
809.458	8096
809.6	7940
809.741	8031
809.883	8031
810.025	8195
810.166	8043
810.308	7944
810.45	7959
810.591	7860
810.733	7723
810.875	7666
811.016	7552
811.158	7518
811.299	7533
811.441	7742
811.582	7685
811.724	7540
811.865	7525
812.007	7563
812.148	7628
812.29	7616
812.431	7750
812.573	7833
812.714	7944
812.855	8134
812.997	8256
813.138	8313
813.279	8164
813.421	8077
813.562	7932
813.703	7860
813.845	7738
813.986	7422
814.127	7274
814.268	7171
814.41	7190
814.551	7228
814.692	7152
814.833	7076
814.974	7069
815.115	7046
815.256	6962
815.397	6962
815.539	6897
815.68	6821
815.821	6833
815.962	6833
816.103	6852
816.244	6646
816.385	6692
816.526	6627
816.666	6486
816.807	6277
816.948	6418
817.089	6525
817.23	6426
817.371	6433
817.512	6372
817.653	6365
817.793	6304
817.934	6376
818.075	6479
818.216	6429
818.356	6422
818.497	6289
818.638	6114
818.778	6114
818.919	6129
819.06	6155
819.2	6323
819.341	6334
819.481	6426
819.622	6563
819.762	6806
819.903	6749
820.043	6627
820.184	6601
820.324	6623
820.465	6642
820.605	6673
820.746	6715
820.886	6513
821.026	6665
821.167	6719
821.307	6779
821.447	6814
821.588	6753
821.728	6604
821.868	6513
822.008	6342
822.149	6369
822.289	6361
822.429	6140
822.569	6136
822.709	6182
822.849	5908
822.99	5942
823.13	5954
823.27	5977
823.41	5824
823.55	5847
823.69	5718
823.83	5783
823.97	5703
824.11	5634
824.25	5501
824.389	5570
824.529	5638
824.669	5554
824.809	5703
824.949	5756
825.089	5623
825.228	5573
825.368	5478
825.508	5364
825.648	5357
825.787	5402
825.927	5410
826.067	5318
826.206	5307
826.346	5455
826.485	5463
826.625	5474
826.765	5581
826.904	5528
827.044	5239
827.183	5269
827.323	5140
827.462	5269
827.601	5242
827.741	5204
827.88	5284
828.02	5174
828.159	5284
828.298	5322
828.437	5417
828.577	5326
828.716	5509
828.855	5349
828.994	5220
829.134	5220
829.273	5231
829.412	5178
829.551	5124
829.69	5193
829.829	5307
829.968	5410
830.107	5330
830.246	5303
830.385	5220
830.524	5166
830.663	5094
830.802	5045
830.941	4946
831.08	4889
831.219	4999
831.357	4946
831.496	5174
831.635	4972
831.774	4870
831.913	4873
832.051	4744
832.19	4752
832.329	4850
832.467	4675
832.606	4706
832.744	4801
832.883	4759
833.022	4759
833.16	4824
833.299	4892
833.437	4870
833.576	4862
833.714	4915
833.852	4904
833.991	4900
834.129	4976
834.267	4984
834.406	4957
834.544	4984
834.682	4984
834.821	4961
834.959	5223
835.097	5052
835.235	5162
835.373	5067
835.511	5109
835.65	5086
835.788	5083
835.926	4927
836.064	4949
836.202	4938
836.34	5242
836.478	5292
836.615	5151
836.753	5223
836.891	5292
837.029	5269
837.167	5193
837.305	5159
837.443	5170
837.58	5128
837.718	5265
837.856	5223
837.993	5185
838.131	5261
838.269	5231
838.406	5231
838.544	5235
838.681	5052
838.819	5071
838.956	4934
839.094	4908
839.231	5003
839.369	5136
839.506	5421
839.643	5349
839.781	5079
839.918	5071
840.055	5136
840.193	5109
840.33	5117
840.467	5147
840.604	5208
840.742	5459
840.879	5102
841.016	5109
841.153	5223
841.29	5341
841.427	5349
841.564	5364
841.701	5395
841.838	5345
841.975	5265
842.112	5265
842.249	5193
842.385	5136
842.522	5341
842.659	5246
842.796	5197
842.933	5170
843.069	5174
843.206	5189
843.343	5334
843.479	5220
843.616	5341
843.752	5083
843.889	5029
844.025	5254
844.162	4995
844.298	5246
844.435	5140
844.571	5105
844.708	5273
844.844	5345
844.98	5353
845.117	5357
845.253	5174
845.389	5151
845.525	5174
845.661	5128
845.798	5045
845.934	5170
846.07	5105
846.206	5208
846.342	5280
846.478	5201
846.614	5041
846.75	5025
846.886	4911
847.022	5193
847.158	5083
847.294	5159
847.429	5124
847.565	5071
847.701	5341
847.837	4892
847.972	4854
848.108	4987
848.244	4995
848.379	4828
848.515	4797
848.65	4740
848.786	4759
848.921	4767
849.057	4892
849.192	4930
849.328	4881
849.463	4870
849.598	4828
849.734	4809
849.869	4714
850.004	4668
850.14	4691
850.275	4649
850.41	4561
850.545	4588
850.68	4641
850.815	4687
850.95	4698
851.085	4850
851.22	4778
851.355	4679
851.49	4653
851.625	4694
851.76	4656
851.895	4599
852.03	4596
852.165	4714
852.299	4721
852.434	4782
852.569	4748
852.703	4812
852.838	4831
852.973	4965
853.107	4938
853.242	4740
853.376	4702
853.511	4603
853.645	4656
853.78	4828
853.914	4706
854.048	4653
854.183	4675
854.317	4744
854.451	4828
854.585	4725
854.72	4683
854.854	4717
854.988	4596
855.122	4664
855.256	4630
855.39	4694
855.524	4809
855.658	4767
855.792	4767
855.926	4748
856.06	4786
856.194	4793
856.327	4740
856.461	4622
856.595	4637
856.729	4626
856.862	4793
856.996	4679
857.13	4763
857.263	4774
857.397	4858
857.53	4675
857.664	4774
857.797	4763
857.931	4809
858.064	4706
858.197	4755
858.331	4672
858.464	4645
858.597	4508
858.731	4725
858.864	4611
858.997	4637
859.13	4653
859.263	4698
859.396	4694
859.529	4592
859.662	4588
859.795	4561
859.928	4653
860.061	4771
860.194	4763
860.327	4607
860.46	4596
860.592	4710
860.725	4702
860.858	4706
860.99	4607
861.123	4588
861.256	4542
861.388	4626
861.521	5254
861.653	4500
861.786	4459
861.918	4493
862.05	4512
862.183	4561
862.315	4618
862.447	4694
862.58	4573
862.712	4443
862.844	4333
862.976	4497
863.108	4428
863.24	4896
863.372	4390
863.504	4394
863.636	4405
863.768	4497
863.9	4459
864.032	4394
864.164	4405
864.296	4504
864.428	4531
864.559	4596
864.691	4558
864.823	4512
864.954	4519
865.086	4500
865.217	4493
865.349	4424
865.48	4459
865.612	4516
865.743	4641
865.875	4512
866.006	4390
866.137	4478
866.269	4481
866.4	4455
866.531	4440
866.662	4466
866.793	4436
866.924	4508
867.055	4508
867.186	4500
867.317	4462
867.448	4402
867.579	4455
867.71	4417
867.841	4405
867.972	4519
868.103	4497
868.233	4451
868.364	4470
868.495	4523
868.625	4725
868.756	4744
868.886	4577
869.017	4660
869.147	4790
869.278	4793
869.408	4630
869.539	4641
869.669	4687
869.799	4675
869.929	4782
870.06	4736
870.19	4965
870.32	4938
870.45	4968
870.58	5052
870.71	5151
870.84	5159
870.97	4987
871.1	4927
871.23	5136
871.36	5189
871.489	5033
871.619	5086
871.749	5124
871.879	5117
872.008	5254
872.138	5098
872.267	4968
872.397	4877
872.526	4847
872.656	4759
872.785	4797
872.915	4987
873.044	5010
873.173	4953
873.303	4976
873.432	4934
873.561	4995
873.69	4858
873.819	4870
873.948	4915
874.077	4870
874.206	4763
874.335	4831
874.464	4957
874.593	5124
874.722	4976
874.851	5109
874.979	5109
875.108	5071
875.237	4934
875.365	4911
875.494	4915
875.623	5022
875.751	4820
875.88	4953
876.008	4984
876.136	5067
876.265	5193
876.393	5322
876.521	5334
876.65	5288
876.778	5151
876.906	5064
877.034	5079
877.162	5105
877.29	5052
877.418	5067
877.546	5048
877.674	5105
877.802	5109
877.93	5060
878.058	4957
878.185	4896
878.313	5006
878.441	4968
878.568	4793
878.696	4843
878.824	5033
878.951	5018
879.079	5155
879.206	5315
879.333	5102
879.461	5045
879.588	5048
879.715	5136
879.842	5197
879.97	5006
880.097	4820
880.224	4759
880.351	4850
880.478	4828
880.605	4782
880.732	4839
880.859	5094
880.986	4881
881.112	4900
881.239	4782
881.366	4672
881.493	4615
881.619	4618
881.746	4641
881.872	4660
881.999	4672
882.125	4721
882.252	4782
882.378	4866
882.505	4942
882.631	4774
882.757	4679
882.883	4767
883.01	4752
883.136	4641
883.262	4580
883.388	4626
883.514	4809
883.64	4835
883.766	4797
883.892	4675
884.018	4771
884.143	4896
884.269	5033
884.395	4649
884.52	4687
884.646	4630
884.772	4618
884.897	4580
885.023	4672
885.148	4812
885.274	4870
885.399	4752
885.524	4752
885.65	4679
885.775	4771
885.9	4679
886.025	4839
886.15	4782
886.275	4702
886.4	4637
886.525	4714
886.65	4752
886.775	4687
886.9	4854
887.025	5098
887.149	4801
887.274	4679
887.399	4573
887.523	4618
887.648	4580
887.773	4603
887.897	4820
888.021	4816
888.146	4721
888.27	4831
888.395	4930
888.519	4805
888.643	4839
888.767	4835
888.891	4664
889.015	4596
889.139	4668
889.263	4618
889.387	4801
889.511	4889
889.635	4778
889.759	4607
889.883	4656
890.006	4744
890.13	4805
890.254	4565
890.377	4668
890.501	4542
890.624	4519
890.748	4592
890.871	4508
890.995	4413
891.118	4390
891.241	4508
891.364	4569
891.488	4656
891.611	4504
891.734	4508
891.857	4634
891.98	4554
892.103	4694
892.226	4611
892.349	4519
892.471	4462
892.594	4535
892.717	4588
892.839	4611
892.962	4634
893.085	4664
893.207	4618
893.33	4466
893.452	4569
893.575	4706
893.697	4550
893.819	4801
893.941	4824
894.064	4771
894.186	4527
894.308	4634
894.43	4759
894.552	4835
894.674	4744
894.796	4550
894.918	4584
895.04	4573
895.161	4710
895.283	4744
895.405	4603
895.526	4626
895.648	4679
895.769	4656
895.891	4729
896.012	4683
896.134	4736
896.255	4694
896.376	4630
896.498	4630
896.619	4679
896.74	4611
896.861	4641
896.982	4904
897.103	5067
897.224	4858
897.345	4748
897.466	4653
897.587	4710
897.708	4866
897.828	4793
897.949	4694
898.07	4584
898.19	4653
898.311	4805
898.431	4664
898.552	4759
898.672	4805
898.792	4774
898.913	4725
899.033	4634
899.153	4527
899.273	4409
899.393	4527
899.513	4565
899.633	4485
899.753	4512
899.873	4542
899.993	4569
900.113	4550
900.232	4611
900.352	4554
900.472	4470
900.591	4405
900.711	4459
900.83	4424
900.95	4618
901.069	4687
901.189	4577
901.308	4341
901.427	4344
901.546	4375
901.665	4519
901.784	4516
901.904	4428
902.023	4344
902.141	4253
902.26	4215
902.379	4310
902.498	4211
902.617	4230
902.735	4348
902.854	4394
902.973	4329
903.091	4257
903.21	4215
903.328	4322
903.446	4265
903.565	4268
903.683	4333
903.801	4280
903.919	4417
904.038	4417
904.156	4303
904.274	4455
904.392	4386
904.51	4451
904.627	4455
904.745	4592
904.863	4630
904.981	4436
905.098	4352
905.216	4348
905.334	4443
905.451	4466
905.569	4436
905.686	4554
905.803	4596
905.921	4405
906.038	4546
906.155	4493
906.272	4405
906.389	4440
906.506	4329
906.623	4371
906.74	4413
906.857	4306
906.974	4341
907.091	4569
907.208	4691
907.324	4649
907.441	4500
907.557	4371
907.674	4386
907.79	4379
907.907	4348
908.023	4508
908.139	4478
908.256	4413
908.372	4474
908.488	4440
908.604	4356
908.72	4333
908.836	4356
908.952	4375
909.068	4428
909.184	4561
909.3	4497
909.415	4580
909.531	4531
909.647	4322
909.762	4394
909.878	4352
909.993	4390
910.108	4432
910.224	4417
910.339	4447
910.454	4341
910.57	4337
910.685	4310
910.8	4683
910.915	4634
911.03	4538
911.145	4352
911.259	4352
911.374	4371
911.489	4253
911.604	4284
911.718	4154
911.833	4173
911.947	4128
912.062	4017
912.176	4223
912.291	4268
912.405	4238
912.519	4478
912.633	4504
912.748	4356
912.862	4306
912.976	4246
913.09	4150
913.204	4192
913.318	4227
913.431	4379
913.545	4386
913.659	4440
913.772	4363
913.886	4246
914	4299
914.113	4344
914.226	4436
914.34	4424
914.453	4257
914.566	4417
914.68	4318
914.793	4337
914.906	4177
915.019	4135
915.132	4101
915.245	4169
915.358	4219
915.47	4253
915.583	4295
915.696	4310
915.809	4428
915.921	4421
916.034	4242
916.146	4249
916.259	4185
916.371	4348
916.483	4367
916.595	4276
916.708	4344
916.82	4318
916.932	4356
917.044	4272
917.156	4371
917.268	4219
917.38	4287
917.491	4299
917.603	4360
917.715	4405
917.826	4455
917.938	4318
918.049	4246
918.161	4383
918.272	4531
918.384	4531
918.495	4455
918.606	4322
918.717	4211
918.828	4363
918.939	4375
919.05	4261
919.161	4295
919.272	4131
919.383	4238
919.494	4409
919.604	4637
919.715	4447
919.826	4367
919.936	4390
920.047	4481
920.157	4462
920.267	4660
920.378	4542
920.488	4497
920.598	4717
920.708	4889
920.818	4729
920.928	4729
921.038	4949
921.148	4919
921.258	4645
921.368	4535
921.477	4493
921.587	4455
921.697	4348
921.806	4523
921.916	4417
922.025	4257
922.134	4249
922.244	4192
922.353	4360
922.462	4196
922.571	4124
922.68	4029
922.789	3960
922.898	4067
923.007	4010
923.116	4097
923.224	4013
923.333	4044
923.442	4036
923.55	3987
923.659	4051
923.767	4105
923.876	3991
923.984	4124
924.092	3994
924.201	4013
924.309	4105
924.417	4143
924.525	4071
924.633	4105
924.741	4870
924.849	3983
924.956	4097
925.064	3968
925.172	3896
925.279	3960
925.387	4078
925.494	4078
925.602	4162
925.709	4158
925.816	3983
925.924	4101
926.031	4207
926.138	4200
926.245	4162
926.352	4109
926.459	4249
926.566	4299
926.673	4147
926.779	4036
926.886	4067
926.993	4002
927.099	3998
927.206	3941
927.312	3922
927.419	4032
927.525	4013
927.631	4093
927.737	3972
927.843	3994
927.95	3838
928.056	3968
928.162	3956
928.267	4074
928.373	4622
928.479	4139
928.585	3812
928.69	4032
928.796	4017
928.901	3956
929.007	3854
929.112	4040
929.218	3987
929.323	3937
929.428	3937
929.533	4154
929.638	3884
929.743	3964
929.848	4059
929.953	4048
930.058	3934
930.163	3785
930.267	3831
930.372	3945
930.477	3827
930.581	4055
930.685	3953
930.79	3823
930.894	3922
930.998	3835
931.103	4021
931.207	3690
931.311	3698
931.415	3694
931.519	3519
931.623	3545
