Data from test_V78500241_1340.txt Node
Date: Fri Mar 25 16:58:19 CST 2022
User: usil
Spectrometer: V785-0024
Trigger mode: 0
Integration Time (sec): 4.000000E-1
Scans to average: 1
Nonlinearity correction enabled: false
Boxcar width: 0
Storing dark spectrum: false
XAxis mode: Wavelengths
Number of Pixels in Spectrum: 1024
>>>>>Begin Spectral Data<<<<<
801.071	7993
801.214	7959
801.356	7875
801.499	7879
801.641	7818
801.783	7795
801.926	7993
802.068	7925
802.211	7997
802.353	7955
802.496	7795
802.638	7921
802.78	7894
802.923	7879
803.065	7890
803.208	7833
803.35	7883
803.492	8096
803.635	8248
803.777	7970
803.919	8100
804.061	8514
804.204	8180
804.346	8054
804.488	7963
804.63	8073
804.773	8088
804.915	8123
805.057	8294
805.199	8187
805.341	8229
805.483	8279
805.626	8259
805.768	8123
805.91	8180
806.052	8221
806.194	8138
806.336	8244
806.478	8111
806.62	7993
806.762	8119
806.904	8313
807.046	8480
807.188	8275
807.33	8339
807.472	8256
807.614	8134
807.756	8202
807.898	7944
808.04	7913
808.182	7978
808.324	7932
808.465	7944
808.607	8077
808.749	8161
808.891	8206
809.033	8256
809.174	8233
809.316	8027
809.458	8054
809.6	7879
809.741	8050
809.883	8054
810.025	8058
810.166	8103
810.308	8024
810.45	8050
810.591	7921
810.733	7731
810.875	7677
811.016	7502
811.158	7552
811.299	7658
811.441	7757
811.582	7719
811.724	7647
811.865	7476
812.007	7624
812.148	7601
812.29	7613
812.431	7792
812.573	7871
812.714	7940
812.855	8115
812.997	8123
813.138	8275
813.279	8176
813.421	8142
813.562	7955
813.703	7890
813.845	7704
813.986	7457
814.127	7270
814.268	7228
814.41	7221
814.551	7145
814.692	7187
814.833	7057
814.974	7137
815.115	7076
815.256	6954
815.397	6954
815.539	6928
815.68	6852
815.821	6726
815.962	6871
816.103	6890
816.244	6791
816.385	6574
816.526	6623
816.666	6437
816.807	6331
816.948	6467
817.089	6467
817.23	6418
817.371	6365
817.512	6441
817.653	6403
817.793	6407
817.934	6357
818.075	6471
818.216	6441
818.356	6380
818.497	6216
818.638	6133
818.778	6129
818.919	6117
819.06	6152
819.2	6331
819.341	6369
819.481	6391
819.622	6532
819.762	6768
819.903	6684
820.043	6589
820.184	6604
820.324	6582
820.465	6696
820.605	6662
820.746	6608
820.886	6486
821.026	6639
821.167	6650
821.307	6833
821.447	6722
821.588	6719
821.728	6620
821.868	6551
822.008	6273
822.149	6388
822.289	6388
822.429	6129
822.569	6076
822.709	6117
822.849	5923
822.99	5935
823.13	5942
823.27	5916
823.41	5832
823.55	5809
823.69	5718
823.83	5790
823.97	5661
824.11	5490
824.25	5524
824.389	5577
824.529	5608
824.669	5512
824.809	5615
824.949	5661
825.089	5608
825.228	5532
825.368	5391
825.508	5318
825.648	5357
825.787	5364
825.927	5368
826.067	5277
826.206	5326
826.346	5368
826.485	5421
826.625	5383
826.765	5532
826.904	5455
827.044	5231
827.183	5178
827.323	5143
827.462	5277
827.601	5128
827.741	5208
827.88	5220
828.02	5151
828.159	5204
828.298	5265
828.437	5349
828.577	5273
828.716	5501
828.855	5315
828.994	5140
829.134	5132
829.273	5162
829.412	5124
829.551	5109
829.69	5159
829.829	5216
829.968	5387
830.107	5269
830.246	5265
830.385	5231
830.524	5143
830.663	5102
830.802	5006
830.941	4866
831.08	4854
831.219	5003
831.357	4957
831.496	5159
831.635	4927
831.774	4839
831.913	4812
832.051	4729
832.19	4786
832.329	4805
832.467	4687
832.606	4637
832.744	4714
832.883	4706
833.022	4710
833.16	4759
833.299	4771
833.437	4847
833.576	4858
833.714	4866
833.852	4858
833.991	4854
834.129	4957
834.267	4919
834.406	4908
834.544	4927
834.682	5025
834.821	4908
834.959	5117
835.097	4995
835.235	5102
835.373	5052
835.511	5052
835.65	5018
835.788	5018
835.926	4881
836.064	4873
836.202	4923
836.34	5140
836.478	5204
836.615	5136
836.753	5178
836.891	5292
837.029	5227
837.167	5193
837.305	5220
837.443	5162
837.58	5067
837.718	5204
837.856	5178
837.993	5086
838.131	5223
838.269	5235
838.406	5166
838.544	5121
838.681	4995
838.819	5045
838.956	4927
839.094	4904
839.231	4995
839.369	5014
839.506	5414
839.643	5220
839.781	5006
839.918	5018
840.055	5083
840.193	5132
840.33	5083
840.467	5159
840.604	5140
840.742	5467
840.879	5060
841.016	5052
841.153	5140
841.29	5406
841.427	5353
841.564	5357
841.701	5307
841.838	5246
841.975	5212
842.112	5269
842.249	5128
842.385	5067
842.522	5265
842.659	5147
842.796	5155
842.933	5193
843.069	5143
843.206	5181
843.343	5288
843.479	5258
843.616	5288
843.752	5060
843.889	5071
844.025	5242
844.162	4972
844.298	5140
844.435	5098
844.571	5048
844.708	5208
844.844	5299
844.98	5322
845.117	5269
845.253	5121
845.389	5086
845.525	5174
845.661	5128
845.798	5022
845.934	5117
846.07	5041
846.206	5162
846.342	5261
846.478	5220
846.614	4995
846.75	4980
846.886	4976
847.022	5166
847.158	5022
847.294	5071
847.429	5113
847.565	5048
847.701	5337
847.837	4847
847.972	4828
848.108	4938
848.244	4923
848.379	4790
848.515	4721
848.65	4672
848.786	4771
848.921	4820
849.057	4831
849.192	4915
849.328	4790
849.463	4828
849.598	4759
849.734	4771
849.869	4691
850.004	4634
850.14	4641
850.275	4558
850.41	4512
850.545	4512
850.68	4542
850.815	4637
850.95	4653
851.085	4839
851.22	4740
851.355	4660
851.49	4615
851.625	4618
851.76	4637
851.895	4569
852.03	4554
852.165	4645
852.299	4698
852.434	4767
852.569	4714
852.703	4767
852.838	4824
852.973	4892
853.107	4881
853.242	4717
853.376	4733
853.511	4542
853.645	4588
853.78	4786
853.914	4698
854.048	4668
854.183	4618
854.317	4691
854.451	4858
854.585	4634
854.72	4672
854.854	4729
854.988	4580
855.122	4637
855.256	4565
855.39	4630
855.524	4729
855.658	4679
855.792	4698
855.926	4710
856.06	4797
856.194	4774
856.327	4683
856.461	4622
856.595	4569
856.729	4641
856.862	4702
856.996	4664
857.13	4710
857.263	4767
857.397	4812
857.53	4611
857.664	4744
857.797	4752
857.931	4740
858.064	4691
858.197	4698
858.331	4675
858.464	4626
858.597	4504
858.731	4660
858.864	4618
858.997	4580
859.13	4653
859.263	4679
859.396	4675
859.529	4519
859.662	4558
859.795	4558
859.928	4611
860.061	4740
860.194	4767
860.327	4577
860.46	4542
860.592	4721
860.725	4740
860.858	4752
860.99	4580
861.123	4485
861.256	4489
861.388	4580
861.521	5273
861.653	4466
861.786	4409
861.918	4478
862.05	4504
862.183	4500
862.315	4588
862.447	4672
862.58	4519
862.712	4348
862.844	4341
862.976	4485
863.108	4451
863.24	4892
863.372	4337
863.504	4394
863.636	4386
863.768	4470
863.9	4504
864.032	4367
864.164	4432
864.296	4432
864.428	4527
864.559	4546
864.691	4531
864.823	4512
864.954	4462
865.086	4508
865.217	4451
865.349	4451
865.48	4462
865.612	4504
865.743	4577
865.875	4455
866.006	4451
866.137	4447
866.269	4470
866.4	4417
866.531	4459
866.662	4344
866.793	4398
866.924	4409
867.055	4504
867.186	4478
867.317	4459
867.448	4348
867.579	4413
867.71	4356
867.841	4363
867.972	4451
868.103	4455
868.233	4470
868.364	4478
868.495	4451
868.625	4706
868.756	4717
868.886	4584
869.017	4554
869.147	4748
869.278	4748
869.408	4637
869.539	4645
869.669	4744
869.799	4675
869.929	4752
870.06	4672
870.19	4961
870.32	4889
870.45	4915
870.58	5010
870.71	5060
870.84	5090
870.97	4915
871.1	4930
871.23	5117
871.36	5132
871.489	5010
871.619	5056
871.749	5098
871.879	5113
872.008	5162
872.138	5060
872.267	4953
872.397	4889
872.526	4771
872.656	4706
872.785	4786
872.915	4908
873.044	5010
873.173	4942
873.303	4953
873.432	4900
873.561	4934
873.69	4858
873.819	4885
873.948	4927
874.077	4816
874.206	4717
874.335	4828
874.464	4911
874.593	5041
874.722	4915
874.851	5052
874.979	5056
875.108	4976
875.237	4873
875.365	4858
875.494	4831
875.623	4946
875.751	4873
875.88	4839
876.008	4984
876.136	4980
876.265	5189
876.393	5364
876.521	5193
876.65	5242
876.778	5185
876.906	5060
877.034	5071
877.162	5029
877.29	4930
877.418	5056
877.546	5033
877.674	5018
877.802	5045
877.93	5037
878.058	4942
878.185	4858
878.313	4923
878.441	4904
878.568	4790
878.696	4820
878.824	4949
878.951	4923
879.079	5086
879.206	5204
879.333	5090
879.461	4976
879.588	4942
879.715	5098
879.842	5216
879.97	4953
880.097	4805
880.224	4710
880.351	4782
880.478	4809
880.605	4782
880.732	4835
880.859	5052
880.986	4881
881.112	4896
881.239	4729
881.366	4649
881.493	4584
881.619	4558
881.746	4634
881.872	4675
881.999	4672
882.125	4668
882.252	4736
882.378	4774
882.505	4919
882.631	4820
882.757	4649
882.883	4736
883.01	4683
883.136	4656
883.262	4584
883.388	4626
883.514	4843
883.64	4809
883.766	4748
883.892	4683
884.018	4725
884.143	4850
884.269	5025
884.395	4672
884.52	4637
884.646	4660
884.772	4580
884.897	4546
885.023	4679
885.148	4752
885.274	4843
885.399	4824
885.524	4702
885.65	4687
885.775	4736
885.9	4694
886.025	4835
886.15	4801
886.275	4679
886.4	4656
886.525	4683
886.65	4668
886.775	4675
886.9	4900
887.025	5025
887.149	4828
887.274	4618
887.399	4611
887.523	4561
887.648	4535
887.773	4573
887.897	4717
888.021	4744
888.146	4660
888.27	4786
888.395	4877
888.519	4847
888.643	4843
888.767	4797
888.891	4706
889.015	4607
889.139	4637
889.263	4611
889.387	4744
889.511	4771
889.635	4790
889.759	4634
889.883	4691
890.006	4740
890.13	4854
890.254	4615
890.377	4630
890.501	4558
890.624	4519
890.748	4599
890.871	4455
890.995	4413
891.118	4413
891.241	4508
891.364	4561
891.488	4710
891.611	4478
891.734	4558
891.857	4569
891.98	4599
892.103	4618
892.226	4584
892.349	4489
892.471	4413
892.594	4516
892.717	4577
892.839	4535
892.962	4554
893.085	4683
893.207	4588
893.33	4443
893.452	4459
893.575	4599
893.697	4641
893.819	4793
893.941	4847
894.064	4778
894.186	4554
894.308	4546
894.43	4763
894.552	4755
894.674	4771
894.796	4561
894.918	4596
895.04	4527
895.161	4694
895.283	4603
895.405	4558
895.526	4630
895.648	4683
895.769	4653
895.891	4675
896.012	4687
896.134	4729
896.255	4660
896.376	4672
896.498	4596
896.619	4706
896.74	4584
896.861	4660
896.982	4946
897.103	5105
897.224	4828
897.345	4710
897.466	4656
897.587	4725
897.708	4885
897.828	4801
897.949	4679
898.07	4542
898.19	4618
898.311	4778
898.431	4660
898.552	4710
898.672	4820
898.792	4771
898.913	4774
899.033	4592
899.153	4451
899.273	4421
899.393	4500
899.513	4470
899.633	4535
899.753	4558
899.873	4500
899.993	4558
900.113	4535
900.232	4565
900.352	4519
900.472	4489
900.591	4409
900.711	4542
900.83	4421
900.95	4626
901.069	4683
901.189	4535
901.308	4352
901.427	4333
901.546	4371
901.665	4436
901.784	4519
901.904	4363
902.023	4303
902.141	4200
902.26	4173
902.379	4299
902.498	4238
902.617	4242
902.735	4375
902.854	4352
902.973	4360
903.091	4246
903.21	4196
903.328	4291
903.446	4249
903.565	4295
903.683	4329
903.801	4276
903.919	4398
904.038	4428
904.156	4322
904.274	4356
904.392	4379
904.51	4417
904.627	4481
904.745	4580
904.863	4615
904.981	4375
905.098	4348
905.216	4371
905.334	4440
905.451	4424
905.569	4440
905.686	4607
905.803	4577
905.921	4402
906.038	4512
906.155	4497
906.272	4375
906.389	4451
906.506	4341
906.623	4394
906.74	4409
906.857	4291
906.974	4421
907.091	4580
907.208	4653
907.324	4588
907.441	4478
907.557	4360
907.674	4344
907.79	4322
907.907	4413
908.023	4462
908.139	4481
908.256	4390
908.372	4436
908.488	4424
908.604	4371
908.72	4284
908.836	4390
908.952	4379
909.068	4443
909.184	4500
909.3	4500
909.415	4584
909.531	4615
909.647	4333
909.762	4402
909.878	4360
909.993	4409
910.108	4424
910.224	4432
910.339	4443
910.454	4386
910.57	4314
910.685	4295
910.8	4618
910.915	4580
911.03	4459
911.145	4314
911.259	4318
911.374	4375
911.489	4295
911.604	4268
911.718	4173
911.833	4200
911.947	4116
912.062	4006
912.176	4188
912.291	4223
912.405	4265
912.519	4451
912.633	4481
912.748	4394
912.862	4329
912.976	4185
913.09	4120
913.204	4158
913.318	4268
913.431	4394
913.545	4337
913.659	4459
913.772	4363
913.886	4257
914	4242
914.113	4375
914.226	4470
914.34	4383
914.453	4234
914.566	4379
914.68	4242
914.793	4375
914.906	4143
915.019	4112
915.132	4082
915.245	4207
915.358	4185
915.47	4249
915.583	4249
915.696	4253
915.809	4421
915.921	4367
916.034	4215
916.146	4246
916.259	4192
916.371	4379
916.483	4409
916.595	4268
916.708	4318
916.82	4341
916.932	4318
917.044	4291
917.156	4291
917.268	4257
917.38	4246
917.491	4287
917.603	4314
917.715	4363
917.826	4440
917.938	4371
918.049	4261
918.161	4367
918.272	4538
918.384	4497
918.495	4390
918.606	4284
918.717	4211
918.828	4379
918.939	4398
919.05	4223
919.161	4295
919.272	4139
919.383	4253
919.494	4413
919.604	4645
919.715	4421
919.826	4348
919.936	4363
920.047	4535
920.157	4462
920.267	4683
920.378	4538
920.488	4512
920.598	4706
920.708	4904
920.818	4698
920.928	4763
921.038	4953
921.148	4896
921.258	4599
921.368	4561
921.477	4470
921.587	4474
921.697	4390
921.806	4497
921.916	4440
922.025	4246
922.134	4238
922.244	4177
922.353	4337
922.462	4158
922.571	4109
922.68	3960
922.789	3968
922.898	4055
923.007	3968
923.116	4097
923.224	4078
923.333	4017
923.442	3964
923.55	4006
923.659	4017
923.767	4112
923.876	3983
923.984	4112
924.092	3968
924.201	4071
924.309	4059
924.417	4109
924.525	4063
924.633	4112
924.741	5083
924.849	3907
924.956	4128
925.064	3964
925.172	3911
925.279	3968
925.387	4090
925.494	4029
925.602	4192
925.709	4131
925.816	4021
925.924	4120
926.031	4249
926.138	4143
926.245	4204
926.352	4071
926.459	4261
926.566	4329
926.673	4112
926.779	4074
926.886	4112
926.993	4017
927.099	3953
927.206	3941
927.312	3892
927.419	4051
927.525	3998
927.631	4101
927.737	4002
927.843	3975
927.95	3854
928.056	3960
928.162	4025
928.267	4029
928.373	4706
928.479	4116
928.585	3857
928.69	4025
928.796	4040
928.901	3949
929.007	3854
929.112	4002
929.218	3960
929.323	3949
929.428	3956
929.533	4162
929.638	3930
929.743	3964
929.848	4074
929.953	3983
930.058	3926
930.163	3770
930.267	3812
930.372	3972
930.477	3816
930.581	4063
930.685	3915
930.79	3797
930.894	3838
930.998	3819
931.103	4032
931.207	3717
931.311	3641
931.415	3641
931.519	3538
931.623	3561
