Data from test_V78500241_2278.txt Node
Date: Fri Mar 25 17:04:50 CST 2022
User: usil
Spectrometer: V785-0024
Trigger mode: 0
Integration Time (sec): 4.000000E-1
Scans to average: 1
Nonlinearity correction enabled: false
Boxcar width: 0
Storing dark spectrum: false
XAxis mode: Wavelengths
Number of Pixels in Spectrum: 1024
>>>>>Begin Spectral Data<<<<<
801.071	7944
801.214	8012
801.356	7883
801.499	7940
801.641	7723
801.783	7864
801.926	7955
802.068	7909
802.211	7951
802.353	7978
802.496	7871
802.638	7822
802.78	7890
802.923	7913
803.065	7894
803.208	7845
803.35	7940
803.492	8107
803.635	8168
803.777	7997
803.919	8123
804.061	8522
804.204	8157
804.346	8062
804.488	7997
804.63	8100
804.773	8039
804.915	8073
805.057	8332
805.199	8237
805.341	8111
805.483	8256
805.626	8149
805.768	8123
805.91	8172
806.052	8183
806.194	8024
806.336	8313
806.478	8054
806.62	8012
806.762	8130
806.904	8202
807.046	8434
807.188	8381
807.33	8324
807.472	8339
807.614	8134
807.756	8126
807.898	7959
808.04	7883
808.182	7875
808.324	7887
808.465	7887
808.607	8046
808.749	8149
808.891	8199
809.033	8313
809.174	8134
809.316	8092
809.458	8092
809.6	7970
809.741	8035
809.883	8100
810.025	8134
810.166	8005
810.308	8062
810.45	7986
810.591	7864
810.733	7734
810.875	7647
811.016	7487
811.158	7392
811.299	7613
811.441	7742
811.582	7655
811.724	7552
811.865	7548
812.007	7590
812.148	7609
812.29	7636
812.431	7742
812.573	7852
812.714	7947
812.855	8183
812.997	8202
813.138	8282
813.279	8130
813.421	8005
813.562	7917
813.703	7826
813.845	7753
813.986	7422
814.127	7171
814.268	7171
814.41	7221
814.551	7118
814.692	7156
814.833	7084
814.974	7114
815.115	7107
815.256	6920
815.397	6973
815.539	6928
815.68	6840
815.821	6738
815.962	6852
816.103	6818
816.244	6700
816.385	6631
816.526	6627
816.666	6559
816.807	6319
816.948	6445
817.089	6433
817.23	6475
817.371	6323
817.512	6376
817.653	6388
817.793	6380
817.934	6452
818.075	6479
818.216	6410
818.356	6407
818.497	6319
818.638	6159
818.778	6205
818.919	6159
819.06	6148
819.2	6292
819.341	6331
819.481	6376
819.622	6521
819.762	6719
819.903	6673
820.043	6536
820.184	6654
820.324	6544
820.465	6658
820.605	6616
820.746	6585
820.886	6551
821.026	6684
821.167	6711
821.307	6810
821.447	6764
821.588	6684
821.728	6517
821.868	6475
822.008	6342
822.149	6342
822.289	6361
822.429	6144
822.569	6076
822.709	6148
822.849	5920
822.99	5954
823.13	5897
823.27	5912
823.41	5847
823.55	5809
823.69	5767
823.83	5760
823.97	5611
824.11	5520
824.25	5551
824.389	5520
824.529	5600
824.669	5532
824.809	5634
824.949	5634
825.089	5657
825.228	5543
825.368	5402
825.508	5326
825.648	5360
825.787	5357
825.927	5376
826.067	5273
826.206	5273
826.346	5391
826.485	5379
826.625	5410
826.765	5566
826.904	5501
827.044	5254
827.183	5189
827.323	5132
827.462	5208
827.601	5128
827.741	5155
827.88	5223
828.02	5071
828.159	5235
828.298	5250
828.437	5349
828.577	5265
828.716	5452
828.855	5341
828.994	5147
829.134	5140
829.273	5216
829.412	5086
829.551	5124
829.69	5140
829.829	5208
829.968	5444
830.107	5235
830.246	5235
830.385	5147
830.524	5124
830.663	5022
830.802	4946
830.941	4881
831.08	4850
831.219	4919
831.357	4968
831.496	5155
831.635	4942
831.774	4862
831.913	4881
832.051	4694
832.19	4752
832.329	4778
832.467	4729
832.606	4645
832.744	4694
832.883	4740
833.022	4710
833.16	4801
833.299	4820
833.437	4828
833.576	4847
833.714	4854
833.852	4873
833.991	4839
834.129	4953
834.267	4904
834.406	4862
834.544	4980
834.682	4968
834.821	4938
834.959	5136
835.097	4949
835.235	5143
835.373	5056
835.511	5124
835.65	4968
835.788	5045
835.926	4881
836.064	4854
836.202	4980
836.34	5124
836.478	5189
836.615	5090
836.753	5242
836.891	5261
837.029	5261
837.167	5178
837.305	5113
837.443	5121
837.58	5075
837.718	5269
837.856	5212
837.993	5155
838.131	5246
838.269	5193
838.406	5197
838.544	5201
838.681	5033
838.819	4972
838.956	4881
839.094	4877
839.231	4968
839.369	5090
839.506	5402
839.643	5265
839.781	5067
839.918	5071
840.055	5086
840.193	5140
840.33	5075
840.467	5102
840.604	5124
840.742	5372
840.879	5075
841.016	5113
841.153	5162
841.29	5353
841.427	5273
841.564	5311
841.701	5353
841.838	5261
841.975	5204
842.112	5269
842.249	5155
842.385	5064
842.522	5357
842.659	5159
842.796	5181
842.933	5197
843.069	5162
843.206	5151
843.343	5280
843.479	5223
843.616	5261
843.752	5033
843.889	5010
844.025	5220
844.162	4987
844.298	5216
844.435	5045
844.571	5079
844.708	5212
844.844	5254
844.98	5376
845.117	5303
845.253	5155
845.389	5086
845.525	5162
845.661	5067
845.798	5045
845.934	5147
846.07	5060
846.206	5239
846.342	5227
846.478	5193
846.614	5048
846.75	4900
846.886	4942
847.022	5121
847.158	5029
847.294	5014
847.429	5105
847.565	5045
847.701	5318
847.837	4847
847.972	4797
848.108	4976
848.244	4946
848.379	4752
848.515	4752
848.65	4691
848.786	4717
848.921	4740
849.057	4831
849.192	4919
849.328	4797
849.463	4850
849.598	4755
849.734	4729
849.869	4721
850.004	4622
850.14	4645
850.275	4596
850.41	4462
850.545	4542
850.68	4554
850.815	4607
850.95	4645
851.085	4782
851.22	4763
851.355	4656
851.49	4596
851.625	4626
851.76	4637
851.895	4558
852.03	4500
852.165	4637
852.299	4687
852.434	4767
852.569	4729
852.703	4752
852.838	4820
852.973	4904
853.107	4911
853.242	4698
853.376	4618
853.511	4569
853.645	4546
853.78	4782
853.914	4687
854.048	4679
854.183	4653
854.317	4679
854.451	4805
854.585	4653
854.72	4626
854.854	4748
854.988	4592
855.122	4653
855.256	4500
855.39	4630
855.524	4771
855.658	4679
855.792	4630
855.926	4683
856.06	4763
856.194	4755
856.327	4683
856.461	4637
856.595	4565
856.729	4577
856.862	4755
856.996	4694
857.13	4687
857.263	4763
857.397	4744
857.53	4664
857.664	4694
857.797	4725
857.931	4729
858.064	4660
858.197	4748
858.331	4637
858.464	4656
858.597	4485
858.731	4626
858.864	4577
858.997	4554
859.13	4637
859.263	4656
859.396	4679
859.529	4535
859.662	4550
859.795	4519
859.928	4603
860.061	4786
860.194	4717
860.327	4554
860.46	4561
860.592	4675
860.725	4714
860.858	4656
860.99	4542
861.123	4497
861.256	4493
861.388	4527
861.521	5193
861.653	4485
861.786	4470
861.918	4424
862.05	4516
862.183	4538
862.315	4611
862.447	4622
862.58	4542
862.712	4379
862.844	4261
862.976	4527
863.108	4409
863.24	4877
863.372	4295
863.504	4417
863.636	4379
863.768	4428
863.9	4398
864.032	4386
864.164	4413
864.296	4405
864.428	4588
864.559	4554
864.691	4485
864.823	4493
864.954	4504
865.086	4508
865.217	4432
865.349	4428
865.48	4424
865.612	4493
865.743	4618
865.875	4440
866.006	4371
866.137	4436
866.269	4462
866.4	4447
866.531	4451
866.662	4360
866.793	4405
866.924	4424
867.055	4493
867.186	4440
867.317	4436
867.448	4379
867.579	4383
867.71	4405
867.841	4363
867.972	4440
868.103	4443
868.233	4440
868.364	4405
868.495	4504
868.625	4656
868.756	4721
868.886	4580
869.017	4565
869.147	4771
869.278	4759
869.408	4656
869.539	4691
869.669	4774
869.799	4710
869.929	4752
870.06	4744
870.19	4965
870.32	4858
870.45	4930
870.58	4991
870.71	5132
870.84	5132
870.97	4953
871.1	4915
871.23	5140
871.36	5143
871.489	5006
871.619	5056
871.749	5162
871.879	5143
872.008	5231
872.138	5094
872.267	5003
872.397	4919
872.526	4828
872.656	4748
872.785	4873
872.915	4987
873.044	5037
873.173	4965
873.303	5083
873.432	5006
873.561	5014
873.69	4900
873.819	4866
873.948	4927
874.077	4850
874.206	4805
874.335	4847
874.464	4946
874.593	5090
874.722	5014
874.851	5136
874.979	5090
875.108	5132
875.237	4934
875.365	4908
875.494	4927
875.623	4991
875.751	4839
875.88	4942
876.008	4984
876.136	5071
876.265	5258
876.393	5452
876.521	5296
876.65	5265
876.778	5178
876.906	5121
877.034	5098
877.162	5105
877.29	5045
877.418	5102
877.546	5045
877.674	5060
877.802	5075
877.93	5010
878.058	4995
878.185	4873
878.313	4976
878.441	4995
878.568	4896
878.696	4911
878.824	5014
878.951	5006
879.079	5151
879.206	5322
879.333	5140
879.461	5064
879.588	5060
879.715	5113
879.842	5277
879.97	5045
880.097	4805
880.224	4797
880.351	4839
880.478	4896
880.605	4835
880.732	4828
880.859	5143
880.986	4908
881.112	4934
881.239	4797
881.366	4729
881.493	4630
881.619	4588
881.746	4672
881.872	4645
881.999	4687
882.125	4759
882.252	4790
882.378	4885
882.505	4968
882.631	4839
882.757	4664
882.883	4736
883.01	4763
883.136	4653
883.262	4656
883.388	4687
883.514	4824
883.64	4885
883.766	4843
883.892	4675
884.018	4759
884.143	4889
884.269	5029
884.395	4729
884.52	4664
884.646	4653
884.772	4592
884.897	4611
885.023	4637
885.148	4870
885.274	4881
885.399	4831
885.524	4786
885.65	4721
885.775	4744
885.9	4736
886.025	4862
886.15	4828
886.275	4679
886.4	4698
886.525	4736
886.65	4694
886.775	4748
886.9	4930
887.025	5052
887.149	4828
887.274	4687
887.399	4596
887.523	4573
887.648	4596
887.773	4611
887.897	4748
888.021	4839
888.146	4694
888.27	4866
888.395	4904
888.519	4816
888.643	4843
888.767	4858
888.891	4675
889.015	4626
889.139	4649
889.263	4603
889.387	4824
889.511	4854
889.635	4801
889.759	4683
889.883	4660
890.006	4771
890.13	4877
890.254	4653
890.377	4714
890.501	4611
890.624	4546
890.748	4611
890.871	4550
890.995	4478
891.118	4398
891.241	4523
891.364	4535
891.488	4660
891.611	4516
891.734	4550
891.857	4653
891.98	4645
892.103	4687
892.226	4641
892.349	4584
892.471	4519
892.594	4569
892.717	4637
892.839	4592
892.962	4645
893.085	4668
893.207	4653
893.33	4504
893.452	4546
893.575	4702
893.697	4660
893.819	4797
893.941	4854
894.064	4820
894.186	4618
894.308	4603
894.43	4691
894.552	4858
894.674	4824
894.796	4603
894.918	4645
895.04	4634
895.161	4733
895.283	4683
895.405	4546
895.526	4645
895.648	4733
895.769	4672
895.891	4782
896.012	4816
896.134	4759
896.255	4740
896.376	4649
896.498	4656
896.619	4710
896.74	4615
896.861	4687
896.982	4953
897.103	5136
897.224	4854
897.345	4805
897.466	4687
897.587	4774
897.708	4915
897.828	4816
897.949	4679
898.07	4630
898.19	4664
898.311	4835
898.431	4706
898.552	4831
898.672	4824
898.792	4847
898.913	4805
899.033	4645
899.153	4546
899.273	4485
899.393	4489
899.513	4577
899.633	4550
899.753	4599
899.873	4561
899.993	4546
900.113	4516
900.232	4622
900.352	4641
900.472	4500
900.591	4409
900.711	4512
900.83	4417
900.95	4672
901.069	4702
901.189	4558
901.308	4379
901.427	4352
901.546	4379
901.665	4462
901.784	4550
901.904	4371
902.023	4306
902.141	4223
902.26	4166
902.379	4306
902.498	4287
902.617	4257
902.735	4394
902.854	4447
902.973	4367
903.091	4211
903.21	4257
903.328	4367
903.446	4280
903.565	4284
903.683	4405
903.801	4291
903.919	4409
904.038	4485
904.156	4344
904.274	4440
904.392	4447
904.51	4500
904.627	4489
904.745	4596
904.863	4656
904.981	4443
905.098	4363
905.216	4375
905.334	4470
905.451	4485
905.569	4436
905.686	4550
905.803	4607
905.921	4398
906.038	4573
906.155	4478
906.272	4466
906.389	4466
906.506	4310
906.623	4367
906.74	4481
906.857	4337
906.974	4394
907.091	4573
907.208	4637
907.324	4607
907.441	4512
907.557	4371
907.674	4352
907.79	4348
907.907	4394
908.023	4500
908.139	4512
908.256	4493
908.372	4508
908.488	4474
908.604	4405
908.72	4371
908.836	4379
908.952	4325
909.068	4432
909.184	4580
909.3	4493
909.415	4626
909.531	4542
909.647	4363
909.762	4413
909.878	4386
909.993	4470
910.108	4481
910.224	4443
910.339	4500
910.454	4443
910.57	4405
910.685	4318
910.8	4672
910.915	4641
911.03	4474
911.145	4333
911.259	4295
911.374	4413
911.489	4352
911.604	4287
911.718	4147
911.833	4207
911.947	4105
912.062	4029
912.176	4227
912.291	4261
912.405	4261
912.519	4478
912.633	4519
912.748	4428
912.862	4360
912.976	4223
913.09	4162
913.204	4173
913.318	4280
913.431	4383
913.545	4440
913.659	4421
913.772	4421
913.886	4314
914	4287
914.113	4409
914.226	4470
914.34	4417
914.453	4295
914.566	4443
914.68	4329
914.793	4348
914.906	4181
915.019	4158
915.132	4086
915.245	4185
915.358	4227
915.47	4196
915.583	4287
915.696	4287
915.809	4413
915.921	4447
916.034	4322
916.146	4261
916.259	4257
916.371	4417
916.483	4390
916.595	4295
916.708	4375
916.82	4352
916.932	4344
917.044	4356
917.156	4314
917.268	4287
917.38	4299
917.491	4265
917.603	4371
917.715	4421
917.826	4459
917.938	4348
918.049	4249
918.161	4459
918.272	4531
918.384	4497
918.495	4485
918.606	4367
918.717	4261
918.828	4318
918.939	4348
919.05	4265
919.161	4363
919.272	4188
919.383	4238
919.494	4455
919.604	4615
919.715	4447
919.826	4394
919.936	4413
920.047	4550
920.157	4531
920.267	4759
920.378	4550
920.488	4546
920.598	4736
920.708	4881
920.818	4828
920.928	4793
921.038	4949
921.148	4965
921.258	4653
921.368	4588
921.477	4508
921.587	4478
921.697	4398
921.806	4542
921.916	4417
922.025	4322
922.134	4261
922.244	4215
922.353	4325
922.462	4166
922.571	4135
922.68	4032
922.789	3994
922.898	4032
923.007	4006
923.116	4101
923.224	4017
923.333	4105
923.442	4044
923.55	3998
923.659	4032
923.767	4109
923.876	4017
923.984	4086
924.092	3941
924.201	4120
924.309	4143
924.417	4135
924.525	4017
924.633	4071
924.741	5056
924.849	3922
924.956	4120
925.064	3983
925.172	3911
925.279	4021
925.387	4055
925.494	4078
925.602	4196
925.709	4158
925.816	4059
925.924	4173
926.031	4306
926.138	4207
926.245	4219
926.352	4090
926.459	4230
926.566	4306
926.673	4147
926.779	4105
926.886	4128
926.993	4006
927.099	3915
927.206	3918
927.312	4017
927.419	4032
927.525	4055
927.631	4097
927.737	3975
927.843	3930
927.95	3850
928.056	3930
928.162	3991
928.267	4071
928.373	4733
928.479	4154
928.585	3884
928.69	4029
928.796	4086
928.901	3991
929.007	3838
929.112	4010
929.218	3979
929.323	3953
929.428	3964
929.533	4128
929.638	3926
929.743	3956
929.848	4036
929.953	3983
930.058	3907
930.163	3793
930.267	3842
930.372	3964
930.477	3808
930.581	4082
930.685	3941
930.79	3823
930.894	3903
930.998	3854
931.103	4032
931.207	3713
931.311	3728
931.415	3682
931.519	3511
931.623	3576
