Data from test_V78500241_824.txt Node
Date: Fri Mar 25 16:54:43 CST 2022
User: usil
Spectrometer: V785-0024
Trigger mode: 0
Integration Time (sec): 4.000000E-1
Scans to average: 1
Nonlinearity correction enabled: false
Boxcar width: 0
Storing dark spectrum: false
XAxis mode: Wavelengths
Number of Pixels in Spectrum: 1024
>>>>>Begin Spectral Data<<<<<
801.071	8008
801.214	8035
801.356	7868
801.499	7852
801.641	7772
801.783	7871
801.926	8024
802.068	7955
802.211	7944
802.353	7993
802.496	7826
802.638	7932
802.78	7986
802.923	7947
803.065	7875
803.208	7959
803.35	8012
803.492	8195
803.635	8244
803.777	8058
803.919	8100
804.061	8419
804.204	8123
804.346	8065
804.488	8073
804.63	8088
804.773	8043
804.915	8092
805.057	8259
805.199	8164
805.341	8142
805.483	8282
805.626	8214
805.768	8164
805.91	8199
806.052	8199
806.194	8027
806.336	8301
806.478	8187
806.62	8134
806.762	8142
806.904	8202
807.046	8396
807.188	8377
807.33	8336
807.472	8305
807.614	8161
807.756	8187
807.898	8046
808.04	7921
808.182	7921
808.324	7898
808.465	7921
808.607	8001
808.749	8115
808.891	8202
809.033	8301
809.174	8233
809.316	8050
809.458	8096
809.6	7940
809.741	8012
809.883	8016
810.025	8126
810.166	8100
810.308	7978
810.45	8024
810.591	7883
810.733	7704
810.875	7674
811.016	7559
811.158	7540
811.299	7575
811.441	7666
811.582	7715
811.724	7590
811.865	7514
812.007	7529
812.148	7571
812.29	7628
812.431	7636
812.573	7898
812.714	7967
812.855	8123
812.997	8172
813.138	8271
813.279	8191
813.421	8115
813.562	8001
813.703	7826
813.845	7818
813.986	7457
814.127	7282
814.268	7305
814.41	7255
814.551	7133
814.692	7122
814.833	7065
814.974	7122
815.115	7072
815.256	6989
815.397	6943
815.539	6924
815.68	6829
815.821	6791
815.962	6848
816.103	6802
816.244	6760
816.385	6631
816.526	6627
816.666	6464
816.807	6224
816.948	6338
817.089	6456
817.23	6464
817.371	6384
817.512	6395
817.653	6414
817.793	6365
817.934	6384
818.075	6437
818.216	6475
818.356	6346
818.497	6224
818.638	6053
818.778	6140
818.919	6190
819.06	6133
819.2	6334
819.341	6300
819.481	6353
819.622	6513
819.762	6753
819.903	6654
820.043	6604
820.184	6570
820.324	6589
820.465	6662
820.605	6738
820.746	6665
820.886	6475
821.026	6612
821.167	6726
821.307	6821
821.447	6738
821.588	6646
821.728	6597
821.868	6509
822.008	6365
822.149	6361
822.289	6342
822.429	6121
822.569	6079
822.709	6083
822.849	5931
822.99	5874
823.13	6011
823.27	5908
823.41	5821
823.55	5802
823.69	5790
823.83	5821
823.97	5684
824.11	5528
824.25	5493
824.389	5516
824.529	5543
824.669	5520
824.809	5592
824.949	5649
825.089	5573
825.228	5573
825.368	5391
825.508	5292
825.648	5376
825.787	5360
825.927	5421
826.067	5315
826.206	5315
826.346	5345
826.485	5398
826.625	5421
826.765	5558
826.904	5516
827.044	5254
827.183	5204
827.323	5166
827.462	5242
827.601	5174
827.741	5227
827.88	5216
828.02	5086
828.159	5258
828.298	5261
828.437	5330
828.577	5311
828.716	5505
828.855	5315
828.994	5181
829.134	5132
829.273	5216
829.412	5136
829.551	5128
829.69	5155
829.829	5296
829.968	5364
830.107	5250
830.246	5273
830.385	5155
830.524	5159
830.663	5083
830.802	4949
830.941	4889
831.08	4904
831.219	4965
831.357	5018
831.496	5159
831.635	4919
831.774	4839
831.913	4854
832.051	4759
832.19	4763
832.329	4824
832.467	4687
832.606	4622
832.744	4714
832.883	4717
833.022	4691
833.16	4816
833.299	4835
833.437	4835
833.576	4805
833.714	4866
833.852	4870
833.991	4900
834.129	4961
834.267	4911
834.406	4919
834.544	4930
834.682	5003
834.821	4949
834.959	5136
835.097	4984
835.235	5159
835.373	5102
835.511	5105
835.65	5025
835.788	5018
835.926	4889
836.064	4824
836.202	4904
836.34	5181
836.478	5280
836.615	5132
836.753	5181
836.891	5231
837.029	5284
837.167	5227
837.305	5147
837.443	5189
837.58	5064
837.718	5246
837.856	5189
837.993	5094
838.131	5193
838.269	5204
838.406	5174
838.544	5273
838.681	5041
838.819	4949
838.956	4870
839.094	4908
839.231	4968
839.369	5083
839.506	5429
839.643	5212
839.781	5094
839.918	5014
840.055	5143
840.193	5064
840.33	5109
840.467	5155
840.604	5254
840.742	5429
840.879	5048
841.016	5064
841.153	5151
841.29	5410
841.427	5360
841.564	5292
841.701	5349
841.838	5284
841.975	5235
842.112	5220
842.249	5124
842.385	5098
842.522	5376
842.659	5140
842.796	5140
842.933	5193
843.069	5170
843.206	5132
843.343	5261
843.479	5235
843.616	5280
843.752	5086
843.889	5003
844.025	5246
844.162	5067
844.298	5212
844.435	5075
844.571	5045
844.708	5159
844.844	5296
844.98	5303
845.117	5326
845.253	5155
845.389	5033
845.525	5143
845.661	5132
845.798	5045
845.934	5121
846.07	5025
846.206	5174
846.342	5242
846.478	5227
846.614	5033
846.75	4972
846.886	4915
847.022	5185
847.158	5018
847.294	5060
847.429	5090
847.565	5045
847.701	5315
847.837	4828
847.972	4782
848.108	4919
848.244	4938
848.379	4736
848.515	4717
848.65	4706
848.786	4702
848.921	4858
849.057	4858
849.192	4900
849.328	4850
849.463	4847
849.598	4793
849.734	4805
849.869	4694
850.004	4637
850.14	4683
850.275	4596
850.41	4493
850.545	4531
850.68	4607
850.815	4599
850.95	4653
851.085	4835
851.22	4748
851.355	4618
851.49	4596
851.625	4641
851.76	4641
851.895	4542
852.03	4508
852.165	4630
852.299	4710
852.434	4744
852.569	4706
852.703	4744
852.838	4835
852.973	4942
853.107	4889
853.242	4710
853.376	4740
853.511	4542
853.645	4577
853.78	4793
853.914	4679
854.048	4664
854.183	4626
854.317	4675
854.451	4828
854.585	4687
854.72	4618
854.854	4793
854.988	4649
855.122	4618
855.256	4519
855.39	4675
855.524	4820
855.658	4706
855.792	4698
855.926	4733
856.06	4805
856.194	4790
856.327	4725
856.461	4573
856.595	4573
856.729	4660
856.862	4679
856.996	4672
857.13	4675
857.263	4824
857.397	4786
857.53	4664
857.664	4702
857.797	4782
857.931	4782
858.064	4672
858.197	4710
858.331	4683
858.464	4618
858.597	4546
858.731	4630
858.864	4653
858.997	4596
859.13	4618
859.263	4675
859.396	4656
859.529	4550
859.662	4542
859.795	4561
859.928	4641
860.061	4752
860.194	4759
860.327	4573
860.46	4538
860.592	4717
860.725	4698
860.858	4706
860.99	4599
861.123	4538
861.256	4500
861.388	4615
861.521	5318
861.653	4493
861.786	4428
861.918	4455
862.05	4523
862.183	4554
862.315	4565
862.447	4615
862.58	4546
862.712	4413
862.844	4337
862.976	4470
863.108	4470
863.24	4793
863.372	4329
863.504	4371
863.636	4390
863.768	4531
863.9	4428
864.032	4390
864.164	4436
864.296	4489
864.428	4535
864.559	4504
864.691	4531
864.823	4512
864.954	4478
865.086	4497
865.217	4481
865.349	4436
865.48	4451
865.612	4516
865.743	4626
865.875	4462
866.006	4428
866.137	4409
866.269	4459
866.4	4440
866.531	4436
866.662	4424
866.793	4375
866.924	4398
867.055	4493
867.186	4466
867.317	4402
867.448	4383
867.579	4405
867.71	4379
867.841	4383
867.972	4398
868.103	4440
868.233	4462
868.364	4451
868.495	4478
868.625	4664
868.756	4748
868.886	4561
869.017	4626
869.147	4740
869.278	4725
869.408	4653
869.539	4653
869.669	4656
869.799	4660
869.929	4733
870.06	4706
870.19	4946
870.32	4934
870.45	4923
870.58	5006
870.71	5090
870.84	5109
870.97	4923
871.1	4919
871.23	5132
871.36	5105
871.489	5025
871.619	5056
871.749	5052
871.879	5117
872.008	5162
872.138	5048
872.267	4915
872.397	4843
872.526	4771
872.656	4710
872.785	4835
872.915	5014
873.044	5010
873.173	4904
873.303	4995
873.432	4938
873.561	4946
873.69	4889
873.819	4915
873.948	4889
874.077	4812
874.206	4790
874.335	4763
874.464	4972
874.593	5022
874.722	4919
874.851	5102
874.979	5113
875.108	5041
875.237	4885
875.365	4847
875.494	4896
875.623	4957
875.751	4831
875.88	4873
876.008	4934
876.136	5025
876.265	5178
876.393	5292
876.521	5216
876.65	5185
876.778	5159
876.906	5041
877.034	4995
877.162	5052
877.29	5025
877.418	5079
877.546	4984
877.674	5052
877.802	5018
877.93	5048
878.058	4911
878.185	4889
878.313	4987
878.441	4949
878.568	4771
878.696	4892
878.824	4938
878.951	4938
879.079	5121
879.206	5246
879.333	5113
879.461	4999
879.588	5025
879.715	5109
879.842	5212
879.97	5045
880.097	4820
880.224	4763
880.351	4793
880.478	4843
880.605	4805
880.732	4820
880.859	5064
880.986	4870
881.112	4885
881.239	4729
881.366	4649
881.493	4584
881.619	4622
881.746	4618
881.872	4664
881.999	4683
882.125	4653
882.252	4778
882.378	4835
882.505	4930
882.631	4801
882.757	4694
882.883	4687
883.01	4710
883.136	4649
883.262	4588
883.388	4637
883.514	4778
883.64	4877
883.766	4778
883.892	4683
884.018	4687
884.143	4911
884.269	4976
884.395	4710
884.52	4641
884.646	4615
884.772	4615
884.897	4546
885.023	4675
885.148	4782
885.274	4835
885.399	4801
885.524	4668
885.65	4656
885.775	4714
885.9	4687
886.025	4850
886.15	4774
886.275	4714
886.4	4645
886.525	4694
886.65	4687
886.775	4717
886.9	4900
887.025	5033
887.149	4782
887.274	4656
887.399	4542
887.523	4588
887.648	4577
887.773	4558
887.897	4748
888.021	4717
888.146	4649
888.27	4793
888.395	4881
888.519	4820
888.643	4831
888.767	4771
888.891	4668
889.015	4573
889.139	4637
889.263	4592
889.387	4752
889.511	4892
889.635	4828
889.759	4664
889.883	4656
890.006	4706
890.13	4809
890.254	4611
890.377	4691
890.501	4561
890.624	4485
890.748	4653
890.871	4451
890.995	4466
891.118	4405
891.241	4527
891.364	4527
891.488	4637
891.611	4481
891.734	4497
891.857	4573
891.98	4504
892.103	4641
892.226	4573
892.349	4504
892.471	4417
892.594	4516
892.717	4569
892.839	4554
892.962	4580
893.085	4653
893.207	4622
893.33	4462
893.452	4493
893.575	4630
893.697	4542
893.819	4763
893.941	4858
894.064	4729
894.186	4580
894.308	4577
894.43	4702
894.552	4824
894.674	4752
894.796	4531
894.918	4573
895.04	4588
895.161	4660
895.283	4645
895.405	4550
895.526	4626
895.648	4706
895.769	4664
895.891	4717
896.012	4668
896.134	4736
896.255	4672
896.376	4615
896.498	4588
896.619	4668
896.74	4603
896.861	4653
896.982	4938
897.103	5045
897.224	4824
897.345	4752
897.466	4618
897.587	4721
897.708	4927
897.828	4748
897.949	4691
898.07	4554
898.19	4630
898.311	4835
898.431	4660
898.552	4656
898.672	4858
898.792	4736
898.913	4744
899.033	4615
899.153	4497
899.273	4489
899.393	4474
899.513	4481
899.633	4565
899.753	4519
899.873	4508
899.993	4535
900.113	4535
900.232	4561
900.352	4531
900.472	4474
900.591	4371
900.711	4504
900.83	4417
900.95	4599
901.069	4675
901.189	4535
901.308	4360
901.427	4337
901.546	4371
901.665	4474
901.784	4512
901.904	4394
902.023	4333
902.141	4200
902.26	4196
902.379	4310
902.498	4249
902.617	4196
902.735	4386
902.854	4402
902.973	4417
903.091	4219
903.21	4200
903.328	4337
903.446	4242
903.565	4223
903.683	4348
903.801	4261
903.919	4394
904.038	4398
904.156	4322
904.274	4451
904.392	4386
904.51	4443
904.627	4459
904.745	4611
904.863	4592
904.981	4341
905.098	4348
905.216	4363
905.334	4386
905.451	4417
905.569	4451
905.686	4512
905.803	4580
905.921	4417
906.038	4542
906.155	4485
906.272	4398
906.389	4497
906.506	4348
906.623	4386
906.74	4379
906.857	4325
906.974	4348
907.091	4584
907.208	4664
907.324	4626
907.441	4493
907.557	4314
907.674	4344
907.79	4348
907.907	4386
908.023	4497
908.139	4485
908.256	4421
908.372	4428
908.488	4470
908.604	4394
908.72	4333
908.836	4432
908.952	4344
909.068	4371
909.184	4546
909.3	4478
909.415	4569
909.531	4542
909.647	4333
909.762	4371
909.878	4322
909.993	4436
910.108	4379
910.224	4386
910.339	4489
910.454	4394
910.57	4344
910.685	4344
910.8	4664
910.915	4565
911.03	4470
911.145	4329
911.259	4344
911.374	4344
911.489	4325
911.604	4284
911.718	4154
911.833	4196
911.947	4059
912.062	3991
912.176	4207
912.291	4223
912.405	4280
912.519	4432
912.633	4432
912.748	4318
912.862	4276
912.976	4211
913.09	4093
913.204	4185
913.318	4242
913.431	4348
913.545	4360
913.659	4462
913.772	4341
913.886	4253
914	4200
914.113	4325
914.226	4428
914.34	4394
914.453	4204
914.566	4405
914.68	4303
914.793	4333
914.906	4162
915.019	4116
915.132	4086
915.245	4188
915.358	4223
915.47	4265
915.583	4257
915.696	4249
915.809	4379
915.921	4432
916.034	4242
916.146	4188
916.259	4238
916.371	4363
916.483	4333
916.595	4257
916.708	4341
916.82	4295
916.932	4329
917.044	4341
917.156	4310
917.268	4227
917.38	4314
917.491	4249
917.603	4363
917.715	4405
917.826	4432
917.938	4356
918.049	4215
918.161	4398
918.272	4535
918.384	4569
918.495	4417
918.606	4268
918.717	4223
918.828	4344
918.939	4333
919.05	4242
919.161	4333
919.272	4196
919.383	4219
919.494	4432
919.604	4607
919.715	4409
919.826	4386
919.936	4371
920.047	4504
920.157	4474
920.267	4683
920.378	4519
920.488	4474
920.598	4736
920.708	4915
920.818	4698
920.928	4759
921.038	4991
921.148	4896
921.258	4565
921.368	4550
921.477	4546
921.587	4474
921.697	4314
921.806	4550
921.916	4428
922.025	4234
922.134	4265
922.244	4204
922.353	4360
922.462	4143
922.571	4154
922.68	3994
922.789	3956
922.898	4010
923.007	3972
923.116	4093
923.224	4086
923.333	4101
923.442	3998
923.55	3964
923.659	4013
923.767	4124
923.876	4048
923.984	4143
924.092	3987
924.201	4048
924.309	4071
924.417	4116
924.525	4071
924.633	4124
924.741	4858
924.849	3953
924.956	4105
925.064	3934
925.172	3911
925.279	3915
925.387	4006
925.494	4074
925.602	4192
925.709	4169
925.816	3998
925.924	4143
926.031	4204
926.138	4139
926.245	4181
926.352	4044
926.459	4246
926.566	4284
926.673	4112
926.779	4116
926.886	4032
926.993	3979
927.099	3934
927.206	3911
927.312	3922
927.419	4067
927.525	4036
927.631	4105
927.737	3941
927.843	3968
927.95	3857
928.056	3964
928.162	3956
928.267	4044
928.373	4694
928.479	4082
928.585	3865
928.69	4044
928.796	4063
928.901	3945
929.007	3854
929.112	4006
929.218	3975
929.323	3968
929.428	3968
929.533	4063
929.638	3857
929.743	3945
929.848	4051
929.953	3998
930.058	3926
930.163	3762
930.267	3797
930.372	3956
930.477	3797
930.581	4093
930.685	3975
930.79	3819
930.894	3869
930.998	3827
931.103	4040
931.207	3732
931.311	3713
931.415	3656
931.519	3568
931.623	3561
