Data from test_V78500241_2465.txt Node
Date: Fri Mar 25 17:06:08 CST 2022
User: usil
Spectrometer: V785-0024
Trigger mode: 0
Integration Time (sec): 4.000000E-1
Scans to average: 1
Nonlinearity correction enabled: false
Boxcar width: 0
Storing dark spectrum: false
XAxis mode: Wavelengths
Number of Pixels in Spectrum: 1024
>>>>>Begin Spectral Data<<<<<
801.071	8001
801.214	8005
801.356	7864
801.499	7837
801.641	7765
801.783	7822
801.926	7917
802.068	7936
802.211	7974
802.353	7940
802.496	7871
802.638	7845
802.78	7898
802.923	7944
803.065	7753
803.208	7875
803.35	7982
803.492	8084
803.635	8199
803.777	8092
803.919	8199
804.061	8476
804.204	8092
804.346	8115
804.488	8027
804.63	8081
804.773	8069
804.915	8077
805.057	8263
805.199	8130
805.341	8134
805.483	8358
805.626	8275
805.768	8161
805.91	8191
806.052	8134
806.194	8138
806.336	8332
806.478	8084
806.62	8081
806.762	8172
806.904	8332
807.046	8503
807.188	8396
807.33	8328
807.472	8332
807.614	8119
807.756	8130
807.898	7993
808.04	7898
808.182	7902
808.324	7864
808.465	7913
808.607	8043
808.749	8062
808.891	8161
809.033	8332
809.174	8145
809.316	8103
809.458	8096
809.6	8005
809.741	8058
809.883	8031
810.025	8081
810.166	8077
810.308	8035
810.45	7951
810.591	7826
810.733	7708
810.875	7601
811.016	7491
811.158	7464
811.299	7590
811.441	7674
811.582	7685
811.724	7544
811.865	7537
812.007	7643
812.148	7632
812.29	7639
812.431	7734
812.573	7909
812.714	7906
812.855	8088
812.997	8218
813.138	8313
813.279	8214
813.421	8073
813.562	7936
813.703	7849
813.845	7738
813.986	7472
814.127	7297
814.268	7190
814.41	7179
814.551	7168
814.692	7209
814.833	7084
814.974	7198
815.115	7076
815.256	6916
815.397	6966
815.539	6939
815.68	6810
815.821	6779
815.962	6844
816.103	6768
816.244	6719
816.385	6642
816.526	6589
816.666	6494
816.807	6281
816.948	6498
817.089	6464
817.23	6437
817.371	6380
817.512	6429
817.653	6384
817.793	6410
817.934	6350
818.075	6513
818.216	6441
818.356	6391
818.497	6186
818.638	6136
818.778	6114
818.919	6106
819.06	6121
819.2	6365
819.341	6285
819.481	6338
819.622	6509
819.762	6753
819.903	6730
820.043	6540
820.184	6563
820.324	6551
820.465	6711
820.605	6738
820.746	6631
820.886	6502
821.026	6639
821.167	6719
821.307	6753
821.447	6825
821.588	6658
821.728	6544
821.868	6521
822.008	6300
822.149	6403
822.289	6369
822.429	6163
822.569	6057
822.709	6144
822.849	5916
822.99	5912
823.13	5946
823.27	5958
823.41	5783
823.55	5726
823.69	5775
823.83	5783
823.97	5649
824.11	5539
824.25	5528
824.389	5543
824.529	5543
824.669	5474
824.809	5665
824.949	5630
825.089	5646
825.228	5532
825.368	5383
825.508	5349
825.648	5376
825.787	5398
825.927	5391
826.067	5292
826.206	5258
826.346	5474
826.485	5398
826.625	5417
826.765	5520
826.904	5512
827.044	5216
827.183	5239
827.323	5140
827.462	5242
827.601	5166
827.741	5170
827.88	5235
828.02	5128
828.159	5189
828.298	5337
828.437	5360
828.577	5265
828.716	5512
828.855	5280
828.994	5166
829.134	5174
829.273	5147
829.412	5140
829.551	5124
829.69	5124
829.829	5250
829.968	5391
830.107	5296
830.246	5288
830.385	5151
830.524	5155
830.663	5075
830.802	4980
830.941	4915
831.08	4866
831.219	4968
831.357	4946
831.496	5185
831.635	4923
831.774	4839
831.913	4850
832.051	4763
832.19	4744
832.329	4850
832.467	4691
832.606	4649
832.744	4725
832.883	4702
833.022	4725
833.16	4790
833.299	4854
833.437	4839
833.576	4847
833.714	4828
833.852	4835
833.991	4847
834.129	4995
834.267	4923
834.406	4831
834.544	4987
834.682	4984
834.821	4938
834.959	5147
835.097	4984
835.235	5128
835.373	5060
835.511	5086
835.65	5029
835.788	5022
835.926	4911
836.064	4858
836.202	4927
836.34	5159
836.478	5197
836.615	5124
836.753	5166
836.891	5296
837.029	5239
837.167	5223
837.305	5140
837.443	5189
837.58	5117
837.718	5261
837.856	5155
837.993	5124
838.131	5189
838.269	5189
838.406	5216
838.544	5136
838.681	5025
838.819	4999
838.956	4934
839.094	4889
839.231	4968
839.369	5029
839.506	5433
839.643	5277
839.781	5018
839.918	5048
840.055	5113
840.193	5064
840.33	5128
840.467	5094
840.604	5147
840.742	5440
840.879	5109
841.016	5041
841.153	5124
841.29	5360
841.427	5303
841.564	5315
841.701	5372
841.838	5273
841.975	5193
842.112	5250
842.249	5102
842.385	5094
842.522	5337
842.659	5204
842.796	5147
842.933	5193
843.069	5178
843.206	5159
843.343	5269
843.479	5178
843.616	5292
843.752	5056
843.889	4995
844.025	5204
844.162	5018
844.298	5280
844.435	5071
844.571	5079
844.708	5212
844.844	5318
844.98	5368
845.117	5288
845.253	5132
845.389	5064
845.525	5197
845.661	5159
845.798	5064
845.934	5151
846.07	4976
846.206	5189
846.342	5288
846.478	5201
846.614	5018
846.75	4976
846.886	4915
847.022	5121
847.158	5003
847.294	5052
847.429	5086
847.565	5064
847.701	5280
847.837	4873
847.972	4752
848.108	4976
848.244	4934
848.379	4774
848.515	4706
848.65	4634
848.786	4740
848.921	4752
849.057	4854
849.192	4915
849.328	4801
849.463	4839
849.598	4763
849.734	4778
849.869	4687
850.004	4588
850.14	4645
850.275	4588
850.41	4538
850.545	4637
850.68	4584
850.815	4618
850.95	4626
851.085	4839
851.22	4767
851.355	4664
851.49	4592
851.625	4641
851.76	4634
851.895	4542
852.03	4554
852.165	4611
852.299	4733
852.434	4809
852.569	4748
852.703	4755
852.838	4847
852.973	4961
853.107	4919
853.242	4748
853.376	4664
853.511	4538
853.645	4626
853.78	4797
853.914	4645
854.048	4694
854.183	4611
854.317	4691
854.451	4858
854.585	4733
854.72	4637
854.854	4733
854.988	4599
855.122	4653
855.256	4527
855.39	4664
855.524	4714
855.658	4721
855.792	4694
855.926	4748
856.06	4748
856.194	4763
856.327	4717
856.461	4603
856.595	4634
856.729	4664
856.862	4721
856.996	4656
857.13	4733
857.263	4744
857.397	4771
857.53	4645
857.664	4733
857.797	4744
857.931	4790
858.064	4637
858.197	4790
858.331	4664
858.464	4573
858.597	4538
858.731	4656
858.864	4592
858.997	4618
859.13	4611
859.263	4694
859.396	4755
859.529	4588
859.662	4577
859.795	4531
859.928	4626
860.061	4717
860.194	4759
860.327	4626
860.46	4519
860.592	4778
860.725	4702
860.858	4714
860.99	4584
861.123	4535
861.256	4569
861.388	4558
861.521	5235
861.653	4516
861.786	4485
861.918	4440
862.05	4500
862.183	4550
862.315	4645
862.447	4679
862.58	4493
862.712	4386
862.844	4325
862.976	4466
863.108	4489
863.24	4843
863.372	4341
863.504	4421
863.636	4394
863.768	4478
863.9	4459
864.032	4394
864.164	4383
864.296	4516
864.428	4538
864.559	4565
864.691	4561
864.823	4531
864.954	4500
865.086	4523
865.217	4478
865.349	4417
865.48	4447
865.612	4497
865.743	4588
865.875	4466
866.006	4421
866.137	4432
866.269	4455
866.4	4470
866.531	4394
866.662	4432
866.793	4375
866.924	4470
867.055	4512
867.186	4443
867.317	4398
867.448	4333
867.579	4375
867.71	4390
867.841	4394
867.972	4447
868.103	4481
868.233	4402
868.364	4436
868.495	4451
868.625	4675
868.756	4793
868.886	4573
869.017	4584
869.147	4752
869.278	4790
869.408	4634
869.539	4649
869.669	4725
869.799	4660
869.929	4729
870.06	4702
870.19	4915
870.32	4862
870.45	4904
870.58	5014
870.71	5102
870.84	5098
870.97	4957
871.1	4896
871.23	5109
871.36	5147
871.489	5025
871.619	5067
871.749	5056
871.879	5105
872.008	5166
872.138	5071
872.267	5006
872.397	4835
872.526	4839
872.656	4733
872.785	4790
872.915	4915
873.044	5037
873.173	4942
873.303	4968
873.432	4987
873.561	4938
873.69	4873
873.819	4850
873.948	4915
874.077	4782
874.206	4755
874.335	4786
874.464	4949
874.593	5067
874.722	4927
874.851	5109
874.979	5052
875.108	5071
875.237	4927
875.365	4889
875.494	4877
875.623	4991
875.751	4828
875.88	4885
876.008	4976
876.136	5052
876.265	5208
876.393	5376
876.521	5261
876.65	5227
876.778	5128
876.906	5029
877.034	4976
877.162	5060
877.29	4976
877.418	5064
877.546	5079
877.674	5052
877.802	5048
877.93	5045
878.058	4915
878.185	4892
878.313	4987
878.441	4942
878.568	4801
878.696	4862
878.824	5006
878.951	4949
879.079	5155
879.206	5315
879.333	5052
879.461	4934
879.588	5029
879.715	5105
879.842	5216
879.97	4976
880.097	4801
880.224	4771
880.351	4809
880.478	4801
880.605	4786
880.732	4812
880.859	5117
880.986	4908
881.112	4862
881.239	4744
881.366	4698
881.493	4573
881.619	4561
881.746	4653
881.872	4622
881.999	4618
882.125	4649
882.252	4767
882.378	4839
882.505	4968
882.631	4797
882.757	4691
882.883	4744
883.01	4782
883.136	4664
883.262	4611
883.388	4603
883.514	4793
883.64	4866
883.766	4843
883.892	4706
884.018	4736
884.143	4965
884.269	5022
884.395	4660
884.52	4622
884.646	4637
884.772	4561
884.897	4580
885.023	4664
885.148	4797
885.274	4850
885.399	4809
885.524	4698
885.65	4755
885.775	4717
885.9	4698
886.025	4900
886.15	4740
886.275	4721
886.4	4622
886.525	4740
886.65	4725
886.775	4656
886.9	4824
887.025	5075
887.149	4767
887.274	4630
887.399	4649
887.523	4573
887.648	4554
887.773	4603
887.897	4790
888.021	4774
888.146	4714
888.27	4797
888.395	4885
888.519	4786
888.643	4801
888.767	4870
888.891	4664
889.015	4626
889.139	4649
889.263	4592
889.387	4778
889.511	4862
889.635	4786
889.759	4679
889.883	4702
890.006	4710
890.13	4847
890.254	4596
890.377	4691
890.501	4531
890.624	4554
890.748	4668
890.871	4504
890.995	4417
891.118	4402
891.241	4508
891.364	4531
891.488	4618
891.611	4497
891.734	4569
891.857	4599
891.98	4580
892.103	4630
892.226	4634
892.349	4554
892.471	4443
892.594	4527
892.717	4618
892.839	4550
892.962	4592
893.085	4615
893.207	4599
893.33	4470
893.452	4485
893.575	4683
893.697	4565
893.819	4797
893.941	4835
894.064	4767
894.186	4580
894.308	4558
894.43	4733
894.552	4805
894.674	4771
894.796	4577
894.918	4611
895.04	4584
895.161	4683
895.283	4618
895.405	4584
895.526	4634
895.648	4687
895.769	4656
895.891	4694
896.012	4717
896.134	4706
896.255	4641
896.376	4630
896.498	4641
896.619	4691
896.74	4588
896.861	4626
896.982	4961
897.103	5113
897.224	4854
897.345	4774
897.466	4645
897.587	4736
897.708	4877
897.828	4812
897.949	4683
898.07	4527
898.19	4630
898.311	4797
898.431	4641
898.552	4736
898.672	4835
898.792	4793
898.913	4767
899.033	4687
899.153	4470
899.273	4402
899.393	4519
899.513	4500
899.633	4554
899.753	4550
899.873	4538
899.993	4565
900.113	4550
900.232	4542
900.352	4523
900.472	4455
900.591	4379
900.711	4462
900.83	4485
900.95	4615
901.069	4683
901.189	4531
901.308	4371
901.427	4329
901.546	4360
901.665	4447
901.784	4481
901.904	4375
902.023	4333
902.141	4185
902.26	4147
902.379	4295
902.498	4223
902.617	4204
902.735	4356
902.854	4394
902.973	4386
903.091	4215
903.21	4223
903.328	4280
903.446	4253
903.565	4246
903.683	4325
903.801	4291
903.919	4405
904.038	4413
904.156	4322
904.274	4443
904.392	4417
904.51	4447
904.627	4470
904.745	4561
904.863	4592
904.981	4402
905.098	4344
905.216	4367
905.334	4466
905.451	4478
905.569	4451
905.686	4531
905.803	4527
905.921	4398
906.038	4535
906.155	4512
906.272	4398
906.389	4451
906.506	4383
906.623	4386
906.74	4413
906.857	4318
906.974	4428
907.091	4580
907.208	4691
907.324	4592
907.441	4508
907.557	4375
907.674	4314
907.79	4314
907.907	4352
908.023	4470
908.139	4470
908.256	4451
908.372	4447
908.488	4459
908.604	4383
908.72	4352
908.836	4371
908.952	4386
909.068	4462
909.184	4584
909.3	4478
909.415	4588
909.531	4573
909.647	4363
909.762	4398
909.878	4356
909.993	4440
910.108	4413
910.224	4428
910.339	4500
910.454	4390
910.57	4390
910.685	4333
910.8	4649
910.915	4626
911.03	4493
911.145	4352
911.259	4356
911.374	4367
911.489	4284
911.604	4276
911.718	4177
911.833	4211
911.947	4097
912.062	4006
912.176	4169
912.291	4230
912.405	4287
912.519	4523
912.633	4535
912.748	4325
912.862	4318
912.976	4211
913.09	4109
913.204	4143
913.318	4257
913.431	4375
913.545	4363
913.659	4424
913.772	4352
913.886	4219
914	4215
914.113	4405
914.226	4455
914.34	4360
914.453	4166
914.566	4478
914.68	4322
914.793	4310
914.906	4158
915.019	4150
915.132	4112
915.245	4177
915.358	4215
915.47	4223
915.583	4265
915.696	4291
915.809	4398
915.921	4424
916.034	4284
916.146	4295
916.259	4230
916.371	4409
916.483	4375
916.595	4246
916.708	4268
916.82	4341
916.932	4314
917.044	4341
917.156	4341
917.268	4234
917.38	4276
917.491	4303
917.603	4295
917.715	4390
917.826	4424
917.938	4360
918.049	4246
918.161	4402
918.272	4527
918.384	4512
918.495	4462
918.606	4299
918.717	4249
918.828	4303
918.939	4363
919.05	4276
919.161	4310
919.272	4109
919.383	4242
919.494	4428
919.604	4596
919.715	4413
919.826	4379
919.936	4394
920.047	4493
920.157	4519
920.267	4725
920.378	4569
920.488	4485
920.598	4649
920.708	4873
920.818	4755
920.928	4752
921.038	4923
921.148	4911
921.258	4637
921.368	4546
921.477	4481
921.587	4440
921.697	4371
921.806	4561
921.916	4481
922.025	4299
922.134	4219
922.244	4253
922.353	4306
922.462	4162
922.571	4150
922.68	4013
922.789	3975
922.898	4006
923.007	3979
923.116	4120
923.224	4025
923.333	4074
923.442	3964
923.55	4010
923.659	4029
923.767	4032
923.876	3987
923.984	4116
924.092	3930
924.201	4105
924.309	4120
924.417	4090
924.525	4086
924.633	4101
924.741	4999
924.849	3922
924.956	4112
925.064	3987
925.172	3922
925.279	3956
925.387	4055
925.494	4090
925.602	4257
925.709	4181
925.816	4063
925.924	4162
926.031	4196
926.138	4162
926.245	4147
926.352	4021
926.459	4268
926.566	4272
926.673	4188
926.779	4120
926.886	4071
926.993	3987
927.099	4025
927.206	3979
927.312	3926
927.419	4055
927.525	4006
927.631	4105
927.737	3960
927.843	3956
927.95	3854
928.056	3960
928.162	3983
928.267	4055
928.373	4679
928.479	4120
928.585	3857
928.69	3987
928.796	4086
928.901	3983
929.007	3842
929.112	4021
929.218	3956
929.323	3964
929.428	3949
929.533	4112
929.638	3930
929.743	3934
929.848	4071
929.953	4036
930.058	3930
930.163	3740
930.267	3812
930.372	3979
930.477	3812
930.581	4086
930.685	3991
930.79	3778
930.894	3888
930.998	3884
931.103	4021
931.207	3751
931.311	3732
931.415	3671
931.519	3511
931.623	3603
