Data from test_V78500241_2182.txt Node
Date: Fri Mar 25 17:04:10 CST 2022
User: usil
Spectrometer: V785-0024
Trigger mode: 0
Integration Time (sec): 4.000000E-1
Scans to average: 1
Nonlinearity correction enabled: false
Boxcar width: 0
Storing dark spectrum: false
XAxis mode: Wavelengths
Number of Pixels in Spectrum: 1024
>>>>>Begin Spectral Data<<<<<
801.071	7928
801.214	8016
801.356	7864
801.499	7864
801.641	7750
801.783	7814
801.926	7993
802.068	8012
802.211	7921
802.353	7913
802.496	7811
802.638	7822
802.78	7852
802.923	7814
803.065	7845
803.208	7845
803.35	7932
803.492	8031
803.635	8180
803.777	8031
803.919	8107
804.061	8419
804.204	8103
804.346	8065
804.488	7970
804.63	8069
804.773	7993
804.915	8088
805.057	8339
805.199	8202
805.341	8153
805.483	8214
805.626	8240
805.768	8081
805.91	8134
806.052	8142
806.194	8183
806.336	8218
806.478	8073
806.62	8043
806.762	8134
806.904	8328
807.046	8473
807.188	8385
807.33	8313
807.472	8290
807.614	8176
807.756	8134
807.898	7909
808.04	7925
808.182	7978
808.324	7864
808.465	7951
808.607	8020
808.749	8088
808.891	8199
809.033	8275
809.174	8206
809.316	8077
809.458	8058
809.6	8035
809.741	8039
809.883	7951
810.025	8130
810.166	8005
810.308	8008
810.45	8005
810.591	7875
810.733	7780
810.875	7677
811.016	7506
811.158	7491
811.299	7586
811.441	7704
811.582	7643
811.724	7590
811.865	7533
812.007	7628
812.148	7601
812.29	7571
812.431	7765
812.573	7875
812.714	8008
812.855	8134
812.997	8149
813.138	8301
813.279	8157
813.421	8103
813.562	7928
813.703	7830
813.845	7738
813.986	7419
814.127	7278
814.268	7213
814.41	7145
814.551	7168
814.692	7213
814.833	7072
814.974	7053
815.115	7133
815.256	6970
815.397	6924
815.539	6954
815.68	6837
815.821	6738
815.962	6798
816.103	6791
816.244	6738
816.385	6642
816.526	6608
816.666	6544
816.807	6331
816.948	6456
817.089	6464
817.23	6456
817.371	6395
817.512	6372
817.653	6418
817.793	6361
817.934	6384
818.075	6388
818.216	6467
818.356	6403
818.497	6254
818.638	6117
818.778	6152
818.919	6152
819.06	6155
819.2	6308
819.341	6338
819.481	6334
819.622	6547
819.762	6734
819.903	6688
820.043	6578
820.184	6555
820.324	6566
820.465	6627
820.605	6681
820.746	6650
820.886	6517
821.026	6604
821.167	6688
821.307	6779
821.447	6730
821.588	6669
821.728	6551
821.868	6441
822.008	6331
822.149	6331
822.289	6342
822.429	6144
822.569	6068
822.709	6140
822.849	5958
822.99	5904
823.13	5935
823.27	5904
823.41	5771
823.55	5767
823.69	5748
823.83	5775
823.97	5672
824.11	5573
824.25	5482
824.389	5516
824.529	5611
824.669	5558
824.809	5615
824.949	5688
825.089	5627
825.228	5474
825.368	5402
825.508	5364
825.648	5376
825.787	5383
825.927	5376
826.067	5269
826.206	5280
826.346	5353
826.485	5387
826.625	5391
826.765	5566
826.904	5535
827.044	5269
827.183	5231
827.323	5121
827.462	5261
827.601	5208
827.741	5193
827.88	5170
828.02	5086
828.159	5227
828.298	5318
828.437	5383
828.577	5250
828.716	5482
828.855	5292
828.994	5212
829.134	5208
829.273	5208
829.412	5136
829.551	5159
829.69	5181
829.829	5250
829.968	5436
830.107	5261
830.246	5288
830.385	5250
830.524	5174
830.663	5071
830.802	5010
830.941	4858
831.08	4908
831.219	4995
831.357	5048
831.496	5185
831.635	4904
831.774	4889
831.913	4908
832.051	4729
832.19	4820
832.329	4892
832.467	4725
832.606	4706
832.744	4790
832.883	4767
833.022	4748
833.16	4824
833.299	4870
833.437	4866
833.576	4850
833.714	4892
833.852	4889
833.991	4919
834.129	4984
834.267	4984
834.406	4938
834.544	4961
834.682	4976
834.821	4976
834.959	5231
835.097	5010
835.235	5159
835.373	5109
835.511	5155
835.65	5079
835.788	5071
835.926	4949
836.064	4911
836.202	4934
836.34	5204
836.478	5246
836.615	5143
836.753	5246
836.891	5250
837.029	5269
837.167	5231
837.305	5220
837.443	5201
837.58	5094
837.718	5341
837.856	5288
837.993	5162
838.131	5318
838.269	5220
838.406	5227
838.544	5235
838.681	5105
838.819	5064
838.956	4915
839.094	4946
839.231	5018
839.369	5155
839.506	5417
839.643	5296
839.781	5113
839.918	5033
840.055	5098
840.193	5124
840.33	5121
840.467	5185
840.604	5201
840.742	5459
840.879	5128
841.016	5143
841.153	5178
841.29	5376
841.427	5357
841.564	5307
841.701	5337
841.838	5277
841.975	5292
842.112	5307
842.249	5185
842.385	5181
842.522	5341
842.659	5208
842.796	5147
842.933	5239
843.069	5189
843.206	5155
843.343	5292
843.479	5269
843.616	5292
843.752	5006
843.889	5060
844.025	5235
844.162	5067
844.298	5258
844.435	5128
844.571	5060
844.708	5258
844.844	5311
844.98	5341
845.117	5299
845.253	5193
845.389	5128
845.525	5254
845.661	5166
845.798	5090
845.934	5204
846.07	5094
846.206	5223
846.342	5292
846.478	5220
846.614	5071
846.75	4991
846.886	4957
847.022	5128
847.158	5075
847.294	5105
847.429	5105
847.565	5102
847.701	5334
847.837	4889
847.972	4850
848.108	5003
848.244	4942
848.379	4763
848.515	4752
848.65	4740
848.786	4744
848.921	4801
849.057	4850
849.192	4976
849.328	4824
849.463	4858
849.598	4805
849.734	4843
849.869	4725
850.004	4615
850.14	4706
850.275	4637
850.41	4584
850.545	4584
850.68	4561
850.815	4702
850.95	4656
851.085	4850
851.22	4812
851.355	4702
851.49	4649
851.625	4634
851.76	4683
851.895	4577
852.03	4527
852.165	4679
852.299	4771
852.434	4771
852.569	4767
852.703	4820
852.838	4885
852.973	4957
853.107	4946
853.242	4786
853.376	4656
853.511	4588
853.645	4641
853.78	4812
853.914	4755
854.048	4687
854.183	4672
854.317	4706
854.451	4835
854.585	4664
854.72	4630
854.854	4759
854.988	4599
855.122	4668
855.256	4508
855.39	4721
855.524	4812
855.658	4733
855.792	4714
855.926	4774
856.06	4778
856.194	4839
856.327	4759
856.461	4656
856.595	4607
856.729	4706
856.862	4797
856.996	4698
857.13	4744
857.263	4721
857.397	4835
857.53	4725
857.664	4763
857.797	4805
857.931	4824
858.064	4679
858.197	4797
858.331	4668
858.464	4634
858.597	4550
858.731	4637
858.864	4634
858.997	4622
859.13	4725
859.263	4675
859.396	4714
859.529	4603
859.662	4603
859.795	4569
859.928	4580
860.061	4767
860.194	4790
860.327	4649
860.46	4603
860.592	4755
860.725	4736
860.858	4771
860.99	4603
861.123	4580
861.256	4538
861.388	4664
861.521	5436
861.653	4554
861.786	4508
861.918	4478
862.05	4542
862.183	4592
862.315	4637
862.447	4672
862.58	4596
862.712	4436
862.844	4379
862.976	4500
863.108	4489
863.24	4824
863.372	4329
863.504	4443
863.636	4443
863.768	4470
863.9	4417
864.032	4424
864.164	4459
864.296	4466
864.428	4569
864.559	4538
864.691	4554
864.823	4531
864.954	4558
865.086	4523
865.217	4504
865.349	4436
865.48	4500
865.612	4512
865.743	4653
865.875	4508
866.006	4497
866.137	4485
866.269	4451
866.4	4424
866.531	4504
866.662	4402
866.793	4432
866.924	4443
867.055	4504
867.186	4470
867.317	4413
867.448	4455
867.579	4405
867.71	4470
867.841	4402
867.972	4512
868.103	4500
868.233	4470
868.364	4383
868.495	4516
868.625	4691
868.756	4793
868.886	4584
869.017	4653
869.147	4786
869.278	4801
869.408	4660
869.539	4634
869.669	4752
869.799	4687
869.929	4733
870.06	4847
870.19	4976
870.32	4961
870.45	4980
870.58	5041
870.71	5075
870.84	5075
870.97	4972
871.1	4896
871.23	5124
871.36	5189
871.489	5064
871.619	5132
871.749	5159
871.879	5117
872.008	5269
872.138	5056
872.267	5006
872.397	4889
872.526	4847
872.656	4778
872.785	4797
872.915	4984
873.044	4995
873.173	4976
873.303	4984
873.432	4980
873.561	5018
873.69	4881
873.819	4877
873.948	4923
874.077	4831
874.206	4771
874.335	4828
874.464	4927
874.593	5041
874.722	5041
874.851	5105
874.979	5162
875.108	5033
875.237	4965
875.365	4938
875.494	4870
875.623	4976
875.751	4839
875.88	4854
876.008	4980
876.136	5060
876.265	5231
876.393	5299
876.521	5231
876.65	5201
876.778	5201
876.906	5086
877.034	5060
877.162	5079
877.29	4976
877.418	5060
877.546	5018
877.674	5083
877.802	5064
877.93	5010
878.058	4980
878.185	4927
878.313	4965
878.441	4991
878.568	4801
878.696	4862
878.824	4938
878.951	5006
879.079	5132
879.206	5318
879.333	5124
879.461	5029
879.588	5018
879.715	5147
879.842	5265
879.97	5033
880.097	4824
880.224	4759
880.351	4809
880.478	4809
880.605	4812
880.732	4805
880.859	5124
880.986	4942
881.112	4892
881.239	4790
881.366	4698
881.493	4656
881.619	4603
881.746	4634
881.872	4683
881.999	4618
882.125	4721
882.252	4790
882.378	4915
882.505	4984
882.631	4828
882.757	4687
882.883	4706
883.01	4771
883.136	4660
883.262	4615
883.388	4645
883.514	4835
883.64	4923
883.766	4809
883.892	4717
884.018	4748
884.143	4877
884.269	4995
884.395	4672
884.52	4656
884.646	4683
884.772	4580
884.897	4573
885.023	4660
885.148	4782
885.274	4847
885.399	4797
885.524	4786
885.65	4725
885.775	4809
885.9	4721
886.025	4847
886.15	4839
886.275	4790
886.4	4679
886.525	4767
886.65	4759
886.775	4714
886.9	4938
887.025	5033
887.149	4835
887.274	4649
887.399	4573
887.523	4599
887.648	4618
887.773	4592
887.897	4809
888.021	4793
888.146	4675
888.27	4790
888.395	4892
888.519	4812
888.643	4812
888.767	4820
888.891	4664
889.015	4637
889.139	4694
889.263	4641
889.387	4771
889.511	4877
889.635	4835
889.759	4656
889.883	4660
890.006	4683
890.13	4824
890.254	4672
890.377	4668
890.501	4550
890.624	4546
890.748	4611
890.871	4565
890.995	4443
891.118	4398
891.241	4512
891.364	4561
891.488	4668
891.611	4558
891.734	4538
891.857	4622
891.98	4523
892.103	4664
892.226	4580
892.349	4550
892.471	4497
892.594	4558
892.717	4599
892.839	4615
892.962	4611
893.085	4702
893.207	4599
893.33	4443
893.452	4535
893.575	4668
893.697	4618
893.819	4763
893.941	4866
894.064	4831
894.186	4535
894.308	4580
894.43	4755
894.552	4843
894.674	4767
894.796	4565
894.918	4603
895.04	4542
895.161	4725
895.283	4622
895.405	4599
895.526	4660
895.648	4630
895.769	4649
895.891	4717
896.012	4759
896.134	4660
896.255	4649
896.376	4645
896.498	4660
896.619	4618
896.74	4634
896.861	4664
896.982	4938
897.103	5102
897.224	4809
897.345	4778
897.466	4702
897.587	4744
897.708	4831
897.828	4748
897.949	4763
898.07	4592
898.19	4615
898.311	4786
898.431	4656
898.552	4717
898.672	4797
898.792	4774
898.913	4767
899.033	4607
899.153	4535
899.273	4409
899.393	4531
899.513	4546
899.633	4474
899.753	4538
899.873	4558
899.993	4634
900.113	4550
900.232	4653
900.352	4527
900.472	4497
900.591	4394
900.711	4500
900.83	4451
900.95	4637
901.069	4694
901.189	4542
901.308	4360
901.427	4337
901.546	4413
901.665	4500
901.784	4535
901.904	4394
902.023	4318
902.141	4230
902.26	4204
902.379	4268
902.498	4268
902.617	4253
902.735	4383
902.854	4409
902.973	4386
903.091	4211
903.21	4253
903.328	4284
903.446	4299
903.565	4272
903.683	4383
903.801	4287
903.919	4375
904.038	4440
904.156	4337
904.274	4447
904.392	4405
904.51	4421
904.627	4497
904.745	4603
904.863	4694
904.981	4405
905.098	4352
905.216	4379
905.334	4455
905.451	4508
905.569	4523
905.686	4599
905.803	4656
905.921	4440
906.038	4599
906.155	4542
906.272	4481
906.389	4447
906.506	4386
906.623	4436
906.74	4436
906.857	4371
906.974	4405
907.091	4584
907.208	4736
907.324	4618
907.441	4569
907.557	4394
907.674	4394
907.79	4432
907.907	4413
908.023	4538
908.139	4554
908.256	4485
908.372	4474
908.488	4512
908.604	4383
908.72	4371
908.836	4409
908.952	4405
909.068	4455
909.184	4630
909.3	4550
909.415	4592
909.531	4603
909.647	4440
909.762	4371
909.878	4344
909.993	4478
910.108	4489
910.224	4474
910.339	4554
910.454	4455
910.57	4344
910.685	4352
910.8	4683
910.915	4668
911.03	4497
911.145	4421
911.259	4436
911.374	4436
911.489	4329
911.604	4299
911.718	4215
911.833	4257
911.947	4169
912.062	4002
912.176	4284
912.291	4238
912.405	4284
912.519	4546
912.633	4561
912.748	4398
912.862	4386
912.976	4268
913.09	4097
913.204	4227
913.318	4322
913.431	4405
913.545	4390
913.659	4474
913.772	4417
913.886	4272
914	4238
914.113	4455
914.226	4481
914.34	4470
914.453	4246
914.566	4451
914.68	4386
914.793	4383
914.906	4185
915.019	4105
915.132	4120
915.245	4215
915.358	4268
915.47	4284
915.583	4325
915.696	4344
915.809	4478
915.921	4459
916.034	4306
916.146	4287
916.259	4280
916.371	4432
916.483	4386
916.595	4306
916.708	4394
916.82	4356
916.932	4375
917.044	4348
917.156	4356
917.268	4227
917.38	4249
917.491	4272
917.603	4398
917.715	4436
917.826	4455
917.938	4402
918.049	4337
918.161	4451
918.272	4527
918.384	4550
918.495	4466
918.606	4310
918.717	4272
918.828	4352
918.939	4375
919.05	4276
919.161	4356
919.272	4204
919.383	4291
919.494	4447
919.604	4664
919.715	4478
919.826	4398
919.936	4443
920.047	4573
920.157	4493
920.267	4729
920.378	4561
920.488	4516
920.598	4710
920.708	4961
920.818	4774
920.928	4752
921.038	4968
921.148	4949
921.258	4645
921.368	4584
921.477	4527
921.587	4489
921.697	4402
921.806	4569
921.916	4451
922.025	4257
922.134	4310
922.244	4249
922.353	4360
922.462	4169
922.571	4162
922.68	3991
922.789	3987
922.898	4074
923.007	4021
923.116	4112
923.224	4074
923.333	4097
923.442	4017
923.55	3979
923.659	4051
923.767	4116
923.876	4044
923.984	4154
924.092	3960
924.201	4048
924.309	4090
924.417	4173
924.525	4059
924.633	4154
924.741	5090
924.849	3960
924.956	4166
925.064	3941
925.172	3907
925.279	3987
925.387	4090
925.494	4082
925.602	4223
925.709	4215
925.816	4059
925.924	4128
926.031	4219
926.138	4227
926.245	4207
926.352	4120
926.459	4306
926.566	4356
926.673	4196
926.779	4109
926.886	4090
926.993	3987
927.099	3975
927.206	3975
927.312	3964
927.419	4036
927.525	4036
927.631	4036
927.737	3983
927.843	3956
927.95	3838
928.056	3964
928.162	4029
928.267	4074
928.373	4706
928.479	4143
928.585	3915
928.69	4059
928.796	4074
928.901	3991
929.007	3838
929.112	4017
929.218	3994
929.323	3960
929.428	4013
929.533	4086
929.638	3941
929.743	3983
929.848	4025
929.953	4029
930.058	3960
930.163	3804
930.267	3835
930.372	4044
930.477	3850
930.581	4154
930.685	3956
930.79	3842
930.894	3880
930.998	3937
931.103	4051
931.207	3781
931.311	3743
931.415	3728
931.519	3572
931.623	3576
