Data from test_V78500241_2774.txt Node
Date: Fri Mar 25 17:08:17 CST 2022
User: usil
Spectrometer: V785-0024
Trigger mode: 0
Integration Time (sec): 4.000000E-1
Scans to average: 1
Nonlinearity correction enabled: false
Boxcar width: 0
Storing dark spectrum: false
XAxis mode: Wavelengths
Number of Pixels in Spectrum: 1024
>>>>>Begin Spectral Data<<<<<
801.071	8016
801.214	7982
801.356	7856
801.499	7906
801.641	7856
801.783	7780
801.926	7993
802.068	8035
802.211	8035
802.353	8001
802.496	7830
802.638	7879
802.78	7936
802.923	7883
803.065	7879
803.208	7818
803.35	7947
803.492	8073
803.635	8119
803.777	8107
803.919	8164
804.061	8404
804.204	8119
804.346	8084
804.488	8016
804.63	8123
804.773	7925
804.915	8077
805.057	8309
805.199	8233
805.341	8225
805.483	8336
805.626	8286
805.768	8100
805.91	8191
806.052	8229
806.194	8176
806.336	8301
806.478	8054
806.62	8088
806.762	8111
806.904	8221
807.046	8488
807.188	8347
807.33	8381
807.472	8332
807.614	8168
807.756	8172
807.898	8043
808.04	7906
808.182	7955
808.324	7913
808.465	7978
808.607	8077
808.749	8123
808.891	8267
809.033	8301
809.174	8229
809.316	8103
809.458	8039
809.6	7993
809.741	8058
809.883	8058
810.025	8119
810.166	8058
810.308	8012
810.45	8035
810.591	7856
810.733	7746
810.875	7753
811.016	7544
811.158	7529
811.299	7548
811.441	7769
811.582	7700
811.724	7544
811.865	7571
812.007	7578
812.148	7666
812.29	7613
812.431	7818
812.573	7890
812.714	7932
812.855	8172
812.997	8244
813.138	8362
813.279	8199
813.421	8073
813.562	8035
813.703	7871
813.845	7784
813.986	7411
814.127	7282
814.268	7236
814.41	7179
814.551	7206
814.692	7244
814.833	7152
814.974	7114
815.115	7088
815.256	6970
815.397	6935
815.539	6909
815.68	6818
815.821	6764
815.962	6810
816.103	6791
816.244	6711
816.385	6646
816.526	6658
816.666	6467
816.807	6331
816.948	6429
817.089	6456
817.23	6486
817.371	6395
817.512	6380
817.653	6414
817.793	6342
817.934	6456
818.075	6475
818.216	6483
818.356	6380
818.497	6201
818.638	6148
818.778	6136
818.919	6197
819.06	6239
819.2	6319
819.341	6319
819.481	6418
819.622	6544
819.762	6719
819.903	6684
820.043	6639
820.184	6604
820.324	6620
820.465	6635
820.605	6639
820.746	6627
820.886	6582
821.026	6688
821.167	6696
821.307	6764
821.447	6791
821.588	6612
821.728	6528
821.868	6502
822.008	6266
822.149	6388
822.289	6384
822.429	6144
822.569	6095
822.709	6068
822.849	5901
822.99	5904
823.13	5927
823.27	5920
823.41	5828
823.55	5790
823.69	5779
823.83	5794
823.97	5634
824.11	5509
824.25	5474
824.389	5539
824.529	5551
824.669	5512
824.809	5634
824.949	5657
825.089	5623
825.228	5596
825.368	5433
825.508	5330
825.648	5345
825.787	5387
825.927	5364
826.067	5296
826.206	5334
826.346	5395
826.485	5406
826.625	5463
826.765	5570
826.904	5467
827.044	5227
827.183	5227
827.323	5140
827.462	5239
827.601	5147
827.741	5201
827.88	5231
828.02	5128
828.159	5258
828.298	5284
828.437	5345
828.577	5280
828.716	5452
828.855	5337
828.994	5189
829.134	5162
829.273	5201
829.412	5124
829.551	5056
829.69	5147
829.829	5296
829.968	5379
830.107	5239
830.246	5250
830.385	5162
830.524	5109
830.663	5029
830.802	4961
830.941	4946
831.08	4843
831.219	4938
831.357	4953
831.496	5136
831.635	4968
831.774	4862
831.913	4858
832.051	4687
832.19	4714
832.329	4820
832.467	4656
832.606	4649
832.744	4721
832.883	4721
833.022	4714
833.16	4801
833.299	4824
833.437	4835
833.576	4831
833.714	4847
833.852	4858
833.991	4843
834.129	4942
834.267	4961
834.406	4923
834.544	4953
834.682	5003
834.821	4972
834.959	5170
835.097	5025
835.235	5151
835.373	5109
835.511	5090
835.65	5071
835.788	4995
835.926	4923
836.064	4881
836.202	4870
836.34	5124
836.478	5216
836.615	5121
836.753	5185
836.891	5315
837.029	5258
837.167	5201
837.305	5174
837.443	5155
837.58	5124
837.718	5246
837.856	5189
837.993	5181
838.131	5231
838.269	5212
838.406	5185
838.544	5242
838.681	4999
838.819	4980
838.956	4858
839.094	4835
839.231	4953
839.369	5067
839.506	5383
839.643	5265
839.781	5045
839.918	5037
840.055	5056
840.193	5090
840.33	5083
840.467	5083
840.604	5208
840.742	5421
840.879	5067
841.016	5109
841.153	5170
841.29	5357
841.427	5341
841.564	5345
841.701	5387
841.838	5288
841.975	5265
842.112	5269
842.249	5105
842.385	5121
842.522	5307
842.659	5143
842.796	5178
842.933	5197
843.069	5090
843.206	5136
843.343	5284
843.479	5277
843.616	5379
843.752	4991
843.889	5033
844.025	5246
844.162	5067
844.298	5197
844.435	5083
844.571	5006
844.708	5239
844.844	5349
844.98	5292
845.117	5284
845.253	5124
845.389	5102
845.525	5136
845.661	5132
845.798	5064
845.934	5189
846.07	5029
846.206	5189
846.342	5258
846.478	5197
846.614	4999
846.75	4949
846.886	4938
847.022	5155
847.158	4991
847.294	5037
847.429	5083
847.565	5041
847.701	5315
847.837	4850
847.972	4820
848.108	4980
848.244	4915
848.379	4774
848.515	4714
848.65	4740
848.786	4740
848.921	4778
849.057	4934
849.192	4892
849.328	4809
849.463	4797
849.598	4793
849.734	4744
849.869	4687
850.004	4607
850.14	4683
850.275	4592
850.41	4519
850.545	4561
850.68	4569
850.815	4668
850.95	4599
851.085	4812
851.22	4744
851.355	4698
851.49	4626
851.625	4599
851.76	4641
851.895	4577
852.03	4516
852.165	4683
852.299	4656
852.434	4771
852.569	4752
852.703	4752
852.838	4850
852.973	4896
853.107	4892
853.242	4729
853.376	4694
853.511	4565
853.645	4653
853.78	4793
853.914	4698
854.048	4679
854.183	4645
854.317	4717
854.451	4839
854.585	4645
854.72	4634
854.854	4778
854.988	4588
855.122	4660
855.256	4550
855.39	4675
855.524	4797
855.658	4717
855.792	4668
855.926	4725
856.06	4748
856.194	4778
856.327	4698
856.461	4603
856.595	4622
856.729	4664
856.862	4744
856.996	4725
857.13	4748
857.263	4717
857.397	4809
857.53	4672
857.664	4714
857.797	4755
857.931	4778
858.064	4714
858.197	4767
858.331	4630
858.464	4580
858.597	4535
858.731	4607
858.864	4641
858.997	4607
859.13	4641
859.263	4664
859.396	4706
859.529	4634
859.662	4554
859.795	4512
859.928	4592
860.061	4740
860.194	4706
860.327	4630
860.46	4577
860.592	4725
860.725	4714
860.858	4694
860.99	4577
861.123	4500
861.256	4535
861.388	4634
861.521	5296
861.653	4474
861.786	4417
861.918	4447
862.05	4550
862.183	4531
862.315	4588
862.447	4596
862.58	4554
862.712	4394
862.844	4341
862.976	4451
863.108	4451
863.24	4771
863.372	4325
863.504	4413
863.636	4383
863.768	4508
863.9	4451
864.032	4367
864.164	4455
864.296	4481
864.428	4558
864.559	4561
864.691	4500
864.823	4489
864.954	4485
865.086	4512
865.217	4493
865.349	4451
865.48	4443
865.612	4462
865.743	4660
865.875	4485
866.006	4485
866.137	4489
866.269	4413
866.4	4421
866.531	4383
866.662	4360
866.793	4421
866.924	4428
867.055	4493
867.186	4447
867.317	4417
867.448	4413
867.579	4371
867.71	4405
867.841	4337
867.972	4489
868.103	4470
868.233	4424
868.364	4443
868.495	4455
868.625	4687
868.756	4744
868.886	4626
869.017	4649
869.147	4763
869.278	4717
869.408	4653
869.539	4630
869.669	4698
869.799	4664
869.929	4759
870.06	4740
870.19	4953
870.32	4843
870.45	4961
870.58	5014
870.71	5060
870.84	5090
870.97	4927
871.1	4915
871.23	5094
871.36	5124
871.489	4984
871.619	5045
871.749	5083
871.879	5117
872.008	5193
872.138	5025
872.267	4984
872.397	4816
872.526	4816
872.656	4717
872.785	4771
872.915	4949
873.044	5060
873.173	4908
873.303	4961
873.432	4915
873.561	4953
873.69	4866
873.819	4850
873.948	4866
874.077	4870
874.206	4782
874.335	4816
874.464	4908
874.593	5048
874.722	4987
874.851	5155
874.979	5060
875.108	5045
875.237	4923
875.365	4904
875.494	4930
875.623	4984
875.751	4847
875.88	4946
876.008	4976
876.136	5064
876.265	5162
876.393	5299
876.521	5201
876.65	5246
876.778	5105
876.906	5045
877.034	5033
877.162	5048
877.29	4984
877.418	5079
877.546	5025
877.674	5041
877.802	5025
877.93	4995
878.058	4923
878.185	4889
878.313	4908
878.441	4980
878.568	4835
878.696	4831
878.824	4976
878.951	4961
879.079	5121
879.206	5284
879.333	5098
879.461	4961
879.588	4984
879.715	5105
879.842	5208
879.97	4991
880.097	4786
880.224	4736
880.351	4809
880.478	4835
880.605	4862
880.732	4717
880.859	5136
880.986	4889
881.112	4889
881.239	4771
881.366	4672
881.493	4599
881.619	4542
881.746	4622
881.872	4649
881.999	4664
882.125	4683
882.252	4759
882.378	4816
882.505	4984
882.631	4831
882.757	4660
882.883	4694
883.01	4683
883.136	4717
883.262	4596
883.388	4577
883.514	4824
883.64	4850
883.766	4847
883.892	4649
884.018	4721
884.143	4942
884.269	5014
884.395	4706
884.52	4664
884.646	4679
884.772	4573
884.897	4485
885.023	4679
885.148	4782
885.274	4881
885.399	4790
885.524	4725
885.65	4729
885.775	4744
885.9	4691
886.025	4835
886.15	4797
886.275	4706
886.4	4637
886.525	4736
886.65	4615
886.775	4717
886.9	4927
887.025	4984
887.149	4721
887.274	4714
887.399	4607
887.523	4637
887.648	4561
887.773	4577
887.897	4774
888.021	4809
888.146	4694
888.27	4839
888.395	4911
888.519	4809
888.643	4812
888.767	4790
888.891	4687
889.015	4569
889.139	4694
889.263	4607
889.387	4752
889.511	4839
889.635	4755
889.759	4664
889.883	4664
890.006	4744
890.13	4820
890.254	4634
890.377	4675
890.501	4592
890.624	4493
890.748	4580
890.871	4535
890.995	4375
891.118	4337
891.241	4512
891.364	4565
891.488	4584
891.611	4558
891.734	4538
891.857	4626
891.98	4531
892.103	4634
892.226	4599
892.349	4565
892.471	4436
892.594	4527
892.717	4588
892.839	4584
892.962	4561
893.085	4668
893.207	4626
893.33	4428
893.452	4481
893.575	4653
893.697	4599
893.819	4793
893.941	4858
894.064	4801
894.186	4618
894.308	4592
894.43	4691
894.552	4809
894.674	4717
894.796	4577
894.918	4580
895.04	4538
895.161	4653
895.283	4618
895.405	4599
895.526	4702
895.648	4664
895.769	4679
895.891	4698
896.012	4729
896.134	4733
896.255	4664
896.376	4675
896.498	4653
896.619	4641
896.74	4596
896.861	4641
896.982	4927
897.103	5094
897.224	4854
897.345	4790
897.466	4668
897.587	4733
897.708	4847
897.828	4790
897.949	4668
898.07	4542
898.19	4618
898.311	4847
898.431	4687
898.552	4752
898.672	4824
898.792	4771
898.913	4729
899.033	4649
899.153	4546
899.273	4417
899.393	4455
899.513	4519
899.633	4493
899.753	4538
899.873	4538
899.993	4577
900.113	4493
900.232	4577
900.352	4523
900.472	4462
900.591	4386
900.711	4478
900.83	4383
900.95	4615
901.069	4637
901.189	4527
901.308	4383
901.427	4310
901.546	4367
901.665	4459
901.784	4493
901.904	4356
902.023	4314
902.141	4219
902.26	4200
902.379	4291
902.498	4276
902.617	4204
902.735	4409
902.854	4405
902.973	4341
903.091	4169
903.21	4238
903.328	4295
903.446	4348
903.565	4249
903.683	4375
903.801	4268
903.919	4398
904.038	4383
904.156	4344
904.274	4421
904.392	4409
904.51	4466
904.627	4436
904.745	4596
904.863	4630
904.981	4409
905.098	4265
905.216	4344
905.334	4405
905.451	4497
905.569	4409
905.686	4565
905.803	4531
905.921	4394
906.038	4508
906.155	4447
906.272	4344
906.389	4443
906.506	4348
906.623	4375
906.74	4428
906.857	4322
906.974	4402
907.091	4523
907.208	4653
907.324	4558
907.441	4462
907.557	4367
907.674	4356
907.79	4356
907.907	4413
908.023	4470
908.139	4443
908.256	4424
908.372	4428
908.488	4470
908.604	4318
908.72	4287
908.836	4356
908.952	4383
909.068	4417
909.184	4554
909.3	4462
909.415	4596
909.531	4527
909.647	4379
909.762	4322
909.878	4348
909.993	4440
910.108	4405
910.224	4417
910.339	4470
910.454	4394
910.57	4310
910.685	4306
910.8	4691
910.915	4630
911.03	4470
911.145	4322
911.259	4322
911.374	4367
911.489	4291
911.604	4314
911.718	4150
911.833	4211
911.947	4040
912.062	3994
912.176	4227
912.291	4253
912.405	4230
912.519	4474
912.633	4497
912.748	4379
912.862	4333
912.976	4158
913.09	4124
913.204	4196
913.318	4261
913.431	4398
913.545	4390
913.659	4440
913.772	4352
913.886	4246
914	4219
914.113	4360
914.226	4455
914.34	4383
914.453	4287
914.566	4436
914.68	4306
914.793	4306
914.906	4162
915.019	4105
915.132	4067
915.245	4181
915.358	4192
915.47	4276
915.583	4284
915.696	4329
915.809	4394
915.921	4447
916.034	4230
916.146	4246
916.259	4196
916.371	4348
916.483	4352
916.595	4265
916.708	4295
916.82	4303
916.932	4303
917.044	4318
917.156	4344
917.268	4234
917.38	4261
917.491	4249
917.603	4310
917.715	4413
917.826	4440
917.938	4352
918.049	4219
918.161	4363
918.272	4554
918.384	4508
918.495	4470
918.606	4284
918.717	4253
918.828	4329
918.939	4379
919.05	4253
919.161	4314
919.272	4166
919.383	4253
919.494	4405
919.604	4641
919.715	4443
919.826	4409
919.936	4413
920.047	4554
920.157	4489
920.267	4691
920.378	4569
920.488	4504
920.598	4683
920.708	4908
920.818	4752
920.928	4755
921.038	4911
921.148	4919
921.258	4584
921.368	4561
921.477	4466
921.587	4447
921.697	4390
921.806	4546
921.916	4424
922.025	4215
922.134	4303
922.244	4177
922.353	4333
922.462	4227
922.571	4139
922.68	4036
922.789	3949
922.898	4078
923.007	3987
923.116	4059
923.224	4063
923.333	4067
923.442	4002
923.55	3934
923.659	4025
923.767	4074
923.876	3983
923.984	4135
924.092	3979
924.201	4051
924.309	4082
924.417	4139
924.525	4078
924.633	4074
924.741	4908
924.849	3884
924.956	4105
925.064	3953
925.172	3918
925.279	3983
925.387	4051
925.494	4059
925.602	4265
925.709	4158
925.816	4040
925.924	4147
926.031	4196
926.138	4169
926.245	4200
926.352	4051
926.459	4230
926.566	4318
926.673	4116
926.779	4082
926.886	4067
926.993	3983
927.099	3972
927.206	3934
927.312	3979
927.419	4048
927.525	4013
927.631	4097
927.737	3949
927.843	3953
927.95	3835
928.056	3937
928.162	3975
928.267	4078
928.373	4679
928.479	4101
928.585	3880
928.69	4036
928.796	4090
928.901	3960
929.007	3876
929.112	4021
929.218	3953
929.323	3926
929.428	3956
929.533	4112
929.638	3896
929.743	3998
929.848	4036
929.953	3998
930.058	3937
930.163	3770
930.267	3831
930.372	3975
930.477	3804
930.581	4063
930.685	3964
930.79	3850
930.894	3873
930.998	3808
931.103	4067
931.207	3675
931.311	3698
931.415	3656
931.519	3507
931.623	3545
