Data from test_V78500241_1779.txt Node
Date: Fri Mar 25 17:01:22 CST 2022
User: usil
Spectrometer: V785-0024
Trigger mode: 0
Integration Time (sec): 4.000000E-1
Scans to average: 1
Nonlinearity correction enabled: false
Boxcar width: 0
Storing dark spectrum: false
XAxis mode: Wavelengths
Number of Pixels in Spectrum: 1024
>>>>>Begin Spectral Data<<<<<
801.071	7982
801.214	7917
801.356	7830
801.499	7856
801.641	7784
801.783	7818
801.926	7986
802.068	7932
802.211	8001
802.353	7982
802.496	7852
802.638	7856
802.78	7845
802.923	7974
803.065	7830
803.208	7803
803.35	8046
803.492	8043
803.635	8130
803.777	8020
803.919	8180
804.061	8385
804.204	8168
804.346	8035
804.488	7974
804.63	8035
804.773	7997
804.915	8062
805.057	8252
805.199	8176
805.341	8210
805.483	8180
805.626	8164
805.768	8100
805.91	8180
806.052	8237
806.194	8084
806.336	8320
806.478	8092
806.62	8012
806.762	8123
806.904	8229
807.046	8461
807.188	8347
807.33	8286
807.472	8347
807.614	8206
807.756	8149
807.898	8012
808.04	7913
808.182	7928
808.324	7856
808.465	7883
808.607	8043
808.749	8119
808.891	8180
809.033	8279
809.174	8202
809.316	8096
809.458	8046
809.6	8020
809.741	8126
809.883	7944
810.025	8119
810.166	8065
810.308	8054
810.45	7982
810.591	7868
810.733	7780
810.875	7624
811.016	7487
811.158	7438
811.299	7586
811.441	7658
811.582	7666
811.724	7559
811.865	7514
812.007	7605
812.148	7609
812.29	7628
812.431	7731
812.573	7917
812.714	8035
812.855	8119
812.997	8195
813.138	8286
813.279	8161
813.421	8107
813.562	8027
813.703	7814
813.845	7757
813.986	7392
814.127	7198
814.268	7190
814.41	7232
814.551	7149
814.692	7190
814.833	7053
814.974	7072
815.115	7137
815.256	6924
815.397	6897
815.539	6977
815.68	6806
815.821	6738
815.962	6806
816.103	6840
816.244	6719
816.385	6570
816.526	6612
816.666	6471
816.807	6262
816.948	6445
817.089	6452
817.23	6456
817.371	6270
817.512	6357
817.653	6407
817.793	6304
817.934	6418
818.075	6414
818.216	6460
818.356	6376
818.497	6296
818.638	6117
818.778	6171
818.919	6110
819.06	6133
819.2	6357
819.341	6331
819.481	6350
819.622	6502
819.762	6760
819.903	6673
820.043	6585
820.184	6563
820.324	6566
820.465	6696
820.605	6650
820.746	6650
820.886	6441
821.026	6635
821.167	6707
821.307	6760
821.447	6764
821.588	6650
821.728	6563
821.868	6460
822.008	6277
822.149	6410
822.289	6365
822.429	6129
822.569	6098
822.709	6049
822.849	5897
822.99	5878
823.13	5908
823.27	5870
823.41	5741
823.55	5779
823.69	5756
823.83	5764
823.97	5661
824.11	5528
824.25	5486
824.389	5554
824.529	5615
824.669	5482
824.809	5589
824.949	5638
825.089	5619
825.228	5535
825.368	5349
825.508	5353
825.648	5353
825.787	5379
825.927	5360
826.067	5242
826.206	5261
826.346	5315
826.485	5410
826.625	5417
826.765	5532
826.904	5455
827.044	5239
827.183	5201
827.323	5113
827.462	5204
827.601	5128
827.741	5147
827.88	5220
828.02	5109
828.159	5220
828.298	5337
828.437	5402
828.577	5265
828.716	5463
828.855	5334
828.994	5162
829.134	5170
829.273	5117
829.412	5124
829.551	5117
829.69	5201
829.829	5265
829.968	5357
830.107	5303
830.246	5273
830.385	5136
830.524	5132
830.663	5090
830.802	5006
830.941	4908
831.08	4896
831.219	5014
831.357	4968
831.496	5189
831.635	4919
831.774	4824
831.913	4862
832.051	4744
832.19	4763
832.329	4908
832.467	4698
832.606	4687
832.744	4752
832.883	4733
833.022	4778
833.16	4801
833.299	4839
833.437	4824
833.576	4828
833.714	4850
833.852	4949
833.991	4911
834.129	4976
834.267	4991
834.406	4938
834.544	5025
834.682	5025
834.821	4991
834.959	5185
835.097	5029
835.235	5185
835.373	5117
835.511	5159
835.65	5083
835.788	5045
835.926	4938
836.064	4873
836.202	4957
836.34	5242
836.478	5223
836.615	5166
836.753	5239
836.891	5383
837.029	5273
837.167	5208
837.305	5181
837.443	5201
837.58	5109
837.718	5254
837.856	5250
837.993	5254
838.131	5239
838.269	5246
838.406	5189
838.544	5254
838.681	5067
838.819	5052
838.956	4915
839.094	4991
839.231	4995
839.369	5102
839.506	5486
839.643	5288
839.781	5067
839.918	5067
840.055	5162
840.193	5109
840.33	5140
840.467	5170
840.604	5201
840.742	5493
840.879	5094
841.016	5143
841.153	5189
841.29	5395
841.427	5364
841.564	5360
841.701	5391
841.838	5280
841.975	5212
842.112	5307
842.249	5212
842.385	5132
842.522	5414
842.659	5216
842.796	5181
842.933	5265
843.069	5197
843.206	5178
843.343	5360
843.479	5280
843.616	5315
843.752	5045
843.889	5079
844.025	5250
844.162	5090
844.298	5296
844.435	5105
844.571	5098
844.708	5216
844.844	5349
844.98	5376
845.117	5318
845.253	5170
845.389	5071
845.525	5162
845.661	5166
845.798	5048
845.934	5181
846.07	5067
846.206	5216
846.342	5284
846.478	5166
846.614	5052
846.75	4999
846.886	4911
847.022	5189
847.158	5022
847.294	5079
847.429	5098
847.565	5071
847.701	5326
847.837	4885
847.972	4812
848.108	4980
848.244	4991
848.379	4790
848.515	4763
848.65	4717
848.786	4748
848.921	4763
849.057	4900
849.192	4896
849.328	4919
849.463	4881
849.598	4835
849.734	4778
849.869	4721
850.004	4630
850.14	4641
850.275	4634
850.41	4569
850.545	4603
850.68	4634
850.815	4615
850.95	4672
851.085	4839
851.22	4729
851.355	4725
851.49	4592
851.625	4683
851.76	4622
851.895	4573
852.03	4603
852.165	4668
852.299	4759
852.434	4778
852.569	4782
852.703	4801
852.838	4850
852.973	4938
853.107	4927
853.242	4748
853.376	4679
853.511	4588
853.645	4683
853.78	4820
853.914	4755
854.048	4710
854.183	4641
854.317	4755
854.451	4881
854.585	4717
854.72	4672
854.854	4767
854.988	4634
855.122	4645
855.256	4508
855.39	4736
855.524	4786
855.658	4816
855.792	4733
855.926	4752
856.06	4755
856.194	4824
856.327	4691
856.461	4622
856.595	4672
856.729	4649
856.862	4771
856.996	4771
857.13	4774
857.263	4805
857.397	4854
857.53	4664
857.664	4752
857.797	4816
857.931	4820
858.064	4717
858.197	4820
858.331	4618
858.464	4664
858.597	4584
858.731	4645
858.864	4702
858.997	4649
859.13	4675
859.263	4710
859.396	4740
859.529	4607
859.662	4542
859.795	4519
859.928	4615
860.061	4831
860.194	4748
860.327	4618
860.46	4637
860.592	4717
860.725	4729
860.858	4755
860.99	4603
861.123	4596
861.256	4542
861.388	4656
861.521	5337
861.653	4538
861.786	4489
861.918	4478
862.05	4531
862.183	4558
862.315	4630
862.447	4702
862.58	4577
862.712	4424
862.844	4337
862.976	4500
863.108	4481
863.24	4911
863.372	4360
863.504	4474
863.636	4424
863.768	4519
863.9	4451
864.032	4421
864.164	4470
864.296	4485
864.428	4550
864.559	4599
864.691	4546
864.823	4577
864.954	4481
865.086	4504
865.217	4451
865.349	4428
865.48	4481
865.612	4500
865.743	4649
865.875	4466
866.006	4489
866.137	4523
866.269	4481
866.4	4508
866.531	4455
866.662	4428
866.793	4405
866.924	4440
867.055	4497
867.186	4500
867.317	4451
867.448	4428
867.579	4417
867.71	4455
867.841	4436
867.972	4478
868.103	4508
868.233	4451
868.364	4508
868.495	4546
868.625	4710
868.756	4782
868.886	4554
869.017	4637
869.147	4786
869.278	4793
869.408	4702
869.539	4649
869.669	4744
869.799	4672
869.929	4774
870.06	4771
870.19	4942
870.32	4946
870.45	4961
870.58	5014
870.71	5117
870.84	5128
870.97	4953
871.1	4927
871.23	5132
871.36	5170
871.489	5064
871.619	5018
871.749	5117
871.879	5147
872.008	5193
872.138	5075
872.267	5025
872.397	4892
872.526	4847
872.656	4702
872.785	4793
872.915	4923
873.044	5094
873.173	5033
873.303	4999
873.432	4987
873.561	4972
873.69	4915
873.819	4881
873.948	4942
874.077	4847
874.206	4786
874.335	4858
874.464	4987
874.593	5071
874.722	4987
874.851	5079
874.979	5056
875.108	5052
875.237	4904
875.365	4873
875.494	4942
875.623	4980
875.751	4850
875.88	4889
876.008	4957
876.136	5086
876.265	5178
876.393	5368
876.521	5265
876.65	5269
876.778	5201
876.906	5083
877.034	4995
877.162	5075
877.29	4965
877.418	5083
877.546	5018
877.674	5056
877.802	5109
877.93	5060
878.058	4942
878.185	4877
878.313	5018
878.441	4957
878.568	4843
878.696	4904
878.824	4942
878.951	5064
879.079	5227
879.206	5299
879.333	5109
879.461	5014
879.588	5033
879.715	5128
879.842	5265
879.97	5025
880.097	4793
880.224	4786
880.351	4862
880.478	4854
880.605	4805
880.732	4790
880.859	5094
880.986	4919
881.112	4949
881.239	4782
881.366	4645
881.493	4637
881.619	4607
881.746	4668
881.872	4630
881.999	4615
882.125	4664
882.252	4797
882.378	4843
882.505	4976
882.631	4835
882.757	4706
882.883	4763
883.01	4782
883.136	4664
883.262	4645
883.388	4611
883.514	4816
883.64	4885
883.766	4778
883.892	4679
884.018	4744
884.143	4900
884.269	5052
884.395	4672
884.52	4634
884.646	4611
884.772	4603
884.897	4626
885.023	4694
885.148	4778
885.274	4923
885.399	4835
885.524	4736
885.65	4687
885.775	4771
885.9	4714
886.025	4828
886.15	4782
886.275	4774
886.4	4622
886.525	4714
886.65	4702
886.775	4740
886.9	4927
887.025	5048
887.149	4839
887.274	4664
887.399	4660
887.523	4584
887.648	4618
887.773	4592
887.897	4809
888.021	4778
888.146	4725
888.27	4850
888.395	4919
888.519	4797
888.643	4843
888.767	4862
888.891	4630
889.015	4599
889.139	4656
889.263	4603
889.387	4763
889.511	4866
889.635	4824
889.759	4672
889.883	4634
890.006	4725
890.13	4843
890.254	4584
890.377	4729
890.501	4554
890.624	4493
890.748	4664
890.871	4558
890.995	4481
891.118	4398
891.241	4523
891.364	4580
891.488	4626
891.611	4497
891.734	4535
891.857	4615
891.98	4546
892.103	4660
892.226	4660
892.349	4603
892.471	4447
892.594	4573
892.717	4618
892.839	4607
892.962	4603
893.085	4679
893.207	4630
893.33	4455
893.452	4535
893.575	4641
893.697	4558
893.819	4812
893.941	4801
894.064	4763
894.186	4573
894.308	4615
894.43	4763
894.552	4854
894.674	4721
894.796	4550
894.918	4580
895.04	4577
895.161	4733
895.283	4714
895.405	4558
895.526	4641
895.648	4687
895.769	4733
895.891	4706
896.012	4748
896.134	4694
896.255	4683
896.376	4675
896.498	4615
896.619	4721
896.74	4626
896.861	4679
896.982	4961
897.103	5056
897.224	4824
897.345	4809
897.466	4694
897.587	4691
897.708	4843
897.828	4763
897.949	4656
898.07	4607
898.19	4626
898.311	4839
898.431	4706
898.552	4778
898.672	4839
898.792	4778
898.913	4763
899.033	4653
899.153	4489
899.273	4470
899.393	4546
899.513	4512
899.633	4531
899.753	4580
899.873	4508
899.993	4611
900.113	4546
900.232	4626
900.352	4508
900.472	4519
900.591	4394
900.711	4535
900.83	4436
900.95	4618
901.069	4694
901.189	4546
901.308	4375
901.427	4341
901.546	4318
901.665	4432
901.784	4538
901.904	4405
902.023	4295
902.141	4177
902.26	4154
902.379	4306
902.498	4272
902.617	4215
902.735	4348
902.854	4432
902.973	4325
903.091	4207
903.21	4227
903.328	4280
903.446	4287
903.565	4276
903.683	4402
903.801	4246
903.919	4447
904.038	4474
904.156	4295
904.274	4447
904.392	4405
904.51	4443
904.627	4481
904.745	4569
904.863	4694
904.981	4417
905.098	4276
905.216	4390
905.334	4428
905.451	4455
905.569	4440
905.686	4603
905.803	4660
905.921	4424
906.038	4554
906.155	4500
906.272	4394
906.389	4478
906.506	4383
906.623	4421
906.74	4421
906.857	4310
906.974	4421
907.091	4622
907.208	4729
907.324	4603
907.441	4493
907.557	4394
907.674	4413
907.79	4371
907.907	4424
908.023	4497
908.139	4489
908.256	4504
908.372	4462
908.488	4550
908.604	4379
908.72	4363
908.836	4432
908.952	4451
909.068	4504
909.184	4599
909.3	4535
909.415	4584
909.531	4588
909.647	4413
909.762	4402
909.878	4371
909.993	4478
910.108	4447
910.224	4462
910.339	4535
910.454	4497
910.57	4421
910.685	4306
910.8	4683
910.915	4660
911.03	4561
911.145	4375
911.259	4371
911.374	4405
911.489	4333
911.604	4344
911.718	4200
911.833	4227
911.947	4154
912.062	4067
912.176	4257
912.291	4268
912.405	4272
912.519	4519
912.633	4489
912.748	4363
912.862	4337
912.976	4268
913.09	4162
913.204	4177
913.318	4291
913.431	4413
913.545	4417
913.659	4485
913.772	4428
913.886	4268
914	4242
914.113	4459
914.226	4462
914.34	4432
914.453	4303
914.566	4500
914.68	4352
914.793	4371
914.906	4192
915.019	4211
915.132	4143
915.245	4223
915.358	4238
915.47	4261
915.583	4318
915.696	4344
915.809	4485
915.921	4432
916.034	4291
916.146	4314
916.259	4291
916.371	4432
916.483	4356
916.595	4303
916.708	4322
916.82	4386
916.932	4329
917.044	4375
917.156	4360
917.268	4314
917.38	4325
917.491	4344
917.603	4375
917.715	4451
917.826	4481
917.938	4367
918.049	4318
918.161	4447
918.272	4637
918.384	4508
918.495	4504
918.606	4303
918.717	4303
918.828	4360
918.939	4417
919.05	4337
919.161	4367
919.272	4158
919.383	4322
919.494	4447
919.604	4630
919.715	4455
919.826	4383
919.936	4432
920.047	4554
920.157	4561
920.267	4736
920.378	4573
920.488	4558
920.598	4771
920.708	4915
920.818	4759
920.928	4828
921.038	4980
921.148	4953
921.258	4675
921.368	4630
921.477	4508
921.587	4542
921.697	4421
921.806	4603
921.916	4466
922.025	4314
922.134	4261
922.244	4268
922.353	4352
922.462	4215
922.571	4169
922.68	4086
922.789	4021
922.898	4128
923.007	4032
923.116	4147
923.224	4063
923.333	4135
923.442	4055
923.55	4013
923.659	4093
923.767	4131
923.876	4044
923.984	4158
924.092	4029
924.201	4074
924.309	4150
924.417	4154
924.525	4097
924.633	4116
924.741	5083
924.849	3941
924.956	4181
925.064	3991
925.172	3983
925.279	4006
925.387	4071
925.494	4074
925.602	4207
925.709	4211
925.816	4097
925.924	4181
926.031	4227
926.138	4249
926.245	4268
926.352	4112
926.459	4284
926.566	4299
926.673	4211
926.779	4105
926.886	4109
926.993	4032
927.099	3991
927.206	3994
927.312	3975
927.419	4158
927.525	4051
927.631	4097
927.737	3979
927.843	4002
927.95	3903
928.056	3979
928.162	4032
928.267	4055
928.373	4588
928.479	4188
928.585	3888
928.69	4082
928.796	4143
928.901	4002
929.007	3861
929.112	4044
929.218	4025
929.323	3994
929.428	3953
929.533	4181
929.638	3922
929.743	4032
929.848	4071
929.953	4013
930.058	3945
930.163	3842
930.267	3861
930.372	4029
930.477	3857
930.581	4154
930.685	4006
930.79	3838
930.894	3922
930.998	3873
931.103	4040
931.207	3762
931.311	3743
931.415	3701
931.519	3553
931.623	3580
