Data from test_V78500241_1491.txt Node
Date: Fri Mar 25 16:59:22 CST 2022
User: usil
Spectrometer: V785-0024
Trigger mode: 0
Integration Time (sec): 4.000000E-1
Scans to average: 1
Nonlinearity correction enabled: false
Boxcar width: 0
Storing dark spectrum: false
XAxis mode: Wavelengths
Number of Pixels in Spectrum: 1024
>>>>>Begin Spectral Data<<<<<
801.071	7986
801.214	7982
801.356	7883
801.499	7890
801.641	7799
801.783	7792
801.926	7887
802.068	7913
802.211	7955
802.353	8016
802.496	7776
802.638	7833
802.78	7868
802.923	7864
803.065	7860
803.208	7784
803.35	7997
803.492	8092
803.635	8145
803.777	7978
803.919	8206
804.061	8446
804.204	8088
804.346	8027
804.488	7902
804.63	8081
804.773	8005
804.915	8043
805.057	8267
805.199	8161
805.341	8164
805.483	8267
805.626	8229
805.768	8142
805.91	8199
806.052	8187
806.194	8081
806.336	8248
806.478	8107
806.62	7978
806.762	8176
806.904	8233
807.046	8514
807.188	8320
807.33	8286
807.472	8275
807.614	8142
807.756	8176
807.898	7959
808.04	7883
808.182	7947
808.324	7879
808.465	7917
808.607	8145
808.749	8069
808.891	8214
809.033	8290
809.174	8237
809.316	8077
809.458	8081
809.6	8031
809.741	7978
809.883	7978
810.025	8092
810.166	7986
810.308	8046
810.45	7928
810.591	7814
810.733	7689
810.875	7704
811.016	7480
811.158	7438
811.299	7548
811.441	7616
811.582	7746
811.724	7510
811.865	7544
812.007	7506
812.148	7563
812.29	7605
812.431	7723
812.573	7894
812.714	7955
812.855	8107
812.997	8214
813.138	8298
813.279	8199
813.421	8107
813.562	7944
813.703	7830
813.845	7708
813.986	7396
814.127	7293
814.268	7221
814.41	7209
814.551	7202
814.692	7194
814.833	7069
814.974	7076
815.115	7023
815.256	6947
815.397	6939
815.539	6871
815.68	6791
815.821	6730
815.962	6779
816.103	6825
816.244	6684
816.385	6623
816.526	6532
816.666	6414
816.807	6292
816.948	6452
817.089	6437
817.23	6399
817.371	6376
817.512	6403
817.653	6357
817.793	6300
817.934	6422
818.075	6437
818.216	6380
818.356	6410
818.497	6258
818.638	6125
818.778	6155
818.919	6155
819.06	6182
819.2	6289
819.341	6281
819.481	6361
819.622	6604
819.762	6802
819.903	6700
820.043	6650
820.184	6521
820.324	6574
820.465	6703
820.605	6692
820.746	6597
820.886	6536
821.026	6627
821.167	6684
821.307	6779
821.447	6764
821.588	6669
821.728	6582
821.868	6536
822.008	6323
822.149	6311
822.289	6376
822.429	6121
822.569	6152
822.709	6114
822.849	5912
822.99	5885
823.13	5969
823.27	5904
823.41	5745
823.55	5741
823.69	5752
823.83	5745
823.97	5665
824.11	5509
824.25	5490
824.389	5532
824.529	5581
824.669	5512
824.809	5665
824.949	5672
825.089	5592
825.228	5558
825.368	5349
825.508	5334
825.648	5326
825.787	5360
825.927	5398
826.067	5216
826.206	5280
826.346	5395
826.485	5364
826.625	5414
826.765	5520
826.904	5417
827.044	5197
827.183	5212
827.323	5151
827.462	5208
827.601	5124
827.741	5159
827.88	5227
828.02	5124
828.159	5246
828.298	5326
828.437	5326
828.577	5235
828.716	5512
828.855	5269
828.994	5155
829.134	5117
829.273	5170
829.412	5136
829.551	5128
829.69	5143
829.829	5269
829.968	5318
830.107	5246
830.246	5254
830.385	5185
830.524	5151
830.663	5052
830.802	4904
830.941	4870
831.08	4881
831.219	5006
831.357	5014
831.496	5143
831.635	4881
831.774	4812
831.913	4847
832.051	4698
832.19	4736
832.329	4847
832.467	4691
832.606	4630
832.744	4729
832.883	4733
833.022	4687
833.16	4767
833.299	4854
833.437	4835
833.576	4816
833.714	4854
833.852	4908
833.991	4877
834.129	4930
834.267	4908
834.406	4904
834.544	4965
834.682	4980
834.821	4938
834.959	5178
835.097	5010
835.235	5136
835.373	5071
835.511	5102
835.65	5014
835.788	4942
835.926	4923
836.064	4870
836.202	4919
836.34	5216
836.478	5155
836.615	5117
836.753	5162
836.891	5273
837.029	5231
837.167	5185
837.305	5151
837.443	5212
837.58	5056
837.718	5208
837.856	5159
837.993	5128
838.131	5231
838.269	5223
838.406	5227
838.544	5193
838.681	5010
838.819	5014
838.956	4896
839.094	4923
839.231	5010
839.369	5056
839.506	5387
839.643	5212
839.781	5075
839.918	5006
840.055	5071
840.193	5143
840.33	5067
840.467	5109
840.604	5216
840.742	5421
840.879	5067
841.016	5102
841.153	5151
841.29	5315
841.427	5330
841.564	5303
841.701	5357
841.838	5292
841.975	5246
842.112	5265
842.249	5121
842.385	5060
842.522	5360
842.659	5151
842.796	5166
842.933	5162
843.069	5170
843.206	5109
843.343	5242
843.479	5242
843.616	5280
843.752	5060
843.889	4991
844.025	5223
844.162	5018
844.298	5220
844.435	5159
844.571	5022
844.708	5197
844.844	5235
844.98	5288
845.117	5254
845.253	5132
845.389	5071
845.525	5151
845.661	5117
845.798	5014
845.934	5083
846.07	5014
846.206	5140
846.342	5208
846.478	5204
846.614	5033
846.75	4980
846.886	4976
847.022	5105
847.158	4995
847.294	5014
847.429	5079
847.565	5018
847.701	5280
847.837	4873
847.972	4767
848.108	4927
848.244	4946
848.379	4816
848.515	4767
848.65	4702
848.786	4755
848.921	4805
849.057	4843
849.192	4953
849.328	4771
849.463	4816
849.598	4755
849.734	4736
849.869	4714
850.004	4607
850.14	4649
850.275	4588
850.41	4527
850.545	4580
850.68	4584
850.815	4630
850.95	4599
851.085	4831
851.22	4729
851.355	4645
851.49	4618
851.625	4649
851.76	4611
851.895	4542
852.03	4535
852.165	4656
852.299	4717
852.434	4771
852.569	4702
852.703	4752
852.838	4862
852.973	4908
853.107	4919
853.242	4687
853.376	4721
853.511	4569
853.645	4588
853.78	4771
853.914	4645
854.048	4615
854.183	4656
854.317	4710
854.451	4847
854.585	4694
854.72	4626
854.854	4733
854.988	4592
855.122	4649
855.256	4531
855.39	4691
855.524	4744
855.658	4721
855.792	4736
855.926	4733
856.06	4733
856.194	4771
856.327	4702
856.461	4580
856.595	4599
856.729	4653
856.862	4672
856.996	4649
857.13	4759
857.263	4725
857.397	4763
857.53	4637
857.664	4698
857.797	4748
857.931	4767
858.064	4733
858.197	4744
858.331	4599
858.464	4588
858.597	4447
858.731	4554
858.864	4634
858.997	4558
859.13	4607
859.263	4668
859.396	4702
859.529	4527
859.662	4542
859.795	4527
859.928	4569
860.061	4717
860.194	4733
860.327	4584
860.46	4554
860.592	4717
860.725	4744
860.858	4717
860.99	4580
861.123	4523
861.256	4531
861.388	4588
861.521	5326
861.653	4504
861.786	4462
861.918	4466
862.05	4512
862.183	4531
862.315	4546
862.447	4615
862.58	4584
862.712	4459
862.844	4333
862.976	4481
863.108	4466
863.24	4733
863.372	4306
863.504	4398
863.636	4417
863.768	4504
863.9	4375
864.032	4337
864.164	4432
864.296	4478
864.428	4535
864.559	4592
864.691	4550
864.823	4474
864.954	4459
865.086	4512
865.217	4481
865.349	4367
865.48	4451
865.612	4466
865.743	4626
865.875	4478
866.006	4424
866.137	4443
866.269	4478
866.4	4462
866.531	4424
866.662	4371
866.793	4409
866.924	4405
867.055	4489
867.186	4493
867.317	4367
867.448	4352
867.579	4367
867.71	4398
867.841	4333
867.972	4436
868.103	4485
868.233	4440
868.364	4386
868.495	4504
868.625	4664
868.756	4748
868.886	4554
869.017	4588
869.147	4793
869.278	4767
869.408	4668
869.539	4653
869.669	4694
869.799	4645
869.929	4717
870.06	4675
870.19	4919
870.32	4908
870.45	4911
870.58	5006
870.71	5048
870.84	5117
870.97	4930
871.1	4911
871.23	5151
871.36	5079
871.489	5083
871.619	5045
871.749	5079
871.879	5109
872.008	5098
872.138	5018
872.267	4946
872.397	4866
872.526	4767
872.656	4740
872.785	4759
872.915	4946
873.044	5018
873.173	4927
873.303	4938
873.432	4934
873.561	4976
873.69	4927
873.819	4801
873.948	4923
874.077	4797
874.206	4706
874.335	4801
874.464	4889
874.593	5071
874.722	4949
874.851	5079
874.979	5090
875.108	5003
875.237	4904
875.365	4858
875.494	4866
875.623	4930
875.751	4812
875.88	4831
876.008	4946
876.136	5064
876.265	5201
876.393	5334
876.521	5265
876.65	5242
876.778	5121
876.906	5056
877.034	5052
877.162	5045
877.29	4949
877.418	5067
877.546	5010
877.674	5022
877.802	5025
877.93	4972
878.058	4976
878.185	4839
878.313	4965
878.441	4942
878.568	4809
878.696	4820
878.824	4919
878.951	4995
879.079	5094
879.206	5315
879.333	5094
879.461	4965
879.588	5010
879.715	5124
879.842	5246
879.97	4976
880.097	4793
880.224	4759
880.351	4793
880.478	4812
880.605	4824
880.732	4736
880.859	5094
880.986	4881
881.112	4904
881.239	4759
881.366	4698
881.493	4592
881.619	4607
881.746	4615
881.872	4618
881.999	4664
882.125	4691
882.252	4801
882.378	4801
882.505	4930
882.631	4801
882.757	4687
882.883	4717
883.01	4744
883.136	4698
883.262	4577
883.388	4580
883.514	4820
883.64	4908
883.766	4790
883.892	4653
884.018	4694
884.143	4911
884.269	4999
884.395	4637
884.52	4607
884.646	4698
884.772	4535
884.897	4561
885.023	4630
885.148	4797
885.274	4911
885.399	4774
885.524	4660
885.65	4664
885.775	4729
885.9	4706
886.025	4816
886.15	4778
886.275	4698
886.4	4664
886.525	4717
886.65	4634
886.775	4710
886.9	4896
887.025	5014
887.149	4824
887.274	4656
887.399	4626
887.523	4577
887.648	4603
887.773	4554
887.897	4755
888.021	4835
888.146	4653
888.27	4828
888.395	4858
888.519	4824
888.643	4805
888.767	4816
888.891	4588
889.015	4550
889.139	4626
889.263	4565
889.387	4748
889.511	4820
889.635	4774
889.759	4592
889.883	4656
890.006	4759
890.13	4797
890.254	4634
890.377	4683
890.501	4531
890.624	4500
890.748	4611
890.871	4531
890.995	4424
891.118	4375
891.241	4527
891.364	4531
891.488	4634
891.611	4493
891.734	4527
891.857	4569
891.98	4523
892.103	4603
892.226	4603
892.349	4535
892.471	4413
892.594	4542
892.717	4577
892.839	4558
892.962	4558
893.085	4645
893.207	4592
893.33	4455
893.452	4519
893.575	4656
893.697	4561
893.819	4828
893.941	4790
894.064	4809
894.186	4580
894.308	4523
894.43	4691
894.552	4824
894.674	4717
894.796	4500
894.918	4645
895.04	4535
895.161	4717
895.283	4645
895.405	4535
895.526	4584
895.648	4687
895.769	4679
895.891	4710
896.012	4694
896.134	4714
896.255	4694
896.376	4630
896.498	4561
896.619	4691
896.74	4573
896.861	4630
896.982	4862
897.103	5045
897.224	4809
897.345	4706
897.466	4637
897.587	4710
897.708	4870
897.828	4752
897.949	4679
898.07	4592
898.19	4607
898.311	4820
898.431	4721
898.552	4721
898.672	4816
898.792	4733
898.913	4725
899.033	4630
899.153	4485
899.273	4386
899.393	4542
899.513	4481
899.633	4531
899.753	4561
899.873	4519
899.993	4630
900.113	4531
900.232	4565
900.352	4523
900.472	4443
900.591	4405
900.711	4455
900.83	4443
900.95	4603
901.069	4626
901.189	4531
901.308	4356
901.427	4276
901.546	4383
901.665	4523
901.784	4538
901.904	4363
902.023	4253
902.141	4177
902.26	4230
902.379	4337
902.498	4238
902.617	4246
902.735	4375
902.854	4394
902.973	4360
903.091	4227
903.21	4181
903.328	4295
903.446	4253
903.565	4276
903.683	4352
903.801	4272
903.919	4413
904.038	4421
904.156	4333
904.274	4405
904.392	4390
904.51	4489
904.627	4470
904.745	4512
904.863	4634
904.981	4394
905.098	4303
905.216	4329
905.334	4402
905.451	4424
905.569	4424
905.686	4569
905.803	4504
905.921	4398
906.038	4527
906.155	4451
906.272	4405
906.389	4443
906.506	4363
906.623	4383
906.74	4394
906.857	4303
906.974	4341
907.091	4580
907.208	4656
907.324	4550
907.441	4512
907.557	4363
907.674	4341
907.79	4341
907.907	4409
908.023	4489
908.139	4474
908.256	4424
908.372	4481
908.488	4436
908.604	4341
908.72	4341
908.836	4318
908.952	4375
909.068	4421
909.184	4538
909.3	4489
909.415	4611
909.531	4538
909.647	4329
909.762	4398
909.878	4280
909.993	4421
910.108	4402
910.224	4405
910.339	4481
910.454	4402
910.57	4367
910.685	4325
910.8	4634
910.915	4565
911.03	4485
911.145	4356
911.259	4329
911.374	4379
911.489	4272
911.604	4261
911.718	4181
911.833	4219
911.947	4055
912.062	3998
912.176	4219
912.291	4265
912.405	4227
912.519	4481
912.633	4478
912.748	4363
912.862	4325
912.976	4204
913.09	4082
913.204	4215
913.318	4238
913.431	4375
913.545	4333
913.659	4367
913.772	4379
913.886	4207
914	4246
914.113	4390
914.226	4424
914.34	4371
914.453	4215
914.566	4428
914.68	4299
914.793	4303
914.906	4124
915.019	4139
915.132	4067
915.245	4192
915.358	4188
915.47	4265
915.583	4242
915.696	4284
915.809	4405
915.921	4424
916.034	4253
916.146	4257
916.259	4154
916.371	4394
916.483	4318
916.595	4287
916.708	4333
916.82	4310
916.932	4322
917.044	4325
917.156	4303
917.268	4227
917.38	4265
917.491	4238
917.603	4329
917.715	4440
917.826	4424
917.938	4371
918.049	4242
918.161	4356
918.272	4516
918.384	4485
918.495	4478
918.606	4310
918.717	4185
918.828	4356
918.939	4356
919.05	4276
919.161	4325
919.272	4169
919.383	4253
919.494	4428
919.604	4607
919.715	4421
919.826	4348
919.936	4375
920.047	4516
920.157	4474
920.267	4687
920.378	4573
920.488	4489
920.598	4702
920.708	4900
920.818	4729
920.928	4725
921.038	4930
921.148	4877
921.258	4641
921.368	4554
921.477	4440
921.587	4413
921.697	4409
921.806	4554
921.916	4386
922.025	4306
922.134	4257
922.244	4211
922.353	4306
922.462	4181
922.571	4147
922.68	4029
922.789	3968
922.898	4013
923.007	4002
923.116	4078
923.224	4063
923.333	4071
923.442	3983
923.55	3994
923.659	3979
923.767	4124
923.876	3960
923.984	4112
924.092	3956
924.201	4097
924.309	4071
924.417	4082
924.525	4097
924.633	4074
924.741	4908
924.849	3899
924.956	4139
925.064	3968
925.172	3903
925.279	3945
925.387	4055
925.494	4048
925.602	4227
925.709	4181
925.816	4036
925.924	4135
926.031	4177
926.138	4135
926.245	4211
926.352	4101
926.459	4242
926.566	4303
926.673	4143
926.779	4086
926.886	4032
926.993	3964
927.099	3899
927.206	3949
927.312	3979
927.419	4097
927.525	4006
927.631	4105
927.737	3937
927.843	3983
927.95	3804
928.056	3953
928.162	3975
928.267	4010
928.373	4569
928.479	4112
928.585	3892
928.69	4006
928.796	4059
928.901	3956
929.007	3835
929.112	4010
929.218	4017
929.323	3930
929.428	3960
929.533	4093
929.638	3896
929.743	3937
929.848	4051
929.953	4006
930.058	3972
930.163	3778
930.267	3812
930.372	3960
930.477	3823
930.581	4116
930.685	3934
930.79	3793
930.894	3907
930.998	3838
931.103	4021
931.207	3740
931.311	3751
931.415	3663
931.519	3526
931.623	3557
