Data from test_V78500241_1461.txt Node
Date: Fri Mar 25 16:59:09 CST 2022
User: usil
Spectrometer: V785-0024
Trigger mode: 0
Integration Time (sec): 4.000000E-1
Scans to average: 1
Nonlinearity correction enabled: false
Boxcar width: 0
Storing dark spectrum: false
XAxis mode: Wavelengths
Number of Pixels in Spectrum: 1024
>>>>>Begin Spectral Data<<<<<
801.071	8043
801.214	8016
801.356	7936
801.499	7955
801.641	7818
801.783	7906
801.926	7959
802.068	7925
802.211	7921
802.353	7989
802.496	7845
802.638	7921
802.78	7947
802.923	7967
803.065	7830
803.208	7871
803.35	7978
803.492	8073
803.635	8153
803.777	8050
803.919	8164
804.061	8438
804.204	8195
804.346	8111
804.488	8027
804.63	8145
804.773	8001
804.915	8134
805.057	8298
805.199	8199
805.341	8267
805.483	8244
805.626	8191
805.768	8123
805.91	8221
806.052	8237
806.194	8145
806.336	8267
806.478	8142
806.62	8024
806.762	8168
806.904	8248
807.046	8457
807.188	8374
807.33	8309
807.472	8347
807.614	8142
807.756	8153
807.898	8077
808.04	7913
808.182	7902
808.324	7871
808.465	7997
808.607	8081
808.749	8164
808.891	8202
809.033	8298
809.174	8210
809.316	8058
809.458	8020
809.6	7959
809.741	8039
809.883	8031
810.025	8157
810.166	8088
810.308	8005
810.45	7963
810.591	7883
810.733	7742
810.875	7670
811.016	7506
811.158	7491
811.299	7624
811.441	7772
811.582	7742
811.724	7677
811.865	7521
812.007	7567
812.148	7559
812.29	7613
812.431	7780
812.573	7963
812.714	7982
812.855	8126
812.997	8168
813.138	8328
813.279	8199
813.421	8115
813.562	7989
813.703	7860
813.845	7731
813.986	7438
814.127	7293
814.268	7244
814.41	7225
814.551	7145
814.692	7236
814.833	7084
814.974	7072
815.115	7088
815.256	6985
815.397	6913
815.539	6970
815.68	6787
815.821	6818
815.962	6856
816.103	6810
816.244	6738
816.385	6646
816.526	6620
816.666	6475
816.807	6346
816.948	6502
817.089	6502
817.23	6464
817.371	6395
817.512	6426
817.653	6380
817.793	6403
817.934	6456
818.075	6452
818.216	6426
818.356	6403
818.497	6201
818.638	6155
818.778	6121
818.919	6167
819.06	6182
819.2	6346
819.341	6308
819.481	6357
819.622	6513
819.762	6730
819.903	6646
820.043	6639
820.184	6620
820.324	6627
820.465	6684
820.605	6635
820.746	6601
820.886	6525
821.026	6673
821.167	6642
821.307	6802
821.447	6764
821.588	6673
821.728	6627
821.868	6486
822.008	6289
822.149	6369
822.289	6308
822.429	6159
822.569	6117
822.709	6087
822.849	5946
822.99	5889
823.13	5931
823.27	5893
823.41	5821
823.55	5828
823.69	5764
823.83	5817
823.97	5676
824.11	5547
824.25	5516
824.389	5524
824.529	5562
824.669	5573
824.809	5611
824.949	5604
825.089	5619
825.228	5554
825.368	5398
825.508	5398
825.648	5326
825.787	5376
825.927	5353
826.067	5254
826.206	5269
826.346	5414
826.485	5402
826.625	5376
826.765	5520
826.904	5398
827.044	5269
827.183	5201
827.323	5124
827.462	5235
827.601	5223
827.741	5258
827.88	5185
828.02	5086
828.159	5204
828.298	5296
828.437	5368
828.577	5311
828.716	5532
828.855	5330
828.994	5208
829.134	5155
829.273	5105
829.412	5140
829.551	5151
829.69	5181
829.829	5277
829.968	5357
830.107	5307
830.246	5242
830.385	5174
830.524	5155
830.663	5064
830.802	5025
830.941	4953
831.08	4919
831.219	4949
831.357	4961
831.496	5121
831.635	4908
831.774	4889
831.913	4854
832.051	4725
832.19	4778
832.329	4831
832.467	4630
832.606	4656
832.744	4683
832.883	4763
833.022	4763
833.16	4790
833.299	4782
833.437	4824
833.576	4866
833.714	4873
833.852	4885
833.991	4942
834.129	4915
834.267	5006
834.406	4942
834.544	4976
834.682	4961
834.821	4999
834.959	5197
835.097	4972
835.235	5117
835.373	5086
835.511	5109
835.65	5003
835.788	4976
835.926	4904
836.064	4858
836.202	4900
836.34	5159
836.478	5216
836.615	5098
836.753	5197
836.891	5292
837.029	5250
837.167	5204
837.305	5121
837.443	5132
837.58	5132
837.718	5216
837.856	5159
837.993	5128
838.131	5235
838.269	5170
838.406	5201
838.544	5189
838.681	5045
838.819	5006
838.956	4915
839.094	4900
839.231	4934
839.369	5010
839.506	5459
839.643	5220
839.781	5075
839.918	5003
840.055	5071
840.193	5090
840.33	5132
840.467	5083
840.604	5235
840.742	5455
840.879	5056
841.016	5029
841.153	5117
841.29	5379
841.427	5337
841.564	5296
841.701	5341
841.838	5296
841.975	5189
842.112	5193
842.249	5170
842.385	5067
842.522	5318
842.659	5147
842.796	5113
842.933	5159
843.069	5136
843.206	5151
843.343	5368
843.479	5254
843.616	5273
843.752	5060
843.889	4965
844.025	5216
844.162	5071
844.298	5227
844.435	5060
844.571	5052
844.708	5242
844.844	5242
844.98	5315
845.117	5284
845.253	5132
845.389	5105
845.525	5147
845.661	5109
845.798	5033
845.934	5113
846.07	5048
846.206	5174
846.342	5231
846.478	5181
846.614	4968
846.75	4949
846.886	4862
847.022	5090
847.158	5045
847.294	5045
847.429	5098
847.565	5060
847.701	5311
847.837	4828
847.972	4828
848.108	4885
848.244	4980
848.379	4786
848.515	4653
848.65	4710
848.786	4725
848.921	4782
849.057	4854
849.192	4885
849.328	4771
849.463	4824
849.598	4812
849.734	4740
849.869	4683
850.004	4626
850.14	4641
850.275	4615
850.41	4519
850.545	4535
850.68	4649
850.815	4660
850.95	4653
851.085	4790
851.22	4714
851.355	4645
851.49	4588
851.625	4641
851.76	4637
851.895	4546
852.03	4535
852.165	4622
852.299	4729
852.434	4767
852.569	4721
852.703	4786
852.838	4809
852.973	4919
853.107	4904
853.242	4736
853.376	4649
853.511	4512
853.645	4603
853.78	4771
853.914	4679
854.048	4679
854.183	4634
854.317	4706
854.451	4816
854.585	4649
854.72	4618
854.854	4740
854.988	4580
855.122	4656
855.256	4554
855.39	4691
855.524	4782
855.658	4706
855.792	4710
855.926	4687
856.06	4733
856.194	4786
856.327	4664
856.461	4592
856.595	4679
856.729	4656
856.862	4752
856.996	4664
857.13	4740
857.263	4736
857.397	4771
857.53	4645
857.664	4710
857.797	4752
857.931	4786
858.064	4675
858.197	4691
858.331	4622
858.464	4603
858.597	4493
858.731	4649
858.864	4637
858.997	4577
859.13	4675
859.263	4611
859.396	4679
859.529	4565
859.662	4588
859.795	4531
859.928	4592
860.061	4736
860.194	4774
860.327	4546
860.46	4508
860.592	4706
860.725	4717
860.858	4710
860.99	4558
861.123	4535
861.256	4500
861.388	4626
861.521	5395
861.653	4443
861.786	4421
861.918	4436
862.05	4508
862.183	4577
862.315	4569
862.447	4698
862.58	4538
862.712	4436
862.844	4390
862.976	4462
863.108	4390
863.24	4873
863.372	4341
863.504	4409
863.636	4405
863.768	4481
863.9	4413
864.032	4356
864.164	4379
864.296	4466
864.428	4573
864.559	4523
864.691	4531
864.823	4523
864.954	4447
865.086	4519
865.217	4440
865.349	4432
865.48	4455
865.612	4485
865.743	4599
865.875	4481
866.006	4421
866.137	4466
866.269	4394
866.4	4405
866.531	4436
866.662	4360
866.793	4379
866.924	4383
867.055	4474
867.186	4424
867.317	4424
867.448	4386
867.579	4341
867.71	4390
867.841	4375
867.972	4470
868.103	4443
868.233	4474
868.364	4386
868.495	4481
868.625	4637
868.756	4759
868.886	4558
869.017	4584
869.147	4767
869.278	4767
869.408	4637
869.539	4615
869.669	4744
869.799	4698
869.929	4744
870.06	4714
870.19	4965
870.32	4946
870.45	4919
870.58	5014
870.71	5094
870.84	5033
870.97	4923
871.1	4919
871.23	5105
871.36	5136
871.489	5025
871.619	5056
871.749	5102
871.879	5075
872.008	5181
872.138	5067
872.267	4976
872.397	4858
872.526	4782
872.656	4706
872.785	4755
872.915	4953
873.044	5029
873.173	4934
873.303	4961
873.432	4946
873.561	5003
873.69	4854
873.819	4850
873.948	4881
874.077	4809
874.206	4710
874.335	4767
874.464	4949
874.593	5075
874.722	4923
874.851	5102
874.979	5022
875.108	5052
875.237	4911
875.365	4877
875.494	4946
875.623	4968
875.751	4778
875.88	4885
876.008	4995
876.136	5041
876.265	5136
876.393	5376
876.521	5235
876.65	5220
876.778	5094
876.906	5102
877.034	5010
877.162	5067
877.29	4984
877.418	5064
877.546	5060
877.674	5041
877.802	5048
877.93	5048
878.058	4908
878.185	4862
878.313	4987
878.441	4923
878.568	4729
878.696	4892
878.824	4953
878.951	4995
879.079	5124
879.206	5254
879.333	5105
879.461	4957
879.588	4961
879.715	5060
879.842	5212
879.97	5018
880.097	4816
880.224	4778
880.351	4782
880.478	4858
880.605	4805
880.732	4820
880.859	5037
880.986	4839
881.112	4839
881.239	4767
881.366	4649
881.493	4615
881.619	4649
881.746	4611
881.872	4653
881.999	4596
882.125	4645
882.252	4778
882.378	4812
882.505	4946
882.631	4809
882.757	4645
882.883	4691
883.01	4767
883.136	4649
883.262	4573
883.388	4603
883.514	4759
883.64	4873
883.766	4809
883.892	4668
884.018	4706
884.143	4843
884.269	4980
884.395	4687
884.52	4615
884.646	4637
884.772	4573
884.897	4580
885.023	4691
885.148	4721
885.274	4816
885.399	4809
885.524	4752
885.65	4668
885.775	4721
885.9	4683
886.025	4835
886.15	4778
886.275	4740
886.4	4729
886.525	4717
886.65	4672
886.775	4641
886.9	4934
887.025	5014
887.149	4801
887.274	4622
887.399	4580
887.523	4531
887.648	4542
887.773	4577
887.897	4771
888.021	4786
888.146	4637
888.27	4816
888.395	4870
888.519	4786
888.643	4793
888.767	4873
888.891	4626
889.015	4588
889.139	4656
889.263	4615
889.387	4755
889.511	4866
889.635	4771
889.759	4656
889.883	4615
890.006	4763
890.13	4816
890.254	4649
890.377	4736
890.501	4535
890.624	4504
890.748	4618
890.871	4519
890.995	4459
891.118	4394
891.241	4493
891.364	4519
891.488	4656
891.611	4531
891.734	4588
891.857	4558
891.98	4550
892.103	4672
892.226	4542
892.349	4489
892.471	4432
892.594	4531
892.717	4577
892.839	4607
892.962	4618
893.085	4660
893.207	4550
893.33	4413
893.452	4512
893.575	4698
893.697	4554
893.819	4752
893.941	4847
894.064	4744
894.186	4618
894.308	4596
894.43	4694
894.552	4816
894.674	4740
894.796	4508
894.918	4565
895.04	4580
895.161	4702
895.283	4660
895.405	4580
895.526	4660
895.648	4668
895.769	4672
895.891	4691
896.012	4733
896.134	4748
896.255	4634
896.376	4645
896.498	4634
896.619	4679
896.74	4607
896.861	4660
896.982	4915
897.103	5045
897.224	4828
897.345	4752
897.466	4710
897.587	4725
897.708	4850
897.828	4771
897.949	4691
898.07	4519
898.19	4653
898.311	4843
898.431	4683
898.552	4733
898.672	4767
898.792	4816
898.913	4721
899.033	4630
899.153	4538
899.273	4409
899.393	4489
899.513	4455
899.633	4497
899.753	4538
899.873	4489
899.993	4622
900.113	4497
900.232	4550
900.352	4546
900.472	4497
900.591	4409
900.711	4474
900.83	4424
900.95	4603
901.069	4710
901.189	4542
901.308	4367
901.427	4310
901.546	4352
901.665	4436
901.784	4519
901.904	4371
902.023	4325
902.141	4154
902.26	4177
902.379	4303
902.498	4173
902.617	4272
902.735	4356
902.854	4390
902.973	4371
903.091	4234
903.21	4234
903.328	4306
903.446	4268
903.565	4230
903.683	4322
903.801	4299
903.919	4375
904.038	4440
904.156	4295
904.274	4417
904.392	4421
904.51	4375
904.627	4485
904.745	4592
904.863	4626
904.981	4398
905.098	4325
905.216	4314
905.334	4455
905.451	4459
905.569	4413
905.686	4523
905.803	4561
905.921	4394
906.038	4538
906.155	4474
906.272	4383
906.389	4497
906.506	4325
906.623	4379
906.74	4367
906.857	4299
906.974	4390
907.091	4558
907.208	4637
907.324	4554
907.441	4497
907.557	4356
907.674	4284
907.79	4299
907.907	4383
908.023	4489
908.139	4504
908.256	4413
908.372	4462
908.488	4417
908.604	4352
908.72	4306
908.836	4360
908.952	4352
909.068	4440
909.184	4599
909.3	4466
909.415	4538
909.531	4542
909.647	4371
909.762	4417
909.878	4363
909.993	4436
910.108	4405
910.224	4390
910.339	4489
910.454	4436
910.57	4421
910.685	4322
910.8	4641
910.915	4618
911.03	4481
911.145	4341
911.259	4337
911.374	4371
911.489	4318
911.604	4249
911.718	4200
911.833	4188
911.947	4067
912.062	4010
912.176	4215
912.291	4238
912.405	4265
912.519	4474
912.633	4493
912.748	4356
912.862	4310
912.976	4196
913.09	4071
913.204	4173
913.318	4227
913.431	4314
913.545	4344
913.659	4459
913.772	4337
913.886	4219
914	4272
914.113	4341
914.226	4432
914.34	4333
914.453	4230
914.566	4421
914.68	4322
914.793	4299
914.906	4147
915.019	4139
915.132	4097
915.245	4150
915.358	4177
915.47	4246
915.583	4253
915.696	4238
915.809	4424
915.921	4413
916.034	4257
916.146	4268
916.259	4211
916.371	4402
916.483	4337
916.595	4322
916.708	4325
916.82	4337
916.932	4310
917.044	4306
917.156	4310
917.268	4223
917.38	4287
917.491	4257
917.603	4325
917.715	4440
917.826	4402
917.938	4371
918.049	4261
918.161	4356
918.272	4546
918.384	4508
918.495	4440
918.606	4291
918.717	4238
918.828	4333
918.939	4352
919.05	4223
919.161	4265
919.272	4112
919.383	4215
919.494	4413
919.604	4630
919.715	4402
919.826	4306
919.936	4440
920.047	4508
920.157	4451
920.267	4714
920.378	4523
920.488	4489
920.598	4706
920.708	4812
920.818	4736
920.928	4778
921.038	4927
921.148	4858
921.258	4630
921.368	4538
921.477	4481
921.587	4436
921.697	4405
921.806	4527
921.916	4413
922.025	4261
922.134	4268
922.244	4242
922.353	4329
922.462	4166
922.571	4173
922.68	4021
922.789	3979
922.898	4071
923.007	3991
923.116	4101
923.224	4044
923.333	4063
923.442	4013
923.55	3975
923.659	3987
923.767	4093
923.876	4006
923.984	4112
924.092	3975
924.201	4086
924.309	4101
924.417	4131
924.525	4048
924.633	4116
924.741	5052
924.849	3922
924.956	4128
925.064	3964
925.172	3884
925.279	3949
925.387	4051
925.494	4059
925.602	4177
925.709	4207
925.816	4051
925.924	4105
926.031	4204
926.138	4173
926.245	4227
926.352	4105
926.459	4268
926.566	4333
926.673	4128
926.779	4055
926.886	4055
926.993	4025
927.099	3972
927.206	3972
927.312	3975
927.419	4074
927.525	4040
927.631	4055
927.737	3964
927.843	3926
927.95	3850
928.056	3937
928.162	3968
928.267	4078
928.373	4577
928.479	4109
928.585	3876
928.69	4032
928.796	4063
928.901	3937
929.007	3857
929.112	4010
929.218	3956
929.323	3972
929.428	3979
929.533	4120
929.638	3899
929.743	3934
929.848	3998
929.953	4032
930.058	3926
930.163	3755
930.267	3835
930.372	3949
930.477	3827
930.581	4082
930.685	3956
930.79	3827
930.894	3888
930.998	3850
931.103	4032
931.207	3713
931.311	3740
931.415	3679
931.519	3496
931.623	3568
