Data from test_V78500241_1895.txt Node
Date: Fri Mar 25 17:02:10 CST 2022
User: usil
Spectrometer: V785-0024
Trigger mode: 0
Integration Time (sec): 4.000000E-1
Scans to average: 1
Nonlinearity correction enabled: false
Boxcar width: 0
Storing dark spectrum: false
XAxis mode: Wavelengths
Number of Pixels in Spectrum: 1024
>>>>>Begin Spectral Data<<<<<
801.071	7936
801.214	7955
801.356	7788
801.499	7830
801.641	7780
801.783	7849
801.926	7932
802.068	7955
802.211	7936
802.353	8008
802.496	7814
802.638	7818
802.78	7909
802.923	7856
803.065	7803
803.208	7856
803.35	7955
803.492	8024
803.635	8180
803.777	8012
803.919	8096
804.061	8450
804.204	8142
804.346	8065
804.488	8046
804.63	8103
804.773	8035
804.915	8077
805.057	8218
805.199	8145
805.341	8123
805.483	8267
805.626	8237
805.768	8065
805.91	8187
806.052	8233
806.194	8031
806.336	8233
806.478	8168
806.62	7997
806.762	8115
806.904	8305
807.046	8412
807.188	8351
807.33	8279
807.472	8298
807.614	8142
807.756	8202
807.898	7951
808.04	7932
808.182	7864
808.324	7898
808.465	7921
808.607	8043
808.749	8134
808.891	8168
809.033	8351
809.174	8229
809.316	8100
809.458	8084
809.6	8027
809.741	8031
809.883	8077
810.025	8084
810.166	8054
810.308	8005
810.45	7974
810.591	7807
810.733	7742
810.875	7712
811.016	7495
811.158	7441
811.299	7529
811.441	7723
811.582	7628
811.724	7567
811.865	7556
812.007	7540
812.148	7571
812.29	7590
812.431	7734
812.573	7864
812.714	7955
812.855	8115
812.997	8172
813.138	8240
813.279	8157
813.421	8043
813.562	7921
813.703	7811
813.845	7723
813.986	7396
814.127	7187
814.268	7232
814.41	7129
814.551	7145
814.692	7232
814.833	7122
814.974	7126
815.115	7156
815.256	6958
815.397	6920
815.539	6962
815.68	6776
815.821	6722
815.962	6882
816.103	6814
816.244	6646
816.385	6631
816.526	6623
816.666	6494
816.807	6346
816.948	6410
817.089	6433
817.23	6414
817.371	6342
817.512	6357
817.653	6311
817.793	6372
817.934	6334
818.075	6418
818.216	6429
818.356	6369
818.497	6220
818.638	6041
818.778	6163
818.919	6136
819.06	6148
819.2	6388
819.341	6323
819.481	6350
819.622	6498
819.762	6738
819.903	6711
820.043	6563
820.184	6593
820.324	6566
820.465	6692
820.605	6684
820.746	6665
820.886	6498
821.026	6620
821.167	6673
821.307	6703
821.447	6745
821.588	6677
821.728	6570
821.868	6544
822.008	6285
822.149	6327
822.289	6403
822.429	6121
822.569	6102
822.709	6102
822.849	5931
822.99	5901
823.13	5901
823.27	5870
823.41	5745
823.55	5775
823.69	5771
823.83	5779
823.97	5642
824.11	5539
824.25	5539
824.389	5524
824.529	5570
824.669	5512
824.809	5661
824.949	5642
825.089	5611
825.228	5497
825.368	5402
825.508	5364
825.648	5307
825.787	5337
825.927	5353
826.067	5307
826.206	5288
826.346	5353
826.485	5406
826.625	5383
826.765	5581
826.904	5471
827.044	5242
827.183	5151
827.323	5113
827.462	5223
827.601	5147
827.741	5128
827.88	5242
828.02	5117
828.159	5212
828.298	5303
828.437	5357
828.577	5250
828.716	5448
828.855	5330
828.994	5124
829.134	5162
829.273	5140
829.412	5151
829.551	5128
829.69	5155
829.829	5220
829.968	5368
830.107	5231
830.246	5231
830.385	5162
830.524	5109
830.663	5109
830.802	4980
830.941	4881
831.08	4835
831.219	4972
831.357	4991
831.496	5181
831.635	4908
831.774	4858
831.913	4824
832.051	4733
832.19	4759
832.329	4797
832.467	4698
832.606	4626
832.744	4767
832.883	4694
833.022	4694
833.16	4763
833.299	4824
833.437	4812
833.576	4786
833.714	4881
833.852	4892
833.991	4885
834.129	4938
834.267	4934
834.406	4892
834.544	4953
834.682	4984
834.821	4942
834.959	5143
835.097	5014
835.235	5132
835.373	5105
835.511	5117
835.65	5014
835.788	5045
835.926	4850
836.064	4866
836.202	4900
836.34	5140
836.478	5216
836.615	5090
836.753	5220
836.891	5318
837.029	5204
837.167	5166
837.305	5098
837.443	5132
837.58	5102
837.718	5261
837.856	5170
837.993	5159
838.131	5258
838.269	5178
838.406	5227
838.544	5178
838.681	5060
838.819	5029
838.956	4885
839.094	4881
839.231	4980
839.369	4968
839.506	5417
839.643	5277
839.781	5090
839.918	5045
840.055	5113
840.193	5105
840.33	5140
840.467	5113
840.604	5155
840.742	5402
840.879	5098
841.016	5083
841.153	5094
841.29	5303
841.427	5337
841.564	5265
841.701	5330
841.838	5277
841.975	5227
842.112	5231
842.249	5094
842.385	5079
842.522	5372
842.659	5189
842.796	5098
842.933	5181
843.069	5121
843.206	5174
843.343	5269
843.479	5299
843.616	5212
843.752	4980
843.889	4946
844.025	5261
844.162	5029
844.298	5227
844.435	5052
844.571	5086
844.708	5201
844.844	5273
844.98	5334
845.117	5280
845.253	5147
845.389	5102
845.525	5132
845.661	5155
845.798	5037
845.934	5162
846.07	5045
846.206	5189
846.342	5296
846.478	5136
846.614	5010
846.75	4984
846.886	4885
847.022	5128
847.158	4976
847.294	5098
847.429	5079
847.565	5006
847.701	5318
847.837	4896
847.972	4809
848.108	4961
848.244	4930
848.379	4748
848.515	4725
848.65	4660
848.786	4729
848.921	4748
849.057	4839
849.192	4870
849.328	4805
849.463	4786
849.598	4771
849.734	4744
849.869	4660
850.004	4546
850.14	4592
850.275	4565
850.41	4550
850.545	4519
850.68	4592
850.815	4618
850.95	4645
851.085	4885
851.22	4733
851.355	4641
851.49	4630
851.625	4599
851.76	4630
851.895	4580
852.03	4508
852.165	4622
852.299	4698
852.434	4752
852.569	4744
852.703	4812
852.838	4801
852.973	4949
853.107	4831
853.242	4714
853.376	4672
853.511	4550
853.645	4599
853.78	4786
853.914	4687
854.048	4660
854.183	4649
854.317	4698
854.451	4839
854.585	4702
854.72	4668
854.854	4755
854.988	4603
855.122	4615
855.256	4531
855.39	4615
855.524	4778
855.658	4702
855.792	4630
855.926	4763
856.06	4748
856.194	4790
856.327	4660
856.461	4565
856.595	4649
856.729	4554
856.862	4744
856.996	4668
857.13	4721
857.263	4759
857.397	4793
857.53	4656
857.664	4675
857.797	4801
857.931	4801
858.064	4656
858.197	4725
858.331	4649
858.464	4588
858.597	4519
858.731	4618
858.864	4622
858.997	4622
859.13	4634
859.263	4645
859.396	4630
859.529	4531
859.662	4577
859.795	4535
859.928	4641
860.061	4706
860.194	4771
860.327	4554
860.46	4561
860.592	4672
860.725	4656
860.858	4706
860.99	4615
861.123	4462
861.256	4504
861.388	4603
861.521	5406
861.653	4440
861.786	4451
861.918	4462
862.05	4504
862.183	4550
862.315	4607
862.447	4641
862.58	4508
862.712	4417
862.844	4344
862.976	4500
863.108	4489
863.24	4885
863.372	4303
863.504	4443
863.636	4386
863.768	4478
863.9	4402
864.032	4386
864.164	4375
864.296	4440
864.428	4558
864.559	4542
864.691	4497
864.823	4519
864.954	4466
865.086	4538
865.217	4436
865.349	4375
865.48	4466
865.612	4421
865.743	4561
865.875	4440
866.006	4398
866.137	4466
866.269	4443
866.4	4398
866.531	4348
866.662	4424
866.793	4398
866.924	4432
867.055	4485
867.186	4459
867.317	4402
867.448	4386
867.579	4383
867.71	4367
867.841	4363
867.972	4474
868.103	4440
868.233	4451
868.364	4447
868.495	4485
868.625	4672
868.756	4733
868.886	4519
869.017	4630
869.147	4755
869.278	4828
869.408	4675
869.539	4637
869.669	4694
869.799	4592
869.929	4797
870.06	4694
870.19	4987
870.32	4892
870.45	4930
870.58	4999
870.71	5094
870.84	5109
870.97	4915
871.1	4908
871.23	5143
871.36	5105
871.489	4995
871.619	5071
871.749	5098
871.879	5102
872.008	5143
872.138	5029
872.267	4991
872.397	4870
872.526	4752
872.656	4687
872.785	4797
872.915	4953
873.044	5025
873.173	4919
873.303	4984
873.432	4919
873.561	4938
873.69	4873
873.819	4835
873.948	4911
874.077	4824
874.206	4763
874.335	4816
874.464	4896
874.593	5037
874.722	4930
874.851	5060
874.979	5022
875.108	5006
875.237	4881
875.365	4854
875.494	4873
875.623	4995
875.751	4839
875.88	4858
876.008	4984
876.136	5064
876.265	5159
876.393	5341
876.521	5235
876.65	5181
876.778	5159
876.906	5090
877.034	5060
877.162	5037
877.29	4953
877.418	5041
877.546	5018
877.674	4968
877.802	4957
877.93	5041
878.058	4889
878.185	4835
878.313	4942
878.441	4938
878.568	4828
878.696	4866
878.824	4923
878.951	5018
879.079	5121
879.206	5261
879.333	5041
879.461	4999
879.588	5022
879.715	5105
879.842	5155
879.97	5022
880.097	4790
880.224	4763
880.351	4801
880.478	4797
880.605	4828
880.732	4782
880.859	5113
880.986	4843
881.112	4866
881.239	4778
881.366	4672
881.493	4565
881.619	4584
881.746	4596
881.872	4618
881.999	4596
882.125	4675
882.252	4797
882.378	4828
882.505	4995
882.631	4790
882.757	4679
882.883	4748
883.01	4664
883.136	4660
883.262	4599
883.388	4649
883.514	4835
883.64	4866
883.766	4767
883.892	4649
884.018	4714
884.143	4862
884.269	4991
884.395	4618
884.52	4607
884.646	4649
884.772	4584
884.897	4550
885.023	4672
885.148	4752
885.274	4873
885.399	4816
885.524	4683
885.65	4683
885.775	4736
885.9	4736
886.025	4839
886.15	4805
886.275	4668
886.4	4664
886.525	4767
886.65	4679
886.775	4706
886.9	4923
887.025	5041
887.149	4786
887.274	4641
887.399	4592
887.523	4588
887.648	4577
887.773	4622
887.897	4714
888.021	4752
888.146	4687
888.27	4839
888.395	4824
888.519	4744
888.643	4805
888.767	4843
888.891	4675
889.015	4615
889.139	4660
889.263	4622
889.387	4774
889.511	4919
889.635	4801
889.759	4622
889.883	4660
890.006	4744
890.13	4847
890.254	4615
890.377	4668
890.501	4531
890.624	4531
890.748	4561
890.871	4516
890.995	4329
891.118	4386
891.241	4516
891.364	4478
891.488	4615
891.611	4489
891.734	4455
891.857	4596
891.98	4523
892.103	4592
892.226	4546
892.349	4531
892.471	4455
892.594	4481
892.717	4561
892.839	4573
892.962	4577
893.085	4691
893.207	4588
893.33	4455
893.452	4531
893.575	4683
893.697	4542
893.819	4759
893.941	4847
894.064	4782
894.186	4573
894.308	4569
894.43	4725
894.552	4820
894.674	4710
894.796	4573
894.918	4577
895.04	4565
895.161	4664
895.283	4694
895.405	4554
895.526	4649
895.648	4672
895.769	4645
895.891	4694
896.012	4759
896.134	4698
896.255	4645
896.376	4561
896.498	4558
896.619	4641
896.74	4592
896.861	4584
896.982	4961
897.103	5071
897.224	4820
897.345	4752
897.466	4691
897.587	4778
897.708	4831
897.828	4736
897.949	4626
898.07	4558
898.19	4641
898.311	4839
898.431	4664
898.552	4729
898.672	4736
898.792	4797
898.913	4729
899.033	4634
899.153	4497
899.273	4447
899.393	4481
899.513	4493
899.633	4516
899.753	4554
899.873	4523
899.993	4622
900.113	4512
900.232	4611
900.352	4516
900.472	4485
900.591	4390
900.711	4447
900.83	4447
900.95	4603
901.069	4714
901.189	4554
901.308	4363
901.427	4299
901.546	4348
901.665	4485
901.784	4512
901.904	4371
902.023	4234
902.141	4169
902.26	4154
902.379	4341
902.498	4265
902.617	4227
902.735	4329
902.854	4390
902.973	4375
903.091	4215
903.21	4219
903.328	4306
903.446	4200
903.565	4261
903.683	4348
903.801	4204
903.919	4375
904.038	4470
904.156	4280
904.274	4459
904.392	4375
904.51	4405
904.627	4493
904.745	4561
904.863	4611
904.981	4417
905.098	4249
905.216	4341
905.334	4383
905.451	4421
905.569	4405
905.686	4516
905.803	4599
905.921	4432
906.038	4546
906.155	4466
906.272	4402
906.389	4409
906.506	4333
906.623	4356
906.74	4375
906.857	4276
906.974	4310
907.091	4493
907.208	4603
907.324	4558
907.441	4542
907.557	4344
907.674	4363
907.79	4337
907.907	4390
908.023	4497
908.139	4489
908.256	4421
908.372	4440
908.488	4447
908.604	4356
908.72	4299
908.836	4390
908.952	4333
909.068	4447
909.184	4561
909.3	4508
909.415	4554
909.531	4546
909.647	4371
909.762	4413
909.878	4314
909.993	4432
910.108	4390
910.224	4424
910.339	4493
910.454	4375
910.57	4352
910.685	4337
910.8	4637
910.915	4599
911.03	4493
911.145	4322
911.259	4337
911.374	4371
911.489	4306
911.604	4306
911.718	4158
911.833	4196
911.947	4139
912.062	4029
912.176	4204
912.291	4246
912.405	4185
912.519	4462
912.633	4470
912.748	4367
912.862	4287
912.976	4223
913.09	4097
913.204	4150
913.318	4230
913.431	4344
913.545	4356
913.659	4478
913.772	4348
913.886	4249
914	4177
914.113	4284
914.226	4402
914.34	4405
914.453	4200
914.566	4402
914.68	4265
914.793	4318
914.906	4154
915.019	4105
915.132	4029
915.245	4185
915.358	4173
915.47	4242
915.583	4227
915.696	4322
915.809	4413
915.921	4379
916.034	4204
916.146	4314
916.259	4200
916.371	4337
916.483	4352
916.595	4238
916.708	4318
916.82	4303
916.932	4295
917.044	4325
917.156	4348
917.268	4196
917.38	4261
917.491	4268
917.603	4367
917.715	4436
917.826	4481
917.938	4348
918.049	4185
918.161	4455
918.272	4512
918.384	4508
918.495	4424
918.606	4310
918.717	4272
918.828	4348
918.939	4322
919.05	4265
919.161	4329
919.272	4090
919.383	4230
919.494	4432
919.604	4615
919.715	4462
919.826	4287
919.936	4383
920.047	4516
920.157	4527
920.267	4687
920.378	4554
920.488	4489
920.598	4698
920.708	4870
920.818	4729
920.928	4744
921.038	4923
921.148	4881
921.258	4569
921.368	4584
921.477	4459
921.587	4390
921.697	4379
921.806	4527
921.916	4424
922.025	4253
922.134	4291
922.244	4257
922.353	4329
922.462	4124
922.571	4105
922.68	3918
922.789	3968
922.898	3998
923.007	3975
923.116	4055
923.224	4059
923.333	4055
923.442	3987
923.55	3972
923.659	4025
923.767	4082
923.876	3960
923.984	4109
924.092	3960
924.201	4032
924.309	4090
924.417	4131
924.525	4044
924.633	4120
924.741	5048
924.849	3896
924.956	4112
925.064	3937
925.172	3873
925.279	3968
925.387	4051
925.494	4055
925.602	4169
925.709	4135
925.816	4036
925.924	4124
926.031	4188
926.138	4162
926.245	4215
926.352	4105
926.459	4230
926.566	4287
926.673	4124
926.779	4131
926.886	4071
926.993	3972
927.099	3975
927.206	3949
927.312	3903
927.419	4059
927.525	4051
927.631	4032
927.737	3972
927.843	3930
927.95	3819
928.056	3930
928.162	3975
928.267	4051
928.373	4565
928.479	4097
928.585	3915
928.69	3991
928.796	4051
928.901	3960
929.007	3835
929.112	3987
929.218	3987
929.323	3911
929.428	3949
929.533	4116
929.638	3922
929.743	3937
929.848	3987
929.953	3975
930.058	3937
930.163	3762
930.267	3812
930.372	3983
930.477	3819
930.581	4063
930.685	3918
930.79	3857
930.894	3876
930.998	3888
931.103	4040
931.207	3713
931.311	3732
931.415	3633
931.519	3587
931.623	3530
