Data from test_V78500241_2747.txt Node
Date: Fri Mar 25 17:08:06 CST 2022
User: usil
Spectrometer: V785-0024
Trigger mode: 0
Integration Time (sec): 4.000000E-1
Scans to average: 1
Nonlinearity correction enabled: false
Boxcar width: 0
Storing dark spectrum: false
XAxis mode: Wavelengths
Number of Pixels in Spectrum: 1024
>>>>>Begin Spectral Data<<<<<
801.071	8027
801.214	8069
801.356	7967
801.499	7978
801.641	7925
801.783	7841
801.926	7989
802.068	8020
802.211	7989
802.353	8065
802.496	7871
802.638	7936
802.78	7894
802.923	8008
803.065	7940
803.208	7845
803.35	8012
803.492	8100
803.635	8202
803.777	8081
803.919	8142
804.061	8533
804.204	8180
804.346	8119
804.488	8031
804.63	8164
804.773	8130
804.915	8142
805.057	8324
805.199	8221
805.341	8183
805.483	8252
805.626	8248
805.768	8153
805.91	8244
806.052	8229
806.194	8199
806.336	8305
806.478	8153
806.62	8035
806.762	8153
806.904	8339
807.046	8503
807.188	8385
807.33	8374
807.472	8404
807.614	8191
807.756	8210
807.898	8100
808.04	7928
808.182	7837
808.324	7898
808.465	8001
808.607	8130
808.749	8145
808.891	8252
809.033	8374
809.174	8267
809.316	8142
809.458	8119
809.6	7997
809.741	8111
809.883	7993
810.025	8237
810.166	8081
810.308	8012
810.45	7947
810.591	7909
810.733	7742
810.875	7658
811.016	7567
811.158	7548
811.299	7647
811.441	7837
811.582	7750
811.724	7601
811.865	7559
812.007	7586
812.148	7563
812.29	7738
812.431	7734
812.573	7879
812.714	7989
812.855	8145
812.997	8221
813.138	8362
813.279	8229
813.421	8176
813.562	8043
813.703	7947
813.845	7822
813.986	7388
814.127	7308
814.268	7209
814.41	7171
814.551	7198
814.692	7209
814.833	7046
814.974	7084
815.115	7088
815.256	6966
815.397	7023
815.539	6932
815.68	6867
815.821	6745
815.962	6920
816.103	6856
816.244	6707
816.385	6669
816.526	6627
816.666	6517
816.807	6311
816.948	6445
817.089	6506
817.23	6490
817.371	6429
817.512	6391
817.653	6418
817.793	6350
817.934	6452
818.075	6521
818.216	6410
818.356	6399
818.497	6232
818.638	6072
818.778	6144
818.919	6209
819.06	6197
819.2	6323
819.341	6308
819.481	6376
819.622	6536
819.762	6692
819.903	6665
820.043	6597
820.184	6623
820.324	6635
820.465	6734
820.605	6662
820.746	6688
820.886	6540
821.026	6650
821.167	6700
821.307	6882
821.447	6757
821.588	6658
821.728	6593
821.868	6494
822.008	6388
822.149	6357
822.289	6391
822.429	6144
822.569	6079
822.709	6148
822.849	5988
822.99	5916
823.13	5958
823.27	5931
823.41	5866
823.55	5832
823.69	5779
823.83	5798
823.97	5668
824.11	5535
824.25	5471
824.389	5551
824.529	5619
824.669	5623
824.809	5665
824.949	5714
825.089	5623
825.228	5577
825.368	5398
825.508	5349
825.648	5398
825.787	5391
825.927	5372
826.067	5303
826.206	5326
826.346	5414
826.485	5421
826.625	5440
826.765	5577
826.904	5474
827.044	5299
827.183	5204
827.323	5159
827.462	5204
827.601	5181
827.741	5212
827.88	5273
828.02	5143
828.159	5250
828.298	5250
828.437	5395
828.577	5318
828.716	5547
828.855	5303
828.994	5105
829.134	5136
829.273	5178
829.412	5159
829.551	5170
829.69	5159
829.829	5284
829.968	5433
830.107	5292
830.246	5322
830.385	5181
830.524	5140
830.663	5052
830.802	4968
830.941	4911
831.08	4889
831.219	4972
831.357	4965
831.496	5166
831.635	4911
831.774	4839
831.913	4862
832.051	4801
832.19	4740
832.329	4881
832.467	4702
832.606	4683
832.744	4736
832.883	4755
833.022	4702
833.16	4744
833.299	4839
833.437	4820
833.576	4824
833.714	4843
833.852	4870
833.991	4904
834.129	5003
834.267	4896
834.406	4942
834.544	4999
834.682	5033
834.821	4923
834.959	5212
835.097	4995
835.235	5193
835.373	5048
835.511	5155
835.65	5045
835.788	5006
835.926	4915
836.064	4904
836.202	4919
836.34	5147
836.478	5193
836.615	5094
836.753	5216
836.891	5261
837.029	5239
837.167	5242
837.305	5143
837.443	5136
837.58	5121
837.718	5292
837.856	5216
837.993	5197
838.131	5235
838.269	5246
838.406	5212
838.544	5216
838.681	5064
838.819	4991
838.956	4877
839.094	4953
839.231	4968
839.369	5132
839.506	5387
839.643	5269
839.781	5083
839.918	4980
840.055	5071
840.193	5124
840.33	5124
840.467	5162
840.604	5166
840.742	5402
840.879	5098
841.016	5079
841.153	5162
841.29	5364
841.427	5341
841.564	5387
841.701	5357
841.838	5303
841.975	5227
842.112	5265
842.249	5151
842.385	5155
842.522	5398
842.659	5166
842.796	5113
842.933	5223
843.069	5143
843.206	5117
843.343	5288
843.479	5216
843.616	5265
843.752	5045
843.889	5006
844.025	5235
844.162	5003
844.298	5250
844.435	5102
844.571	5094
844.708	5185
844.844	5303
844.98	5334
845.117	5303
845.253	5189
845.389	5071
845.525	5140
845.661	5185
845.798	5045
845.934	5178
846.07	5014
846.206	5212
846.342	5254
846.478	5094
846.614	5056
846.75	4930
846.886	4953
847.022	5113
847.158	5006
847.294	5045
847.429	5113
847.565	5083
847.701	5334
847.837	4915
847.972	4831
848.108	4965
848.244	4953
848.379	4839
848.515	4767
848.65	4710
848.786	4759
848.921	4782
849.057	4835
849.192	4873
849.328	4858
849.463	4881
849.598	4774
849.734	4748
849.869	4691
850.004	4622
850.14	4622
850.275	4672
850.41	4542
850.545	4588
850.68	4637
850.815	4615
850.95	4660
851.085	4831
851.22	4721
851.355	4679
851.49	4592
851.625	4637
851.76	4630
851.895	4588
852.03	4523
852.165	4668
852.299	4672
852.434	4805
852.569	4691
852.703	4805
852.838	4862
852.973	4934
853.107	4904
853.242	4752
853.376	4660
853.511	4550
853.645	4653
853.78	4782
853.914	4653
854.048	4675
854.183	4634
854.317	4698
854.451	4828
854.585	4729
854.72	4626
854.854	4710
854.988	4550
855.122	4637
855.256	4535
855.39	4618
855.524	4755
855.658	4702
855.792	4721
855.926	4710
856.06	4736
856.194	4797
856.327	4645
856.461	4596
856.595	4679
856.729	4641
856.862	4774
856.996	4706
857.13	4755
857.263	4816
857.397	4790
857.53	4691
857.664	4736
857.797	4729
857.931	4782
858.064	4702
858.197	4748
858.331	4668
858.464	4630
858.597	4565
858.731	4622
858.864	4637
858.997	4550
859.13	4664
859.263	4649
859.396	4679
859.529	4584
859.662	4565
859.795	4508
859.928	4592
860.061	4759
860.194	4790
860.327	4599
860.46	4569
860.592	4694
860.725	4721
860.858	4717
860.99	4565
861.123	4573
861.256	4523
861.388	4641
861.521	5303
861.653	4538
861.786	4489
861.918	4478
862.05	4504
862.183	4565
862.315	4573
862.447	4603
862.58	4538
862.712	4390
862.844	4348
862.976	4451
863.108	4481
863.24	4744
863.372	4314
863.504	4409
863.636	4428
863.768	4493
863.9	4436
864.032	4432
864.164	4428
864.296	4523
864.428	4504
864.559	4535
864.691	4546
864.823	4500
864.954	4497
865.086	4493
865.217	4432
865.349	4447
865.48	4478
865.612	4485
865.743	4622
865.875	4440
866.006	4413
866.137	4512
866.269	4478
866.4	4440
866.531	4443
866.662	4417
866.793	4402
866.924	4405
867.055	4474
867.186	4485
867.317	4432
867.448	4383
867.579	4383
867.71	4394
867.841	4363
867.972	4462
868.103	4497
868.233	4440
868.364	4451
868.495	4500
868.625	4626
868.756	4748
868.886	4592
869.017	4592
869.147	4752
869.278	4740
869.408	4630
869.539	4634
869.669	4687
869.799	4645
869.929	4797
870.06	4740
870.19	4919
870.32	4904
870.45	4927
870.58	5094
870.71	5083
870.84	5105
870.97	4915
871.1	4919
871.23	5113
871.36	5090
871.489	5048
871.619	5071
871.749	5067
871.879	5159
872.008	5166
872.138	5090
872.267	4972
872.397	4831
872.526	4877
872.656	4698
872.785	4809
872.915	4915
873.044	5006
873.173	4942
873.303	4984
873.432	4980
873.561	4965
873.69	4900
873.819	4862
873.948	4923
874.077	4812
874.206	4755
874.335	4759
874.464	4919
874.593	5025
874.722	4972
874.851	5136
874.979	5041
875.108	5022
875.237	4942
875.365	4915
875.494	4877
875.623	4976
875.751	4824
875.88	4919
876.008	5018
876.136	5060
876.265	5239
876.393	5364
876.521	5181
876.65	5258
876.778	5174
876.906	5124
877.034	5045
877.162	5033
877.29	4961
877.418	5075
877.546	5025
877.674	5025
877.802	5037
877.93	5029
878.058	4965
878.185	4877
878.313	4968
878.441	4999
878.568	4831
878.696	4927
878.824	4976
878.951	4949
879.079	5121
879.206	5296
879.333	5117
879.461	4919
879.588	4980
879.715	5121
879.842	5220
879.97	5003
880.097	4793
880.224	4736
880.351	4782
880.478	4881
880.605	4805
880.732	4793
880.859	5079
880.986	4908
881.112	4896
881.239	4771
881.366	4679
881.493	4611
881.619	4596
881.746	4615
881.872	4653
881.999	4691
882.125	4672
882.252	4809
882.378	4850
882.505	4980
882.631	4828
882.757	4714
882.883	4710
883.01	4717
883.136	4687
883.262	4615
883.388	4634
883.514	4866
883.64	4885
883.766	4816
883.892	4702
884.018	4733
884.143	4904
884.269	4991
884.395	4710
884.52	4588
884.646	4611
884.772	4596
884.897	4561
885.023	4626
885.148	4786
885.274	4831
885.399	4843
885.524	4691
885.65	4717
885.775	4717
885.9	4698
886.025	4824
886.15	4767
886.275	4710
886.4	4683
886.525	4702
886.65	4660
886.775	4641
886.9	4885
887.025	5006
887.149	4759
887.274	4615
887.399	4569
887.523	4603
887.648	4550
887.773	4603
887.897	4748
888.021	4774
888.146	4653
888.27	4782
888.395	4862
888.519	4843
888.643	4831
888.767	4854
888.891	4656
889.015	4615
889.139	4645
889.263	4577
889.387	4748
889.511	4858
889.635	4748
889.759	4660
889.883	4649
890.006	4740
890.13	4797
890.254	4645
890.377	4675
890.501	4542
890.624	4519
890.748	4615
890.871	4519
890.995	4451
891.118	4417
891.241	4538
891.364	4561
891.488	4599
891.611	4455
891.734	4565
891.857	4653
891.98	4516
892.103	4679
892.226	4588
892.349	4577
892.471	4436
892.594	4493
892.717	4618
892.839	4523
892.962	4542
893.085	4687
893.207	4603
893.33	4455
893.452	4527
893.575	4683
893.697	4599
893.819	4809
893.941	4828
894.064	4786
894.186	4573
894.308	4607
894.43	4694
894.552	4843
894.674	4733
894.796	4531
894.918	4596
895.04	4558
895.161	4687
895.283	4710
895.405	4603
895.526	4622
895.648	4740
895.769	4653
895.891	4717
896.012	4691
896.134	4698
896.255	4634
896.376	4603
896.498	4596
896.619	4691
896.74	4607
896.861	4622
896.982	4889
897.103	5109
897.224	4850
897.345	4755
897.466	4618
897.587	4748
897.708	4850
897.828	4767
897.949	4641
898.07	4523
898.19	4615
898.311	4847
898.431	4645
898.552	4721
898.672	4850
898.792	4786
898.913	4786
899.033	4679
899.153	4485
899.273	4421
899.393	4485
899.513	4565
899.633	4523
899.753	4550
899.873	4523
899.993	4577
900.113	4470
900.232	4596
900.352	4523
900.472	4497
900.591	4413
900.711	4527
900.83	4436
900.95	4622
901.069	4694
901.189	4542
901.308	4352
901.427	4322
901.546	4337
901.665	4466
901.784	4508
901.904	4375
902.023	4310
902.141	4227
902.26	4154
902.379	4291
902.498	4249
902.617	4230
902.735	4371
902.854	4348
902.973	4402
903.091	4192
903.21	4249
903.328	4276
903.446	4265
903.565	4257
903.683	4383
903.801	4253
903.919	4413
904.038	4424
904.156	4291
904.274	4417
904.392	4421
904.51	4478
904.627	4451
904.745	4569
904.863	4649
904.981	4379
905.098	4284
905.216	4386
905.334	4451
905.451	4428
905.569	4383
905.686	4565
905.803	4550
905.921	4413
906.038	4573
906.155	4485
906.272	4405
906.389	4459
906.506	4363
906.623	4356
906.74	4424
906.857	4356
906.974	4306
907.091	4558
907.208	4641
907.324	4546
907.441	4462
907.557	4333
907.674	4348
907.79	4352
907.907	4402
908.023	4489
908.139	4462
908.256	4440
908.372	4478
908.488	4443
908.604	4371
908.72	4348
908.836	4383
908.952	4383
909.068	4436
909.184	4592
909.3	4485
909.415	4607
909.531	4558
909.647	4383
909.762	4375
909.878	4367
909.993	4440
910.108	4390
910.224	4413
910.339	4485
910.454	4390
910.57	4352
910.685	4363
910.8	4634
910.915	4596
911.03	4440
911.145	4325
911.259	4363
911.374	4405
911.489	4299
911.604	4276
911.718	4196
911.833	4181
911.947	4093
912.062	4055
912.176	4211
912.291	4200
912.405	4261
912.519	4485
912.633	4478
912.748	4383
912.862	4314
912.976	4219
913.09	4105
913.204	4143
913.318	4242
913.431	4383
913.545	4375
913.659	4398
913.772	4367
913.886	4196
914	4234
914.113	4405
914.226	4451
914.34	4352
914.453	4230
914.566	4405
914.68	4306
914.793	4322
914.906	4150
915.019	4131
915.132	4032
915.245	4147
915.358	4238
915.47	4207
915.583	4272
915.696	4284
915.809	4421
915.921	4417
916.034	4246
916.146	4257
916.259	4215
916.371	4367
916.483	4348
916.595	4318
916.708	4367
916.82	4367
916.932	4356
917.044	4375
917.156	4314
917.268	4257
917.38	4242
917.491	4303
917.603	4413
917.715	4413
917.826	4478
917.938	4352
918.049	4249
918.161	4428
918.272	4531
918.384	4516
918.495	4474
918.606	4253
918.717	4238
918.828	4348
918.939	4424
919.05	4211
919.161	4314
919.272	4150
919.383	4268
919.494	4519
919.604	4622
919.715	4398
919.826	4333
919.936	4367
920.047	4489
920.157	4500
920.267	4702
920.378	4558
920.488	4451
920.598	4698
920.708	4900
920.818	4729
920.928	4755
921.038	4961
921.148	4923
921.258	4634
921.368	4577
921.477	4493
921.587	4455
921.697	4379
921.806	4558
921.916	4409
922.025	4242
922.134	4227
922.244	4238
922.353	4333
922.462	4192
922.571	4139
922.68	4010
922.789	3956
922.898	4048
923.007	4025
923.116	4090
923.224	4105
923.333	4067
923.442	4013
923.55	3983
923.659	4040
923.767	4093
923.876	3991
923.984	4131
924.092	3960
924.201	4067
924.309	4090
924.417	4063
924.525	4025
924.633	4067
924.741	5048
924.849	3934
924.956	4166
925.064	3953
925.172	3873
925.279	3972
925.387	4063
925.494	4067
925.602	4219
925.709	4173
925.816	4036
925.924	4101
926.031	4223
926.138	4185
926.245	4166
926.352	4097
926.459	4204
926.566	4299
926.673	4128
926.779	4128
926.886	4078
926.993	3991
927.099	3987
927.206	3949
927.312	3934
927.419	4059
927.525	4036
927.631	4109
927.737	3994
927.843	3922
927.95	3857
928.056	3922
928.162	3987
928.267	4067
928.373	4675
928.479	4090
928.585	3899
928.69	4002
928.796	4093
928.901	3972
929.007	3869
929.112	4002
929.218	3991
929.323	3983
929.428	3930
929.533	4093
929.638	3854
929.743	3975
929.848	4067
929.953	4055
930.058	3888
930.163	3808
930.267	3876
930.372	3983
930.477	3827
930.581	4086
930.685	3956
930.79	3827
930.894	3850
930.998	3816
931.103	4017
931.207	3713
931.311	3682
931.415	3690
931.519	3500
931.623	3549
