Data from test_V78500241_2464.txt Node
Date: Fri Mar 25 17:06:08 CST 2022
User: usil
Spectrometer: V785-0024
Trigger mode: 0
Integration Time (sec): 4.000000E-1
Scans to average: 1
Nonlinearity correction enabled: false
Boxcar width: 0
Storing dark spectrum: false
XAxis mode: Wavelengths
Number of Pixels in Spectrum: 1024
>>>>>Begin Spectral Data<<<<<
801.071	7959
801.214	7982
801.356	7887
801.499	7807
801.641	7792
801.783	7822
801.926	7921
802.068	7936
802.211	7970
802.353	7986
802.496	7849
802.638	7845
802.78	7841
802.923	7913
803.065	7837
803.208	7788
803.35	7982
803.492	8046
803.635	8119
803.777	7974
803.919	8145
804.061	8495
804.204	8111
804.346	8077
804.488	7974
804.63	7997
804.773	8001
804.915	8126
805.057	8362
805.199	8149
805.341	8221
805.483	8286
805.626	8199
805.768	8092
805.91	8172
806.052	8237
806.194	8058
806.336	8267
806.478	8043
806.62	7974
806.762	8123
806.904	8279
807.046	8438
807.188	8339
807.33	8362
807.472	8279
807.614	8157
807.756	8123
807.898	8031
808.04	7837
808.182	7913
808.324	7807
808.465	7883
808.607	8054
808.749	8123
808.891	8237
809.033	8252
809.174	8248
809.316	8096
809.458	8031
809.6	7951
809.741	8050
809.883	8092
810.025	8077
810.166	8016
810.308	8001
810.45	8001
810.591	7894
810.733	7750
810.875	7632
811.016	7533
811.158	7502
811.299	7502
811.441	7746
811.582	7685
811.724	7578
811.865	7563
812.007	7651
812.148	7620
812.29	7658
812.431	7807
812.573	7822
812.714	7951
812.855	8172
812.997	8164
813.138	8286
813.279	8218
813.421	8119
813.562	7902
813.703	7902
813.845	7750
813.986	7460
814.127	7285
814.268	7179
814.41	7221
814.551	7118
814.692	7217
814.833	7076
814.974	7038
815.115	7164
815.256	6981
815.397	6993
815.539	6962
815.68	6787
815.821	6719
815.962	6802
816.103	6821
816.244	6738
816.385	6585
816.526	6604
816.666	6521
816.807	6338
816.948	6445
817.089	6513
817.23	6407
817.371	6399
817.512	6433
817.653	6399
817.793	6346
817.934	6422
818.075	6475
818.216	6456
818.356	6418
818.497	6266
818.638	6121
818.778	6091
818.919	6114
819.06	6182
819.2	6338
819.341	6289
819.481	6369
819.622	6597
819.762	6764
819.903	6741
820.043	6604
820.184	6566
820.324	6601
820.465	6772
820.605	6722
820.746	6658
820.886	6597
821.026	6589
821.167	6726
821.307	6859
821.447	6738
821.588	6650
821.728	6631
821.868	6479
822.008	6407
822.149	6327
822.289	6391
822.429	6152
822.569	6121
822.709	6102
822.849	5946
822.99	5931
823.13	5935
823.27	5904
823.41	5790
823.55	5794
823.69	5779
823.83	5760
823.97	5665
824.11	5528
824.25	5512
824.389	5566
824.529	5570
824.669	5539
824.809	5604
824.949	5661
825.089	5600
825.228	5551
825.368	5421
825.508	5322
825.648	5376
825.787	5318
825.927	5398
826.067	5258
826.206	5296
826.346	5322
826.485	5360
826.625	5410
826.765	5566
826.904	5471
827.044	5254
827.183	5132
827.323	5098
827.462	5273
827.601	5197
827.741	5140
827.88	5181
828.02	5132
828.159	5307
828.298	5311
828.437	5372
828.577	5292
828.716	5440
828.855	5349
828.994	5204
829.134	5079
829.273	5242
829.412	5155
829.551	5124
829.69	5170
829.829	5216
829.968	5391
830.107	5231
830.246	5273
830.385	5136
830.524	5109
830.663	5041
830.802	4999
830.941	4850
831.08	4873
831.219	4984
831.357	4961
831.496	5162
831.635	4911
831.774	4831
831.913	4889
832.051	4706
832.19	4763
832.329	4847
832.467	4714
832.606	4626
832.744	4740
832.883	4683
833.022	4714
833.16	4759
833.299	4900
833.437	4831
833.576	4805
833.714	4850
833.852	4873
833.991	4915
834.129	4961
834.267	4991
834.406	4885
834.544	4995
834.682	4995
834.821	4923
834.959	5102
835.097	4972
835.235	5117
835.373	5060
835.511	5094
835.65	5014
835.788	5037
835.926	4866
836.064	4835
836.202	4953
836.34	5121
836.478	5201
836.615	5128
836.753	5178
836.891	5307
837.029	5254
837.167	5166
837.305	5170
837.443	5094
837.58	5098
837.718	5246
837.856	5239
837.993	5136
838.131	5227
838.269	5239
838.406	5174
838.544	5162
838.681	5029
838.819	5025
838.956	4915
839.094	4911
839.231	4927
839.369	5071
839.506	5421
839.643	5216
839.781	5090
839.918	5041
840.055	5102
840.193	5155
840.33	5128
840.467	5121
840.604	5155
840.742	5414
840.879	5094
841.016	5052
841.153	5109
841.29	5330
841.427	5242
841.564	5372
841.701	5357
841.838	5265
841.975	5220
842.112	5258
842.249	5166
842.385	5155
842.522	5334
842.659	5136
842.796	5178
842.933	5136
843.069	5098
843.206	5132
843.343	5296
843.479	5242
843.616	5261
843.752	5052
843.889	4953
844.025	5223
844.162	5037
844.298	5227
844.435	5071
844.571	5033
844.708	5155
844.844	5277
844.98	5326
845.117	5334
845.253	5193
845.389	5113
845.525	5181
845.661	5147
845.798	5033
845.934	5098
846.07	5060
846.206	5159
846.342	5299
846.478	5178
846.614	5022
846.75	4961
846.886	4927
847.022	5090
847.158	4980
847.294	5075
847.429	5151
847.565	5102
847.701	5311
847.837	4850
847.972	4752
848.108	4984
848.244	4949
848.379	4782
848.515	4774
848.65	4736
848.786	4755
848.921	4805
849.057	4870
849.192	4908
849.328	4790
849.463	4854
849.598	4847
849.734	4744
849.869	4706
850.004	4630
850.14	4672
850.275	4634
850.41	4489
850.545	4538
850.68	4588
850.815	4569
850.95	4630
851.085	4828
851.22	4755
851.355	4668
851.49	4645
851.625	4687
851.76	4611
851.895	4561
852.03	4546
852.165	4580
852.299	4702
852.434	4828
852.569	4736
852.703	4763
852.838	4850
852.973	4949
853.107	4889
853.242	4755
853.376	4660
853.511	4516
853.645	4580
853.78	4786
853.914	4702
854.048	4694
854.183	4668
854.317	4717
854.451	4839
854.585	4637
854.72	4653
854.854	4717
854.988	4527
855.122	4668
855.256	4531
855.39	4653
855.524	4763
855.658	4702
855.792	4733
855.926	4771
856.06	4744
856.194	4790
856.327	4687
856.461	4626
856.595	4618
856.729	4630
856.862	4763
856.996	4714
857.13	4714
857.263	4767
857.397	4824
857.53	4626
857.664	4740
857.797	4706
857.931	4831
858.064	4717
858.197	4729
858.331	4691
858.464	4611
858.597	4538
858.731	4637
858.864	4675
858.997	4611
859.13	4634
859.263	4660
859.396	4683
859.529	4592
859.662	4550
859.795	4542
859.928	4641
860.061	4790
860.194	4748
860.327	4546
860.46	4561
860.592	4664
860.725	4649
860.858	4725
860.99	4527
861.123	4535
861.256	4493
861.388	4630
861.521	5239
861.653	4440
861.786	4497
861.918	4440
862.05	4516
862.183	4523
862.315	4584
862.447	4618
862.58	4523
862.712	4405
862.844	4337
862.976	4497
863.108	4451
863.24	4850
863.372	4306
863.504	4462
863.636	4409
863.768	4481
863.9	4455
864.032	4363
864.164	4398
864.296	4485
864.428	4622
864.559	4569
864.691	4535
864.823	4531
864.954	4462
865.086	4493
865.217	4436
865.349	4455
865.48	4428
865.612	4478
865.743	4634
865.875	4459
866.006	4379
866.137	4478
866.269	4421
866.4	4474
866.531	4421
866.662	4424
866.793	4371
866.924	4409
867.055	4500
867.186	4432
867.317	4405
867.448	4386
867.579	4383
867.71	4390
867.841	4360
867.972	4417
868.103	4428
868.233	4485
868.364	4474
868.495	4432
868.625	4649
868.756	4740
868.886	4588
869.017	4653
869.147	4786
869.278	4748
869.408	4698
869.539	4630
869.669	4736
869.799	4668
869.929	4752
870.06	4786
870.19	4968
870.32	4911
870.45	4946
870.58	5033
870.71	5079
870.84	5132
870.97	4972
871.1	4908
871.23	5151
871.36	5098
871.489	5041
871.619	5090
871.749	5064
871.879	5124
872.008	5170
872.138	5052
872.267	4999
872.397	4843
872.526	4786
872.656	4679
872.785	4843
872.915	4957
873.044	4995
873.173	4976
873.303	5018
873.432	4976
873.561	4972
873.69	4870
873.819	4881
873.948	4927
874.077	4812
874.206	4740
874.335	4790
874.464	4885
874.593	5060
874.722	4984
874.851	5109
874.979	5041
875.108	4995
875.237	4927
875.365	4892
875.494	4892
875.623	4965
875.751	4873
875.88	4873
876.008	4976
876.136	5067
876.265	5208
876.393	5307
876.521	5261
876.65	5208
876.778	5170
876.906	5064
877.034	5022
877.162	5014
877.29	4976
877.418	5071
877.546	5025
877.674	5052
877.802	5060
877.93	5060
878.058	4938
878.185	4968
878.313	5029
878.441	4965
878.568	4858
878.696	4911
878.824	4961
878.951	5003
879.079	5151
879.206	5318
879.333	5113
879.461	5010
879.588	5006
879.715	5124
879.842	5235
879.97	5037
880.097	4736
880.224	4725
880.351	4843
880.478	4790
880.605	4809
880.732	4793
880.859	5132
880.986	4885
881.112	4919
881.239	4809
881.366	4649
881.493	4588
881.619	4592
881.746	4634
881.872	4645
881.999	4611
882.125	4717
882.252	4793
882.378	4831
882.505	4965
882.631	4790
882.757	4645
882.883	4740
883.01	4641
883.136	4683
883.262	4565
883.388	4607
883.514	4847
883.64	4908
883.766	4805
883.892	4637
884.018	4771
884.143	4873
884.269	5018
884.395	4668
884.52	4554
884.646	4641
884.772	4611
884.897	4519
885.023	4649
885.148	4820
885.274	4873
885.399	4812
885.524	4736
885.65	4710
885.775	4774
885.9	4721
886.025	4870
886.15	4774
886.275	4687
886.4	4698
886.525	4725
886.65	4694
886.775	4687
886.9	4892
887.025	4999
887.149	4816
887.274	4649
887.399	4535
887.523	4599
887.648	4580
887.773	4592
887.897	4778
888.021	4740
888.146	4668
888.27	4820
888.395	4908
888.519	4809
888.643	4816
888.767	4831
888.891	4687
889.015	4615
889.139	4675
889.263	4615
889.387	4725
889.511	4866
889.635	4797
889.759	4637
889.883	4626
890.006	4740
890.13	4866
890.254	4615
890.377	4672
890.501	4531
890.624	4478
890.748	4637
890.871	4527
890.995	4440
891.118	4383
891.241	4455
891.364	4577
891.488	4596
891.611	4466
891.734	4500
891.857	4592
891.98	4546
892.103	4641
892.226	4565
892.349	4500
892.471	4455
892.594	4577
892.717	4618
892.839	4588
892.962	4599
893.085	4672
893.207	4645
893.33	4447
893.452	4527
893.575	4656
893.697	4569
893.819	4801
893.941	4824
894.064	4725
894.186	4607
894.308	4519
894.43	4763
894.552	4820
894.674	4748
894.796	4546
894.918	4569
895.04	4565
895.161	4714
895.283	4672
895.405	4577
895.526	4675
895.648	4702
895.769	4656
895.891	4725
896.012	4729
896.134	4687
896.255	4675
896.376	4615
896.498	4607
896.619	4641
896.74	4599
896.861	4683
896.982	4930
897.103	5052
897.224	4786
897.345	4755
897.466	4664
897.587	4675
897.708	4858
897.828	4824
897.949	4649
898.07	4573
898.19	4641
898.311	4831
898.431	4649
898.552	4752
898.672	4828
898.792	4782
898.913	4744
899.033	4634
899.153	4470
899.273	4459
899.393	4489
899.513	4565
899.633	4523
899.753	4485
899.873	4500
899.993	4634
900.113	4527
900.232	4641
900.352	4512
900.472	4497
900.591	4363
900.711	4481
900.83	4459
900.95	4611
901.069	4675
901.189	4542
901.308	4348
901.427	4337
901.546	4390
901.665	4424
901.784	4519
901.904	4375
902.023	4341
902.141	4173
902.26	4131
902.379	4291
902.498	4253
902.617	4181
902.735	4367
902.854	4417
902.973	4402
903.091	4207
903.21	4188
903.328	4356
903.446	4261
903.565	4249
903.683	4371
903.801	4261
903.919	4363
904.038	4413
904.156	4314
904.274	4455
904.392	4402
904.51	4417
904.627	4466
904.745	4584
904.863	4637
904.981	4405
905.098	4265
905.216	4386
905.334	4436
905.451	4398
905.569	4474
905.686	4516
905.803	4554
905.921	4421
906.038	4554
906.155	4531
906.272	4379
906.389	4470
906.506	4352
906.623	4383
906.74	4379
906.857	4318
906.974	4341
907.091	4554
907.208	4626
907.324	4611
907.441	4493
907.557	4386
907.674	4363
907.79	4318
907.907	4383
908.023	4462
908.139	4447
908.256	4440
908.372	4493
908.488	4451
908.604	4360
908.72	4325
908.836	4383
908.952	4325
909.068	4451
909.184	4599
909.3	4508
909.415	4588
909.531	4546
909.647	4325
909.762	4299
909.878	4329
909.993	4417
910.108	4421
910.224	4398
910.339	4440
910.454	4413
910.57	4379
910.685	4291
910.8	4656
910.915	4622
911.03	4497
911.145	4299
911.259	4383
911.374	4363
911.489	4337
911.604	4280
911.718	4169
911.833	4238
911.947	4032
912.062	4036
912.176	4185
912.291	4230
912.405	4268
912.519	4500
912.633	4493
912.748	4379
912.862	4303
912.976	4192
913.09	4086
913.204	4196
913.318	4246
913.431	4352
913.545	4367
913.659	4455
913.772	4360
913.886	4192
914	4219
914.113	4390
914.226	4402
914.34	4402
914.453	4249
914.566	4428
914.68	4287
914.793	4306
914.906	4158
915.019	4120
915.132	4071
915.245	4227
915.358	4223
915.47	4242
915.583	4249
915.696	4276
915.809	4421
915.921	4405
916.034	4246
916.146	4242
916.259	4215
916.371	4325
916.483	4341
916.595	4265
916.708	4314
916.82	4318
916.932	4310
917.044	4352
917.156	4341
917.268	4249
917.38	4306
917.491	4227
917.603	4318
917.715	4474
917.826	4432
917.938	4344
918.049	4234
918.161	4379
918.272	4550
918.384	4527
918.495	4493
918.606	4265
918.717	4261
918.828	4295
918.939	4367
919.05	4219
919.161	4325
919.272	4120
919.383	4227
919.494	4402
919.604	4615
919.715	4436
919.826	4333
919.936	4409
920.047	4538
920.157	4504
920.267	4691
920.378	4565
920.488	4500
920.598	4679
920.708	4881
920.818	4698
920.928	4706
921.038	4911
921.148	4942
921.258	4626
921.368	4519
921.477	4489
921.587	4440
921.697	4386
921.806	4531
921.916	4455
922.025	4257
922.134	4257
922.244	4246
922.353	4333
922.462	4200
922.571	4105
922.68	4013
922.789	4013
922.898	4044
923.007	3941
923.116	4097
923.224	4044
923.333	4074
923.442	4010
923.55	3994
923.659	4044
923.767	4086
923.876	4048
923.984	4105
924.092	3991
924.201	4101
924.309	4071
924.417	4120
924.525	4040
924.633	4093
924.741	5041
924.849	3956
924.956	4097
925.064	3964
925.172	3869
925.279	4002
925.387	4051
925.494	4040
925.602	4200
925.709	4200
925.816	4040
925.924	4120
926.031	4287
926.138	4188
926.245	4204
926.352	4105
926.459	4249
926.566	4284
926.673	4162
926.779	4128
926.886	4082
926.993	3964
927.099	3937
927.206	3926
927.312	3930
927.419	4059
927.525	4093
927.631	4067
927.737	3934
927.843	3998
927.95	3838
928.056	3937
928.162	3983
928.267	4059
928.373	4694
928.479	4139
928.585	3865
928.69	3964
928.796	4048
928.901	3899
929.007	3857
929.112	4013
929.218	3956
929.323	3896
929.428	3922
929.533	4128
929.638	3953
929.743	3972
929.848	4010
929.953	4044
930.058	3949
930.163	3770
930.267	3816
930.372	3968
930.477	3774
930.581	4090
930.685	3956
930.79	3812
930.894	3861
930.998	3850
931.103	4021
931.207	3709
931.311	3713
931.415	3698
931.519	3515
931.623	3561
