Data from test_V78500241_2520.txt Node
Date: Fri Mar 25 17:06:31 CST 2022
User: usil
Spectrometer: V785-0024
Trigger mode: 0
Integration Time (sec): 4.000000E-1
Scans to average: 1
Nonlinearity correction enabled: false
Boxcar width: 0
Storing dark spectrum: false
XAxis mode: Wavelengths
Number of Pixels in Spectrum: 1024
>>>>>Begin Spectral Data<<<<<
801.071	8039
801.214	7982
801.356	7822
801.499	7864
801.641	7776
801.783	7792
801.926	7959
802.068	7932
802.211	8024
802.353	7928
802.496	7826
802.638	7879
802.78	7944
802.923	7925
803.065	7860
803.208	7871
803.35	7963
803.492	8073
803.635	8172
803.777	8043
803.919	8123
804.061	8358
804.204	8210
804.346	8077
804.488	7940
804.63	8119
804.773	7978
804.915	8161
805.057	8290
805.199	8149
805.341	8164
805.483	8267
805.626	8252
805.768	8183
805.91	8210
806.052	8176
806.194	8153
806.336	8309
806.478	8046
806.62	8035
806.762	8168
806.904	8233
807.046	8473
807.188	8381
807.33	8286
807.472	8343
807.614	8115
807.756	8123
807.898	8043
808.04	7879
808.182	7879
808.324	7814
808.465	7925
808.607	8069
808.749	8100
808.891	8218
809.033	8358
809.174	8195
809.316	8069
809.458	8077
809.6	8008
809.741	8001
809.883	8039
810.025	8077
810.166	8046
810.308	8005
810.45	7993
810.591	7875
810.733	7734
810.875	7712
811.016	7521
811.158	7472
811.299	7578
811.441	7738
811.582	7734
811.724	7578
811.865	7597
812.007	7552
812.148	7605
812.29	7624
812.431	7727
812.573	7852
812.714	7940
812.855	8069
812.997	8199
813.138	8355
813.279	8183
813.421	8039
813.562	7986
813.703	7772
813.845	7757
813.986	7457
814.127	7213
814.268	7228
814.41	7168
814.551	7118
814.692	7209
814.833	7099
814.974	7080
815.115	7141
815.256	6916
815.397	6928
815.539	6973
815.68	6779
815.821	6757
815.962	6875
816.103	6863
816.244	6703
816.385	6585
816.526	6608
816.666	6448
816.807	6277
816.948	6467
817.089	6426
817.23	6448
817.371	6376
817.512	6445
817.653	6334
817.793	6319
817.934	6395
818.075	6509
818.216	6471
818.356	6410
818.497	6273
818.638	6117
818.778	6163
818.919	6136
819.06	6148
819.2	6342
819.341	6300
819.481	6350
819.622	6467
819.762	6726
819.903	6681
820.043	6544
820.184	6536
820.324	6642
820.465	6749
820.605	6700
820.746	6673
820.886	6544
821.026	6631
821.167	6665
821.307	6852
821.447	6749
821.588	6684
821.728	6582
821.868	6528
822.008	6323
822.149	6399
822.289	6376
822.429	6152
822.569	6140
822.709	6041
822.849	5931
822.99	5897
823.13	5874
823.27	5927
823.41	5775
823.55	5771
823.69	5794
823.83	5798
823.97	5649
824.11	5547
824.25	5509
824.389	5577
824.529	5585
824.669	5524
824.809	5634
824.949	5661
825.089	5589
825.228	5615
825.368	5402
825.508	5360
825.648	5326
825.787	5376
825.927	5368
826.067	5227
826.206	5277
826.346	5364
826.485	5433
826.625	5410
826.765	5535
826.904	5486
827.044	5265
827.183	5208
827.323	5151
827.462	5250
827.601	5189
827.741	5201
827.88	5212
828.02	5136
828.159	5197
828.298	5318
828.437	5341
828.577	5337
828.716	5501
828.855	5349
828.994	5102
829.134	5170
829.273	5204
829.412	5109
829.551	5151
829.69	5166
829.829	5250
829.968	5376
830.107	5250
830.246	5261
830.385	5181
830.524	5147
830.663	5014
830.802	4957
830.941	4904
831.08	4881
831.219	5025
831.357	4976
831.496	5117
831.635	4889
831.774	4850
831.913	4820
832.051	4733
832.19	4759
832.329	4824
832.467	4717
832.606	4615
832.744	4744
832.883	4752
833.022	4725
833.16	4809
833.299	4847
833.437	4831
833.576	4797
833.714	4862
833.852	4835
833.991	4889
834.129	4972
834.267	4934
834.406	4919
834.544	4938
834.682	5010
834.821	4942
834.959	5159
835.097	4984
835.235	5181
835.373	5052
835.511	5105
835.65	5033
835.788	5018
835.926	4904
836.064	4881
836.202	4915
836.34	5140
836.478	5189
836.615	5128
836.753	5235
836.891	5277
837.029	5254
837.167	5212
837.305	5143
837.443	5166
837.58	5086
837.718	5254
837.856	5143
837.993	5162
838.131	5220
838.269	5204
838.406	5231
838.544	5162
838.681	5006
838.819	4995
838.956	4904
839.094	4885
839.231	4991
839.369	5045
839.506	5421
839.643	5216
839.781	5060
839.918	4965
840.055	5098
840.193	5064
840.33	5090
840.467	5197
840.604	5170
840.742	5406
840.879	5025
841.016	5056
841.153	5151
841.29	5425
841.427	5303
841.564	5345
841.701	5345
841.838	5292
841.975	5223
842.112	5277
842.249	5166
842.385	5025
842.522	5341
842.659	5162
842.796	5159
842.933	5189
843.069	5181
843.206	5159
843.343	5299
843.479	5269
843.616	5246
843.752	5003
843.889	4968
844.025	5235
844.162	5102
844.298	5201
844.435	5105
844.571	5025
844.708	5185
844.844	5299
844.98	5299
845.117	5303
845.253	5105
845.389	5064
845.525	5162
845.661	5079
845.798	5048
845.934	5166
846.07	5079
846.206	5201
846.342	5261
846.478	5147
846.614	5029
846.75	4946
846.886	4942
847.022	5124
847.158	5041
847.294	5060
847.429	5121
847.565	5022
847.701	5315
847.837	4843
847.972	4801
848.108	4953
848.244	4984
848.379	4805
848.515	4694
848.65	4694
848.786	4767
848.921	4812
849.057	4896
849.192	4889
849.328	4862
849.463	4805
849.598	4786
849.734	4774
849.869	4683
850.004	4622
850.14	4660
850.275	4584
850.41	4535
850.545	4580
850.68	4607
850.815	4615
850.95	4573
851.085	4843
851.22	4725
851.355	4656
851.49	4622
851.625	4660
851.76	4599
851.895	4569
852.03	4523
852.165	4634
852.299	4740
852.434	4790
852.569	4706
852.703	4736
852.838	4870
852.973	4919
853.107	4904
853.242	4763
853.376	4599
853.511	4550
853.645	4660
853.78	4790
853.914	4702
854.048	4626
854.183	4649
854.317	4714
854.451	4820
854.585	4645
854.72	4672
854.854	4740
854.988	4618
855.122	4607
855.256	4512
855.39	4615
855.524	4763
855.658	4721
855.792	4687
855.926	4740
856.06	4729
856.194	4763
856.327	4664
856.461	4580
856.595	4607
856.729	4618
856.862	4691
856.996	4664
857.13	4706
857.263	4714
857.397	4752
857.53	4641
857.664	4710
857.797	4759
857.931	4752
858.064	4630
858.197	4717
858.331	4630
858.464	4626
858.597	4485
858.731	4656
858.864	4668
858.997	4569
859.13	4611
859.263	4672
859.396	4691
859.529	4611
859.662	4580
859.795	4531
859.928	4626
860.061	4729
860.194	4721
860.327	4561
860.46	4607
860.592	4721
860.725	4694
860.858	4675
860.99	4558
861.123	4512
861.256	4474
861.388	4550
861.521	5235
861.653	4493
861.786	4440
861.918	4478
862.05	4527
862.183	4542
862.315	4611
862.447	4626
862.58	4538
862.712	4383
862.844	4295
862.976	4409
863.108	4462
863.24	4904
863.372	4341
863.504	4405
863.636	4451
863.768	4478
863.9	4413
864.032	4356
864.164	4436
864.296	4489
864.428	4580
864.559	4626
864.691	4596
864.823	4542
864.954	4500
865.086	4577
865.217	4474
865.349	4405
865.48	4493
865.612	4531
865.743	4641
865.875	4462
866.006	4432
866.137	4459
866.269	4455
866.4	4481
866.531	4497
866.662	4405
866.793	4470
866.924	4440
867.055	4561
867.186	4462
867.317	4466
867.448	4443
867.579	4459
867.71	4421
867.841	4394
867.972	4478
868.103	4516
868.233	4481
868.364	4436
868.495	4523
868.625	4721
868.756	4786
868.886	4580
869.017	4622
869.147	4858
869.278	4740
869.408	4694
869.539	4653
869.669	4736
869.799	4683
869.929	4809
870.06	4767
870.19	5006
870.32	5041
870.45	4976
870.58	5071
870.71	5128
870.84	5132
870.97	5010
871.1	4942
871.23	5174
871.36	5181
871.489	5067
871.619	5121
871.749	5128
871.879	5140
872.008	5197
872.138	5113
872.267	5045
872.397	4889
872.526	4870
872.656	4805
872.785	4847
872.915	4972
873.044	5094
873.173	4938
873.303	5018
873.432	4949
873.561	4995
873.69	4930
873.819	4911
873.948	4961
874.077	4828
874.206	4759
874.335	4847
874.464	4934
874.593	5094
874.722	4953
874.851	5140
874.979	5170
875.108	5079
875.237	4995
875.365	4873
875.494	4946
875.623	5064
875.751	4889
875.88	4923
876.008	5003
876.136	4999
876.265	5208
876.393	5417
876.521	5277
876.65	5284
876.778	5197
876.906	5136
877.034	5071
877.162	5094
877.29	5033
877.418	5086
877.546	5079
877.674	5075
877.802	5037
877.93	5025
878.058	4976
878.185	4911
878.313	5003
878.441	5006
878.568	4809
878.696	4949
878.824	5014
878.951	5018
879.079	5166
879.206	5364
879.333	5170
879.461	5010
879.588	5060
879.715	5159
879.842	5265
879.97	5041
880.097	4843
880.224	4790
880.351	4793
880.478	4885
880.605	4816
880.732	4870
880.859	5124
880.986	4934
881.112	4930
881.239	4801
881.366	4664
881.493	4694
881.619	4584
881.746	4630
881.872	4675
881.999	4672
882.125	4721
882.252	4801
882.378	4847
882.505	4980
882.631	4801
882.757	4710
882.883	4740
883.01	4805
883.136	4687
883.262	4611
883.388	4660
883.514	4835
883.64	4866
883.766	4831
883.892	4767
884.018	4752
884.143	4934
884.269	5033
884.395	4714
884.52	4679
884.646	4641
884.772	4653
884.897	4626
885.023	4706
885.148	4824
885.274	4877
885.399	4873
885.524	4748
885.65	4706
885.775	4786
885.9	4812
886.025	4873
886.15	4831
886.275	4752
886.4	4717
886.525	4790
886.65	4691
886.775	4733
886.9	4942
887.025	5025
887.149	4843
887.274	4691
887.399	4603
887.523	4656
887.648	4645
887.773	4607
887.897	4797
888.021	4790
888.146	4683
888.27	4843
888.395	4927
888.519	4828
888.643	4839
888.767	4870
888.891	4698
889.015	4637
889.139	4683
889.263	4611
889.387	4771
889.511	4885
889.635	4828
889.759	4675
889.883	4653
890.006	4752
890.13	4870
890.254	4626
890.377	4755
890.501	4569
890.624	4596
890.748	4637
890.871	4531
890.995	4466
891.118	4398
891.241	4538
891.364	4584
891.488	4714
891.611	4531
891.734	4580
891.857	4630
891.98	4596
892.103	4668
892.226	4603
892.349	4554
892.471	4478
892.594	4561
892.717	4630
892.839	4577
892.962	4599
893.085	4691
893.207	4626
893.33	4504
893.452	4546
893.575	4656
893.697	4622
893.819	4831
893.941	4843
894.064	4843
894.186	4626
894.308	4584
894.43	4790
894.552	4793
894.674	4759
894.796	4577
894.918	4607
895.04	4607
895.161	4714
895.283	4641
895.405	4584
895.526	4656
895.648	4687
895.769	4725
895.891	4721
896.012	4752
896.134	4778
896.255	4706
896.376	4660
896.498	4641
896.619	4721
896.74	4645
896.861	4710
896.982	4904
897.103	5060
897.224	4900
897.345	4782
897.466	4729
897.587	4797
897.708	4919
897.828	4809
897.949	4725
898.07	4592
898.19	4626
898.311	4904
898.431	4702
898.552	4782
898.672	4847
898.792	4831
898.913	4790
899.033	4618
899.153	4538
899.273	4436
899.393	4550
899.513	4523
899.633	4523
899.753	4508
899.873	4493
899.993	4672
900.113	4584
900.232	4660
900.352	4592
900.472	4519
900.591	4394
900.711	4512
900.83	4405
900.95	4653
901.069	4710
901.189	4538
901.308	4371
901.427	4348
901.546	4390
901.665	4531
901.784	4561
901.904	4405
902.023	4337
902.141	4196
902.26	4204
902.379	4306
902.498	4276
902.617	4234
902.735	4341
902.854	4421
902.973	4337
903.091	4272
903.21	4295
903.328	4341
903.446	4272
903.565	4253
903.683	4367
903.801	4348
903.919	4470
904.038	4481
904.156	4299
904.274	4451
904.392	4428
904.51	4455
904.627	4516
904.745	4649
904.863	4649
904.981	4405
905.098	4310
905.216	4383
905.334	4409
905.451	4421
905.569	4485
905.686	4588
905.803	4558
905.921	4436
906.038	4565
906.155	4497
906.272	4436
906.389	4485
906.506	4409
906.623	4360
906.74	4356
906.857	4371
906.974	4367
907.091	4554
907.208	4714
907.324	4599
907.441	4516
907.557	4344
907.674	4325
907.79	4367
907.907	4424
908.023	4531
908.139	4527
908.256	4459
908.372	4497
908.488	4500
908.604	4398
908.72	4329
908.836	4402
908.952	4447
909.068	4394
909.184	4569
909.3	4516
909.415	4550
909.531	4580
909.647	4417
909.762	4363
909.878	4325
909.993	4424
910.108	4394
910.224	4447
910.339	4485
910.454	4402
910.57	4417
910.685	4299
910.8	4679
910.915	4588
911.03	4527
911.145	4341
911.259	4325
911.374	4360
911.489	4310
911.604	4276
911.718	4177
911.833	4234
911.947	4101
912.062	4044
912.176	4223
912.291	4272
912.405	4268
912.519	4474
912.633	4497
912.748	4398
912.862	4337
912.976	4211
913.09	4093
913.204	4211
913.318	4276
913.431	4421
913.545	4405
913.659	4470
913.772	4356
913.886	4261
914	4246
914.113	4394
914.226	4432
914.34	4394
914.453	4280
914.566	4440
914.68	4329
914.793	4363
914.906	4196
915.019	4109
915.132	4097
915.245	4181
915.358	4238
915.47	4272
915.583	4291
915.696	4363
915.809	4424
915.921	4413
916.034	4276
916.146	4249
916.259	4223
916.371	4447
916.483	4337
916.595	4291
916.708	4360
916.82	4299
916.932	4356
917.044	4383
917.156	4363
917.268	4246
917.38	4261
917.491	4272
917.603	4348
917.715	4421
917.826	4504
917.938	4398
918.049	4276
918.161	4398
918.272	4535
918.384	4531
918.495	4436
918.606	4341
918.717	4287
918.828	4306
918.939	4348
919.05	4238
919.161	4314
919.272	4154
919.383	4265
919.494	4478
919.604	4588
919.715	4409
919.826	4344
919.936	4428
920.047	4565
920.157	4542
920.267	4721
920.378	4554
920.488	4554
920.598	4736
920.708	4908
920.818	4767
920.928	4744
921.038	4957
921.148	4915
921.258	4596
921.368	4596
921.477	4546
921.587	4470
921.697	4398
921.806	4538
921.916	4481
922.025	4257
922.134	4265
922.244	4265
922.353	4337
922.462	4207
922.571	4154
922.68	4040
922.789	3964
922.898	4017
923.007	3979
923.116	4143
923.224	4082
923.333	4086
923.442	3968
923.55	3991
923.659	4032
923.767	4124
923.876	4017
923.984	4154
924.092	4021
924.201	4051
924.309	4055
924.417	4101
924.525	4112
924.633	4112
924.741	5064
924.849	3937
924.956	4169
925.064	3983
925.172	3911
925.279	3983
925.387	4055
925.494	4112
925.602	4192
925.709	4181
925.816	4029
925.924	4093
926.031	4238
926.138	4158
926.245	4234
926.352	4093
926.459	4265
926.566	4257
926.673	4158
926.779	4048
926.886	4101
926.993	3987
927.099	3979
927.206	3918
927.312	3987
927.419	4086
927.525	4017
927.631	4048
927.737	3975
927.843	3934
927.95	3865
928.056	3956
928.162	3972
928.267	4051
928.373	4626
928.479	4101
928.585	3911
928.69	4006
928.796	4067
928.901	3972
929.007	3812
929.112	3960
929.218	4048
929.323	3949
929.428	3911
929.533	4128
929.638	3926
929.743	3956
929.848	4036
929.953	3979
930.058	3960
930.163	3793
930.267	3846
930.372	4006
930.477	3884
930.581	4101
930.685	3949
930.79	3873
930.894	3869
930.998	3903
931.103	4093
931.207	3778
931.311	3701
931.415	3698
931.519	3545
931.623	3568
