Data from test_V78500241_2254.txt Node
Date: Fri Mar 25 17:04:40 CST 2022
User: usil
Spectrometer: V785-0024
Trigger mode: 0
Integration Time (sec): 4.000000E-1
Scans to average: 1
Nonlinearity correction enabled: false
Boxcar width: 0
Storing dark spectrum: false
XAxis mode: Wavelengths
Number of Pixels in Spectrum: 1024
>>>>>Begin Spectral Data<<<<<
801.071	8012
801.214	8012
801.356	7890
801.499	7887
801.641	7788
801.783	7856
801.926	7936
802.068	7902
802.211	7970
802.353	8031
802.496	7917
802.638	7890
802.78	7947
802.923	7887
803.065	7871
803.208	7913
803.35	8001
803.492	8088
803.635	8145
803.777	7974
803.919	8111
804.061	8503
804.204	8145
804.346	7974
804.488	7997
804.63	8043
804.773	8039
804.915	8123
805.057	8336
805.199	8191
805.341	8214
805.483	8195
805.626	8309
805.768	8153
805.91	8221
806.052	8237
806.194	8103
806.336	8202
806.478	8084
806.62	8065
806.762	8172
806.904	8248
807.046	8549
807.188	8355
807.33	8294
807.472	8320
807.614	8157
807.756	8157
807.898	7989
808.04	7849
808.182	7849
808.324	7890
808.465	7947
808.607	8039
808.749	8123
808.891	8229
809.033	8305
809.174	8221
809.316	8046
809.458	8134
809.6	8031
809.741	8096
809.883	8058
810.025	8115
810.166	8058
810.308	8001
810.45	7986
810.591	7833
810.733	7761
810.875	7601
811.016	7518
811.158	7510
811.299	7590
811.441	7715
811.582	7700
811.724	7586
811.865	7514
812.007	7529
812.148	7586
812.29	7666
812.431	7700
812.573	7940
812.714	7944
812.855	8176
812.997	8168
813.138	8351
813.279	8092
813.421	8084
813.562	7997
813.703	7814
813.845	7719
813.986	7487
814.127	7225
814.268	7145
814.41	7171
814.551	7160
814.692	7183
814.833	7080
814.974	7118
815.115	7145
815.256	6989
815.397	6844
815.539	6996
815.68	6768
815.821	6753
815.962	6913
816.103	6814
816.244	6730
816.385	6635
816.526	6654
816.666	6528
816.807	6285
816.948	6437
817.089	6475
817.23	6467
817.371	6437
817.512	6410
817.653	6441
817.793	6357
817.934	6350
818.075	6422
818.216	6410
818.356	6429
818.497	6266
818.638	6133
818.778	6167
818.919	6125
819.06	6148
819.2	6239
819.341	6346
819.481	6361
819.622	6566
819.762	6734
819.903	6776
820.043	6616
820.184	6509
820.324	6544
820.465	6715
820.605	6719
820.746	6620
820.886	6620
821.026	6684
821.167	6726
821.307	6791
821.447	6726
821.588	6635
821.728	6563
821.868	6441
822.008	6334
822.149	6346
822.289	6380
822.429	6129
822.569	6125
822.709	6079
822.849	5912
822.99	5931
823.13	5946
823.27	5904
823.41	5786
823.55	5805
823.69	5847
823.83	5805
823.97	5718
824.11	5501
824.25	5501
824.389	5570
824.529	5608
824.669	5528
824.809	5649
824.949	5653
825.089	5585
825.228	5573
825.368	5391
825.508	5334
825.648	5303
825.787	5414
825.927	5360
826.067	5265
826.206	5265
826.346	5364
826.485	5398
826.625	5448
826.765	5501
826.904	5547
827.044	5258
827.183	5212
827.323	5124
827.462	5258
827.601	5170
827.741	5227
827.88	5246
828.02	5113
828.159	5227
828.298	5330
828.437	5330
828.577	5357
828.716	5493
828.855	5379
828.994	5166
829.134	5174
829.273	5216
829.412	5235
829.551	5162
829.69	5162
829.829	5292
829.968	5353
830.107	5280
830.246	5368
830.385	5220
830.524	5162
830.663	5155
830.802	4972
830.941	4938
831.08	4946
831.219	5022
831.357	5022
831.496	5193
831.635	4949
831.774	4927
831.913	4911
832.051	4736
832.19	4805
832.329	4885
832.467	4736
832.606	4691
832.744	4797
832.883	4694
833.022	4790
833.16	4835
833.299	4858
833.437	4831
833.576	4908
833.714	4847
833.852	4885
833.991	4957
834.129	4930
834.267	5037
834.406	4980
834.544	4968
834.682	4949
834.821	4946
834.959	5235
835.097	5025
835.235	5220
835.373	5117
835.511	5102
835.65	5109
835.788	5064
835.926	4900
836.064	4908
836.202	4900
836.34	5201
836.478	5265
836.615	5174
836.753	5242
836.891	5326
837.029	5261
837.167	5204
837.305	5197
837.443	5155
837.58	5090
837.718	5303
837.856	5250
837.993	5208
838.131	5242
838.269	5254
838.406	5250
838.544	5235
838.681	5067
838.819	5025
838.956	4908
839.094	4949
839.231	4987
839.369	5102
839.506	5497
839.643	5303
839.781	5071
839.918	5067
840.055	5090
840.193	5124
840.33	5136
840.467	5181
840.604	5231
840.742	5440
840.879	5117
841.016	5124
841.153	5204
841.29	5414
841.427	5357
841.564	5368
841.701	5395
841.838	5288
841.975	5273
842.112	5269
842.249	5155
842.385	5151
842.522	5372
842.659	5197
842.796	5113
842.933	5223
843.069	5181
843.206	5147
843.343	5337
843.479	5288
843.616	5273
843.752	5022
843.889	5083
844.025	5265
844.162	5064
844.298	5212
844.435	5178
844.571	5025
844.708	5254
844.844	5341
844.98	5337
845.117	5379
845.253	5151
845.389	5090
845.525	5189
845.661	5174
845.798	4999
845.934	5128
846.07	5105
846.206	5254
846.342	5265
846.478	5178
846.614	5045
846.75	4984
846.886	4965
847.022	5185
847.158	5075
847.294	5086
847.429	5193
847.565	5113
847.701	5303
847.837	4904
847.972	4786
848.108	4938
848.244	4987
848.379	4843
848.515	4748
848.65	4752
848.786	4786
848.921	4782
849.057	4889
849.192	4930
849.328	4892
849.463	4877
849.598	4847
849.734	4778
849.869	4694
850.004	4660
850.14	4721
850.275	4626
850.41	4615
850.545	4527
850.68	4637
850.815	4691
850.95	4691
851.085	4866
851.22	4748
851.355	4672
851.49	4687
851.625	4615
851.76	4664
851.895	4577
852.03	4565
852.165	4694
852.299	4786
852.434	4835
852.569	4801
852.703	4748
852.838	4877
852.973	4923
853.107	4961
853.242	4790
853.376	4702
853.511	4558
853.645	4630
853.78	4870
853.914	4706
854.048	4687
854.183	4653
854.317	4736
854.451	4896
854.585	4702
854.72	4653
854.854	4759
854.988	4599
855.122	4668
855.256	4538
855.39	4675
855.524	4782
855.658	4797
855.792	4687
855.926	4763
856.06	4763
856.194	4858
856.327	4740
856.461	4660
856.595	4622
856.729	4668
856.862	4793
856.996	4725
857.13	4729
857.263	4748
857.397	4835
857.53	4683
857.664	4710
857.797	4790
857.931	4820
858.064	4698
858.197	4755
858.331	4649
858.464	4603
858.597	4588
858.731	4649
858.864	4698
858.997	4668
859.13	4717
859.263	4736
859.396	4679
859.529	4630
859.662	4618
859.795	4569
859.928	4687
860.061	4778
860.194	4816
860.327	4668
860.46	4577
860.592	4729
860.725	4744
860.858	4687
860.99	4634
861.123	4577
861.256	4489
861.388	4653
861.521	5330
861.653	4508
861.786	4478
861.918	4466
862.05	4584
862.183	4615
862.315	4622
862.447	4649
862.58	4573
862.712	4413
862.844	4371
862.976	4535
863.108	4478
863.24	4904
863.372	4348
863.504	4394
863.636	4436
863.768	4478
863.9	4428
864.032	4424
864.164	4424
864.296	4535
864.428	4592
864.559	4596
864.691	4561
864.823	4596
864.954	4512
865.086	4512
865.217	4516
865.349	4466
865.48	4436
865.612	4481
865.743	4672
865.875	4516
866.006	4440
866.137	4497
866.269	4409
866.4	4504
866.531	4424
866.662	4436
866.793	4440
866.924	4447
867.055	4554
867.186	4466
867.317	4459
867.448	4424
867.579	4474
867.71	4417
867.841	4371
867.972	4481
868.103	4497
868.233	4519
868.364	4504
868.495	4538
868.625	4729
868.756	4790
868.886	4580
869.017	4660
869.147	4797
869.278	4816
869.408	4660
869.539	4637
869.669	4744
869.799	4683
869.929	4797
870.06	4736
870.19	4984
870.32	4919
870.45	4934
870.58	5037
870.71	5094
870.84	5117
870.97	5018
871.1	4877
871.23	5151
871.36	5121
871.489	5037
871.619	5102
871.749	5094
871.879	5086
872.008	5204
872.138	5048
872.267	4972
872.397	4896
872.526	4843
872.656	4748
872.785	4858
872.915	4965
873.044	5067
873.173	4965
873.303	4991
873.432	4927
873.561	4991
873.69	4930
873.819	4896
873.948	4866
874.077	4870
874.206	4729
874.335	4801
874.464	4930
874.593	5098
874.722	4930
874.851	5128
874.979	5102
875.108	5064
875.237	4911
875.365	4877
875.494	4911
875.623	4968
875.751	4858
875.88	4896
876.008	5033
876.136	5045
876.265	5235
876.393	5357
876.521	5326
876.65	5197
876.778	5143
876.906	5109
877.034	5056
877.162	5064
877.29	4995
877.418	5121
877.546	5071
877.674	5083
877.802	5052
877.93	5060
878.058	4999
878.185	4873
878.313	4999
878.441	4980
878.568	4786
878.696	4873
878.824	5014
878.951	5033
879.079	5204
879.206	5379
879.333	5086
879.461	5022
879.588	5037
879.715	5181
879.842	5288
879.97	5003
880.097	4801
880.224	4793
880.351	4858
880.478	4850
880.605	4820
880.732	4809
880.859	5124
880.986	4911
881.112	4915
881.239	4736
881.366	4675
881.493	4599
881.619	4512
881.746	4694
881.872	4702
881.999	4664
882.125	4714
882.252	4820
882.378	4866
882.505	4987
882.631	4831
882.757	4668
882.883	4771
883.01	4774
883.136	4691
883.262	4649
883.388	4561
883.514	4892
883.64	4858
883.766	4786
883.892	4729
884.018	4694
884.143	4927
884.269	5025
884.395	4752
884.52	4641
884.646	4656
884.772	4611
884.897	4569
885.023	4714
885.148	4793
885.274	4870
885.399	4866
885.524	4744
885.65	4733
885.775	4714
885.9	4717
886.025	4881
886.15	4824
886.275	4790
886.4	4679
886.525	4733
886.65	4664
886.775	4698
886.9	4949
887.025	5071
887.149	4805
887.274	4656
887.399	4603
887.523	4618
887.648	4592
887.773	4573
887.897	4774
888.021	4839
888.146	4660
888.27	4835
888.395	4885
888.519	4812
888.643	4835
888.767	4820
888.891	4714
889.015	4615
889.139	4710
889.263	4664
889.387	4755
889.511	4858
889.635	4843
889.759	4630
889.883	4683
890.006	4778
890.13	4858
890.254	4596
890.377	4744
890.501	4599
890.624	4603
890.748	4603
890.871	4489
890.995	4424
891.118	4451
891.241	4542
891.364	4584
891.488	4645
891.611	4535
891.734	4550
891.857	4607
891.98	4580
892.103	4691
892.226	4592
892.349	4542
892.471	4432
892.594	4538
892.717	4542
892.839	4554
892.962	4580
893.085	4660
893.207	4626
893.33	4459
893.452	4542
893.575	4641
893.697	4592
893.819	4828
893.941	4828
894.064	4801
894.186	4653
894.308	4599
894.43	4740
894.552	4847
894.674	4774
894.796	4546
894.918	4641
895.04	4569
895.161	4710
895.283	4637
895.405	4603
895.526	4656
895.648	4702
895.769	4641
895.891	4744
896.012	4763
896.134	4683
896.255	4702
896.376	4637
896.498	4599
896.619	4710
896.74	4626
896.861	4675
896.982	4889
897.103	5098
897.224	4839
897.345	4812
897.466	4710
897.587	4706
897.708	4805
897.828	4786
897.949	4694
898.07	4603
898.19	4691
898.311	4812
898.431	4706
898.552	4778
898.672	4850
898.792	4793
898.913	4790
899.033	4656
899.153	4542
899.273	4432
899.393	4519
899.513	4542
899.633	4546
899.753	4554
899.873	4508
899.993	4577
900.113	4554
900.232	4599
900.352	4523
900.472	4512
900.591	4424
900.711	4485
900.83	4440
900.95	4637
901.069	4694
901.189	4573
901.308	4352
901.427	4329
901.546	4462
901.665	4474
901.784	4538
901.904	4363
902.023	4314
902.141	4177
902.26	4166
902.379	4329
902.498	4287
902.617	4238
902.735	4421
902.854	4428
902.973	4348
903.091	4234
903.21	4227
903.328	4333
903.446	4299
903.565	4303
903.683	4402
903.801	4310
903.919	4383
904.038	4402
904.156	4348
904.274	4440
904.392	4394
904.51	4432
904.627	4462
904.745	4584
904.863	4645
904.981	4402
905.098	4318
905.216	4398
905.334	4428
905.451	4413
905.569	4440
905.686	4554
905.803	4611
905.921	4405
906.038	4588
906.155	4432
906.272	4375
906.389	4440
906.506	4371
906.623	4402
906.74	4402
906.857	4402
906.974	4375
907.091	4580
907.208	4683
907.324	4653
907.441	4493
907.557	4356
907.674	4363
907.79	4341
907.907	4363
908.023	4481
908.139	4504
908.256	4474
908.372	4478
908.488	4405
908.604	4360
908.72	4344
908.836	4341
908.952	4390
909.068	4428
909.184	4527
909.3	4523
909.415	4611
909.531	4580
909.647	4356
909.762	4394
909.878	4337
909.993	4436
910.108	4413
910.224	4455
910.339	4519
910.454	4405
910.57	4367
910.685	4299
910.8	4630
910.915	4611
911.03	4478
911.145	4360
911.259	4310
911.374	4356
911.489	4303
911.604	4295
911.718	4150
911.833	4211
911.947	4166
912.062	4097
912.176	4219
912.291	4280
912.405	4223
912.519	4470
912.633	4443
912.748	4371
912.862	4291
912.976	4246
913.09	4120
913.204	4181
913.318	4242
913.431	4390
913.545	4363
913.659	4481
913.772	4352
913.886	4200
914	4223
914.113	4405
914.226	4459
914.34	4383
914.453	4261
914.566	4443
914.68	4329
914.793	4333
914.906	4143
915.019	4154
915.132	4059
915.245	4143
915.358	4207
915.47	4242
915.583	4261
915.696	4322
915.809	4417
915.921	4436
916.034	4257
916.146	4272
916.259	4265
916.371	4375
916.483	4367
916.595	4287
916.708	4284
916.82	4371
916.932	4306
917.044	4390
917.156	4276
917.268	4234
917.38	4284
917.491	4322
917.603	4322
917.715	4443
917.826	4440
917.938	4318
918.049	4227
918.161	4390
918.272	4538
918.384	4573
918.495	4421
918.606	4333
918.717	4261
918.828	4371
918.939	4447
919.05	4291
919.161	4363
919.272	4158
919.383	4219
919.494	4459
919.604	4603
919.715	4398
919.826	4356
919.936	4409
920.047	4516
920.157	4478
920.267	4733
920.378	4558
920.488	4508
920.598	4748
920.708	4908
920.818	4771
920.928	4805
921.038	4961
921.148	4968
921.258	4664
921.368	4558
921.477	4565
921.587	4478
921.697	4325
921.806	4573
921.916	4451
922.025	4272
922.134	4257
922.244	4238
922.353	4348
922.462	4185
922.571	4116
922.68	3934
922.789	4021
922.898	4025
923.007	3975
923.116	4109
923.224	4059
923.333	4090
923.442	4002
923.55	3968
923.659	4040
923.767	4150
923.876	3987
923.984	4090
924.092	3975
924.201	4074
924.309	4105
924.417	4128
924.525	4067
924.633	4128
924.741	5041
924.849	3930
924.956	4150
925.064	3956
925.172	3934
925.279	3979
925.387	4105
925.494	4059
925.602	4219
925.709	4230
925.816	4010
925.924	4150
926.031	4242
926.138	4147
926.245	4188
926.352	4063
926.459	4257
926.566	4268
926.673	4219
926.779	4051
926.886	4101
926.993	3964
927.099	3983
927.206	3915
927.312	3884
927.419	4063
927.525	4048
927.631	4078
927.737	3983
927.843	3907
927.95	3873
928.056	4013
928.162	3998
928.267	4097
928.373	4653
928.479	4101
928.585	3907
928.69	4025
928.796	4055
928.901	3960
929.007	3850
929.112	4013
929.218	3960
929.323	3892
929.428	3926
929.533	4128
929.638	3899
929.743	3987
929.848	4048
929.953	4006
930.058	3953
930.163	3831
930.267	3774
930.372	3949
930.477	3827
930.581	4067
930.685	3915
930.79	3804
930.894	3880
930.998	3819
931.103	4067
931.207	3682
931.311	3701
931.415	3679
931.519	3519
931.623	3595
