Data from test_V78500241_1394.txt Node
Date: Fri Mar 25 16:58:41 CST 2022
User: usil
Spectrometer: V785-0024
Trigger mode: 0
Integration Time (sec): 4.000000E-1
Scans to average: 1
Nonlinearity correction enabled: false
Boxcar width: 0
Storing dark spectrum: false
XAxis mode: Wavelengths
Number of Pixels in Spectrum: 1024
>>>>>Begin Spectral Data<<<<<
801.071	8031
801.214	7974
801.356	7864
801.499	7852
801.641	7750
801.783	7860
801.926	7932
802.068	7974
802.211	7940
802.353	7989
802.496	7845
802.638	7830
802.78	7902
802.923	7871
803.065	7860
803.208	7864
803.35	7959
803.492	8081
803.635	8134
803.777	7959
803.919	8084
804.061	8408
804.204	8191
804.346	8073
804.488	7898
804.63	8077
804.773	8024
804.915	8138
805.057	8256
805.199	8180
805.341	8202
805.483	8267
805.626	8191
805.768	8134
805.91	8206
806.052	8282
806.194	8073
806.336	8271
806.478	8100
806.62	8065
806.762	8176
806.904	8195
807.046	8400
807.188	8336
807.33	8214
807.472	8317
807.614	8164
807.756	8168
807.898	7986
808.04	7951
808.182	7875
808.324	7871
808.465	7925
808.607	8073
808.749	8096
808.891	8107
809.033	8244
809.174	8176
809.316	8084
809.458	8069
809.6	7993
809.741	7989
809.883	8073
810.025	8107
810.166	8126
810.308	8077
810.45	8016
810.591	7902
810.733	7761
810.875	7704
811.016	7510
811.158	7540
811.299	7552
811.441	7746
811.582	7685
811.724	7529
811.865	7499
812.007	7586
812.148	7601
812.29	7616
812.431	7712
812.573	7913
812.714	7951
812.855	8088
812.997	8164
813.138	8381
813.279	8221
813.421	8107
813.562	7955
813.703	7868
813.845	7803
813.986	7392
814.127	7270
814.268	7278
814.41	7206
814.551	7160
814.692	7171
814.833	7065
814.974	7156
815.115	7072
815.256	6989
815.397	6996
815.539	6954
815.68	6741
815.821	6749
815.962	6806
816.103	6814
816.244	6798
816.385	6585
816.526	6582
816.666	6471
816.807	6315
816.948	6486
817.089	6464
817.23	6452
817.371	6388
817.512	6331
817.653	6391
817.793	6380
817.934	6403
818.075	6429
818.216	6467
818.356	6414
818.497	6220
818.638	6121
818.778	6125
818.919	6072
819.06	6163
819.2	6292
819.341	6308
819.481	6384
819.622	6544
819.762	6722
819.903	6726
820.043	6578
820.184	6566
820.324	6532
820.465	6669
820.605	6635
820.746	6601
820.886	6525
821.026	6665
821.167	6700
821.307	6791
821.447	6760
821.588	6662
821.728	6585
821.868	6426
822.008	6338
822.149	6334
822.289	6338
822.429	6125
822.569	6049
822.709	6148
822.849	5908
822.99	5885
823.13	5920
823.27	5885
823.41	5813
823.55	5817
823.69	5817
823.83	5733
823.97	5699
824.11	5505
824.25	5535
824.389	5547
824.529	5551
824.669	5532
824.809	5619
824.949	5585
825.089	5638
825.228	5581
825.368	5406
825.508	5337
825.648	5311
825.787	5379
825.927	5353
826.067	5242
826.206	5299
826.346	5402
826.485	5421
826.625	5372
826.765	5501
826.904	5436
827.044	5239
827.183	5193
827.323	5094
827.462	5231
827.601	5113
827.741	5151
827.88	5162
828.02	5056
828.159	5220
828.298	5261
828.437	5330
828.577	5212
828.716	5467
828.855	5292
828.994	5140
829.134	5102
829.273	5166
829.412	5136
829.551	5147
829.69	5159
829.829	5258
829.968	5326
830.107	5265
830.246	5261
830.385	5143
830.524	5090
830.663	5060
830.802	4968
830.941	4877
831.08	4873
831.219	4999
831.357	4919
831.496	5181
831.635	4896
831.774	4831
831.913	4816
832.051	4729
832.19	4759
832.329	4782
832.467	4683
832.606	4622
832.744	4717
832.883	4672
833.022	4748
833.16	4771
833.299	4824
833.437	4793
833.576	4809
833.714	4858
833.852	4843
833.991	4904
834.129	4923
834.267	4946
834.406	4862
834.544	4980
834.682	4965
834.821	4980
834.959	5124
835.097	4968
835.235	5140
835.373	5094
835.511	5102
835.65	5037
835.788	5014
835.926	4854
836.064	4839
836.202	4938
836.34	5147
836.478	5223
836.615	5117
836.753	5227
836.891	5231
837.029	5239
837.167	5185
837.305	5140
837.443	5147
837.58	5090
837.718	5246
837.856	5197
837.993	5124
838.131	5170
838.269	5143
838.406	5189
838.544	5197
838.681	5018
838.819	4995
838.956	4908
839.094	4915
839.231	4976
839.369	5060
839.506	5421
839.643	5227
839.781	5060
839.918	4995
840.055	5105
840.193	5041
840.33	5086
840.467	5140
840.604	5201
840.742	5433
840.879	5060
841.016	5121
841.153	5143
841.29	5330
841.427	5284
841.564	5220
841.701	5379
841.838	5261
841.975	5220
842.112	5231
842.249	5090
842.385	5117
842.522	5318
842.659	5124
842.796	5113
842.933	5201
843.069	5162
843.206	5143
843.343	5265
843.479	5189
843.616	5284
843.752	5037
843.889	4999
844.025	5197
844.162	5006
844.298	5220
844.435	5105
844.571	5079
844.708	5170
844.844	5284
844.98	5326
845.117	5258
845.253	5185
845.389	5037
845.525	5143
845.661	5121
845.798	5014
845.934	5132
846.07	5006
846.206	5212
846.342	5284
846.478	5151
846.614	5029
846.75	4972
846.886	4995
847.022	5094
847.158	5025
847.294	5025
847.429	5083
847.565	5075
847.701	5337
847.837	4812
847.972	4793
848.108	4957
848.244	4927
848.379	4828
848.515	4740
848.65	4736
848.786	4740
848.921	4778
849.057	4797
849.192	4885
849.328	4801
849.463	4858
849.598	4801
849.734	4721
849.869	4710
850.004	4550
850.14	4660
850.275	4626
850.41	4500
850.545	4516
850.68	4569
850.815	4607
850.95	4626
851.085	4843
851.22	4714
851.355	4641
851.49	4603
851.625	4668
851.76	4653
851.895	4535
852.03	4497
852.165	4645
852.299	4714
852.434	4816
852.569	4706
852.703	4759
852.838	4801
852.973	4873
853.107	4873
853.242	4782
853.376	4687
853.511	4558
853.645	4603
853.78	4778
853.914	4683
854.048	4675
854.183	4611
854.317	4675
854.451	4843
854.585	4664
854.72	4656
854.854	4714
854.988	4592
855.122	4653
855.256	4538
855.39	4653
855.524	4763
855.658	4740
855.792	4664
855.926	4786
856.06	4797
856.194	4793
856.327	4702
856.461	4630
856.595	4615
856.729	4630
856.862	4759
856.996	4687
857.13	4683
857.263	4721
857.397	4793
857.53	4634
857.664	4744
857.797	4767
857.931	4820
858.064	4687
858.197	4744
858.331	4675
858.464	4672
858.597	4500
858.731	4596
858.864	4645
858.997	4542
859.13	4584
859.263	4660
859.396	4630
859.529	4592
859.662	4554
859.795	4523
859.928	4634
860.061	4771
860.194	4786
860.327	4538
860.46	4542
860.592	4694
860.725	4725
860.858	4694
860.99	4577
861.123	4535
861.256	4531
861.388	4584
861.521	5402
861.653	4432
861.786	4451
861.918	4466
862.05	4516
862.183	4538
862.315	4603
862.447	4596
862.58	4531
862.712	4390
862.844	4322
862.976	4455
863.108	4428
863.24	4839
863.372	4303
863.504	4413
863.636	4394
863.768	4459
863.9	4417
864.032	4390
864.164	4383
864.296	4462
864.428	4519
864.559	4588
864.691	4451
864.823	4573
864.954	4531
865.086	4493
865.217	4432
865.349	4409
865.48	4474
865.612	4436
865.743	4626
865.875	4447
866.006	4402
866.137	4493
866.269	4402
866.4	4421
866.531	4447
866.662	4421
866.793	4428
866.924	4409
867.055	4466
867.186	4459
867.317	4383
867.448	4341
867.579	4421
867.71	4402
867.841	4341
867.972	4443
868.103	4379
868.233	4474
868.364	4447
868.495	4504
868.625	4641
868.756	4698
868.886	4531
869.017	4622
869.147	4793
869.278	4736
869.408	4683
869.539	4626
869.669	4714
869.799	4664
869.929	4797
870.06	4755
870.19	4946
870.32	4915
870.45	4904
870.58	4961
870.71	5075
870.84	5098
870.97	4991
871.1	4839
871.23	5132
871.36	5105
871.489	4980
871.619	5060
871.749	5071
871.879	5113
872.008	5147
872.138	5025
872.267	4987
872.397	4847
872.526	4805
872.656	4748
872.785	4809
872.915	4938
873.044	5037
873.173	4858
873.303	4923
873.432	5014
873.561	4915
873.69	4900
873.819	4866
873.948	4908
874.077	4809
874.206	4740
874.335	4809
874.464	4911
874.593	5067
874.722	4957
874.851	5075
874.979	5010
875.108	4984
875.237	4885
875.365	4858
875.494	4889
875.623	4999
875.751	4824
875.88	4839
876.008	4923
876.136	5006
876.265	5162
876.393	5387
876.521	5212
876.65	5147
876.778	5128
876.906	5075
877.034	5056
877.162	4987
877.29	4942
877.418	5003
877.546	5048
877.674	5003
877.802	5018
877.93	5006
878.058	4923
878.185	4866
878.313	4995
878.441	4904
878.568	4748
878.696	4862
878.824	4923
878.951	4984
879.079	5083
879.206	5242
879.333	5113
879.461	4980
879.588	4987
879.715	5140
879.842	5181
879.97	5037
880.097	4774
880.224	4702
880.351	4847
880.478	4877
880.605	4774
880.732	4786
880.859	5033
880.986	4938
881.112	4904
881.239	4759
881.366	4630
881.493	4580
881.619	4615
881.746	4626
881.872	4596
881.999	4664
882.125	4717
882.252	4744
882.378	4854
882.505	4942
882.631	4812
882.757	4626
882.883	4736
883.01	4698
883.136	4622
883.262	4611
883.388	4588
883.514	4820
883.64	4847
883.766	4786
883.892	4637
884.018	4694
884.143	4930
884.269	4976
884.395	4717
884.52	4653
884.646	4615
884.772	4615
884.897	4546
885.023	4592
885.148	4790
885.274	4850
885.399	4786
885.524	4733
885.65	4710
885.775	4721
885.9	4694
886.025	4873
886.15	4774
886.275	4679
886.4	4679
886.525	4656
886.65	4675
886.775	4702
886.9	4850
887.025	5071
887.149	4763
887.274	4618
887.399	4603
887.523	4588
887.648	4550
887.773	4580
887.897	4721
888.021	4778
888.146	4683
888.27	4828
888.395	4896
888.519	4797
888.643	4824
888.767	4812
888.891	4653
889.015	4592
889.139	4653
889.263	4630
889.387	4729
889.511	4839
889.635	4782
889.759	4607
889.883	4641
890.006	4694
890.13	4858
890.254	4603
890.377	4687
890.501	4519
890.624	4504
890.748	4611
890.871	4542
890.995	4432
891.118	4386
891.241	4489
891.364	4462
891.488	4615
891.611	4516
891.734	4546
891.857	4599
891.98	4558
892.103	4679
892.226	4561
892.349	4489
892.471	4402
892.594	4558
892.717	4611
892.839	4554
892.962	4615
893.085	4622
893.207	4558
893.33	4443
893.452	4481
893.575	4615
893.697	4554
893.819	4782
893.941	4850
894.064	4725
894.186	4561
894.308	4550
894.43	4736
894.552	4812
894.674	4717
894.796	4493
894.918	4607
895.04	4527
895.161	4714
895.283	4637
895.405	4527
895.526	4603
895.648	4691
895.769	4672
895.891	4687
896.012	4721
896.134	4714
896.255	4675
896.376	4611
896.498	4691
896.619	4675
896.74	4569
896.861	4637
896.982	4870
897.103	5056
897.224	4805
897.345	4687
897.466	4630
897.587	4774
897.708	4843
897.828	4824
897.949	4687
898.07	4569
898.19	4580
898.311	4812
898.431	4668
898.552	4687
898.672	4816
898.792	4805
898.913	4771
899.033	4592
899.153	4489
899.273	4462
899.393	4474
899.513	4504
899.633	4504
899.753	4538
899.873	4485
899.993	4573
900.113	4542
900.232	4599
900.352	4478
900.472	4478
900.591	4383
900.711	4504
900.83	4447
900.95	4588
901.069	4698
901.189	4516
901.308	4363
901.427	4246
901.546	4333
901.665	4462
901.784	4478
901.904	4413
902.023	4310
902.141	4166
902.26	4143
902.379	4299
902.498	4261
902.617	4154
902.735	4379
902.854	4352
902.973	4383
903.091	4185
903.21	4211
903.328	4310
903.446	4299
903.565	4284
903.683	4344
903.801	4280
903.919	4394
904.038	4405
904.156	4329
904.274	4455
904.392	4379
904.51	4451
904.627	4459
904.745	4573
904.863	4565
904.981	4413
905.098	4306
905.216	4421
905.334	4493
905.451	4451
905.569	4455
905.686	4558
905.803	4497
905.921	4440
906.038	4531
906.155	4504
906.272	4443
906.389	4443
906.506	4360
906.623	4398
906.74	4409
906.857	4333
906.974	4402
907.091	4577
907.208	4664
907.324	4596
907.441	4462
907.557	4360
907.674	4341
907.79	4306
907.907	4356
908.023	4485
908.139	4474
908.256	4417
908.372	4447
908.488	4455
908.604	4333
908.72	4299
908.836	4386
908.952	4375
909.068	4402
909.184	4569
909.3	4485
909.415	4592
909.531	4516
909.647	4421
909.762	4363
909.878	4325
909.993	4398
910.108	4417
910.224	4440
910.339	4421
910.454	4375
910.57	4383
910.685	4318
910.8	4634
910.915	4592
911.03	4481
911.145	4337
911.259	4356
911.374	4386
911.489	4310
911.604	4265
911.718	4169
911.833	4162
911.947	4051
912.062	4025
912.176	4200
912.291	4246
912.405	4253
912.519	4493
912.633	4508
912.748	4360
912.862	4265
912.976	4211
913.09	4082
913.204	4169
913.318	4230
913.431	4356
913.545	4360
913.659	4379
913.772	4363
913.886	4219
914	4185
914.113	4341
914.226	4459
914.34	4394
914.453	4192
914.566	4409
914.68	4299
914.793	4352
914.906	4131
915.019	4124
915.132	4059
915.245	4093
915.358	4215
915.47	4219
915.583	4238
915.696	4299
915.809	4405
915.921	4394
916.034	4246
916.146	4196
916.259	4219
916.371	4337
916.483	4318
916.595	4276
916.708	4276
916.82	4325
916.932	4306
917.044	4322
917.156	4303
917.268	4223
917.38	4291
917.491	4242
917.603	4306
917.715	4440
917.826	4470
917.938	4333
918.049	4238
918.161	4390
918.272	4512
918.384	4531
918.495	4451
918.606	4299
918.717	4257
918.828	4329
918.939	4341
919.05	4272
919.161	4303
919.272	4135
919.383	4242
919.494	4443
919.604	4660
919.715	4424
919.826	4314
919.936	4367
920.047	4516
920.157	4447
920.267	4706
920.378	4508
920.488	4508
920.598	4675
920.708	4866
920.818	4721
920.928	4763
921.038	4953
921.148	4919
921.258	4641
921.368	4580
921.477	4459
921.587	4432
921.697	4421
921.806	4573
921.916	4409
922.025	4295
922.134	4265
922.244	4227
922.353	4284
922.462	4150
922.571	4105
922.68	3987
922.789	3956
922.898	4044
923.007	3960
923.116	4105
923.224	4090
923.333	4063
923.442	3979
923.55	3926
923.659	4040
923.767	4074
923.876	3998
923.984	4124
924.092	3960
924.201	4044
924.309	4067
924.417	4101
924.525	3998
924.633	4063
924.741	4995
924.849	3896
924.956	4128
925.064	3937
925.172	3907
925.279	3956
925.387	4067
925.494	4048
925.602	4196
925.709	4177
925.816	4010
925.924	4112
926.031	4211
926.138	4200
926.245	4211
926.352	4071
926.459	4215
926.566	4352
926.673	4071
926.779	4067
926.886	4093
926.993	3975
927.099	3945
927.206	3934
927.312	3903
927.419	4055
927.525	4040
927.631	4143
927.737	3964
927.843	3945
927.95	3831
928.056	3975
928.162	3972
928.267	4078
928.373	4634
928.479	4078
928.585	3892
928.69	4002
928.796	4101
928.901	3953
929.007	3838
929.112	4013
929.218	3979
929.323	3953
929.428	3926
929.533	4063
929.638	3873
929.743	3956
929.848	3998
929.953	3987
930.058	3884
930.163	3759
930.267	3804
930.372	3972
930.477	3762
930.581	4112
930.685	3941
930.79	3835
930.894	3907
930.998	3876
931.103	4006
931.207	3720
931.311	3671
931.415	3652
931.519	3500
931.623	3523
