Data from test_V78500241_2157.txt Node
Date: Fri Mar 25 17:04:00 CST 2022
User: usil
Spectrometer: V785-0024
Trigger mode: 0
Integration Time (sec): 4.000000E-1
Scans to average: 1
Nonlinearity correction enabled: false
Boxcar width: 0
Storing dark spectrum: false
XAxis mode: Wavelengths
Number of Pixels in Spectrum: 1024
>>>>>Begin Spectral Data<<<<<
801.071	8005
801.214	7982
801.356	7902
801.499	7833
801.641	7826
801.783	7894
801.926	7970
802.068	7917
802.211	7963
802.353	8005
802.496	7898
802.638	7826
802.78	7875
802.923	7879
803.065	7982
803.208	7894
803.35	8012
803.492	8153
803.635	8183
803.777	8115
803.919	8164
804.061	8438
804.204	8119
804.346	8069
804.488	7989
804.63	8065
804.773	8058
804.915	8103
805.057	8298
805.199	8149
805.341	8271
805.483	8339
805.626	8320
805.768	8187
805.91	8221
806.052	8229
806.194	8218
806.336	8366
806.478	8183
806.62	8096
806.762	8161
806.904	8286
807.046	8537
807.188	8355
807.33	8309
807.472	8362
807.614	8161
807.756	8134
807.898	8107
808.04	7944
808.182	7978
808.324	7963
808.465	7913
808.607	8062
808.749	8225
808.891	8282
809.033	8370
809.174	8210
809.316	8084
809.458	8107
809.6	8084
809.741	8077
809.883	8035
810.025	8088
810.166	8138
810.308	8043
810.45	8073
810.591	7807
810.733	7753
810.875	7658
811.016	7556
811.158	7571
811.299	7586
811.441	7803
811.582	7753
811.724	7613
811.865	7613
812.007	7590
812.148	7594
812.29	7670
812.431	7761
812.573	7909
812.714	8050
812.855	8130
812.997	8214
813.138	8271
813.279	8195
813.421	8100
813.562	8008
813.703	7875
813.845	7700
813.986	7476
814.127	7293
814.268	7236
814.41	7263
814.551	7217
814.692	7240
814.833	7175
814.974	7179
815.115	7137
815.256	7004
815.397	6973
815.539	6966
815.68	6913
815.821	6802
815.962	6840
816.103	6920
816.244	6734
816.385	6665
816.526	6669
816.666	6479
816.807	6327
816.948	6429
817.089	6513
817.23	6498
817.371	6346
817.512	6414
817.653	6395
817.793	6426
817.934	6483
818.075	6490
818.216	6422
818.356	6414
818.497	6266
818.638	6129
818.778	6205
818.919	6136
819.06	6205
819.2	6422
819.341	6331
819.481	6395
819.622	6551
819.762	6719
819.903	6722
820.043	6631
820.184	6578
820.324	6616
820.465	6703
820.605	6730
820.746	6677
820.886	6525
821.026	6707
821.167	6734
821.307	6825
821.447	6848
821.588	6646
821.728	6601
821.868	6471
822.008	6342
822.149	6410
822.289	6388
822.429	6167
822.569	6136
822.709	6239
822.849	5916
822.99	5927
823.13	6003
823.27	5931
823.41	5863
823.55	5775
823.69	5805
823.83	5741
823.97	5668
824.11	5562
824.25	5539
824.389	5596
824.529	5592
824.669	5558
824.809	5627
824.949	5672
825.089	5615
825.228	5551
825.368	5364
825.508	5379
825.648	5357
825.787	5448
825.927	5429
826.067	5364
826.206	5368
826.346	5406
826.485	5440
826.625	5429
826.765	5562
826.904	5547
827.044	5212
827.183	5166
827.323	5124
827.462	5292
827.601	5212
827.741	5216
827.88	5227
828.02	5143
828.159	5197
828.298	5296
828.437	5459
828.577	5307
828.716	5455
828.855	5322
828.994	5197
829.134	5132
829.273	5239
829.412	5178
829.551	5178
829.69	5159
829.829	5277
829.968	5353
830.107	5349
830.246	5334
830.385	5181
830.524	5151
830.663	5132
830.802	5006
830.941	4896
831.08	4889
831.219	5006
831.357	4961
831.496	5178
831.635	4889
831.774	4847
831.913	4847
832.051	4744
832.19	4763
832.329	4885
832.467	4702
832.606	4675
832.744	4763
832.883	4740
833.022	4786
833.16	4828
833.299	4850
833.437	4850
833.576	4816
833.714	4889
833.852	4873
833.991	4927
834.129	4976
834.267	4961
834.406	4942
834.544	4999
834.682	4987
834.821	4949
834.959	5159
835.097	5041
835.235	5128
835.373	5151
835.511	5102
835.65	5048
835.788	5048
835.926	4927
836.064	4862
836.202	4976
836.34	5197
836.478	5292
836.615	5181
836.753	5269
836.891	5330
837.029	5296
837.167	5178
837.305	5246
837.443	5121
837.58	5075
837.718	5284
837.856	5208
837.993	5197
838.131	5227
838.269	5235
838.406	5212
838.544	5220
838.681	5075
838.819	5018
838.956	4915
839.094	4919
839.231	4968
839.369	5143
839.506	5414
839.643	5318
839.781	5060
839.918	5022
840.055	5075
840.193	5094
840.33	5128
840.467	5140
840.604	5250
840.742	5459
840.879	5071
841.016	5098
841.153	5170
841.29	5425
841.427	5330
841.564	5315
841.701	5372
841.838	5277
841.975	5223
842.112	5284
842.249	5155
842.385	5109
842.522	5307
842.659	5181
842.796	5132
842.933	5216
843.069	5193
843.206	5216
843.343	5318
843.479	5280
843.616	5273
843.752	5079
843.889	5014
844.025	5193
844.162	5029
844.298	5265
844.435	5140
844.571	5052
844.708	5204
844.844	5284
844.98	5311
845.117	5296
845.253	5151
845.389	5121
845.525	5250
845.661	5151
845.798	5071
845.934	5132
846.07	5075
846.206	5201
846.342	5315
846.478	5143
846.614	5033
846.75	4999
846.886	4949
847.022	5155
847.158	5025
847.294	5056
847.429	5143
847.565	5086
847.701	5307
847.837	4900
847.972	4828
848.108	4987
848.244	4961
848.379	4812
848.515	4759
848.65	4729
848.786	4752
848.921	4809
849.057	4923
849.192	4896
849.328	4793
849.463	4843
849.598	4809
849.734	4786
849.869	4733
850.004	4675
850.14	4653
850.275	4592
850.41	4561
850.545	4561
850.68	4683
850.815	4596
850.95	4653
851.085	4866
851.22	4778
851.355	4683
851.49	4641
851.625	4664
851.76	4656
851.895	4596
852.03	4478
852.165	4706
852.299	4725
852.434	4778
852.569	4782
852.703	4782
852.838	4858
852.973	4972
853.107	4911
853.242	4793
853.376	4675
853.511	4611
853.645	4645
853.78	4873
853.914	4702
854.048	4702
854.183	4675
854.317	4752
854.451	4866
854.585	4656
854.72	4592
854.854	4736
854.988	4626
855.122	4645
855.256	4516
855.39	4717
855.524	4755
855.658	4717
855.792	4702
855.926	4782
856.06	4786
856.194	4839
856.327	4691
856.461	4603
856.595	4660
856.729	4615
856.862	4797
856.996	4691
857.13	4736
857.263	4755
857.397	4828
857.53	4645
857.664	4752
857.797	4744
857.931	4793
858.064	4729
858.197	4824
858.331	4679
858.464	4615
858.597	4565
858.731	4637
858.864	4626
858.997	4588
859.13	4641
859.263	4649
859.396	4694
859.529	4565
859.662	4573
859.795	4519
859.928	4656
860.061	4748
860.194	4736
860.327	4649
860.46	4577
860.592	4748
860.725	4725
860.858	4752
860.99	4618
861.123	4531
861.256	4523
861.388	4672
861.521	5410
861.653	4519
861.786	4428
861.918	4470
862.05	4542
862.183	4599
862.315	4588
862.447	4611
862.58	4554
862.712	4421
862.844	4337
862.976	4466
863.108	4478
863.24	4748
863.372	4322
863.504	4421
863.636	4443
863.768	4485
863.9	4424
864.032	4348
864.164	4360
864.296	4455
864.428	4550
864.559	4546
864.691	4542
864.823	4504
864.954	4550
865.086	4516
865.217	4447
865.349	4428
865.48	4497
865.612	4538
865.743	4714
865.875	4470
866.006	4398
866.137	4527
866.269	4497
866.4	4474
866.531	4405
866.662	4409
866.793	4436
866.924	4455
867.055	4497
867.186	4455
867.317	4443
867.448	4417
867.579	4367
867.71	4421
867.841	4352
867.972	4474
868.103	4413
868.233	4443
868.364	4443
868.495	4523
868.625	4653
868.756	4805
868.886	4588
869.017	4637
869.147	4790
869.278	4820
869.408	4675
869.539	4645
869.669	4782
869.799	4656
869.929	4729
870.06	4725
870.19	4942
870.32	4904
870.45	4953
870.58	5045
870.71	5105
870.84	5105
870.97	4957
871.1	4953
871.23	5117
871.36	5170
871.489	5048
871.619	5079
871.749	5052
871.879	5128
872.008	5220
872.138	5071
872.267	4972
872.397	4847
872.526	4805
872.656	4771
872.785	4828
872.915	4987
873.044	5037
873.173	4949
873.303	4957
873.432	4965
873.561	4965
873.69	4881
873.819	4847
873.948	4904
874.077	4820
874.206	4763
874.335	4786
874.464	4946
874.593	5075
874.722	4991
874.851	5094
874.979	5086
875.108	5048
875.237	4877
875.365	4923
875.494	4877
875.623	4995
875.751	4866
875.88	4862
876.008	5048
876.136	5060
876.265	5265
876.393	5311
876.521	5242
876.65	5185
876.778	5178
876.906	5056
877.034	5003
877.162	5056
877.29	4968
877.418	5060
877.546	5075
877.674	5048
877.802	5045
877.93	5025
878.058	4934
878.185	4866
878.313	4972
878.441	4972
878.568	4831
878.696	4896
878.824	4984
878.951	5006
879.079	5197
879.206	5337
879.333	5117
879.461	4961
879.588	4987
879.715	5113
879.842	5220
879.97	4976
880.097	4771
880.224	4702
880.351	4805
880.478	4870
880.605	4809
880.732	4778
880.859	5041
880.986	4873
881.112	4908
881.239	4759
881.366	4679
881.493	4573
881.619	4577
881.746	4649
881.872	4672
881.999	4626
882.125	4710
882.252	4809
882.378	4793
882.505	4927
882.631	4809
882.757	4664
882.883	4752
883.01	4725
883.136	4653
883.262	4607
883.388	4580
883.514	4816
883.64	4892
883.766	4786
883.892	4702
884.018	4763
884.143	4908
884.269	4991
884.395	4702
884.52	4603
884.646	4641
884.772	4550
884.897	4554
885.023	4649
885.148	4801
885.274	4870
885.399	4847
885.524	4668
885.65	4774
885.775	4793
885.9	4729
886.025	4873
886.15	4797
886.275	4683
886.4	4694
886.525	4733
886.65	4698
886.775	4702
886.9	4972
887.025	5067
887.149	4843
887.274	4679
887.399	4615
887.523	4596
887.648	4565
887.773	4569
887.897	4733
888.021	4786
888.146	4653
888.27	4831
888.395	4889
888.519	4809
888.643	4801
888.767	4809
888.891	4637
889.015	4618
889.139	4672
889.263	4607
889.387	4752
889.511	4858
889.635	4801
889.759	4664
889.883	4649
890.006	4729
890.13	4824
890.254	4611
890.377	4668
890.501	4561
890.624	4550
890.748	4706
890.871	4481
890.995	4424
891.118	4421
891.241	4558
891.364	4508
891.488	4649
891.611	4478
891.734	4558
891.857	4618
891.98	4577
892.103	4660
892.226	4523
892.349	4554
892.471	4440
892.594	4497
892.717	4611
892.839	4573
892.962	4607
893.085	4691
893.207	4630
893.33	4466
893.452	4523
893.575	4683
893.697	4550
893.819	4801
893.941	4828
894.064	4748
894.186	4607
894.308	4580
894.43	4771
894.552	4831
894.674	4748
894.796	4535
894.918	4596
895.04	4554
895.161	4714
895.283	4675
895.405	4531
895.526	4622
895.648	4618
895.769	4698
895.891	4740
896.012	4733
896.134	4714
896.255	4668
896.376	4656
896.498	4637
896.619	4675
896.74	4584
896.861	4668
896.982	4946
897.103	5071
897.224	4854
897.345	4717
897.466	4675
897.587	4740
897.708	4824
897.828	4752
897.949	4615
898.07	4542
898.19	4694
898.311	4797
898.431	4641
898.552	4733
898.672	4755
898.792	4797
898.913	4755
899.033	4687
899.153	4516
899.273	4421
899.393	4516
899.513	4538
899.633	4497
899.753	4497
899.873	4519
899.993	4580
900.113	4508
900.232	4607
900.352	4554
900.472	4516
900.591	4409
900.711	4504
900.83	4455
900.95	4649
901.069	4675
901.189	4546
901.308	4356
901.427	4314
901.546	4417
901.665	4485
901.784	4500
901.904	4306
902.023	4306
902.141	4204
902.26	4177
902.379	4249
902.498	4280
902.617	4246
902.735	4348
902.854	4352
902.973	4360
903.091	4204
903.21	4242
903.328	4295
903.446	4280
903.565	4272
903.683	4386
903.801	4299
903.919	4413
904.038	4424
904.156	4314
904.274	4409
904.392	4356
904.51	4424
904.627	4504
904.745	4584
904.863	4649
904.981	4344
905.098	4306
905.216	4363
905.334	4424
905.451	4424
905.569	4455
905.686	4531
905.803	4611
905.921	4421
906.038	4542
906.155	4508
906.272	4363
906.389	4432
906.506	4383
906.623	4344
906.74	4379
906.857	4325
906.974	4367
907.091	4569
907.208	4653
907.324	4561
907.441	4512
907.557	4360
907.674	4341
907.79	4284
907.907	4386
908.023	4447
908.139	4485
908.256	4383
908.372	4436
908.488	4459
908.604	4390
908.72	4287
908.836	4398
908.952	4341
909.068	4402
909.184	4535
909.3	4466
909.415	4592
909.531	4538
909.647	4348
909.762	4405
909.878	4329
909.993	4413
910.108	4417
910.224	4371
910.339	4481
910.454	4379
910.57	4367
910.685	4246
910.8	4641
910.915	4622
911.03	4485
911.145	4348
911.259	4341
911.374	4337
911.489	4337
911.604	4284
911.718	4169
911.833	4219
911.947	4067
912.062	4025
912.176	4207
912.291	4287
912.405	4287
912.519	4443
912.633	4455
912.748	4344
912.862	4314
912.976	4173
913.09	4090
913.204	4154
913.318	4272
913.431	4333
913.545	4390
913.659	4432
913.772	4352
913.886	4223
914	4200
914.113	4371
914.226	4447
914.34	4352
914.453	4181
914.566	4436
914.68	4337
914.793	4329
914.906	4135
915.019	4147
915.132	4090
915.245	4207
915.358	4192
915.47	4261
915.583	4242
915.696	4341
915.809	4398
915.921	4409
916.034	4280
916.146	4261
916.259	4249
916.371	4386
916.483	4379
916.595	4287
916.708	4322
916.82	4314
916.932	4318
917.044	4356
917.156	4314
917.268	4196
917.38	4265
917.491	4257
917.603	4341
917.715	4428
917.826	4409
917.938	4341
918.049	4238
918.161	4371
918.272	4489
918.384	4558
918.495	4451
918.606	4306
918.717	4242
918.828	4333
918.939	4367
919.05	4249
919.161	4322
919.272	4143
919.383	4215
919.494	4459
919.604	4626
919.715	4428
919.826	4348
919.936	4390
920.047	4493
920.157	4493
920.267	4687
920.378	4554
920.488	4470
920.598	4744
920.708	4889
920.818	4729
920.928	4782
921.038	4949
921.148	4877
921.258	4634
921.368	4550
921.477	4485
921.587	4451
921.697	4371
921.806	4459
921.916	4398
922.025	4295
922.134	4242
922.244	4238
922.353	4360
922.462	4169
922.571	4093
922.68	3979
922.789	3994
922.898	4051
923.007	3960
923.116	4097
923.224	4048
923.333	4059
923.442	4010
923.55	3972
923.659	3987
923.767	4055
923.876	4010
923.984	4135
924.092	3953
924.201	4048
924.309	4116
924.417	4135
924.525	4097
924.633	4105
924.741	5083
924.849	3907
924.956	4124
925.064	3953
925.172	3926
925.279	3953
925.387	4036
925.494	4059
925.602	4192
925.709	4219
925.816	4051
925.924	4185
926.031	4268
926.138	4166
926.245	4188
926.352	4143
926.459	4196
926.566	4299
926.673	4177
926.779	4082
926.886	4074
926.993	3975
927.099	4002
927.206	3953
927.312	3949
927.419	4017
927.525	4029
927.631	4082
927.737	3972
927.843	3994
927.95	3819
928.056	3968
928.162	3956
928.267	4082
928.373	4672
928.479	4135
928.585	3922
928.69	3987
928.796	4093
928.901	3972
929.007	3850
929.112	3983
929.218	3972
929.323	3945
929.428	3964
929.533	4109
929.638	3884
929.743	3968
929.848	4082
929.953	3998
930.058	3964
930.163	3804
930.267	3846
930.372	3930
930.477	3804
930.581	4071
930.685	3956
930.79	3823
930.894	3876
930.998	3835
931.103	3983
931.207	3652
931.311	3686
931.415	3682
931.519	3507
931.623	3557
