Data from test_V78500241_851.txt Node
Date: Fri Mar 25 16:54:55 CST 2022
User: usil
Spectrometer: V785-0024
Trigger mode: 0
Integration Time (sec): 4.000000E-1
Scans to average: 1
Nonlinearity correction enabled: false
Boxcar width: 0
Storing dark spectrum: false
XAxis mode: Wavelengths
Number of Pixels in Spectrum: 1024
>>>>>Begin Spectral Data<<<<<
801.071	7986
801.214	7989
801.356	7928
801.499	7890
801.641	7769
801.783	7890
801.926	7940
802.068	7921
802.211	7963
802.353	7982
802.496	7792
802.638	7860
802.78	7959
802.923	7902
803.065	7856
803.208	7936
803.35	7951
803.492	8088
803.635	8138
803.777	8024
803.919	8149
804.061	8438
804.204	8073
804.346	8073
804.488	7955
804.63	8065
804.773	8024
804.915	8046
805.057	8366
805.199	8130
805.341	8161
805.483	8271
805.626	8149
805.768	8134
805.91	8206
806.052	8153
806.194	8111
806.336	8347
806.478	8096
806.62	8065
806.762	8073
806.904	8199
807.046	8476
807.188	8351
807.33	8301
807.472	8404
807.614	8180
807.756	8096
807.898	7986
808.04	7830
808.182	7879
808.324	7864
808.465	7909
808.607	8092
808.749	8035
808.891	8126
809.033	8237
809.174	8233
809.316	8130
809.458	8039
809.6	8008
809.741	8008
809.883	8005
810.025	8145
810.166	8084
810.308	8005
810.45	8012
810.591	7902
810.733	7792
810.875	7620
811.016	7544
811.158	7506
811.299	7563
811.441	7704
811.582	7689
811.724	7563
811.865	7464
812.007	7502
812.148	7559
812.29	7666
812.431	7700
812.573	7788
812.714	7986
812.855	8073
812.997	8176
813.138	8301
813.279	8138
813.421	8069
813.562	8008
813.703	7792
813.845	7761
813.986	7426
814.127	7297
814.268	7225
814.41	7251
814.551	7206
814.692	7126
814.833	7034
814.974	7088
815.115	7050
815.256	6932
815.397	7004
815.539	6909
815.68	6833
815.821	6814
815.962	6844
816.103	6787
816.244	6730
816.385	6681
816.526	6589
816.666	6452
816.807	6182
816.948	6407
817.089	6525
817.23	6380
817.371	6338
817.512	6342
817.653	6418
817.793	6353
817.934	6399
818.075	6452
818.216	6429
818.356	6418
818.497	6232
818.638	6117
818.778	6148
818.919	6064
819.06	6159
819.2	6285
819.341	6395
819.481	6308
819.622	6540
819.762	6741
819.903	6688
820.043	6654
820.184	6578
820.324	6578
820.465	6700
820.605	6646
820.746	6570
820.886	6536
821.026	6608
821.167	6688
821.307	6776
821.447	6821
821.588	6642
821.728	6506
821.868	6517
822.008	6304
822.149	6361
822.289	6433
822.429	6129
822.569	6072
822.709	6041
822.849	5851
822.99	5878
823.13	5920
823.27	5908
823.41	5756
823.55	5760
823.69	5722
823.83	5844
823.97	5634
824.11	5490
824.25	5532
824.389	5585
824.529	5630
824.669	5482
824.809	5623
824.949	5608
825.089	5619
825.228	5524
825.368	5425
825.508	5337
825.648	5315
825.787	5410
825.927	5341
826.067	5273
826.206	5250
826.346	5414
826.485	5417
826.625	5444
826.765	5543
826.904	5478
827.044	5254
827.183	5204
827.323	5136
827.462	5292
827.601	5189
827.741	5212
827.88	5185
828.02	5140
828.159	5235
828.298	5288
828.437	5322
828.577	5269
828.716	5452
828.855	5360
828.994	5151
829.134	5170
829.273	5246
829.412	5147
829.551	5128
829.69	5113
829.829	5250
829.968	5326
830.107	5292
830.246	5242
830.385	5132
830.524	5155
830.663	5037
830.802	4987
830.941	4934
831.08	4850
831.219	5010
831.357	4976
831.496	5147
831.635	4911
831.774	4866
831.913	4858
832.051	4717
832.19	4740
832.329	4797
832.467	4721
832.606	4649
832.744	4744
832.883	4717
833.022	4721
833.16	4774
833.299	4786
833.437	4790
833.576	4839
833.714	4854
833.852	4847
833.991	4919
834.129	4972
834.267	4972
834.406	4908
834.544	4965
834.682	4942
834.821	4942
834.959	5140
835.097	4980
835.235	5121
835.373	5052
835.511	5132
835.65	5060
835.788	5003
835.926	4930
836.064	4892
836.202	4911
836.34	5151
836.478	5181
836.615	5094
836.753	5231
836.891	5299
837.029	5239
837.167	5204
837.305	5140
837.443	5132
837.58	5018
837.718	5223
837.856	5162
837.993	5128
838.131	5204
838.269	5201
838.406	5197
838.544	5159
838.681	5014
838.819	5033
838.956	4904
839.094	4934
839.231	4999
839.369	5083
839.506	5391
839.643	5235
839.781	5060
839.918	4953
840.055	5071
840.193	5121
840.33	5098
840.467	5159
840.604	5155
840.742	5444
840.879	5071
841.016	5067
841.153	5151
841.29	5330
841.427	5315
841.564	5372
841.701	5334
841.838	5250
841.975	5201
842.112	5235
842.249	5094
842.385	5060
842.522	5254
842.659	5155
842.796	5056
842.933	5216
843.069	5140
843.206	5121
843.343	5273
843.479	5250
843.616	5254
843.752	5045
843.889	4953
844.025	5223
844.162	5006
844.298	5159
844.435	5010
844.571	5006
844.708	5155
844.844	5296
844.98	5337
845.117	5273
845.253	5132
845.389	5052
845.525	5132
845.661	5105
845.798	5067
845.934	5117
846.07	5102
846.206	5159
846.342	5269
846.478	5159
846.614	5014
846.75	4953
846.886	4987
847.022	5090
847.158	4987
847.294	5014
847.429	5102
847.565	5048
847.701	5296
847.837	4847
847.972	4755
848.108	4976
848.244	4934
848.379	4755
848.515	4721
848.65	4691
848.786	4736
848.921	4733
849.057	4889
849.192	4870
849.328	4812
849.463	4820
849.598	4767
849.734	4790
849.869	4721
850.004	4615
850.14	4668
850.275	4573
850.41	4558
850.545	4558
850.68	4580
850.815	4622
850.95	4630
851.085	4824
851.22	4759
851.355	4653
851.49	4641
851.625	4664
851.76	4656
851.895	4584
852.03	4535
852.165	4675
852.299	4668
852.434	4763
852.569	4752
852.703	4782
852.838	4809
852.973	4930
853.107	4904
853.242	4733
853.376	4672
853.511	4558
853.645	4618
853.78	4797
853.914	4683
854.048	4694
854.183	4626
854.317	4683
854.451	4805
854.585	4622
854.72	4603
854.854	4752
854.988	4596
855.122	4641
855.256	4493
855.39	4630
855.524	4782
855.658	4725
855.792	4740
855.926	4710
856.06	4755
856.194	4793
856.327	4653
856.461	4599
856.595	4577
856.729	4599
856.862	4729
856.996	4675
857.13	4675
857.263	4733
857.397	4790
857.53	4626
857.664	4706
857.797	4748
857.931	4748
858.064	4653
858.197	4774
858.331	4694
858.464	4596
858.597	4485
858.731	4622
858.864	4615
858.997	4546
859.13	4653
859.263	4630
859.396	4691
859.529	4546
859.662	4558
859.795	4569
859.928	4584
860.061	4771
860.194	4725
860.327	4607
860.46	4569
860.592	4672
860.725	4721
860.858	4717
860.99	4569
861.123	4512
861.256	4561
861.388	4596
861.521	5254
861.653	4462
861.786	4436
861.918	4474
862.05	4500
862.183	4573
862.315	4607
862.447	4664
862.58	4527
862.712	4405
862.844	4337
862.976	4459
863.108	4421
863.24	4729
863.372	4299
863.504	4363
863.636	4379
863.768	4489
863.9	4405
864.032	4360
864.164	4398
864.296	4478
864.428	4546
864.559	4516
864.691	4508
864.823	4497
864.954	4451
865.086	4512
865.217	4436
865.349	4375
865.48	4459
865.612	4493
865.743	4596
865.875	4481
866.006	4402
866.137	4424
866.269	4474
866.4	4390
866.531	4344
866.662	4352
866.793	4394
866.924	4379
867.055	4489
867.186	4451
867.317	4413
867.448	4356
867.579	4375
867.71	4398
867.841	4367
867.972	4432
868.103	4375
868.233	4424
868.364	4432
868.495	4440
868.625	4618
868.756	4805
868.886	4584
869.017	4596
869.147	4767
869.278	4725
869.408	4668
869.539	4634
869.669	4634
869.799	4637
869.929	4725
870.06	4714
870.19	4892
870.32	4892
870.45	4908
870.58	4972
870.71	5109
870.84	5151
870.97	4919
871.1	4843
871.23	5121
871.36	5136
871.489	5025
871.619	5037
871.749	5086
871.879	5132
872.008	5166
872.138	4976
872.267	4961
872.397	4831
872.526	4778
872.656	4675
872.785	4786
872.915	4946
873.044	5018
873.173	4946
873.303	4923
873.432	4972
873.561	4927
873.69	4877
873.819	4843
873.948	4854
874.077	4820
874.206	4721
874.335	4790
874.464	4877
874.593	5064
874.722	4934
874.851	5064
874.979	5029
875.108	5048
875.237	4908
875.365	4843
875.494	4885
875.623	4987
875.751	4828
875.88	4809
876.008	4991
876.136	4987
876.265	5193
876.393	5265
876.521	5193
876.65	5204
876.778	5117
876.906	5052
877.034	5037
877.162	4984
877.29	5022
877.418	5075
877.546	5033
877.674	5003
877.802	5033
877.93	5003
878.058	4938
878.185	4870
878.313	4923
878.441	4965
878.568	4778
878.696	4831
878.824	4980
878.951	5006
879.079	5147
879.206	5299
879.333	5018
879.461	4999
879.588	5006
879.715	5067
879.842	5246
879.97	4980
880.097	4736
880.224	4774
880.351	4828
880.478	4801
880.605	4812
880.732	4752
880.859	5124
880.986	4930
881.112	4885
881.239	4782
881.366	4645
881.493	4660
881.619	4569
881.746	4656
881.872	4660
881.999	4649
882.125	4675
882.252	4790
882.378	4797
882.505	4942
882.631	4774
882.757	4664
882.883	4729
883.01	4702
883.136	4691
883.262	4588
883.388	4603
883.514	4778
883.64	4892
883.766	4782
883.892	4649
884.018	4744
884.143	4896
884.269	5022
884.395	4717
884.52	4649
884.646	4649
884.772	4607
884.897	4508
885.023	4649
885.148	4725
885.274	4866
885.399	4809
885.524	4729
885.65	4675
885.775	4694
885.9	4691
886.025	4858
886.15	4752
886.275	4782
886.4	4653
886.525	4736
886.65	4622
886.775	4725
886.9	4870
887.025	4968
887.149	4767
887.274	4656
887.399	4561
887.523	4645
887.648	4546
887.773	4641
887.897	4786
888.021	4774
888.146	4653
888.27	4740
888.395	4828
888.519	4763
888.643	4786
888.767	4797
888.891	4615
889.015	4626
889.139	4634
889.263	4550
889.387	4733
889.511	4862
889.635	4755
889.759	4615
889.883	4634
890.006	4672
890.13	4820
890.254	4599
890.377	4641
890.501	4466
890.624	4493
890.748	4626
890.871	4535
890.995	4390
891.118	4398
891.241	4466
891.364	4489
891.488	4615
891.611	4508
891.734	4508
891.857	4580
891.98	4569
892.103	4660
892.226	4596
892.349	4535
892.471	4371
892.594	4519
892.717	4630
892.839	4577
892.962	4573
893.085	4618
893.207	4580
893.33	4428
893.452	4500
893.575	4679
893.697	4607
893.819	4774
893.941	4831
894.064	4752
894.186	4577
894.308	4561
894.43	4729
894.552	4790
894.674	4729
894.796	4493
894.918	4554
895.04	4531
895.161	4679
895.283	4611
895.405	4554
895.526	4634
895.648	4729
895.769	4721
895.891	4736
896.012	4725
896.134	4733
896.255	4611
896.376	4641
896.498	4615
896.619	4672
896.74	4622
896.861	4615
896.982	4873
897.103	5094
897.224	4858
897.345	4691
897.466	4649
897.587	4717
897.708	4854
897.828	4740
897.949	4679
898.07	4531
898.19	4603
898.311	4793
898.431	4691
898.552	4710
898.672	4793
898.792	4873
898.913	4744
899.033	4645
899.153	4474
899.273	4436
899.393	4474
899.513	4504
899.633	4512
899.753	4531
899.873	4470
899.993	4577
900.113	4550
900.232	4596
900.352	4538
900.472	4493
900.591	4379
900.711	4485
900.83	4455
900.95	4565
901.069	4664
901.189	4519
901.308	4375
901.427	4295
901.546	4348
901.665	4466
901.784	4523
901.904	4367
902.023	4325
902.141	4162
902.26	4177
902.379	4314
902.498	4219
902.617	4227
902.735	4371
902.854	4356
902.973	4341
903.091	4204
903.21	4196
903.328	4291
903.446	4268
903.565	4249
903.683	4333
903.801	4284
903.919	4405
904.038	4440
904.156	4329
904.274	4440
904.392	4375
904.51	4417
904.627	4440
904.745	4573
904.863	4596
904.981	4341
905.098	4287
905.216	4409
905.334	4436
905.451	4436
905.569	4447
905.686	4603
905.803	4565
905.921	4367
906.038	4542
906.155	4489
906.272	4398
906.389	4436
906.506	4352
906.623	4398
906.74	4360
906.857	4314
906.974	4310
907.091	4561
907.208	4660
907.324	4634
907.441	4497
907.557	4360
907.674	4325
907.79	4367
907.907	4379
908.023	4493
908.139	4470
908.256	4421
908.372	4481
908.488	4440
908.604	4325
908.72	4341
908.836	4375
908.952	4383
909.068	4383
909.184	4538
909.3	4428
909.415	4580
909.531	4584
909.647	4352
909.762	4383
909.878	4287
909.993	4409
910.108	4432
910.224	4371
910.339	4485
910.454	4386
910.57	4375
910.685	4337
910.8	4603
910.915	4580
911.03	4504
911.145	4329
911.259	4310
911.374	4356
911.489	4352
911.604	4284
911.718	4105
911.833	4204
911.947	4055
912.062	4036
912.176	4207
912.291	4272
912.405	4253
912.519	4451
912.633	4459
912.748	4295
912.862	4306
912.976	4223
913.09	4093
913.204	4204
913.318	4219
913.431	4379
913.545	4360
913.659	4443
913.772	4356
913.886	4177
914	4211
914.113	4329
914.226	4424
914.34	4432
914.453	4223
914.566	4413
914.68	4268
914.793	4348
914.906	4158
915.019	4105
915.132	4093
915.245	4124
915.358	4219
915.47	4215
915.583	4261
915.696	4280
915.809	4348
915.921	4398
916.034	4265
916.146	4234
916.259	4196
916.371	4356
916.483	4367
916.595	4306
916.708	4295
916.82	4344
916.932	4325
917.044	4322
917.156	4329
917.268	4287
917.38	4242
917.491	4303
917.603	4299
917.715	4428
917.826	4436
917.938	4367
918.049	4227
918.161	4383
918.272	4500
918.384	4558
918.495	4466
918.606	4280
918.717	4219
918.828	4375
918.939	4356
919.05	4230
919.161	4314
919.272	4154
919.383	4223
919.494	4432
919.604	4603
919.715	4459
919.826	4325
919.936	4390
920.047	4516
920.157	4462
920.267	4672
920.378	4519
920.488	4459
920.598	4698
920.708	4847
920.818	4767
920.928	4782
921.038	4923
921.148	4877
921.258	4630
921.368	4573
921.477	4504
921.587	4481
921.697	4367
921.806	4546
921.916	4409
922.025	4234
922.134	4261
922.244	4238
922.353	4280
922.462	4181
922.571	4150
922.68	4002
922.789	3941
922.898	4017
923.007	4010
923.116	4067
923.224	4063
923.333	4086
923.442	3975
923.55	3972
923.659	4002
923.767	4112
923.876	3979
923.984	4128
924.092	4021
924.201	4109
924.309	4086
924.417	4116
924.525	4036
924.633	4097
924.741	4858
924.849	3937
924.956	4093
925.064	3915
925.172	3892
925.279	3953
925.387	4048
925.494	4105
925.602	4207
925.709	4196
925.816	4029
925.924	4116
926.031	4230
926.138	4200
926.245	4169
926.352	4082
926.459	4253
926.566	4276
926.673	4154
926.779	4074
926.886	4093
926.993	3949
927.099	3930
927.206	3926
927.312	3945
927.419	4032
927.525	4021
927.631	4074
927.737	3968
927.843	3899
927.95	3838
928.056	3949
928.162	3987
928.267	4013
928.373	4546
928.479	4063
928.585	3899
928.69	4006
928.796	4032
928.901	4002
929.007	3846
929.112	4010
929.218	3998
929.323	3930
929.428	3945
929.533	4128
929.638	3911
929.743	3968
929.848	4044
929.953	3972
930.058	3968
930.163	3747
930.267	3819
930.372	4002
930.477	3793
930.581	4086
930.685	3926
930.79	3827
930.894	3846
930.998	3831
931.103	4048
931.207	3709
931.311	3709
931.415	3686
931.519	3545
931.623	3519
