Data from test_V78500241_1764.txt Node
Date: Fri Mar 25 17:01:16 CST 2022
User: usil
Spectrometer: V785-0024
Trigger mode: 0
Integration Time (sec): 4.000000E-1
Scans to average: 1
Nonlinearity correction enabled: false
Boxcar width: 0
Storing dark spectrum: false
XAxis mode: Wavelengths
Number of Pixels in Spectrum: 1024
>>>>>Begin Spectral Data<<<<<
801.071	7902
801.214	7978
801.356	7887
801.499	7837
801.641	7750
801.783	7875
801.926	7951
802.068	7959
802.211	8046
802.353	7997
802.496	7830
802.638	7830
802.78	7864
802.923	7898
803.065	7898
803.208	7814
803.35	7974
803.492	8016
803.635	8100
803.777	8046
803.919	8168
804.061	8450
804.204	8065
804.346	8020
804.488	7898
804.63	8142
804.773	8050
804.915	8092
805.057	8313
805.199	8237
805.341	8191
805.483	8225
805.626	8172
805.768	8161
805.91	8225
806.052	8168
806.194	8153
806.336	8290
806.478	8119
806.62	7997
806.762	8077
806.904	8301
807.046	8438
807.188	8343
807.33	8347
807.472	8358
807.614	8176
807.756	8130
807.898	8054
808.04	7871
808.182	7852
808.324	7928
808.465	7887
808.607	8107
808.749	8103
808.891	8202
809.033	8317
809.174	8161
809.316	8054
809.458	8153
809.6	8031
809.741	8088
809.883	8016
810.025	8130
810.166	7974
810.308	8046
810.45	7993
810.591	7868
810.733	7742
810.875	7624
811.016	7480
811.158	7449
811.299	7559
811.441	7677
811.582	7647
811.724	7582
811.865	7628
812.007	7670
812.148	7582
812.29	7628
812.431	7742
812.573	7898
812.714	7993
812.855	8172
812.997	8195
813.138	8294
813.279	8218
813.421	8100
813.562	8001
813.703	7757
813.845	7674
813.986	7453
814.127	7240
814.268	7228
814.41	7179
814.551	7190
814.692	7194
814.833	7141
814.974	7107
815.115	7069
815.256	6958
815.397	6909
815.539	6878
815.68	6791
815.821	6779
815.962	6818
816.103	6844
816.244	6696
816.385	6627
816.526	6604
816.666	6437
816.807	6388
816.948	6433
817.089	6441
817.23	6418
817.371	6380
817.512	6403
817.653	6410
817.793	6342
817.934	6388
818.075	6418
818.216	6410
818.356	6380
818.497	6285
818.638	6178
818.778	6159
818.919	6159
819.06	6171
819.2	6315
819.341	6311
819.481	6399
819.622	6513
819.762	6760
819.903	6654
820.043	6658
820.184	6578
820.324	6601
820.465	6707
820.605	6654
820.746	6658
820.886	6555
821.026	6646
821.167	6715
821.307	6818
821.447	6734
821.588	6665
821.728	6635
821.868	6525
822.008	6308
822.149	6410
822.289	6445
822.429	6106
822.569	6060
822.709	6175
822.849	5885
822.99	5885
823.13	5977
823.27	5893
823.41	5870
823.55	5767
823.69	5805
823.83	5767
823.97	5661
824.11	5566
824.25	5398
824.389	5592
824.529	5566
824.669	5516
824.809	5623
824.949	5688
825.089	5611
825.228	5490
825.368	5360
825.508	5322
825.648	5383
825.787	5330
825.927	5353
826.067	5337
826.206	5296
826.346	5368
826.485	5387
826.625	5440
826.765	5516
826.904	5452
827.044	5235
827.183	5178
827.323	5124
827.462	5296
827.601	5136
827.741	5212
827.88	5227
828.02	5128
828.159	5193
828.298	5280
828.437	5315
828.577	5269
828.716	5493
828.855	5299
828.994	5143
829.134	5121
829.273	5170
829.412	5159
829.551	5117
829.69	5193
829.829	5261
829.968	5337
830.107	5227
830.246	5242
830.385	5151
830.524	5090
830.663	5056
830.802	5006
830.941	4915
831.08	4850
831.219	4942
831.357	4961
831.496	5208
831.635	4889
831.774	4904
831.913	4835
832.051	4717
832.19	4763
832.329	4873
832.467	4679
832.606	4660
832.744	4748
832.883	4694
833.022	4706
833.16	4809
833.299	4752
833.437	4786
833.576	4828
833.714	4831
833.852	4812
833.991	4908
834.129	4949
834.267	4961
834.406	4946
834.544	4987
834.682	4972
834.821	4953
834.959	5181
835.097	4987
835.235	5086
835.373	5098
835.511	5140
835.65	4957
835.788	5045
835.926	4889
836.064	4843
836.202	4930
836.34	5162
836.478	5220
836.615	5052
836.753	5216
836.891	5292
837.029	5239
837.167	5181
837.305	5117
837.443	5094
837.58	5086
837.718	5250
837.856	5143
837.993	5140
838.131	5265
838.269	5235
838.406	5204
838.544	5151
838.681	5048
838.819	5010
838.956	4873
839.094	4854
839.231	4938
839.369	5041
839.506	5421
839.643	5311
839.781	5048
839.918	5022
840.055	5079
840.193	5098
840.33	5090
840.467	5094
840.604	5140
840.742	5402
840.879	5159
841.016	5090
841.153	5193
841.29	5364
841.427	5322
841.564	5311
841.701	5315
841.838	5231
841.975	5208
842.112	5246
842.249	5113
842.385	5025
842.522	5277
842.659	5166
842.796	5128
842.933	5140
843.069	5181
843.206	5132
843.343	5296
843.479	5239
843.616	5269
843.752	5037
843.889	5045
844.025	5151
844.162	5041
844.298	5220
844.435	5109
844.571	5071
844.708	5227
844.844	5239
844.98	5318
845.117	5296
845.253	5105
845.389	5083
845.525	5212
845.661	5113
845.798	5056
845.934	5109
846.07	5060
846.206	5121
846.342	5288
846.478	5178
846.614	5060
846.75	4930
846.886	4923
847.022	5132
847.158	4999
847.294	5033
847.429	5075
847.565	4999
847.701	5269
847.837	4831
847.972	4793
848.108	4908
848.244	4885
848.379	4767
848.515	4733
848.65	4691
848.786	4748
848.921	4759
849.057	4873
849.192	4870
849.328	4828
849.463	4820
849.598	4801
849.734	4786
849.869	4683
850.004	4630
850.14	4645
850.275	4580
850.41	4500
850.545	4580
850.68	4569
850.815	4588
850.95	4588
851.085	4847
851.22	4748
851.355	4664
851.49	4584
851.625	4599
851.76	4630
851.895	4615
852.03	4546
852.165	4626
852.299	4736
852.434	4778
852.569	4755
852.703	4736
852.838	4839
852.973	4930
853.107	4900
853.242	4752
853.376	4672
853.511	4584
853.645	4626
853.78	4801
853.914	4660
854.048	4675
854.183	4698
854.317	4691
854.451	4881
854.585	4672
854.72	4622
854.854	4816
854.988	4512
855.122	4645
855.256	4535
855.39	4683
855.524	4740
855.658	4740
855.792	4664
855.926	4702
856.06	4717
856.194	4812
856.327	4691
856.461	4607
856.595	4584
856.729	4618
856.862	4752
856.996	4687
857.13	4714
857.263	4755
857.397	4797
857.53	4645
857.664	4706
857.797	4771
857.931	4797
858.064	4694
858.197	4744
858.331	4672
858.464	4645
858.597	4531
858.731	4637
858.864	4687
858.997	4580
859.13	4675
859.263	4664
859.396	4729
859.529	4519
859.662	4603
859.795	4550
859.928	4569
860.061	4706
860.194	4733
860.327	4561
860.46	4550
860.592	4675
860.725	4733
860.858	4729
860.99	4573
861.123	4500
861.256	4531
861.388	4634
861.521	5334
861.653	4508
861.786	4481
861.918	4413
862.05	4519
862.183	4569
862.315	4599
862.447	4683
862.58	4558
862.712	4394
862.844	4375
862.976	4489
863.108	4436
863.24	4911
863.372	4341
863.504	4421
863.636	4413
863.768	4443
863.9	4360
864.032	4386
864.164	4409
864.296	4462
864.428	4569
864.559	4573
864.691	4542
864.823	4527
864.954	4519
865.086	4523
865.217	4424
865.349	4402
865.48	4466
865.612	4512
865.743	4649
865.875	4485
866.006	4413
866.137	4455
866.269	4417
866.4	4436
866.531	4440
866.662	4413
866.793	4424
866.924	4390
867.055	4489
867.186	4462
867.317	4421
867.448	4360
867.579	4367
867.71	4371
867.841	4348
867.972	4462
868.103	4443
868.233	4466
868.364	4451
868.495	4523
868.625	4607
868.756	4778
868.886	4588
869.017	4626
869.147	4771
869.278	4786
869.408	4653
869.539	4626
869.669	4717
869.799	4702
869.929	4816
870.06	4698
870.19	4980
870.32	4949
870.45	4889
870.58	5006
870.71	5140
870.84	5090
870.97	4942
871.1	4904
871.23	5178
871.36	5132
871.489	5006
871.619	5067
871.749	5128
871.879	5151
872.008	5159
872.138	5045
872.267	4995
872.397	4866
872.526	4824
872.656	4767
872.785	4782
872.915	4934
873.044	5075
873.173	4911
873.303	4930
873.432	4938
873.561	4976
873.69	4862
873.819	4889
873.948	4911
874.077	4809
874.206	4752
874.335	4824
874.464	4911
874.593	5060
874.722	4938
874.851	5029
874.979	5064
875.108	4999
875.237	4923
875.365	4870
875.494	4904
875.623	4953
875.751	4793
875.88	4831
876.008	4976
876.136	5014
876.265	5162
876.393	5337
876.521	5178
876.65	5239
876.778	5117
876.906	5060
877.034	4961
877.162	5022
877.29	4976
877.418	5098
877.546	5041
877.674	5052
877.802	4999
877.93	5045
878.058	4908
878.185	4862
878.313	4980
878.441	4942
878.568	4801
878.696	4870
878.824	4984
878.951	4976
879.079	5178
879.206	5322
879.333	5075
879.461	5010
879.588	4957
879.715	5117
879.842	5220
879.97	5010
880.097	4824
880.224	4774
880.351	4812
880.478	4870
880.605	4793
880.732	4774
880.859	5048
880.986	4919
881.112	4870
881.239	4790
881.366	4706
881.493	4615
881.619	4596
881.746	4618
881.872	4645
881.999	4634
882.125	4694
882.252	4782
882.378	4801
882.505	4987
882.631	4786
882.757	4698
882.883	4729
883.01	4733
883.136	4656
883.262	4573
883.388	4622
883.514	4771
883.64	4816
883.766	4771
883.892	4622
884.018	4710
884.143	4816
884.269	5018
884.395	4618
884.52	4618
884.646	4645
884.772	4592
884.897	4550
885.023	4649
885.148	4801
885.274	4854
885.399	4767
885.524	4721
885.65	4660
885.775	4752
885.9	4733
886.025	4831
886.15	4748
886.275	4637
886.4	4653
886.525	4710
886.65	4672
886.775	4683
886.9	4919
887.025	5045
887.149	4786
887.274	4668
887.399	4588
887.523	4554
887.648	4607
887.773	4603
887.897	4740
888.021	4755
888.146	4687
888.27	4752
888.395	4896
888.519	4778
888.643	4774
888.767	4805
888.891	4706
889.015	4577
889.139	4634
889.263	4580
889.387	4774
889.511	4900
889.635	4816
889.759	4656
889.883	4596
890.006	4752
890.13	4797
890.254	4611
890.377	4702
890.501	4550
890.624	4535
890.748	4656
890.871	4531
890.995	4421
891.118	4405
891.241	4516
891.364	4531
891.488	4656
891.611	4462
891.734	4531
891.857	4592
891.98	4542
892.103	4626
892.226	4588
892.349	4523
892.471	4443
892.594	4523
892.717	4573
892.839	4573
892.962	4558
893.085	4706
893.207	4588
893.33	4436
893.452	4538
893.575	4668
893.697	4535
893.819	4809
893.941	4812
894.064	4793
894.186	4596
894.308	4538
894.43	4733
894.552	4831
894.674	4752
894.796	4599
894.918	4596
895.04	4546
895.161	4698
895.283	4691
895.405	4592
895.526	4611
895.648	4691
895.769	4691
895.891	4729
896.012	4790
896.134	4744
896.255	4660
896.376	4653
896.498	4592
896.619	4653
896.74	4622
896.861	4668
896.982	4915
897.103	5079
897.224	4847
897.345	4767
897.466	4645
897.587	4767
897.708	4843
897.828	4748
897.949	4675
898.07	4512
898.19	4656
898.311	4793
898.431	4668
898.552	4736
898.672	4774
898.792	4725
898.913	4710
899.033	4634
899.153	4558
899.273	4424
899.393	4523
899.513	4542
899.633	4523
899.753	4527
899.873	4546
899.993	4577
900.113	4508
900.232	4565
900.352	4561
900.472	4409
900.591	4371
900.711	4485
900.83	4451
900.95	4626
901.069	4733
901.189	4542
901.308	4375
901.427	4299
901.546	4394
901.665	4493
901.784	4443
901.904	4375
902.023	4310
902.141	4200
902.26	4169
902.379	4318
902.498	4253
902.617	4200
902.735	4413
902.854	4360
902.973	4299
903.091	4188
903.21	4223
903.328	4280
903.446	4276
903.565	4211
903.683	4344
903.801	4246
903.919	4398
904.038	4398
904.156	4337
904.274	4417
904.392	4405
904.51	4451
904.627	4459
904.745	4527
904.863	4637
904.981	4405
905.098	4303
905.216	4348
905.334	4462
905.451	4478
905.569	4459
905.686	4577
905.803	4561
905.921	4402
906.038	4546
906.155	4497
906.272	4402
906.389	4447
906.506	4337
906.623	4371
906.74	4417
906.857	4322
906.974	4386
907.091	4550
907.208	4668
907.324	4622
907.441	4478
907.557	4348
907.674	4363
907.79	4306
907.907	4402
908.023	4462
908.139	4470
908.256	4421
908.372	4493
908.488	4451
908.604	4352
908.72	4356
908.836	4383
908.952	4375
909.068	4424
909.184	4577
909.3	4500
909.415	4588
909.531	4596
909.647	4333
909.762	4371
909.878	4318
909.993	4409
910.108	4428
910.224	4413
910.339	4466
910.454	4405
910.57	4394
910.685	4352
910.8	4618
910.915	4603
911.03	4493
911.145	4352
911.259	4306
911.374	4356
911.489	4329
911.604	4284
911.718	4169
911.833	4207
911.947	4090
912.062	4048
912.176	4188
912.291	4265
912.405	4227
912.519	4508
912.633	4485
912.748	4356
912.862	4303
912.976	4196
913.09	4116
913.204	4147
913.318	4219
913.431	4402
913.545	4348
913.659	4432
913.772	4360
913.886	4261
914	4238
914.113	4337
914.226	4462
914.34	4360
914.453	4265
914.566	4474
914.68	4261
914.793	4299
914.906	4154
915.019	4135
915.132	4044
915.245	4147
915.358	4207
915.47	4234
915.583	4303
915.696	4314
915.809	4394
915.921	4394
916.034	4272
916.146	4204
916.259	4219
916.371	4322
916.483	4356
916.595	4230
916.708	4333
916.82	4299
916.932	4303
917.044	4344
917.156	4337
917.268	4211
917.38	4272
917.491	4280
917.603	4363
917.715	4436
917.826	4424
917.938	4367
918.049	4276
918.161	4413
918.272	4523
918.384	4535
918.495	4421
918.606	4333
918.717	4223
918.828	4276
918.939	4386
919.05	4200
919.161	4337
919.272	4128
919.383	4173
919.494	4413
919.604	4634
919.715	4421
919.826	4386
919.936	4383
920.047	4508
920.157	4489
920.267	4687
920.378	4550
920.488	4481
920.598	4698
920.708	4911
920.818	4733
920.928	4740
921.038	5033
921.148	4896
921.258	4691
921.368	4531
921.477	4504
921.587	4436
921.697	4363
921.806	4550
921.916	4402
922.025	4207
922.134	4238
922.244	4227
922.353	4322
922.462	4139
922.571	4112
922.68	4036
922.789	3960
922.898	4032
923.007	4021
923.116	4090
923.224	4109
923.333	4063
923.442	3991
923.55	3975
923.659	4048
923.767	4082
923.876	3975
923.984	4112
924.092	4013
924.201	4067
924.309	4086
924.417	4101
924.525	4029
924.633	4086
924.741	5090
924.849	3896
924.956	4109
925.064	3956
925.172	3896
925.279	3998
925.387	4082
925.494	4036
925.602	4192
925.709	4181
925.816	4029
925.924	4143
926.031	4238
926.138	4143
926.245	4215
926.352	4112
926.459	4265
926.566	4329
926.673	4181
926.779	4082
926.886	4086
926.993	3960
927.099	3991
927.206	3968
927.312	3964
927.419	4086
927.525	4002
927.631	4086
927.737	3956
927.843	3960
927.95	3850
928.056	3941
928.162	4025
928.267	4036
928.373	4599
928.479	4192
928.585	3865
928.69	4071
928.796	4048
928.901	3934
929.007	3816
929.112	4036
929.218	3937
929.323	3956
929.428	3937
929.533	4093
929.638	3903
929.743	3979
929.848	4048
929.953	3949
930.058	3941
930.163	3793
930.267	3838
930.372	3960
930.477	3827
930.581	4116
930.685	3880
930.79	3850
930.894	3926
930.998	3846
931.103	4051
931.207	3724
931.311	3701
931.415	3663
931.519	3511
931.623	3523
