Data from test_V78500241_2486.txt Node
Date: Fri Mar 25 17:06:17 CST 2022
User: usil
Spectrometer: V785-0024
Trigger mode: 0
Integration Time (sec): 4.000000E-1
Scans to average: 1
Nonlinearity correction enabled: false
Boxcar width: 0
Storing dark spectrum: false
XAxis mode: Wavelengths
Number of Pixels in Spectrum: 1024
>>>>>Begin Spectral Data<<<<<
801.071	8001
801.214	7913
801.356	7803
801.499	7833
801.641	7746
801.783	7822
801.926	7887
802.068	7932
802.211	7982
802.353	7909
802.496	7852
802.638	7906
802.78	7909
802.923	7959
803.065	7849
803.208	7826
803.35	7974
803.492	8073
803.635	8161
803.777	8031
803.919	8100
804.061	8396
804.204	8111
804.346	8050
804.488	7993
804.63	8126
804.773	8008
804.915	8126
805.057	8294
805.199	8157
805.341	8119
805.483	8275
805.626	8263
805.768	8161
805.91	8187
806.052	8206
806.194	8084
806.336	8267
806.478	8043
806.62	8050
806.762	8138
806.904	8187
807.046	8454
807.188	8305
807.33	8324
807.472	8294
807.614	8134
807.756	8145
807.898	8046
808.04	7856
808.182	7856
808.324	7909
808.465	7875
808.607	8073
808.749	8134
808.891	8202
809.033	8332
809.174	8176
809.316	8107
809.458	8096
809.6	7947
809.741	8001
809.883	8046
810.025	8119
810.166	8103
810.308	8035
810.45	8016
810.591	7944
810.733	7734
810.875	7662
811.016	7502
811.158	7483
811.299	7559
811.441	7696
811.582	7601
811.724	7605
811.865	7529
812.007	7594
812.148	7533
812.29	7647
812.431	7792
812.573	7837
812.714	7921
812.855	8115
812.997	8229
813.138	8328
813.279	8123
813.421	8069
813.562	7944
813.703	7833
813.845	7670
813.986	7464
814.127	7282
814.268	7141
814.41	7217
814.551	7168
814.692	7202
814.833	7088
814.974	7080
815.115	7122
815.256	6985
815.397	6859
815.539	6962
815.68	6837
815.821	6825
815.962	6867
816.103	6821
816.244	6677
816.385	6585
816.526	6623
816.666	6506
816.807	6296
816.948	6448
817.089	6509
817.23	6456
817.371	6353
817.512	6380
817.653	6418
817.793	6395
817.934	6365
818.075	6486
818.216	6486
818.356	6380
818.497	6239
818.638	6159
818.778	6171
818.919	6148
819.06	6205
819.2	6365
819.341	6350
819.481	6388
819.622	6509
819.762	6722
819.903	6658
820.043	6631
820.184	6566
820.324	6620
820.465	6753
820.605	6745
820.746	6623
820.886	6498
821.026	6658
821.167	6711
821.307	6768
821.447	6764
821.588	6692
821.728	6502
821.868	6479
822.008	6361
822.149	6391
822.289	6376
822.429	6178
822.569	6106
822.709	6098
822.849	5927
822.99	5931
823.13	5961
823.27	5878
823.41	5756
823.55	5771
823.69	5802
823.83	5760
823.97	5649
824.11	5543
824.25	5509
824.389	5573
824.529	5638
824.669	5509
824.809	5611
824.949	5638
825.089	5638
825.228	5573
825.368	5414
825.508	5292
825.648	5372
825.787	5383
825.927	5402
826.067	5265
826.206	5303
826.346	5353
826.485	5455
826.625	5345
826.765	5520
826.904	5459
827.044	5296
827.183	5227
827.323	5071
827.462	5265
827.601	5159
827.741	5159
827.88	5181
828.02	5083
828.159	5277
828.298	5296
828.437	5334
828.577	5277
828.716	5452
828.855	5292
828.994	5155
829.134	5155
829.273	5162
829.412	5181
829.551	5132
829.69	5155
829.829	5212
829.968	5436
830.107	5246
830.246	5269
830.385	5166
830.524	5086
830.663	5071
830.802	5010
830.941	4911
831.08	4892
831.219	4999
831.357	4938
831.496	5132
831.635	4927
831.774	4843
831.913	4816
832.051	4729
832.19	4736
832.329	4835
832.467	4702
832.606	4626
832.744	4729
832.883	4714
833.022	4736
833.16	4793
833.299	4816
833.437	4759
833.576	4858
833.714	4900
833.852	4881
833.991	4862
834.129	4991
834.267	4908
834.406	4900
834.544	4961
834.682	4938
834.821	4980
834.959	5227
835.097	4972
835.235	5105
835.373	5048
835.511	5102
835.65	5041
835.788	4991
835.926	4896
836.064	4892
836.202	4923
836.34	5105
836.478	5223
836.615	5117
836.753	5208
836.891	5292
837.029	5208
837.167	5181
837.305	5147
837.443	5162
837.58	5029
837.718	5284
837.856	5254
837.993	5143
838.131	5216
838.269	5189
838.406	5185
838.544	5231
838.681	5060
838.819	4968
838.956	4877
839.094	4850
839.231	4961
839.369	5067
839.506	5429
839.643	5296
839.781	5071
839.918	4995
840.055	5140
840.193	5105
840.33	5060
840.467	5052
840.604	5181
840.742	5414
840.879	5075
841.016	5075
841.153	5121
841.29	5360
841.427	5326
841.564	5307
841.701	5376
841.838	5273
841.975	5235
842.112	5303
842.249	5147
842.385	5128
842.522	5360
842.659	5147
842.796	5140
842.933	5189
843.069	5128
843.206	5151
843.343	5318
843.479	5261
843.616	5254
843.752	4995
843.889	5041
844.025	5216
844.162	5010
844.298	5231
844.435	5079
844.571	5090
844.708	5189
844.844	5288
844.98	5376
845.117	5353
845.253	5159
845.389	5075
845.525	5174
845.661	5208
845.798	5060
845.934	5204
846.07	5029
846.206	5159
846.342	5254
846.478	5166
846.614	5048
846.75	5003
846.886	4942
847.022	5143
847.158	5033
847.294	5079
847.429	5105
847.565	5109
847.701	5315
847.837	4820
847.972	4820
848.108	5006
848.244	4915
848.379	4809
848.515	4778
848.65	4679
848.786	4793
848.921	4767
849.057	4831
849.192	4877
849.328	4843
849.463	4801
849.598	4767
849.734	4786
849.869	4714
850.004	4615
850.14	4683
850.275	4630
850.41	4523
850.545	4523
850.68	4565
850.815	4672
850.95	4679
851.085	4816
851.22	4744
851.355	4649
851.49	4599
851.625	4626
851.76	4634
851.895	4565
852.03	4497
852.165	4637
852.299	4694
852.434	4801
852.569	4725
852.703	4809
852.838	4839
852.973	4927
853.107	4896
853.242	4717
853.376	4679
853.511	4523
853.645	4645
853.78	4820
853.914	4706
854.048	4668
854.183	4653
854.317	4721
854.451	4843
854.585	4679
854.72	4637
854.854	4759
854.988	4542
855.122	4641
855.256	4538
855.39	4618
855.524	4790
855.658	4698
855.792	4668
855.926	4736
856.06	4729
856.194	4801
856.327	4706
856.461	4645
856.595	4615
856.729	4634
856.862	4736
856.996	4752
857.13	4717
857.263	4790
857.397	4816
857.53	4645
857.664	4759
857.797	4767
857.931	4793
858.064	4698
858.197	4744
858.331	4630
858.464	4649
858.597	4527
858.731	4649
858.864	4656
858.997	4634
859.13	4660
859.263	4645
859.396	4675
859.529	4607
859.662	4558
859.795	4550
859.928	4618
860.061	4771
860.194	4736
860.327	4660
860.46	4603
860.592	4679
860.725	4698
860.858	4717
860.99	4558
861.123	4542
861.256	4523
861.388	4577
861.521	5246
861.653	4462
861.786	4443
861.918	4508
862.05	4493
862.183	4535
862.315	4615
862.447	4683
862.58	4550
862.712	4413
862.844	4284
862.976	4394
863.108	4417
863.24	4904
863.372	4341
863.504	4398
863.636	4383
863.768	4459
863.9	4451
864.032	4367
864.164	4371
864.296	4497
864.428	4558
864.559	4599
864.691	4550
864.823	4546
864.954	4443
865.086	4516
865.217	4424
865.349	4443
865.48	4447
865.612	4462
865.743	4618
865.875	4497
866.006	4432
866.137	4462
866.269	4462
866.4	4386
866.531	4485
866.662	4424
866.793	4390
866.924	4436
867.055	4535
867.186	4447
867.317	4409
867.448	4371
867.579	4409
867.71	4462
867.841	4348
867.972	4455
868.103	4455
868.233	4459
868.364	4424
868.495	4459
868.625	4622
868.756	4759
868.886	4519
869.017	4641
869.147	4812
869.278	4763
869.408	4630
869.539	4634
869.669	4687
869.799	4702
869.929	4736
870.06	4721
870.19	4942
870.32	4927
870.45	4930
870.58	5018
870.71	5025
870.84	5124
870.97	4930
871.1	4930
871.23	5159
871.36	5113
871.489	5006
871.619	5052
871.749	5086
871.879	5117
872.008	5121
872.138	5052
872.267	5022
872.397	4877
872.526	4809
872.656	4725
872.785	4801
872.915	4908
873.044	4995
873.173	4923
873.303	4942
873.432	4968
873.561	4949
873.69	4911
873.819	4873
873.948	4923
874.077	4801
874.206	4797
874.335	4831
874.464	4965
874.593	5056
874.722	4946
874.851	5071
874.979	4995
875.108	4987
875.237	4915
875.365	4877
875.494	4866
875.623	4942
875.751	4820
875.88	4873
876.008	4976
876.136	5071
876.265	5162
876.393	5383
876.521	5216
876.65	5204
876.778	5113
876.906	5071
877.034	5025
877.162	5064
877.29	4999
877.418	5029
877.546	5022
877.674	5079
877.802	4991
877.93	5045
878.058	4934
878.185	4847
878.313	4976
878.441	4965
878.568	4824
878.696	4847
878.824	4961
878.951	5003
879.079	5170
879.206	5288
879.333	5094
879.461	5006
879.588	4995
879.715	5117
879.842	5227
879.97	5010
880.097	4744
880.224	4774
880.351	4831
880.478	4778
880.605	4805
880.732	4771
880.859	5067
880.986	4843
881.112	4873
881.239	4778
881.366	4675
881.493	4577
881.619	4546
881.746	4615
881.872	4698
881.999	4679
882.125	4694
882.252	4782
882.378	4771
882.505	4976
882.631	4805
882.757	4675
882.883	4694
883.01	4714
883.136	4656
883.262	4584
883.388	4683
883.514	4797
883.64	4820
883.766	4797
883.892	4660
884.018	4668
884.143	4892
884.269	4946
884.395	4687
884.52	4645
884.646	4618
884.772	4565
884.897	4565
885.023	4729
885.148	4763
885.274	4892
885.399	4797
885.524	4736
885.65	4687
885.775	4721
885.9	4691
886.025	4847
886.15	4809
886.275	4774
886.4	4653
886.525	4675
886.65	4675
886.775	4714
886.9	4873
887.025	5060
887.149	4786
887.274	4679
887.399	4558
887.523	4607
887.648	4611
887.773	4611
887.897	4748
888.021	4744
888.146	4634
888.27	4820
888.395	4885
888.519	4748
888.643	4771
888.767	4877
888.891	4637
889.015	4577
889.139	4656
889.263	4592
889.387	4755
889.511	4843
889.635	4759
889.759	4656
889.883	4641
890.006	4675
890.13	4839
890.254	4660
890.377	4679
890.501	4485
890.624	4550
890.748	4607
890.871	4523
890.995	4413
891.118	4413
891.241	4466
891.364	4535
891.488	4660
891.611	4455
891.734	4523
891.857	4607
891.98	4542
892.103	4607
892.226	4592
892.349	4550
892.471	4466
892.594	4554
892.717	4584
892.839	4573
892.962	4584
893.085	4645
893.207	4588
893.33	4504
893.452	4565
893.575	4679
893.697	4588
893.819	4782
893.941	4835
894.064	4774
894.186	4611
894.308	4554
894.43	4771
894.552	4831
894.674	4725
894.796	4558
894.918	4607
895.04	4531
895.161	4691
895.283	4664
895.405	4554
895.526	4569
895.648	4675
895.769	4656
895.891	4740
896.012	4717
896.134	4683
896.255	4687
896.376	4691
896.498	4569
896.619	4668
896.74	4626
896.861	4641
896.982	4900
897.103	5075
897.224	4793
897.345	4733
897.466	4645
897.587	4729
897.708	4858
897.828	4771
897.949	4691
898.07	4599
898.19	4641
898.311	4820
898.431	4668
898.552	4774
898.672	4809
898.792	4831
898.913	4672
899.033	4641
899.153	4500
899.273	4443
899.393	4512
899.513	4508
899.633	4512
899.753	4538
899.873	4546
899.993	4592
900.113	4504
900.232	4550
900.352	4584
900.472	4497
900.591	4348
900.711	4459
900.83	4421
900.95	4561
901.069	4694
901.189	4558
901.308	4337
901.427	4333
901.546	4402
901.665	4489
901.784	4531
901.904	4356
902.023	4299
902.141	4211
902.26	4143
902.379	4291
902.498	4173
902.617	4211
902.735	4398
902.854	4417
902.973	4386
903.091	4192
903.21	4196
903.328	4295
903.446	4268
903.565	4249
903.683	4333
903.801	4280
903.919	4405
904.038	4428
904.156	4329
904.274	4424
904.392	4398
904.51	4421
904.627	4489
904.745	4546
904.863	4599
904.981	4363
905.098	4280
905.216	4341
905.334	4421
905.451	4413
905.569	4432
905.686	4546
905.803	4538
905.921	4428
906.038	4535
906.155	4474
906.272	4375
906.389	4432
906.506	4325
906.623	4360
906.74	4402
906.857	4287
906.974	4341
907.091	4531
907.208	4664
907.324	4527
907.441	4493
907.557	4341
907.674	4352
907.79	4325
907.907	4402
908.023	4500
908.139	4504
908.256	4436
908.372	4462
908.488	4421
908.604	4337
908.72	4325
908.836	4371
908.952	4394
909.068	4421
909.184	4558
909.3	4451
909.415	4603
909.531	4565
909.647	4325
909.762	4371
909.878	4333
909.993	4447
910.108	4363
910.224	4379
910.339	4455
910.454	4383
910.57	4303
910.685	4291
910.8	4618
910.915	4535
911.03	4516
911.145	4306
911.259	4318
911.374	4341
911.489	4287
911.604	4295
911.718	4150
911.833	4181
911.947	4055
912.062	4013
912.176	4238
912.291	4227
912.405	4246
912.519	4470
912.633	4455
912.748	4390
912.862	4287
912.976	4192
913.09	4101
913.204	4143
913.318	4261
913.431	4367
913.545	4348
913.659	4421
913.772	4337
913.886	4219
914	4238
914.113	4337
914.226	4451
914.34	4379
914.453	4204
914.566	4379
914.68	4272
914.793	4348
914.906	4124
915.019	4116
915.132	4055
915.245	4162
915.358	4204
915.47	4215
915.583	4249
915.696	4333
915.809	4440
915.921	4432
916.034	4276
916.146	4253
916.259	4230
916.371	4402
916.483	4360
916.595	4272
916.708	4318
916.82	4246
916.932	4303
917.044	4265
917.156	4344
917.268	4230
917.38	4291
917.491	4284
917.603	4344
917.715	4398
917.826	4417
917.938	4310
918.049	4246
918.161	4386
918.272	4512
918.384	4523
918.495	4462
918.606	4299
918.717	4204
918.828	4318
918.939	4367
919.05	4230
919.161	4299
919.272	4139
919.383	4207
919.494	4421
919.604	4565
919.715	4379
919.826	4383
919.936	4348
920.047	4523
920.157	4504
920.267	4679
920.378	4542
920.488	4489
920.598	4653
920.708	4873
920.818	4752
920.928	4748
921.038	4934
921.148	4927
921.258	4618
921.368	4550
921.477	4489
921.587	4421
921.697	4356
921.806	4542
921.916	4390
922.025	4268
922.134	4253
922.244	4246
922.353	4383
922.462	4192
922.571	4101
922.68	3991
922.789	4002
922.898	4048
923.007	3998
923.116	4128
923.224	4082
923.333	4067
923.442	4040
923.55	4006
923.659	4051
923.767	4093
923.876	4017
923.984	4124
924.092	3998
924.201	4112
924.309	4082
924.417	4177
924.525	4093
924.633	4112
924.741	4930
924.849	3956
924.956	4177
925.064	4006
925.172	3968
925.279	3964
925.387	4059
925.494	4124
925.602	4223
925.709	4223
925.816	4086
925.924	4185
926.031	4249
926.138	4207
926.245	4249
926.352	4112
926.459	4280
926.566	4333
926.673	4207
926.779	4086
926.886	4124
926.993	3987
927.099	3968
927.206	3991
927.312	3987
927.419	4078
927.525	4036
927.631	4097
927.737	4013
927.843	4021
927.95	3903
928.056	3968
928.162	4040
928.267	4086
928.373	4778
928.479	4124
928.585	3937
928.69	4071
928.796	4135
928.901	3983
929.007	3892
929.112	4021
929.218	4044
929.323	4013
929.428	3968
929.533	4169
929.638	3972
929.743	4006
929.848	4090
929.953	4002
930.058	4006
930.163	3846
930.267	3869
930.372	4006
930.477	3854
930.581	4112
930.685	3964
930.79	3854
930.894	3896
930.998	3892
931.103	4063
931.207	3755
931.311	3728
931.415	3717
931.519	3568
931.623	3595
