Data from test_V78500241_727.txt Node
Date: Fri Mar 25 16:54:03 CST 2022
User: usil
Spectrometer: V785-0024
Trigger mode: 0
Integration Time (sec): 4.000000E-1
Scans to average: 1
Nonlinearity correction enabled: false
Boxcar width: 0
Storing dark spectrum: false
XAxis mode: Wavelengths
Number of Pixels in Spectrum: 1024
>>>>>Begin Spectral Data<<<<<
801.071	7982
801.214	7967
801.356	7864
801.499	7898
801.641	7765
801.783	7856
801.926	7947
802.068	7944
802.211	7913
802.353	7947
802.496	7822
802.638	7868
802.78	7970
802.923	7894
803.065	7799
803.208	7906
803.35	8031
803.492	8077
803.635	8183
803.777	7963
803.919	8084
804.061	8343
804.204	8103
804.346	8001
804.488	7936
804.63	8077
804.773	7947
804.915	8096
805.057	8248
805.199	8134
805.341	8199
805.483	8320
805.626	8206
805.768	8168
805.91	8164
806.052	8244
806.194	8096
806.336	8240
806.478	8111
806.62	8088
806.762	8077
806.904	8252
807.046	8461
807.188	8275
807.33	8275
807.472	8343
807.614	8168
807.756	8050
807.898	7887
808.04	7761
808.182	7913
808.324	7894
808.465	7871
808.607	8043
808.749	8084
808.891	8168
809.033	8282
809.174	8210
809.316	8031
809.458	8077
809.6	7936
809.741	8001
809.883	8062
810.025	8081
810.166	8050
810.308	7997
810.45	7967
810.591	7928
810.733	7761
810.875	7670
811.016	7468
811.158	7464
811.299	7495
811.441	7734
811.582	7677
811.724	7544
811.865	7457
812.007	7518
812.148	7651
812.29	7571
812.431	7738
812.573	7868
812.714	7932
812.855	8130
812.997	8145
813.138	8286
813.279	8142
813.421	8008
813.562	8005
813.703	7868
813.845	7776
813.986	7506
814.127	7285
814.268	7209
814.41	7194
814.551	7137
814.692	7129
814.833	7027
814.974	7076
815.115	6989
815.256	6973
815.397	6935
815.539	6939
815.68	6844
815.821	6859
815.962	6871
816.103	6757
816.244	6635
816.385	6604
816.526	6566
816.666	6547
816.807	6243
816.948	6403
817.089	6426
817.23	6426
817.371	6380
817.512	6372
817.653	6369
817.793	6315
817.934	6357
818.075	6426
818.216	6380
818.356	6384
818.497	6228
818.638	6129
818.778	6117
818.919	6125
819.06	6106
819.2	6281
819.341	6292
819.481	6315
819.622	6540
819.762	6738
819.903	6665
820.043	6563
820.184	6551
820.324	6582
820.465	6631
820.605	6665
820.746	6616
820.886	6479
821.026	6608
821.167	6684
821.307	6757
821.447	6734
821.588	6623
821.728	6540
821.868	6414
822.008	6304
822.149	6327
822.289	6311
822.429	6159
822.569	6106
822.709	6114
822.849	5912
822.99	5878
823.13	5939
823.27	5897
823.41	5824
823.55	5733
823.69	5741
823.83	5794
823.97	5653
824.11	5471
824.25	5505
824.389	5573
824.529	5547
824.669	5497
824.809	5619
824.949	5657
825.089	5627
825.228	5581
825.368	5376
825.508	5372
825.648	5330
825.787	5326
825.927	5341
826.067	5337
826.206	5318
826.346	5334
826.485	5353
826.625	5360
826.765	5562
826.904	5417
827.044	5231
827.183	5181
827.323	5147
827.462	5280
827.601	5170
827.741	5193
827.88	5185
828.02	5132
828.159	5201
828.298	5311
828.437	5357
828.577	5311
828.716	5433
828.855	5311
828.994	5170
829.134	5143
829.273	5174
829.412	5105
829.551	5155
829.69	5162
829.829	5174
829.968	5353
830.107	5250
830.246	5269
830.385	5166
830.524	5178
830.663	5052
830.802	4942
830.941	4919
831.08	4896
831.219	4946
831.357	4953
831.496	5121
831.635	4892
831.774	4835
831.913	4828
832.051	4755
832.19	4752
832.329	4831
832.467	4679
832.606	4580
832.744	4694
832.883	4668
833.022	4691
833.16	4748
833.299	4820
833.437	4816
833.576	4820
833.714	4843
833.852	4828
833.991	4858
834.129	4919
834.267	4892
834.406	4934
834.544	4991
834.682	4938
834.821	4999
834.959	5162
835.097	4980
835.235	5132
835.373	5094
835.511	5060
835.65	5041
835.788	5064
835.926	4889
836.064	4854
836.202	4923
836.34	5140
836.478	5235
836.615	5121
836.753	5208
836.891	5288
837.029	5208
837.167	5109
837.305	5143
837.443	5178
837.58	5048
837.718	5220
837.856	5174
837.993	5166
838.131	5189
838.269	5159
838.406	5185
838.544	5201
838.681	4972
838.819	4987
838.956	4957
839.094	4980
839.231	4980
839.369	5086
839.506	5455
839.643	5292
839.781	5033
839.918	5003
840.055	5052
840.193	5060
840.33	5113
840.467	5124
840.604	5227
840.742	5425
840.879	5083
841.016	5086
841.153	5166
841.29	5372
841.427	5277
841.564	5292
841.701	5379
841.838	5277
841.975	5204
842.112	5280
842.249	5098
842.385	5109
842.522	5322
842.659	5193
842.796	5204
842.933	5193
843.069	5220
843.206	5197
843.343	5353
843.479	5223
843.616	5284
843.752	5045
843.889	4972
844.025	5170
844.162	5018
844.298	5151
844.435	5113
844.571	5075
844.708	5159
844.844	5227
844.98	5349
845.117	5292
845.253	5159
845.389	5075
845.525	5193
845.661	5162
845.798	4991
845.934	5090
846.07	5022
846.206	5162
846.342	5269
846.478	5174
846.614	5071
846.75	4938
846.886	4961
847.022	5102
847.158	5041
847.294	5064
847.429	5109
847.565	5060
847.701	5299
847.837	4877
847.972	4774
848.108	4999
848.244	4938
848.379	4793
848.515	4771
848.65	4683
848.786	4767
848.921	4820
849.057	4877
849.192	4919
849.328	4828
849.463	4828
849.598	4748
849.734	4714
849.869	4702
850.004	4580
850.14	4649
850.275	4607
850.41	4519
850.545	4554
850.68	4615
850.815	4637
850.95	4641
851.085	4828
851.22	4733
851.355	4656
851.49	4607
851.625	4626
851.76	4618
851.895	4554
852.03	4538
852.165	4679
852.299	4694
852.434	4824
852.569	4721
852.703	4805
852.838	4858
852.973	4908
853.107	4915
853.242	4767
853.376	4675
853.511	4527
853.645	4577
853.78	4786
853.914	4668
854.048	4641
854.183	4653
854.317	4736
854.451	4854
854.585	4645
854.72	4672
854.854	4702
854.988	4569
855.122	4615
855.256	4504
855.39	4645
855.524	4740
855.658	4702
855.792	4683
855.926	4763
856.06	4752
856.194	4771
856.327	4675
856.461	4596
856.595	4615
856.729	4637
856.862	4744
856.996	4687
857.13	4668
857.263	4752
857.397	4790
857.53	4660
857.664	4744
857.797	4733
857.931	4767
858.064	4744
858.197	4771
858.331	4637
858.464	4603
858.597	4455
858.731	4656
858.864	4592
858.997	4580
859.13	4691
859.263	4649
859.396	4664
859.529	4546
859.662	4588
859.795	4493
859.928	4584
860.061	4752
860.194	4740
860.327	4626
860.46	4538
860.592	4679
860.725	4725
860.858	4736
860.99	4554
861.123	4527
861.256	4508
861.388	4592
861.521	5414
861.653	4470
861.786	4443
861.918	4428
862.05	4554
862.183	4538
862.315	4561
862.447	4649
862.58	4592
862.712	4424
862.844	4314
862.976	4485
863.108	4481
863.24	4850
863.372	4299
863.504	4383
863.636	4436
863.768	4478
863.9	4413
864.032	4352
864.164	4379
864.296	4474
864.428	4592
864.559	4558
864.691	4512
864.823	4558
864.954	4523
865.086	4558
865.217	4409
865.349	4421
865.48	4428
865.612	4489
865.743	4573
865.875	4470
866.006	4451
866.137	4455
866.269	4417
866.4	4413
866.531	4432
866.662	4405
866.793	4405
866.924	4379
867.055	4485
867.186	4462
867.317	4413
867.448	4394
867.579	4367
867.71	4405
867.841	4386
867.972	4451
868.103	4466
868.233	4443
868.364	4432
868.495	4478
868.625	4641
868.756	4710
868.886	4561
869.017	4615
869.147	4744
869.278	4809
869.408	4683
869.539	4622
869.669	4710
869.799	4672
869.929	4729
870.06	4729
870.19	4953
870.32	4923
870.45	4946
870.58	5006
870.71	5064
870.84	5033
870.97	4927
871.1	4942
871.23	5166
871.36	5098
871.489	4987
871.619	5067
871.749	5086
871.879	5102
872.008	5155
872.138	4995
872.267	4991
872.397	4854
872.526	4797
872.656	4752
872.785	4782
872.915	4908
873.044	5010
873.173	4892
873.303	4919
873.432	4957
873.561	4946
873.69	4858
873.819	4831
873.948	4900
874.077	4801
874.206	4725
874.335	4790
874.464	4908
874.593	5086
874.722	4972
874.851	5086
874.979	5064
875.108	4995
875.237	4858
875.365	4927
875.494	4873
875.623	4961
875.751	4797
875.88	4858
876.008	4987
876.136	5037
876.265	5204
876.393	5357
876.521	5242
876.65	5265
876.778	5174
876.906	5048
877.034	5048
877.162	5018
877.29	5022
877.418	5064
877.546	5029
877.674	5048
877.802	4995
877.93	4995
878.058	4953
878.185	4831
878.313	4938
878.441	4938
878.568	4820
878.696	4881
878.824	4930
878.951	5010
879.079	5094
879.206	5284
879.333	5098
879.461	4984
879.588	4984
879.715	5143
879.842	5208
879.97	5003
880.097	4820
880.224	4694
880.351	4759
880.478	4755
880.605	4816
880.732	4812
880.859	5056
880.986	4870
881.112	4900
881.239	4793
881.366	4649
881.493	4592
881.619	4599
881.746	4653
881.872	4660
881.999	4664
882.125	4702
882.252	4812
882.378	4801
882.505	4965
882.631	4793
882.757	4664
882.883	4740
883.01	4710
883.136	4679
883.262	4634
883.388	4630
883.514	4790
883.64	4927
883.766	4767
883.892	4675
884.018	4729
884.143	4881
884.269	4980
884.395	4615
884.52	4592
884.646	4592
884.772	4599
884.897	4569
885.023	4687
885.148	4763
885.274	4889
885.399	4767
885.524	4725
885.65	4698
885.775	4736
885.9	4706
886.025	4854
886.15	4759
886.275	4710
886.4	4660
886.525	4755
886.65	4736
886.775	4698
886.9	4896
887.025	5033
887.149	4809
887.274	4672
887.399	4569
887.523	4618
887.648	4546
887.773	4565
887.897	4725
888.021	4744
888.146	4675
888.27	4828
888.395	4896
888.519	4767
888.643	4812
888.767	4805
888.891	4687
889.015	4573
889.139	4630
889.263	4565
889.387	4752
889.511	4862
889.635	4748
889.759	4626
889.883	4653
890.006	4755
890.13	4797
890.254	4584
890.377	4622
890.501	4558
890.624	4527
890.748	4649
890.871	4558
890.995	4436
891.118	4398
891.241	4546
891.364	4519
891.488	4653
891.611	4508
891.734	4508
891.857	4588
891.98	4523
892.103	4656
892.226	4542
892.349	4588
892.471	4447
892.594	4550
892.717	4550
892.839	4535
892.962	4550
893.085	4694
893.207	4580
893.33	4447
893.452	4516
893.575	4618
893.697	4558
893.819	4748
893.941	4759
894.064	4752
894.186	4573
894.308	4535
894.43	4710
894.552	4824
894.674	4729
894.796	4516
894.918	4630
895.04	4573
895.161	4698
895.283	4706
895.405	4573
895.526	4611
895.648	4675
895.769	4634
895.891	4714
896.012	4755
896.134	4698
896.255	4683
896.376	4660
896.498	4580
896.619	4675
896.74	4641
896.861	4653
896.982	4923
897.103	5094
897.224	4831
897.345	4740
897.466	4634
897.587	4733
897.708	4862
897.828	4816
897.949	4668
898.07	4542
898.19	4611
898.311	4790
898.431	4645
898.552	4748
898.672	4793
898.792	4782
898.913	4786
899.033	4653
899.153	4523
899.273	4447
899.393	4497
899.513	4519
899.633	4523
899.753	4554
899.873	4500
899.993	4550
900.113	4523
900.232	4535
900.352	4535
900.472	4531
900.591	4394
900.711	4470
900.83	4428
900.95	4622
901.069	4664
901.189	4565
901.308	4360
901.427	4329
901.546	4386
901.665	4440
901.784	4485
901.904	4348
902.023	4352
902.141	4169
902.26	4154
902.379	4303
902.498	4227
902.617	4246
902.735	4356
902.854	4375
902.973	4341
903.091	4207
903.21	4230
903.328	4284
903.446	4238
903.565	4268
903.683	4363
903.801	4299
903.919	4413
904.038	4413
904.156	4280
904.274	4413
904.392	4398
904.51	4466
904.627	4485
904.745	4611
904.863	4660
904.981	4402
905.098	4348
905.216	4363
905.334	4424
905.451	4394
905.569	4436
905.686	4535
905.803	4554
905.921	4409
906.038	4538
906.155	4485
906.272	4394
906.389	4470
906.506	4325
906.623	4367
906.74	4398
906.857	4318
906.974	4314
907.091	4596
907.208	4691
907.324	4577
907.441	4481
907.557	4352
907.674	4310
907.79	4280
907.907	4383
908.023	4504
908.139	4481
908.256	4394
908.372	4470
908.488	4409
908.604	4303
908.72	4348
908.836	4329
908.952	4367
909.068	4405
909.184	4592
909.3	4497
909.415	4592
909.531	4561
909.647	4367
909.762	4360
909.878	4363
909.993	4474
910.108	4417
910.224	4348
910.339	4481
910.454	4402
910.57	4333
910.685	4329
910.8	4649
910.915	4611
911.03	4489
911.145	4341
911.259	4360
911.374	4337
911.489	4314
911.604	4287
911.718	4139
911.833	4177
911.947	4074
912.062	4074
912.176	4192
912.291	4234
912.405	4234
912.519	4451
912.633	4504
912.748	4344
912.862	4318
912.976	4135
913.09	4101
913.204	4181
913.318	4242
913.431	4371
913.545	4356
913.659	4455
913.772	4352
913.886	4249
914	4196
914.113	4363
914.226	4417
914.34	4398
914.453	4246
914.566	4428
914.68	4314
914.793	4303
914.906	4177
915.019	4116
915.132	4071
915.245	4211
915.358	4196
915.47	4284
915.583	4276
915.696	4276
915.809	4394
915.921	4356
916.034	4238
916.146	4242
916.259	4192
916.371	4383
916.483	4337
916.595	4257
916.708	4246
916.82	4276
916.932	4318
917.044	4341
917.156	4348
917.268	4287
917.38	4272
917.491	4272
917.603	4303
917.715	4402
917.826	4421
917.938	4322
918.049	4223
918.161	4375
918.272	4580
918.384	4497
918.495	4417
918.606	4272
918.717	4242
918.828	4333
918.939	4352
919.05	4227
919.161	4287
919.272	4154
919.383	4230
919.494	4436
919.604	4637
919.715	4432
919.826	4421
919.936	4417
920.047	4516
920.157	4459
920.267	4729
920.378	4523
920.488	4508
920.598	4736
920.708	4881
920.818	4729
920.928	4755
921.038	4927
921.148	4934
921.258	4596
921.368	4546
921.477	4459
921.587	4462
921.697	4325
921.806	4611
921.916	4459
922.025	4287
922.134	4295
922.244	4238
922.353	4363
922.462	4162
922.571	4166
922.68	4017
922.789	3975
922.898	4036
923.007	3937
923.116	4074
923.224	4086
923.333	4063
923.442	3964
923.55	3968
923.659	4021
923.767	4044
923.876	4021
923.984	4169
924.092	3953
924.201	4002
924.309	4097
924.417	4105
924.525	4044
924.633	4131
924.741	4892
924.849	3915
924.956	4112
925.064	3956
925.172	3876
925.279	3945
925.387	4029
925.494	4048
925.602	4207
925.709	4223
925.816	4025
925.924	4143
926.031	4215
926.138	4154
926.245	4196
926.352	4078
926.459	4265
926.566	4310
926.673	4109
926.779	4078
926.886	4101
926.993	3960
927.099	3956
927.206	3953
927.312	3903
927.419	4048
927.525	4051
927.631	4071
927.737	3945
927.843	3949
927.95	3835
928.056	3964
928.162	3994
928.267	4040
928.373	4645
928.479	4128
928.585	3846
928.69	4036
928.796	4109
928.901	3968
929.007	3823
929.112	4002
929.218	3907
929.323	3949
929.428	3964
929.533	4097
929.638	3915
929.743	3956
929.848	4010
929.953	4029
930.058	3968
930.163	3804
930.267	3819
930.372	3975
930.477	3835
930.581	4067
930.685	3949
930.79	3774
930.894	3918
930.998	3842
931.103	4017
931.207	3698
931.311	3667
931.415	3663
931.519	3492
931.623	3561
