Data from test_V78500241_316.txt Node
Date: Fri Mar 25 16:51:12 CST 2022
User: usil
Spectrometer: V785-0024
Trigger mode: 0
Integration Time (sec): 4.000000E-1
Scans to average: 1
Nonlinearity correction enabled: false
Boxcar width: 0
Storing dark spectrum: false
XAxis mode: Wavelengths
Number of Pixels in Spectrum: 1024
>>>>>Begin Spectral Data<<<<<
801.071	8096
801.214	8046
801.356	7955
801.499	7925
801.641	7868
801.783	7868
801.926	8077
802.068	7989
802.211	7974
802.353	8069
802.496	7860
802.638	7955
802.78	7940
802.923	7974
803.065	7887
803.208	7811
803.35	7986
803.492	8092
803.635	8164
803.777	8035
803.919	8180
804.061	8450
804.204	8168
804.346	8031
804.488	7993
804.63	8138
804.773	8050
804.915	8134
805.057	8309
805.199	8164
805.341	8305
805.483	8225
805.626	8191
805.768	8039
805.91	8225
806.052	8282
806.194	8069
806.336	8294
806.478	8176
806.62	8107
806.762	8233
806.904	8256
807.046	8450
807.188	8404
807.33	8294
807.472	8347
807.614	8107
807.756	8119
807.898	8020
808.04	7849
808.182	7947
808.324	7944
808.465	7955
808.607	8126
808.749	8145
808.891	8199
809.033	8290
809.174	8172
809.316	8008
809.458	8065
809.6	7982
809.741	8024
809.883	8020
810.025	8123
810.166	8126
810.308	8062
810.45	8012
810.591	7928
810.733	7757
810.875	7655
811.016	7582
811.158	7521
811.299	7704
811.441	7807
811.582	7727
811.724	7582
811.865	7655
812.007	7719
812.148	7567
812.29	7658
812.431	7761
812.573	7925
812.714	8027
812.855	8115
812.997	8153
813.138	8393
813.279	8176
813.421	8168
813.562	8012
813.703	7860
813.845	7757
813.986	7441
814.127	7251
814.268	7259
814.41	7236
814.551	7175
814.692	7225
814.833	7080
814.974	7122
815.115	7110
815.256	6935
815.397	6920
815.539	6935
815.68	6806
815.821	6798
815.962	6859
816.103	6783
816.244	6760
816.385	6662
816.526	6707
816.666	6528
816.807	6334
816.948	6403
817.089	6483
817.23	6464
817.371	6399
817.512	6372
817.653	6407
817.793	6407
817.934	6445
818.075	6486
818.216	6391
818.356	6429
818.497	6300
818.638	6117
818.778	6152
818.919	6087
819.06	6159
819.2	6277
819.341	6300
819.481	6342
819.622	6544
819.762	6764
819.903	6696
820.043	6547
820.184	6589
820.324	6601
820.465	6719
820.605	6734
820.746	6616
820.886	6475
821.026	6662
821.167	6696
821.307	6768
821.447	6692
821.588	6700
821.728	6601
821.868	6509
822.008	6426
822.149	6433
822.289	6346
822.429	6186
822.569	6068
822.709	6034
822.849	5882
822.99	5939
823.13	5942
823.27	5882
823.41	5832
823.55	5824
823.69	5779
823.83	5802
823.97	5707
824.11	5585
824.25	5505
824.389	5558
824.529	5516
824.669	5608
824.809	5589
824.949	5726
825.089	5653
825.228	5589
825.368	5440
825.508	5261
825.648	5315
825.787	5360
825.927	5360
826.067	5303
826.206	5349
826.346	5383
826.485	5395
826.625	5414
826.765	5558
826.904	5471
827.044	5246
827.183	5197
827.323	5117
827.462	5277
827.601	5220
827.741	5155
827.88	5212
828.02	5117
828.159	5265
828.298	5345
828.437	5349
828.577	5242
828.716	5474
828.855	5353
828.994	5185
829.134	5159
829.273	5159
829.412	5143
829.551	5124
829.69	5185
829.829	5231
829.968	5345
830.107	5273
830.246	5299
830.385	5178
830.524	5166
830.663	4999
830.802	5018
830.941	4866
831.08	4881
831.219	5003
831.357	5048
831.496	5170
831.635	4892
831.774	4896
831.913	4831
832.051	4759
832.19	4752
832.329	4866
832.467	4687
832.606	4641
832.744	4675
832.883	4733
833.022	4740
833.16	4812
833.299	4816
833.437	4812
833.576	4870
833.714	4870
833.852	4873
833.991	4889
834.129	5006
834.267	4965
834.406	4934
834.544	4965
834.682	4984
834.821	4957
834.959	5155
835.097	4980
835.235	5090
835.373	5071
835.511	5075
835.65	5025
835.788	4987
835.926	4915
836.064	4877
836.202	4927
836.34	5220
836.478	5220
836.615	5143
836.753	5235
836.891	5303
837.029	5299
837.167	5216
837.305	5132
837.443	5201
837.58	5048
837.718	5254
837.856	5231
837.993	5117
838.131	5197
838.269	5235
838.406	5212
838.544	5208
838.681	5105
838.819	4995
838.956	4949
839.094	4915
839.231	4995
839.369	5098
839.506	5425
839.643	5269
839.781	5132
839.918	5064
840.055	5117
840.193	5113
840.33	5155
840.467	5136
840.604	5220
840.742	5425
840.879	5056
841.016	5140
841.153	5117
841.29	5383
841.427	5349
841.564	5303
841.701	5383
841.838	5269
841.975	5212
842.112	5242
842.249	5140
842.385	5162
842.522	5379
842.659	5181
842.796	5155
842.933	5261
843.069	5143
843.206	5185
843.343	5322
843.479	5227
843.616	5265
843.752	5056
843.889	5014
844.025	5254
844.162	4991
844.298	5181
844.435	5029
844.571	5033
844.708	5212
844.844	5330
844.98	5299
845.117	5349
845.253	5113
845.389	5143
845.525	5178
845.661	5117
845.798	5048
845.934	5113
846.07	5075
846.206	5223
846.342	5345
846.478	5166
846.614	5033
846.75	5006
846.886	4900
847.022	5102
847.158	5064
847.294	5071
847.429	5060
847.565	5041
847.701	5318
847.837	4843
847.972	4786
848.108	4946
848.244	4923
848.379	4774
848.515	4733
848.65	4725
848.786	4778
848.921	4759
849.057	4847
849.192	4949
849.328	4812
849.463	4801
849.598	4816
849.734	4816
849.869	4698
850.004	4622
850.14	4637
850.275	4630
850.41	4542
850.545	4584
850.68	4577
850.815	4611
850.95	4622
851.085	4877
851.22	4752
851.355	4649
851.49	4626
851.625	4698
851.76	4683
851.895	4588
852.03	4523
852.165	4649
852.299	4740
852.434	4839
852.569	4805
852.703	4725
852.838	4850
852.973	4934
853.107	4923
853.242	4774
853.376	4694
853.511	4592
853.645	4573
853.78	4786
853.914	4698
854.048	4706
854.183	4611
854.317	4675
854.451	4858
854.585	4679
854.72	4672
854.854	4767
854.988	4603
855.122	4649
855.256	4481
855.39	4664
855.524	4816
855.658	4744
855.792	4672
855.926	4725
856.06	4740
856.194	4774
856.327	4668
856.461	4618
856.595	4641
856.729	4649
856.862	4721
856.996	4706
857.13	4721
857.263	4778
857.397	4782
857.53	4630
857.664	4694
857.797	4752
857.931	4767
858.064	4702
858.197	4771
858.331	4645
858.464	4634
858.597	4538
858.731	4580
858.864	4637
858.997	4645
859.13	4706
859.263	4702
859.396	4641
859.529	4611
859.662	4596
859.795	4538
859.928	4634
860.061	4729
860.194	4793
860.327	4622
860.46	4497
860.592	4721
860.725	4710
860.858	4733
860.99	4626
861.123	4516
861.256	4516
861.388	4603
861.521	5242
861.653	4481
861.786	4440
861.918	4474
862.05	4523
862.183	4565
862.315	4634
862.447	4668
862.58	4550
862.712	4375
862.844	4329
862.976	4462
863.108	4447
863.24	4900
863.372	4306
863.504	4451
863.636	4379
863.768	4516
863.9	4440
864.032	4352
864.164	4428
864.296	4504
864.428	4554
864.559	4546
864.691	4531
864.823	4538
864.954	4466
865.086	4550
865.217	4455
865.349	4383
865.48	4485
865.612	4481
865.743	4664
865.875	4459
866.006	4455
866.137	4432
866.269	4455
866.4	4459
866.531	4421
866.662	4360
866.793	4440
866.924	4455
867.055	4493
867.186	4432
867.317	4386
867.448	4371
867.579	4344
867.71	4352
867.841	4375
867.972	4462
868.103	4443
868.233	4478
868.364	4466
868.495	4516
868.625	4691
868.756	4755
868.886	4565
869.017	4641
869.147	4740
869.278	4736
869.408	4672
869.539	4618
869.669	4725
869.799	4675
869.929	4721
870.06	4683
870.19	4946
870.32	4949
870.45	4972
870.58	5006
870.71	5094
870.84	5056
870.97	4934
871.1	4938
871.23	5124
871.36	5128
871.489	5037
871.619	5056
871.749	5143
871.879	5083
872.008	5189
872.138	5025
872.267	4999
872.397	4858
872.526	4782
872.656	4759
872.785	4786
872.915	4968
873.044	4968
873.173	4957
873.303	4968
873.432	4915
873.561	4927
873.69	4843
873.819	4885
873.948	4881
874.077	4862
874.206	4790
874.335	4801
874.464	4900
874.593	5048
874.722	4980
874.851	5083
874.979	5083
875.108	5018
875.237	4889
875.365	4885
875.494	4828
875.623	4972
875.751	4850
875.88	4911
876.008	4976
876.136	5136
876.265	5185
876.393	5341
876.521	5250
876.65	5273
876.778	5208
876.906	5064
877.034	5056
877.162	5041
877.29	5037
877.418	5060
877.546	5052
877.674	5071
877.802	5033
877.93	5056
878.058	4927
878.185	4835
878.313	4995
878.441	5006
878.568	4793
878.696	4850
878.824	4919
878.951	5010
879.079	5128
879.206	5284
879.333	5121
879.461	4984
879.588	5041
879.715	5098
879.842	5250
879.97	5014
880.097	4797
880.224	4748
880.351	4816
880.478	4839
880.605	4820
880.732	4831
880.859	5143
880.986	4896
881.112	4927
881.239	4774
881.366	4679
881.493	4577
881.619	4573
881.746	4649
881.872	4634
881.999	4672
882.125	4706
882.252	4805
882.378	4831
882.505	4942
882.631	4752
882.757	4691
882.883	4717
883.01	4767
883.136	4668
883.262	4596
883.388	4634
883.514	4816
883.64	4881
883.766	4774
883.892	4691
884.018	4744
884.143	4942
884.269	4991
884.395	4645
884.52	4607
884.646	4626
884.772	4584
884.897	4538
885.023	4641
885.148	4824
885.274	4866
885.399	4801
885.524	4717
885.65	4698
885.775	4759
885.9	4706
886.025	4870
886.15	4831
886.275	4694
886.4	4698
886.525	4733
886.65	4691
886.775	4691
886.9	4862
887.025	5029
887.149	4824
887.274	4675
887.399	4565
887.523	4649
887.648	4527
887.773	4588
887.897	4786
888.021	4786
888.146	4683
888.27	4812
888.395	4919
888.519	4816
888.643	4790
888.767	4805
888.891	4672
889.015	4607
889.139	4664
889.263	4596
889.387	4774
889.511	4881
889.635	4824
889.759	4599
889.883	4660
890.006	4721
890.13	4854
890.254	4599
890.377	4717
890.501	4565
890.624	4546
890.748	4679
890.871	4523
890.995	4398
891.118	4405
891.241	4493
891.364	4596
891.488	4588
891.611	4497
891.734	4531
891.857	4588
891.98	4535
892.103	4607
892.226	4580
892.349	4504
892.471	4432
892.594	4527
892.717	4618
892.839	4573
892.962	4618
893.085	4630
893.207	4637
893.33	4485
893.452	4508
893.575	4637
893.697	4580
893.819	4793
893.941	4831
894.064	4797
894.186	4573
894.308	4592
894.43	4797
894.552	4805
894.674	4752
894.796	4573
894.918	4599
895.04	4596
895.161	4691
895.283	4675
895.405	4641
895.526	4626
895.648	4683
895.769	4706
895.891	4755
896.012	4714
896.134	4706
896.255	4645
896.376	4664
896.498	4653
896.619	4634
896.74	4618
896.861	4675
896.982	4930
897.103	5067
897.224	4824
897.345	4744
897.466	4672
897.587	4717
897.708	4858
897.828	4793
897.949	4626
898.07	4626
898.19	4653
898.311	4816
898.431	4694
898.552	4752
898.672	4839
898.792	4809
898.913	4748
899.033	4645
899.153	4561
899.273	4424
899.393	4542
899.513	4546
899.633	4561
899.753	4542
899.873	4512
899.993	4599
900.113	4558
900.232	4607
900.352	4584
900.472	4516
900.591	4455
900.711	4489
900.83	4417
900.95	4607
901.069	4653
901.189	4554
901.308	4386
901.427	4295
901.546	4398
901.665	4485
901.784	4481
901.904	4383
902.023	4348
902.141	4234
902.26	4150
902.379	4329
902.498	4253
902.617	4257
902.735	4329
902.854	4436
902.973	4390
903.091	4219
903.21	4211
903.328	4329
903.446	4272
903.565	4268
903.683	4363
903.801	4265
903.919	4424
904.038	4462
904.156	4299
904.274	4424
904.392	4379
904.51	4398
904.627	4493
904.745	4588
904.863	4637
904.981	4421
905.098	4329
905.216	4390
905.334	4428
905.451	4428
905.569	4459
905.686	4538
905.803	4588
905.921	4371
906.038	4535
906.155	4462
906.272	4329
906.389	4443
906.506	4371
906.623	4383
906.74	4424
906.857	4291
906.974	4417
907.091	4580
907.208	4725
907.324	4622
907.441	4500
907.557	4363
907.674	4344
907.79	4310
907.907	4371
908.023	4489
908.139	4443
908.256	4398
908.372	4466
908.488	4443
908.604	4325
908.72	4325
908.836	4440
908.952	4402
909.068	4409
909.184	4546
909.3	4542
909.415	4565
909.531	4626
909.647	4344
909.762	4405
909.878	4344
909.993	4432
910.108	4383
910.224	4459
910.339	4508
910.454	4436
910.57	4390
910.685	4322
910.8	4618
910.915	4615
911.03	4546
911.145	4329
911.259	4299
911.374	4363
911.489	4291
911.604	4276
911.718	4181
911.833	4238
911.947	4131
912.062	4036
912.176	4223
912.291	4249
912.405	4261
912.519	4497
912.633	4546
912.748	4390
912.862	4306
912.976	4230
913.09	4071
913.204	4188
913.318	4234
913.431	4371
913.545	4371
913.659	4428
913.772	4363
913.886	4303
914	4219
914.113	4371
914.226	4405
914.34	4386
914.453	4234
914.566	4500
914.68	4295
914.793	4329
914.906	4128
915.019	4173
915.132	4097
915.245	4169
915.358	4227
915.47	4238
915.583	4299
915.696	4318
915.809	4436
915.921	4424
916.034	4276
916.146	4265
916.259	4230
916.371	4375
916.483	4333
916.595	4287
916.708	4306
916.82	4344
916.932	4341
917.044	4322
917.156	4360
917.268	4219
917.38	4253
917.491	4272
917.603	4348
917.715	4421
917.826	4478
917.938	4390
918.049	4246
918.161	4428
918.272	4512
918.384	4485
918.495	4481
918.606	4272
918.717	4234
918.828	4363
918.939	4451
919.05	4227
919.161	4303
919.272	4116
919.383	4249
919.494	4436
919.604	4656
919.715	4451
919.826	4371
919.936	4402
920.047	4489
920.157	4500
920.267	4672
920.378	4497
920.488	4481
920.598	4740
920.708	4938
920.818	4721
920.928	4790
921.038	4984
921.148	4919
921.258	4588
921.368	4554
921.477	4462
921.587	4455
921.697	4421
921.806	4546
921.916	4447
922.025	4272
922.134	4227
922.244	4242
922.353	4383
922.462	4188
922.571	4150
922.68	3987
922.789	4006
922.898	4044
923.007	4010
923.116	4082
923.224	4032
923.333	4086
923.442	4021
923.55	3987
923.659	4002
923.767	4143
923.876	4010
923.984	4120
924.092	3956
924.201	4074
924.309	4112
924.417	4135
924.525	4036
924.633	4105
924.741	4892
924.849	3915
924.956	4147
925.064	3926
925.172	3911
925.279	3945
925.387	4044
925.494	4147
925.602	4166
925.709	4128
925.816	4074
925.924	4173
926.031	4238
926.138	4169
926.245	4265
926.352	4078
926.459	4276
926.566	4325
926.673	4188
926.779	4128
926.886	4074
926.993	4002
927.099	3960
927.206	3960
927.312	3991
927.419	4074
927.525	4040
927.631	4093
927.737	4010
927.843	3926
927.95	3854
928.056	4010
928.162	4025
928.267	4040
928.373	4683
928.479	4112
928.585	3880
928.69	4017
928.796	4048
928.901	3994
929.007	3861
929.112	3987
929.218	4017
929.323	3998
929.428	3911
929.533	4101
929.638	3915
929.743	3994
929.848	4025
929.953	4002
930.058	3960
930.163	3835
930.267	3854
930.372	3983
930.477	3812
930.581	4097
930.685	3934
930.79	3770
930.894	3899
930.998	3850
931.103	4051
931.207	3694
931.311	3717
931.415	3698
931.519	3538
931.623	3576
