Data from test_V78500241_752.txt Node
Date: Fri Mar 25 16:54:13 CST 2022
User: usil
Spectrometer: V785-0024
Trigger mode: 0
Integration Time (sec): 4.000000E-1
Scans to average: 1
Nonlinearity correction enabled: false
Boxcar width: 0
Storing dark spectrum: false
XAxis mode: Wavelengths
Number of Pixels in Spectrum: 1024
>>>>>Begin Spectral Data<<<<<
801.071	8008
801.214	8039
801.356	7917
801.499	7913
801.641	7750
801.783	7856
801.926	8024
802.068	7997
802.211	7951
802.353	8016
802.496	7913
802.638	7963
802.78	7921
802.923	7928
803.065	7860
803.208	7841
803.35	7970
803.492	8107
803.635	8214
803.777	7959
803.919	8145
804.061	8351
804.204	8161
804.346	8081
804.488	8001
804.63	8107
804.773	8024
804.915	8088
805.057	8259
805.199	8176
805.341	8252
805.483	8256
805.626	8286
805.768	8123
805.91	8191
806.052	8195
806.194	8073
806.336	8298
806.478	8050
806.62	8016
806.762	8123
806.904	8286
807.046	8423
807.188	8358
807.33	8336
807.472	8339
807.614	8115
807.756	8180
807.898	8005
808.04	7784
808.182	7856
808.324	7883
808.465	7871
808.607	8062
808.749	8126
808.891	8206
809.033	8271
809.174	8153
809.316	8088
809.458	8008
809.6	7940
809.741	8005
809.883	7982
810.025	8092
810.166	8054
810.308	8020
810.45	8046
810.591	7890
810.733	7830
810.875	7685
811.016	7460
811.158	7373
811.299	7571
811.441	7719
811.582	7658
811.724	7537
811.865	7514
812.007	7586
812.148	7533
812.29	7575
812.431	7651
812.573	7860
812.714	7932
812.855	8119
812.997	8183
813.138	8328
813.279	8123
813.421	8115
813.562	8084
813.703	7864
813.845	7750
813.986	7472
814.127	7365
814.268	7209
814.41	7263
814.551	7187
814.692	7072
814.833	7069
814.974	7076
815.115	7175
815.256	6977
815.397	6901
815.539	6958
815.68	6909
815.821	6837
815.962	6886
816.103	6821
816.244	6726
816.385	6642
816.526	6589
816.666	6502
816.807	6319
816.948	6418
817.089	6418
817.23	6403
817.371	6403
817.512	6422
817.653	6369
817.793	6372
817.934	6441
818.075	6445
818.216	6433
818.356	6403
818.497	6209
818.638	6114
818.778	6133
818.919	6159
819.06	6110
819.2	6365
819.341	6334
819.481	6384
819.622	6517
819.762	6760
819.903	6681
820.043	6589
820.184	6589
820.324	6589
820.465	6700
820.605	6665
820.746	6589
820.886	6525
821.026	6669
821.167	6757
821.307	6806
821.447	6738
821.588	6620
821.728	6540
821.868	6513
822.008	6350
822.149	6361
822.289	6304
822.429	6190
822.569	6026
822.709	6049
822.849	5961
822.99	5931
823.13	5923
823.27	5893
823.41	5824
823.55	5783
823.69	5718
823.83	5760
823.97	5710
824.11	5535
824.25	5547
824.389	5551
824.529	5596
824.669	5532
824.809	5634
824.949	5653
825.089	5642
825.228	5543
825.368	5444
825.508	5341
825.648	5307
825.787	5379
825.927	5368
826.067	5322
826.206	5246
826.346	5360
826.485	5455
826.625	5421
826.765	5532
826.904	5467
827.044	5258
827.183	5166
827.323	5159
827.462	5235
827.601	5162
827.741	5208
827.88	5246
828.02	5105
828.159	5231
828.298	5311
828.437	5345
828.577	5269
828.716	5459
828.855	5303
828.994	5216
829.134	5140
829.273	5208
829.412	5178
829.551	5136
829.69	5162
829.829	5227
829.968	5334
830.107	5261
830.246	5242
830.385	5162
830.524	5178
830.663	5052
830.802	4995
830.941	4873
831.08	4843
831.219	4999
831.357	4972
831.496	5147
831.635	4976
831.774	4870
831.913	4862
832.051	4771
832.19	4733
832.329	4870
832.467	4656
832.606	4634
832.744	4790
832.883	4706
833.022	4721
833.16	4748
833.299	4843
833.437	4774
833.576	4866
833.714	4858
833.852	4938
833.991	4881
834.129	4957
834.267	4919
834.406	4862
834.544	4961
834.682	4946
834.821	4927
834.959	5170
835.097	4972
835.235	5155
835.373	5079
835.511	5105
835.65	5048
835.788	5014
835.926	4866
836.064	4839
836.202	4911
836.34	5159
836.478	5189
836.615	5143
836.753	5201
836.891	5239
837.029	5223
837.167	5193
837.305	5189
837.443	5113
837.58	5083
837.718	5261
837.856	5216
837.993	5147
838.131	5261
838.269	5197
838.406	5174
838.544	5220
838.681	5006
838.819	5022
838.956	4911
839.094	4927
839.231	4976
839.369	5075
839.506	5452
839.643	5292
839.781	5083
839.918	5052
840.055	5071
840.193	5071
840.33	5102
840.467	5159
840.604	5136
840.742	5436
840.879	5064
841.016	5105
841.153	5216
841.29	5368
841.427	5326
841.564	5337
841.701	5357
841.838	5288
841.975	5242
842.112	5265
842.249	5117
842.385	5094
842.522	5296
842.659	5151
842.796	5166
842.933	5189
843.069	5128
843.206	5178
843.343	5277
843.479	5208
843.616	5284
843.752	5071
843.889	5014
844.025	5185
844.162	4995
844.298	5258
844.435	5075
844.571	5018
844.708	5140
844.844	5299
844.98	5337
845.117	5299
845.253	5102
845.389	5067
845.525	5162
845.661	5113
845.798	5010
845.934	5117
846.07	5037
846.206	5189
846.342	5254
846.478	5136
846.614	5071
846.75	4995
846.886	4915
847.022	5155
847.158	5025
847.294	5033
847.429	5140
847.565	5045
847.701	5303
847.837	4862
847.972	4767
848.108	4911
848.244	4919
848.379	4744
848.515	4767
848.65	4721
848.786	4725
848.921	4748
849.057	4858
849.192	4904
849.328	4820
849.463	4835
849.598	4831
849.734	4740
849.869	4694
850.004	4672
850.14	4675
850.275	4603
850.41	4535
850.545	4577
850.68	4588
850.815	4599
850.95	4580
851.085	4805
851.22	4725
851.355	4626
851.49	4615
851.625	4615
851.76	4588
851.895	4565
852.03	4516
852.165	4634
852.299	4687
852.434	4828
852.569	4733
852.703	4793
852.838	4843
852.973	4908
853.107	4946
853.242	4733
853.376	4656
853.511	4535
853.645	4592
853.78	4782
853.914	4672
854.048	4675
854.183	4634
854.317	4748
854.451	4797
854.585	4645
854.72	4596
854.854	4797
854.988	4588
855.122	4603
855.256	4592
855.39	4637
855.524	4790
855.658	4752
855.792	4710
855.926	4729
856.06	4736
856.194	4828
856.327	4691
856.461	4603
856.595	4630
856.729	4599
856.862	4767
856.996	4706
857.13	4729
857.263	4721
857.397	4774
857.53	4649
857.664	4679
857.797	4748
857.931	4816
858.064	4618
858.197	4733
858.331	4653
858.464	4656
858.597	4512
858.731	4599
858.864	4637
858.997	4573
859.13	4649
859.263	4649
859.396	4675
859.529	4592
859.662	4546
859.795	4527
859.928	4607
860.061	4759
860.194	4790
860.327	4565
860.46	4542
860.592	4702
860.725	4744
860.858	4733
860.99	4558
861.123	4569
861.256	4554
861.388	4584
861.521	5402
861.653	4462
861.786	4443
861.918	4470
862.05	4538
862.183	4580
862.315	4622
862.447	4630
862.58	4558
862.712	4428
862.844	4333
862.976	4455
863.108	4443
863.24	4858
863.372	4322
863.504	4413
863.636	4436
863.768	4481
863.9	4413
864.032	4371
864.164	4383
864.296	4455
864.428	4546
864.559	4569
864.691	4489
864.823	4489
864.954	4550
865.086	4538
865.217	4455
865.349	4386
865.48	4500
865.612	4470
865.743	4641
865.875	4497
866.006	4440
866.137	4424
866.269	4451
866.4	4424
866.531	4440
866.662	4409
866.793	4383
866.924	4405
867.055	4497
867.186	4390
867.317	4394
867.448	4360
867.579	4363
867.71	4383
867.841	4371
867.972	4455
868.103	4432
868.233	4436
868.364	4424
868.495	4481
868.625	4687
868.756	4706
868.886	4584
869.017	4603
869.147	4744
869.278	4736
869.408	4645
869.539	4603
869.669	4721
869.799	4615
869.929	4717
870.06	4736
870.19	4965
870.32	4942
870.45	4904
870.58	5010
870.71	5022
870.84	5064
870.97	4892
871.1	4904
871.23	5136
871.36	5109
871.489	4999
871.619	5052
871.749	5113
871.879	5083
872.008	5189
872.138	5037
872.267	4953
872.397	4847
872.526	4774
872.656	4702
872.785	4816
872.915	4900
873.044	5014
873.173	4904
873.303	5037
873.432	4938
873.561	4957
873.69	4870
873.819	4896
873.948	4847
874.077	4797
874.206	4755
874.335	4793
874.464	4968
874.593	5075
874.722	4923
874.851	5094
874.979	5083
875.108	5048
875.237	4927
875.365	4881
875.494	4885
875.623	4984
875.751	4839
875.88	4885
876.008	4972
876.136	5022
876.265	5208
876.393	5322
876.521	5258
876.65	5250
876.778	5117
876.906	5045
877.034	5037
877.162	5006
877.29	4995
877.418	5056
877.546	5010
877.674	5006
877.802	5056
877.93	4995
878.058	4889
878.185	4877
878.313	4942
878.441	4953
878.568	4820
878.696	4835
878.824	4984
878.951	4987
879.079	5151
879.206	5269
879.333	5075
879.461	4976
879.588	5018
879.715	5147
879.842	5246
879.97	4953
880.097	4793
880.224	4733
880.351	4839
880.478	4835
880.605	4782
880.732	4809
880.859	5079
880.986	4915
881.112	4877
881.239	4763
881.366	4687
881.493	4630
881.619	4573
881.746	4660
881.872	4660
881.999	4634
882.125	4694
882.252	4771
882.378	4782
882.505	4980
882.631	4763
882.757	4653
882.883	4736
883.01	4725
883.136	4675
883.262	4554
883.388	4580
883.514	4797
883.64	4885
883.766	4771
883.892	4675
884.018	4675
884.143	4889
884.269	4984
884.395	4664
884.52	4580
884.646	4649
884.772	4561
884.897	4531
885.023	4618
885.148	4778
885.274	4843
885.399	4809
885.524	4698
885.65	4694
885.775	4698
885.9	4767
886.025	4850
886.15	4763
886.275	4714
886.4	4649
886.525	4714
886.65	4710
886.775	4687
886.9	4915
887.025	5071
887.149	4774
887.274	4660
887.399	4630
887.523	4596
887.648	4630
887.773	4599
887.897	4748
888.021	4748
888.146	4683
888.27	4809
888.395	4904
888.519	4774
888.643	4797
888.767	4831
888.891	4656
889.015	4615
889.139	4618
889.263	4596
889.387	4733
889.511	4843
889.635	4790
889.759	4641
889.883	4637
890.006	4767
890.13	4801
890.254	4584
890.377	4649
890.501	4538
890.624	4519
890.748	4637
890.871	4519
890.995	4470
891.118	4386
891.241	4443
891.364	4504
891.488	4641
891.611	4542
891.734	4535
891.857	4573
891.98	4558
892.103	4622
892.226	4569
892.349	4493
892.471	4424
892.594	4516
892.717	4580
892.839	4561
892.962	4561
893.085	4683
893.207	4637
893.33	4478
893.452	4527
893.575	4615
893.697	4630
893.819	4778
893.941	4843
894.064	4752
894.186	4607
894.308	4577
894.43	4714
894.552	4847
894.674	4805
894.796	4558
894.918	4603
895.04	4584
895.161	4710
895.283	4618
895.405	4592
895.526	4618
895.648	4656
895.769	4634
895.891	4710
896.012	4767
896.134	4729
896.255	4649
896.376	4653
896.498	4626
896.619	4672
896.74	4550
896.861	4626
896.982	4923
897.103	5033
897.224	4801
897.345	4729
897.466	4683
897.587	4721
897.708	4870
897.828	4782
897.949	4672
898.07	4538
898.19	4653
898.311	4839
898.431	4679
898.552	4675
898.672	4793
898.792	4812
898.913	4706
899.033	4656
899.153	4481
899.273	4436
899.393	4508
899.513	4538
899.633	4554
899.753	4580
899.873	4500
899.993	4603
900.113	4519
900.232	4546
900.352	4527
900.472	4447
900.591	4348
900.711	4497
900.83	4440
900.95	4615
901.069	4653
901.189	4512
901.308	4348
901.427	4299
901.546	4356
901.665	4489
901.784	4500
901.904	4363
902.023	4299
902.141	4211
902.26	4150
902.379	4280
902.498	4196
902.617	4207
902.735	4367
902.854	4390
902.973	4314
903.091	4196
903.21	4230
903.328	4310
903.446	4265
903.565	4211
903.683	4363
903.801	4310
903.919	4356
904.038	4474
904.156	4329
904.274	4424
904.392	4405
904.51	4489
904.627	4459
904.745	4580
904.863	4649
904.981	4409
905.098	4306
905.216	4356
905.334	4428
905.451	4371
905.569	4432
905.686	4538
905.803	4523
905.921	4371
906.038	4527
906.155	4462
906.272	4375
906.389	4405
906.506	4344
906.623	4409
906.74	4386
906.857	4325
906.974	4390
907.091	4592
907.208	4668
907.324	4569
907.441	4512
907.557	4341
907.674	4325
907.79	4299
907.907	4398
908.023	4481
908.139	4470
908.256	4443
908.372	4428
908.488	4436
908.604	4322
908.72	4322
908.836	4379
908.952	4379
909.068	4447
909.184	4607
909.3	4516
909.415	4588
909.531	4603
909.647	4329
909.762	4386
909.878	4325
909.993	4386
910.108	4394
910.224	4390
910.339	4481
910.454	4413
910.57	4367
910.685	4291
910.8	4641
910.915	4546
911.03	4443
911.145	4314
911.259	4333
911.374	4360
911.489	4265
911.604	4303
911.718	4200
911.833	4196
911.947	4082
912.062	4010
912.176	4181
912.291	4265
912.405	4200
912.519	4455
912.633	4504
912.748	4367
912.862	4348
912.976	4192
913.09	4128
913.204	4188
913.318	4246
913.431	4379
913.545	4402
913.659	4409
913.772	4348
913.886	4287
914	4265
914.113	4344
914.226	4421
914.34	4352
914.453	4238
914.566	4424
914.68	4280
914.793	4371
914.906	4162
915.019	4086
915.132	4082
915.245	4185
915.358	4223
915.47	4253
915.583	4318
915.696	4325
915.809	4413
915.921	4363
916.034	4238
916.146	4276
916.259	4295
916.371	4363
916.483	4386
916.595	4268
916.708	4314
916.82	4318
916.932	4325
917.044	4337
917.156	4310
917.268	4257
917.38	4246
917.491	4287
917.603	4337
917.715	4443
917.826	4424
917.938	4291
918.049	4249
918.161	4390
918.272	4573
918.384	4512
918.495	4413
918.606	4310
918.717	4234
918.828	4306
918.939	4432
919.05	4177
919.161	4325
919.272	4169
919.383	4230
919.494	4409
919.604	4599
919.715	4455
919.826	4348
919.936	4440
920.047	4497
920.157	4523
920.267	4656
920.378	4561
920.488	4481
920.598	4691
920.708	4896
920.818	4733
920.928	4824
921.038	4923
921.148	4896
921.258	4607
921.368	4554
921.477	4519
921.587	4421
921.697	4371
921.806	4500
921.916	4424
922.025	4261
922.134	4261
922.244	4227
922.353	4337
922.462	4166
922.571	4139
922.68	3998
922.789	4021
922.898	4010
923.007	4017
923.116	4090
923.224	4044
923.333	4078
923.442	4013
923.55	3987
923.659	4029
923.767	4055
923.876	4021
923.984	4109
924.092	3983
924.201	4093
924.309	4090
924.417	4131
924.525	4048
924.633	4082
924.741	4877
924.849	3934
924.956	4135
925.064	3975
925.172	3934
925.279	3945
925.387	4074
925.494	4048
925.602	4227
925.709	4219
925.816	4021
925.924	4128
926.031	4192
926.138	4196
926.245	4230
926.352	4101
926.459	4227
926.566	4268
926.673	4150
926.779	4082
926.886	4051
926.993	3983
927.099	3934
927.206	3987
927.312	3930
927.419	4036
927.525	4010
927.631	4082
927.737	3941
927.843	3934
927.95	3846
928.056	3949
928.162	3994
928.267	4082
928.373	4740
928.479	4128
928.585	3876
928.69	4029
928.796	4078
928.901	3945
929.007	3823
929.112	4029
929.218	3994
929.323	3926
929.428	3907
929.533	4124
929.638	3880
929.743	3953
929.848	4090
929.953	4017
930.058	3945
930.163	3793
930.267	3831
930.372	3975
930.477	3835
930.581	4135
930.685	3979
930.79	3808
930.894	3899
930.998	3861
931.103	4006
931.207	3732
931.311	3690
931.415	3686
931.519	3534
931.623	3515
