Data from test_V78500241_2461.txt Node
Date: Fri Mar 25 17:06:06 CST 2022
User: usil
Spectrometer: V785-0024
Trigger mode: 0
Integration Time (sec): 4.000000E-1
Scans to average: 1
Nonlinearity correction enabled: false
Boxcar width: 0
Storing dark spectrum: false
XAxis mode: Wavelengths
Number of Pixels in Spectrum: 1024
>>>>>Begin Spectral Data<<<<<
801.071	8001
801.214	8024
801.356	7849
801.499	7792
801.641	7761
801.783	7818
801.926	7982
802.068	7921
802.211	7932
802.353	8008
802.496	7841
802.638	7818
802.78	7887
802.923	7989
803.065	7887
803.208	7833
803.35	7974
803.492	8054
803.635	8172
803.777	8016
803.919	8187
804.061	8469
804.204	8115
804.346	8046
804.488	7944
804.63	8092
804.773	8005
804.915	8103
805.057	8279
805.199	8153
805.341	8221
805.483	8237
805.626	8229
805.768	8107
805.91	8233
806.052	8145
806.194	8100
806.336	8259
806.478	8005
806.62	8039
806.762	8107
806.904	8259
807.046	8461
807.188	8332
807.33	8309
807.472	8248
807.614	8176
807.756	8123
807.898	7982
808.04	7852
808.182	7887
808.324	7826
808.465	7887
808.607	8092
808.749	8130
808.891	8233
809.033	8347
809.174	8229
809.316	8069
809.458	8100
809.6	7936
809.741	8001
809.883	8031
810.025	8123
810.166	8103
810.308	8077
810.45	7982
810.591	7841
810.733	7677
810.875	7658
811.016	7533
811.158	7460
811.299	7601
811.441	7731
811.582	7677
811.724	7567
811.865	7548
812.007	7548
812.148	7510
812.29	7658
812.431	7727
812.573	7852
812.714	7970
812.855	8107
812.997	8134
813.138	8267
813.279	8149
813.421	8168
813.562	7986
813.703	7826
813.845	7696
813.986	7422
814.127	7221
814.268	7266
814.41	7225
814.551	7228
814.692	7228
814.833	7091
814.974	7129
815.115	7107
815.256	7000
815.397	6958
815.539	6951
815.68	6814
815.821	6798
815.962	6833
816.103	6829
816.244	6764
816.385	6658
816.526	6642
816.666	6563
816.807	6289
816.948	6494
817.089	6498
817.23	6445
817.371	6380
817.512	6437
817.653	6437
817.793	6338
817.934	6388
818.075	6433
818.216	6399
818.356	6334
818.497	6251
818.638	6159
818.778	6194
818.919	6190
819.06	6129
819.2	6338
819.341	6372
819.481	6289
819.622	6506
819.762	6764
819.903	6662
820.043	6642
820.184	6627
820.324	6612
820.465	6730
820.605	6646
820.746	6669
820.886	6532
821.026	6677
821.167	6703
821.307	6783
821.447	6863
821.588	6730
821.728	6566
821.868	6490
822.008	6376
822.149	6357
822.289	6338
822.429	6167
822.569	6125
822.709	6106
822.849	5904
822.99	5939
823.13	5916
823.27	5996
823.41	5802
823.55	5752
823.69	5756
823.83	5813
823.97	5634
824.11	5516
824.25	5554
824.389	5520
824.529	5535
824.669	5547
824.809	5596
824.949	5634
825.089	5627
825.228	5581
825.368	5372
825.508	5360
825.648	5349
825.787	5410
825.927	5360
826.067	5280
826.206	5284
826.346	5395
826.485	5455
826.625	5398
826.765	5551
826.904	5452
827.044	5239
827.183	5185
827.323	5143
827.462	5254
827.601	5178
827.741	5193
827.88	5212
828.02	5105
828.159	5208
828.298	5288
828.437	5334
828.577	5280
828.716	5474
828.855	5349
828.994	5155
829.134	5159
829.273	5185
829.412	5136
829.551	5117
829.69	5155
829.829	5204
829.968	5345
830.107	5284
830.246	5296
830.385	5181
830.524	5185
830.663	5041
830.802	4961
830.941	4873
831.08	4835
831.219	4961
831.357	4976
831.496	5178
831.635	4908
831.774	4854
831.913	4904
832.051	4721
832.19	4694
832.329	4835
832.467	4687
832.606	4637
832.744	4771
832.883	4714
833.022	4763
833.16	4771
833.299	4809
833.437	4839
833.576	4824
833.714	4862
833.852	4843
833.991	4892
834.129	4968
834.267	4942
834.406	4870
834.544	5018
834.682	4942
834.821	4949
834.959	5178
835.097	5025
835.235	5159
835.373	5060
835.511	5098
835.65	4999
835.788	4949
835.926	4877
836.064	4847
836.202	4911
836.34	5174
836.478	5201
836.615	5136
836.753	5231
836.891	5368
837.029	5242
837.167	5185
837.305	5155
837.443	5189
837.58	5064
837.718	5269
837.856	5189
837.993	5166
838.131	5239
838.269	5197
838.406	5250
838.544	5212
838.681	5037
838.819	5045
838.956	4930
839.094	4862
839.231	4965
839.369	5090
839.506	5372
839.643	5326
839.781	5060
839.918	5025
840.055	5117
840.193	5098
840.33	5121
840.467	5136
840.604	5216
840.742	5444
840.879	5075
841.016	5079
841.153	5212
841.29	5345
841.427	5261
841.564	5318
841.701	5341
841.838	5216
841.975	5246
842.112	5299
842.249	5155
842.385	5079
842.522	5402
842.659	5143
842.796	5170
842.933	5223
843.069	5155
843.206	5208
843.343	5307
843.479	5181
843.616	5299
843.752	5025
843.889	5025
844.025	5220
844.162	5048
844.298	5220
844.435	5056
844.571	5056
844.708	5185
844.844	5265
844.98	5341
845.117	5311
845.253	5109
845.389	5064
845.525	5124
845.661	5124
845.798	5056
845.934	5136
846.07	4980
846.206	5174
846.342	5280
846.478	5170
846.614	4995
846.75	4995
846.886	4923
847.022	5128
847.158	5067
847.294	5109
847.429	5121
847.565	5056
847.701	5330
847.837	4858
847.972	4782
848.108	4984
848.244	4900
848.379	4805
848.515	4748
848.65	4740
848.786	4733
848.921	4809
849.057	4862
849.192	4885
849.328	4809
849.463	4816
849.598	4862
849.734	4790
849.869	4694
850.004	4611
850.14	4672
850.275	4615
850.41	4523
850.545	4538
850.68	4546
850.815	4615
850.95	4596
851.085	4793
851.22	4710
851.355	4698
851.49	4622
851.625	4637
851.76	4626
851.895	4523
852.03	4538
852.165	4672
852.299	4702
852.434	4778
852.569	4736
852.703	4714
852.838	4892
852.973	4934
853.107	4896
853.242	4778
853.376	4630
853.511	4500
853.645	4592
853.78	4778
853.914	4672
854.048	4694
854.183	4618
854.317	4679
854.451	4843
854.585	4622
854.72	4637
854.854	4717
854.988	4603
855.122	4637
855.256	4493
855.39	4683
855.524	4767
855.658	4729
855.792	4698
855.926	4729
856.06	4774
856.194	4793
856.327	4698
856.461	4573
856.595	4599
856.729	4641
856.862	4736
856.996	4698
857.13	4736
857.263	4710
857.397	4786
857.53	4603
857.664	4736
857.797	4763
857.931	4816
858.064	4729
858.197	4721
858.331	4683
858.464	4565
858.597	4523
858.731	4607
858.864	4596
858.997	4565
859.13	4588
859.263	4653
859.396	4664
859.529	4607
859.662	4546
859.795	4554
859.928	4622
860.061	4752
860.194	4729
860.327	4618
860.46	4554
860.592	4740
860.725	4687
860.858	4675
860.99	4577
861.123	4538
861.256	4527
861.388	4615
861.521	5189
861.653	4466
861.786	4459
861.918	4462
862.05	4538
862.183	4550
862.315	4611
862.447	4691
862.58	4592
862.712	4390
862.844	4322
862.976	4497
863.108	4470
863.24	4854
863.372	4314
863.504	4402
863.636	4360
863.768	4500
863.9	4451
864.032	4371
864.164	4394
864.296	4500
864.428	4550
864.559	4558
864.691	4535
864.823	4519
864.954	4504
865.086	4500
865.217	4493
865.349	4428
865.48	4447
865.612	4466
865.743	4653
865.875	4508
866.006	4447
866.137	4474
866.269	4424
866.4	4402
866.531	4443
866.662	4344
866.793	4455
866.924	4428
867.055	4489
867.186	4527
867.317	4394
867.448	4390
867.579	4383
867.71	4386
867.841	4329
867.972	4462
868.103	4432
868.233	4474
868.364	4462
868.495	4516
868.625	4656
868.756	4706
868.886	4519
869.017	4603
869.147	4759
869.278	4759
869.408	4691
869.539	4675
869.669	4710
869.799	4622
869.929	4759
870.06	4736
870.19	4980
870.32	4896
870.45	4953
870.58	5014
870.71	5098
870.84	5048
870.97	4892
871.1	4900
871.23	5105
871.36	5178
871.489	4991
871.619	5060
871.749	5098
871.879	5132
872.008	5174
872.138	5132
872.267	4949
872.397	4866
872.526	4831
872.656	4714
872.785	4782
872.915	4953
873.044	5041
873.173	4919
873.303	4961
873.432	4934
873.561	4953
873.69	4877
873.819	4847
873.948	4873
874.077	4839
874.206	4729
874.335	4763
874.464	4938
874.593	5109
874.722	4946
874.851	5098
874.979	5090
875.108	4976
875.237	4946
875.365	4847
875.494	4881
875.623	5006
875.751	4873
875.88	4835
876.008	4984
876.136	5014
876.265	5242
876.393	5357
876.521	5231
876.65	5235
876.778	5204
876.906	5083
877.034	5052
877.162	5003
877.29	5006
877.418	5037
877.546	4999
877.674	5025
877.802	5022
877.93	5010
878.058	4927
878.185	4858
878.313	5010
878.441	4972
878.568	4847
878.696	4885
878.824	4999
878.951	4999
879.079	5105
879.206	5292
879.333	5079
879.461	4980
879.588	5041
879.715	5151
879.842	5227
879.97	5025
880.097	4774
880.224	4710
880.351	4828
880.478	4828
880.605	4805
880.732	4797
880.859	5071
880.986	4911
881.112	4930
881.239	4771
881.366	4679
881.493	4626
881.619	4592
881.746	4641
881.872	4668
881.999	4630
882.125	4717
882.252	4816
882.378	4828
882.505	4987
882.631	4771
882.757	4706
882.883	4725
883.01	4725
883.136	4691
883.262	4580
883.388	4641
883.514	4801
883.64	4885
883.766	4805
883.892	4660
884.018	4755
884.143	4889
884.269	5014
884.395	4687
884.52	4618
884.646	4641
884.772	4550
884.897	4561
885.023	4672
885.148	4778
885.274	4816
885.399	4797
885.524	4744
885.65	4691
885.775	4717
885.9	4706
886.025	4839
886.15	4774
886.275	4687
886.4	4664
886.525	4729
886.65	4672
886.775	4691
886.9	4942
887.025	5033
887.149	4835
887.274	4622
887.399	4599
887.523	4622
887.648	4603
887.773	4599
887.897	4771
888.021	4828
888.146	4668
888.27	4816
888.395	4839
888.519	4759
888.643	4790
888.767	4854
888.891	4702
889.015	4611
889.139	4630
889.263	4569
889.387	4767
889.511	4889
889.635	4816
889.759	4656
889.883	4626
890.006	4729
890.13	4797
890.254	4622
890.377	4694
890.501	4558
890.624	4500
890.748	4634
890.871	4497
890.995	4440
891.118	4398
891.241	4497
891.364	4558
891.488	4630
891.611	4462
891.734	4519
891.857	4649
891.98	4550
892.103	4634
892.226	4599
892.349	4550
892.471	4424
892.594	4531
892.717	4546
892.839	4607
892.962	4577
893.085	4660
893.207	4634
893.33	4459
893.452	4519
893.575	4641
893.697	4603
893.819	4778
893.941	4820
894.064	4786
894.186	4607
894.308	4561
894.43	4729
894.552	4820
894.674	4733
894.796	4546
894.918	4611
895.04	4565
895.161	4698
895.283	4645
895.405	4588
895.526	4649
895.648	4672
895.769	4679
895.891	4691
896.012	4714
896.134	4763
896.255	4721
896.376	4615
896.498	4569
896.619	4653
896.74	4626
896.861	4683
896.982	4927
897.103	5075
897.224	4812
897.345	4733
897.466	4683
897.587	4759
897.708	4835
897.828	4755
897.949	4702
898.07	4538
898.19	4634
898.311	4809
898.431	4653
898.552	4752
898.672	4805
898.792	4801
898.913	4744
899.033	4637
899.153	4497
899.273	4413
899.393	4523
899.513	4508
899.633	4516
899.753	4535
899.873	4504
899.993	4580
900.113	4500
900.232	4584
900.352	4561
900.472	4478
900.591	4409
900.711	4470
900.83	4413
900.95	4607
901.069	4702
901.189	4607
901.308	4413
901.427	4318
901.546	4413
901.665	4459
901.784	4489
901.904	4367
902.023	4310
902.141	4238
902.26	4139
902.379	4314
902.498	4265
902.617	4249
902.735	4337
902.854	4367
902.973	4348
903.091	4215
903.21	4234
903.328	4253
903.446	4261
903.565	4253
903.683	4344
903.801	4272
903.919	4390
904.038	4424
904.156	4287
904.274	4478
904.392	4398
904.51	4417
904.627	4493
904.745	4561
904.863	4641
904.981	4363
905.098	4333
905.216	4337
905.334	4405
905.451	4363
905.569	4459
905.686	4558
905.803	4565
905.921	4443
906.038	4535
906.155	4474
906.272	4398
906.389	4489
906.506	4375
906.623	4413
906.74	4390
906.857	4295
906.974	4337
907.091	4516
907.208	4660
907.324	4630
907.441	4500
907.557	4291
907.674	4333
907.79	4329
907.907	4409
908.023	4493
908.139	4512
908.256	4478
908.372	4428
908.488	4466
908.604	4344
908.72	4344
908.836	4360
908.952	4402
909.068	4402
909.184	4512
909.3	4459
909.415	4641
909.531	4569
909.647	4352
909.762	4383
909.878	4383
909.993	4405
910.108	4447
910.224	4424
910.339	4466
910.454	4432
910.57	4344
910.685	4310
910.8	4664
910.915	4603
911.03	4523
911.145	4303
911.259	4329
911.374	4375
911.489	4329
911.604	4227
911.718	4166
911.833	4227
911.947	4067
912.062	4029
912.176	4188
912.291	4234
912.405	4291
912.519	4436
912.633	4516
912.748	4379
912.862	4371
912.976	4200
913.09	4105
913.204	4196
913.318	4215
913.431	4417
913.545	4371
913.659	4459
913.772	4352
913.886	4261
914	4219
914.113	4379
914.226	4459
914.34	4413
914.453	4196
914.566	4424
914.68	4322
914.793	4322
914.906	4143
915.019	4147
915.132	4093
915.245	4204
915.358	4188
915.47	4219
915.583	4265
915.696	4287
915.809	4443
915.921	4428
916.034	4238
916.146	4272
916.259	4261
916.371	4390
916.483	4314
916.595	4306
916.708	4322
916.82	4341
916.932	4287
917.044	4314
917.156	4306
917.268	4257
917.38	4253
917.491	4295
917.603	4341
917.715	4424
917.826	4497
917.938	4344
918.049	4238
918.161	4436
918.272	4512
918.384	4546
918.495	4459
918.606	4284
918.717	4238
918.828	4371
918.939	4341
919.05	4242
919.161	4337
919.272	4120
919.383	4261
919.494	4459
919.604	4630
919.715	4375
919.826	4333
919.936	4386
920.047	4497
920.157	4519
920.267	4694
920.378	4538
920.488	4500
920.598	4744
920.708	4889
920.818	4752
920.928	4740
921.038	4961
921.148	4889
921.258	4622
921.368	4554
921.477	4485
921.587	4462
921.697	4314
921.806	4538
921.916	4428
922.025	4322
922.134	4234
922.244	4204
922.353	4329
922.462	4185
922.571	4139
922.68	3953
922.789	4006
922.898	4044
923.007	3994
923.116	4143
923.224	4082
923.333	4067
923.442	3983
923.55	3994
923.659	4059
923.767	4139
923.876	4017
923.984	4150
924.092	4017
924.201	4029
924.309	4090
924.417	4090
924.525	4044
924.633	4109
924.741	5064
924.849	3907
924.956	4128
925.064	3964
925.172	3880
925.279	3949
925.387	3975
925.494	4105
925.602	4192
925.709	4158
925.816	4040
925.924	4101
926.031	4242
926.138	4166
926.245	4188
926.352	4063
926.459	4246
926.566	4310
926.673	4135
926.779	4082
926.886	4063
926.993	3968
927.099	3972
927.206	3899
927.312	3934
927.419	4067
927.525	3983
927.631	4071
927.737	3960
927.843	3956
927.95	3838
928.056	3956
928.162	3994
928.267	4067
928.373	4645
928.479	4124
928.585	3918
928.69	3972
928.796	4078
928.901	3979
929.007	3842
929.112	4010
929.218	3941
929.323	3899
929.428	3888
929.533	4093
929.638	3880
929.743	3979
929.848	4051
929.953	3983
930.058	3937
930.163	3793
930.267	3819
930.372	3953
930.477	3823
930.581	4086
930.685	3972
930.79	3861
930.894	3907
930.998	3838
931.103	4029
931.207	3690
931.311	3656
931.415	3644
931.519	3530
931.623	3576
