Data from test_V78500241_1246.txt Node
Date: Fri Mar 25 16:57:39 CST 2022
User: usil
Spectrometer: V785-0024
Trigger mode: 0
Integration Time (sec): 4.000000E-1
Scans to average: 1
Nonlinearity correction enabled: false
Boxcar width: 0
Storing dark spectrum: false
XAxis mode: Wavelengths
Number of Pixels in Spectrum: 1024
>>>>>Begin Spectral Data<<<<<
801.071	8126
801.214	7982
801.356	7898
801.499	7868
801.641	7738
801.783	7772
801.926	7917
802.068	7944
802.211	7955
802.353	7913
802.496	7814
802.638	7883
802.78	7871
802.923	7868
803.065	7917
803.208	7860
803.35	7982
803.492	8126
803.635	8157
803.777	8012
803.919	8115
804.061	8469
804.204	8077
804.346	8084
804.488	7944
804.63	8084
804.773	8043
804.915	8149
805.057	8275
805.199	8161
805.341	8256
805.483	8271
805.626	8275
805.768	8142
805.91	8199
806.052	8199
806.194	8081
806.336	8259
806.478	8107
806.62	8001
806.762	8153
806.904	8233
807.046	8446
807.188	8286
807.33	8286
807.472	8301
807.614	8123
807.756	8149
807.898	8054
808.04	7898
808.182	7883
808.324	7902
808.465	7947
808.607	8001
808.749	8142
808.891	8214
809.033	8256
809.174	8119
809.316	8062
809.458	8008
809.6	7944
809.741	7963
809.883	8069
810.025	8126
810.166	8073
810.308	8001
810.45	8058
810.591	7818
810.733	7647
810.875	7632
811.016	7540
811.158	7537
811.299	7620
811.441	7750
811.582	7742
811.724	7567
811.865	7480
812.007	7559
812.148	7571
812.29	7544
812.431	7746
812.573	7826
812.714	7925
812.855	8012
812.997	8092
813.138	8317
813.279	8199
813.421	8145
813.562	7955
813.703	7868
813.845	7784
813.986	7384
814.127	7305
814.268	7228
814.41	7198
814.551	7164
814.692	7225
814.833	7080
814.974	7069
815.115	6993
815.256	6996
815.397	6787
815.539	6947
815.68	6791
815.821	6798
815.962	6863
816.103	6783
816.244	6631
816.385	6597
816.526	6620
816.666	6536
816.807	6311
816.948	6452
817.089	6479
817.23	6460
817.371	6353
817.512	6342
817.653	6338
817.793	6327
817.934	6479
818.075	6441
818.216	6399
818.356	6342
818.497	6277
818.638	6083
818.778	6178
818.919	6079
819.06	6129
819.2	6361
819.341	6308
819.481	6353
819.622	6502
819.762	6703
819.903	6665
820.043	6604
820.184	6559
820.324	6574
820.465	6612
820.605	6681
820.746	6658
820.886	6544
821.026	6627
821.167	6681
821.307	6684
821.447	6776
821.588	6692
821.728	6597
821.868	6399
822.008	6270
822.149	6399
822.289	6346
822.429	6136
822.569	6076
822.709	6102
822.849	5931
822.99	5882
823.13	5885
823.27	5885
823.41	5741
823.55	5794
823.69	5767
823.83	5733
823.97	5623
824.11	5486
824.25	5490
824.389	5539
824.529	5589
824.669	5524
824.809	5661
824.949	5668
825.089	5600
825.228	5554
825.368	5368
825.508	5341
825.648	5357
825.787	5376
825.927	5364
826.067	5315
826.206	5284
826.346	5337
826.485	5395
826.625	5398
826.765	5478
826.904	5459
827.044	5223
827.183	5189
827.323	5170
827.462	5254
827.601	5178
827.741	5197
827.88	5197
828.02	5121
828.159	5227
828.298	5284
828.437	5303
828.577	5235
828.716	5463
828.855	5311
828.994	5117
829.134	5143
829.273	5166
829.412	5121
829.551	5124
829.69	5132
829.829	5254
829.968	5383
830.107	5277
830.246	5273
830.385	5181
830.524	5128
830.663	5010
830.802	5029
830.941	4873
831.08	4828
831.219	4999
831.357	4976
831.496	5105
831.635	4915
831.774	4862
831.913	4892
832.051	4706
832.19	4786
832.329	4809
832.467	4706
832.606	4622
832.744	4687
832.883	4771
833.022	4717
833.16	4752
833.299	4793
833.437	4828
833.576	4835
833.714	4839
833.852	4843
833.991	4850
834.129	4968
834.267	4919
834.406	4847
834.544	4934
834.682	4953
834.821	4980
834.959	5094
835.097	4942
835.235	5094
835.373	4999
835.511	5102
835.65	4984
835.788	4999
835.926	4904
836.064	4885
836.202	4870
836.34	5212
836.478	5178
836.615	5102
836.753	5227
836.891	5250
837.029	5265
837.167	5162
837.305	5155
837.443	5155
837.58	5083
837.718	5254
837.856	5185
837.993	5143
838.131	5174
838.269	5147
838.406	5246
838.544	5185
838.681	5071
838.819	4987
838.956	4908
839.094	4870
839.231	4949
839.369	5056
839.506	5364
839.643	5265
839.781	5079
839.918	5045
840.055	5086
840.193	5113
840.33	5113
840.467	5159
840.604	5159
840.742	5486
840.879	5048
841.016	5060
841.153	5151
841.29	5353
841.427	5318
841.564	5277
841.701	5353
841.838	5223
841.975	5235
842.112	5307
842.249	5090
842.385	5151
842.522	5292
842.659	5189
842.796	5181
842.933	5185
843.069	5159
843.206	5170
843.343	5280
843.479	5254
843.616	5235
843.752	5003
843.889	4968
844.025	5193
844.162	5045
844.298	5193
844.435	5064
844.571	5041
844.708	5231
844.844	5292
844.98	5315
845.117	5277
845.253	5147
845.389	5086
845.525	5105
845.661	5159
845.798	5045
845.934	5105
846.07	5056
846.206	5178
846.342	5265
846.478	5216
846.614	5006
846.75	4968
846.886	4919
847.022	5102
847.158	4972
847.294	5052
847.429	5071
847.565	5033
847.701	5292
847.837	4809
847.972	4820
848.108	4968
848.244	4930
848.379	4774
848.515	4759
848.65	4683
848.786	4733
848.921	4767
849.057	4858
849.192	4866
849.328	4809
849.463	4847
849.598	4763
849.734	4710
849.869	4729
850.004	4603
850.14	4664
850.275	4588
850.41	4542
850.545	4584
850.68	4577
850.815	4596
850.95	4687
851.085	4786
851.22	4763
851.355	4645
851.49	4565
851.625	4618
851.76	4622
851.895	4565
852.03	4504
852.165	4607
852.299	4660
852.434	4801
852.569	4725
852.703	4771
852.838	4858
852.973	4873
853.107	4904
853.242	4714
853.376	4672
853.511	4558
853.645	4554
853.78	4744
853.914	4653
854.048	4672
854.183	4573
854.317	4679
854.451	4839
854.585	4675
854.72	4656
854.854	4694
854.988	4565
855.122	4641
855.256	4500
855.39	4710
855.524	4774
855.658	4721
855.792	4664
855.926	4755
856.06	4721
856.194	4809
856.327	4668
856.461	4596
856.595	4607
856.729	4634
856.862	4698
856.996	4679
857.13	4702
857.263	4752
857.397	4805
857.53	4607
857.664	4736
857.797	4748
857.931	4782
858.064	4664
858.197	4740
858.331	4687
858.464	4611
858.597	4554
858.731	4645
858.864	4622
858.997	4611
859.13	4653
859.263	4637
859.396	4660
859.529	4626
859.662	4504
859.795	4508
859.928	4607
860.061	4752
860.194	4771
860.327	4641
860.46	4580
860.592	4706
860.725	4702
860.858	4653
860.99	4519
861.123	4519
861.256	4516
861.388	4622
861.521	5292
861.653	4474
861.786	4436
861.918	4466
862.05	4440
862.183	4519
862.315	4588
862.447	4622
862.58	4531
862.712	4424
862.844	4333
862.976	4451
863.108	4421
863.24	4881
863.372	4295
863.504	4447
863.636	4417
863.768	4443
863.9	4402
864.032	4348
864.164	4383
864.296	4470
864.428	4508
864.559	4542
864.691	4546
864.823	4508
864.954	4478
865.086	4516
865.217	4455
865.349	4432
865.48	4371
865.612	4500
865.743	4558
865.875	4474
866.006	4443
866.137	4443
866.269	4451
866.4	4440
866.531	4421
866.662	4367
866.793	4367
866.924	4428
867.055	4535
867.186	4436
867.317	4409
867.448	4314
867.579	4371
867.71	4367
867.841	4383
867.972	4478
868.103	4481
868.233	4413
868.364	4432
868.495	4497
868.625	4615
868.756	4767
868.886	4577
869.017	4599
869.147	4755
869.278	4767
869.408	4626
869.539	4573
869.669	4706
869.799	4664
869.929	4736
870.06	4710
870.19	4900
870.32	4900
870.45	4946
870.58	5018
870.71	5045
870.84	5037
870.97	4930
871.1	4930
871.23	5102
871.36	5060
871.489	5029
871.619	5006
871.749	5094
871.879	5098
872.008	5197
872.138	5037
872.267	4961
872.397	4793
872.526	4793
872.656	4729
872.785	4820
872.915	4968
873.044	5064
873.173	4942
873.303	4946
873.432	4938
873.561	4919
873.69	4854
873.819	4843
873.948	4908
874.077	4877
874.206	4725
874.335	4809
874.464	4915
874.593	5022
874.722	4991
874.851	5121
874.979	5048
875.108	5018
875.237	4854
875.365	4858
875.494	4835
875.623	4991
875.751	4809
875.88	4870
876.008	4980
876.136	5022
876.265	5246
876.393	5341
876.521	5220
876.65	5231
876.778	5136
876.906	5067
877.034	5014
877.162	5029
877.29	4953
877.418	5033
877.546	5014
877.674	5048
877.802	5033
877.93	4984
878.058	5010
878.185	4873
878.313	4896
878.441	4980
878.568	4778
878.696	4862
878.824	4984
878.951	5022
879.079	5113
879.206	5261
879.333	5083
879.461	4965
879.588	5014
879.715	5102
879.842	5254
879.97	4999
880.097	4755
880.224	4729
880.351	4805
880.478	4850
880.605	4774
880.732	4771
880.859	5045
880.986	4896
881.112	4877
881.239	4793
881.366	4691
881.493	4599
881.619	4569
881.746	4637
881.872	4630
881.999	4637
882.125	4714
882.252	4744
882.378	4797
882.505	4976
882.631	4809
882.757	4675
882.883	4725
883.01	4683
883.136	4656
883.262	4645
883.388	4592
883.514	4858
883.64	4835
883.766	4733
883.892	4637
884.018	4641
884.143	4877
884.269	5033
884.395	4698
884.52	4584
884.646	4668
884.772	4584
884.897	4535
885.023	4634
885.148	4771
885.274	4850
885.399	4828
885.524	4748
885.65	4653
885.775	4717
885.9	4702
886.025	4816
886.15	4790
886.275	4721
886.4	4660
886.525	4748
886.65	4634
886.775	4675
886.9	4839
887.025	4957
887.149	4809
887.274	4607
887.399	4588
887.523	4523
887.648	4565
887.773	4599
887.897	4763
888.021	4721
888.146	4672
888.27	4850
888.395	4881
888.519	4812
888.643	4839
888.767	4831
888.891	4694
889.015	4580
889.139	4634
889.263	4615
889.387	4778
889.511	4870
889.635	4774
889.759	4630
889.883	4653
890.006	4714
890.13	4824
890.254	4588
890.377	4687
890.501	4554
890.624	4531
890.748	4664
890.871	4478
890.995	4386
891.118	4363
891.241	4516
891.364	4527
891.488	4626
891.611	4485
891.734	4577
891.857	4565
891.98	4531
892.103	4622
892.226	4584
892.349	4516
892.471	4440
892.594	4512
892.717	4588
892.839	4573
892.962	4561
893.085	4664
893.207	4542
893.33	4485
893.452	4489
893.575	4656
893.697	4558
893.819	4767
893.941	4812
894.064	4744
894.186	4565
894.308	4584
894.43	4710
894.552	4850
894.674	4767
894.796	4538
894.918	4596
895.04	4584
895.161	4691
895.283	4634
895.405	4599
895.526	4660
895.648	4637
895.769	4675
895.891	4736
896.012	4748
896.134	4706
896.255	4653
896.376	4580
896.498	4615
896.619	4698
896.74	4607
896.861	4630
896.982	4870
897.103	5094
897.224	4805
897.345	4752
897.466	4618
897.587	4702
897.708	4831
897.828	4763
897.949	4668
898.07	4527
898.19	4664
898.311	4805
898.431	4618
898.552	4740
898.672	4771
898.792	4797
898.913	4740
899.033	4611
899.153	4481
899.273	4436
899.393	4462
899.513	4489
899.633	4538
899.753	4527
899.873	4485
899.993	4546
900.113	4538
900.232	4592
900.352	4542
900.472	4466
900.591	4413
900.711	4478
900.83	4383
900.95	4637
901.069	4683
901.189	4542
901.308	4394
901.427	4310
901.546	4371
901.665	4481
901.784	4405
901.904	4375
902.023	4299
902.141	4181
902.26	4154
902.379	4295
902.498	4234
902.617	4181
902.735	4375
902.854	4390
902.973	4371
903.091	4150
903.21	4215
903.328	4325
903.446	4276
903.565	4246
903.683	4363
903.801	4272
903.919	4371
904.038	4402
904.156	4268
904.274	4459
904.392	4356
904.51	4402
904.627	4531
904.745	4580
904.863	4596
904.981	4424
905.098	4348
905.216	4367
905.334	4432
905.451	4443
905.569	4428
905.686	4573
905.803	4542
905.921	4421
906.038	4489
906.155	4489
906.272	4325
906.389	4432
906.506	4344
906.623	4375
906.74	4383
906.857	4314
906.974	4383
907.091	4512
907.208	4664
907.324	4569
907.441	4531
907.557	4341
907.674	4409
907.79	4337
907.907	4356
908.023	4424
908.139	4474
908.256	4405
908.372	4474
908.488	4402
908.604	4352
908.72	4341
908.836	4375
908.952	4333
909.068	4383
909.184	4554
909.3	4489
909.415	4550
909.531	4527
909.647	4341
909.762	4367
909.878	4333
909.993	4421
910.108	4459
910.224	4386
910.339	4478
910.454	4390
910.57	4306
910.685	4314
910.8	4656
910.915	4622
911.03	4470
911.145	4299
911.259	4329
911.374	4337
911.489	4234
911.604	4276
911.718	4207
911.833	4246
911.947	4105
912.062	4006
912.176	4196
912.291	4211
912.405	4242
912.519	4413
912.633	4527
912.748	4375
912.862	4287
912.976	4272
913.09	4116
913.204	4177
913.318	4223
913.431	4325
913.545	4371
913.659	4409
913.772	4352
913.886	4234
914	4223
914.113	4386
914.226	4424
914.34	4360
914.453	4200
914.566	4440
914.68	4287
914.793	4268
914.906	4147
915.019	4116
915.132	4048
915.245	4200
915.358	4204
915.47	4257
915.583	4341
915.696	4265
915.809	4379
915.921	4409
916.034	4268
916.146	4261
916.259	4219
916.371	4390
916.483	4363
916.595	4227
916.708	4306
916.82	4280
916.932	4325
917.044	4299
917.156	4314
917.268	4223
917.38	4268
917.491	4303
917.603	4318
917.715	4432
917.826	4417
917.938	4360
918.049	4211
918.161	4375
918.272	4478
918.384	4497
918.495	4459
918.606	4287
918.717	4211
918.828	4329
918.939	4379
919.05	4234
919.161	4356
919.272	4105
919.383	4223
919.494	4436
919.604	4618
919.715	4356
919.826	4333
919.936	4398
920.047	4481
920.157	4489
920.267	4698
920.378	4538
920.488	4489
920.598	4691
920.708	4892
920.818	4771
920.928	4748
921.038	4946
921.148	4885
921.258	4626
921.368	4546
921.477	4538
921.587	4466
921.697	4363
921.806	4497
921.916	4413
922.025	4257
922.134	4257
922.244	4188
922.353	4276
922.462	4150
922.571	4177
922.68	3964
922.789	3960
922.898	3998
923.007	4013
923.116	4097
923.224	4040
923.333	4105
923.442	3972
923.55	3975
923.659	4048
923.767	4101
923.876	3964
923.984	4128
924.092	3979
924.201	4074
924.309	4116
924.417	4074
924.525	4055
924.633	4086
924.741	5025
924.849	3899
924.956	4120
925.064	3903
925.172	3876
925.279	3937
925.387	4044
925.494	4021
925.602	4188
925.709	4200
925.816	4071
925.924	4124
926.031	4219
926.138	4173
926.245	4177
926.352	4074
926.459	4230
926.566	4249
926.673	4154
926.779	4063
926.886	4082
926.993	4002
927.099	3975
927.206	3922
927.312	3956
927.419	4025
927.525	4032
927.631	4124
927.737	3934
927.843	3968
927.95	3808
928.056	3907
928.162	3998
928.267	4036
928.373	4637
928.479	4131
928.585	3869
928.69	3979
928.796	4063
928.901	3934
929.007	3838
929.112	3945
929.218	3972
929.323	3949
929.428	3949
929.533	4112
929.638	3896
929.743	3987
929.848	4029
929.953	3987
930.058	3930
930.163	3793
930.267	3797
930.372	4006
930.477	3812
930.581	4124
930.685	3964
930.79	3797
930.894	3854
930.998	3827
931.103	4006
931.207	3732
931.311	3713
931.415	3690
931.519	3526
931.623	3561
