Data from test_V78500241_251.txt Node
Date: Fri Mar 25 16:50:44 CST 2022
User: usil
Spectrometer: V785-0024
Trigger mode: 0
Integration Time (sec): 4.000000E-1
Scans to average: 1
Nonlinearity correction enabled: false
Boxcar width: 0
Storing dark spectrum: false
XAxis mode: Wavelengths
Number of Pixels in Spectrum: 1024
>>>>>Begin Spectral Data<<<<<
801.071	8039
801.214	8031
801.356	7921
801.499	7871
801.641	7799
801.783	7837
801.926	7955
802.068	7959
802.211	8069
802.353	8069
802.496	7913
802.638	7928
802.78	7936
802.923	7936
803.065	7875
803.208	7868
803.35	7906
803.492	8035
803.635	8115
803.777	7993
803.919	8077
804.061	8393
804.204	8145
804.346	8077
804.488	7913
804.63	8153
804.773	8008
804.915	8024
805.057	8271
805.199	8161
805.341	8183
805.483	8244
805.626	8134
805.768	8062
805.91	8176
806.052	8180
806.194	8069
806.336	8298
806.478	8103
806.62	8126
806.762	8149
806.904	8267
807.046	8446
807.188	8347
807.33	8282
807.472	8225
807.614	8149
807.756	8168
807.898	7967
808.04	7898
808.182	7959
808.324	7902
808.465	7928
808.607	8050
808.749	8107
808.891	8229
809.033	8282
809.174	8187
809.316	8020
809.458	8123
809.6	8043
809.741	8008
809.883	8039
810.025	8073
810.166	8050
810.308	8035
810.45	8012
810.591	7921
810.733	7761
810.875	7700
811.016	7495
811.158	7426
811.299	7571
811.441	7780
811.582	7620
811.724	7567
811.865	7556
812.007	7533
812.148	7639
812.29	7594
812.431	7719
812.573	7902
812.714	7967
812.855	8149
812.997	8176
813.138	8290
813.279	8187
813.421	8115
813.562	7986
813.703	7776
813.845	7727
813.986	7445
814.127	7236
814.268	7187
814.41	7217
814.551	7213
814.692	7240
814.833	7046
814.974	7095
815.115	7072
815.256	6970
815.397	6886
815.539	6939
815.68	6829
815.821	6779
815.962	6882
816.103	6768
816.244	6772
816.385	6597
816.526	6612
816.666	6559
816.807	6346
816.948	6376
817.089	6464
817.23	6502
817.371	6372
817.512	6361
817.653	6399
817.793	6300
817.934	6391
818.075	6452
818.216	6437
818.356	6391
818.497	6281
818.638	6106
818.778	6110
818.919	6163
819.06	6114
819.2	6315
819.341	6331
819.481	6380
819.622	6490
819.762	6662
819.903	6650
820.043	6521
820.184	6559
820.324	6582
820.465	6707
820.605	6658
820.746	6681
820.886	6517
821.026	6677
821.167	6677
821.307	6783
821.447	6787
821.588	6646
821.728	6616
821.868	6555
822.008	6323
822.149	6346
822.289	6350
822.429	6133
822.569	6129
822.709	6117
822.849	5920
822.99	5908
823.13	5916
823.27	5977
823.41	5790
823.55	5866
823.69	5779
823.83	5844
823.97	5684
824.11	5543
824.25	5577
824.389	5589
824.529	5642
824.669	5581
824.809	5649
824.949	5665
825.089	5604
825.228	5600
825.368	5433
825.508	5406
825.648	5357
825.787	5406
825.927	5398
826.067	5341
826.206	5341
826.346	5436
826.485	5429
826.625	5467
826.765	5642
826.904	5505
827.044	5299
827.183	5227
827.323	5147
827.462	5280
827.601	5227
827.741	5235
827.88	5258
828.02	5204
828.159	5292
828.298	5357
828.437	5372
828.577	5391
828.716	5558
828.855	5360
828.994	5189
829.134	5239
829.273	5254
829.412	5181
829.551	5201
829.69	5220
829.829	5261
829.968	5406
830.107	5349
830.246	5303
830.385	5223
830.524	5208
830.663	5102
830.802	5041
830.941	4881
831.08	4953
831.219	5071
831.357	5014
831.496	5235
831.635	4968
831.774	4873
831.913	4919
832.051	4820
832.19	4774
832.329	4862
832.467	4725
832.606	4702
832.744	4771
832.883	4767
833.022	4729
833.16	4809
833.299	4843
833.437	4900
833.576	4923
833.714	4911
833.852	4915
833.991	4927
834.129	4995
834.267	5025
834.406	4987
834.544	5037
834.682	5045
834.821	5086
834.959	5212
835.097	5041
835.235	5170
835.373	5075
835.511	5105
835.65	5037
835.788	5048
835.926	4904
836.064	4919
836.202	4976
836.34	5231
836.478	5242
836.615	5170
836.753	5288
836.891	5341
837.029	5296
837.167	5170
837.305	5220
837.443	5197
837.58	5147
837.718	5311
837.856	5201
837.993	5181
838.131	5227
838.269	5292
838.406	5204
838.544	5189
838.681	5113
838.819	5064
838.956	4930
839.094	4953
839.231	5045
839.369	5109
839.506	5444
839.643	5337
839.781	5132
839.918	5155
840.055	5151
840.193	5113
840.33	5147
840.467	5140
840.604	5231
840.742	5486
840.879	5124
841.016	5132
841.153	5220
841.29	5398
841.427	5311
841.564	5395
841.701	5391
841.838	5318
841.975	5269
842.112	5330
842.249	5212
842.385	5216
842.522	5357
842.659	5189
842.796	5178
842.933	5235
843.069	5170
843.206	5140
843.343	5395
843.479	5216
843.616	5318
843.752	5067
843.889	4987
844.025	5258
844.162	5052
844.298	5208
844.435	5151
844.571	5041
844.708	5242
844.844	5322
844.98	5436
845.117	5311
845.253	5143
845.389	5105
845.525	5181
845.661	5201
845.798	5045
845.934	5193
846.07	5060
846.206	5227
846.342	5315
846.478	5216
846.614	5018
846.75	5029
846.886	5022
847.022	5166
847.158	5067
847.294	5064
847.429	5113
847.565	5079
847.701	5345
847.837	4896
847.972	4786
848.108	4972
848.244	5014
848.379	4812
848.515	4797
848.65	4767
848.786	4748
848.921	4790
849.057	4892
849.192	4953
849.328	4862
849.463	4858
849.598	4839
849.734	4816
849.869	4706
850.004	4668
850.14	4691
850.275	4664
850.41	4565
850.545	4603
850.68	4645
850.815	4687
850.95	4641
851.085	4885
851.22	4812
851.355	4729
851.49	4664
851.625	4687
851.76	4656
851.895	4618
852.03	4569
852.165	4702
852.299	4733
852.434	4847
852.569	4740
852.703	4774
852.838	4843
852.973	5003
853.107	4968
853.242	4801
853.376	4729
853.511	4618
853.645	4687
853.78	4862
853.914	4698
854.048	4656
854.183	4668
854.317	4717
854.451	4843
854.585	4774
854.72	4630
854.854	4793
854.988	4637
855.122	4641
855.256	4550
855.39	4717
855.524	4828
855.658	4782
855.792	4729
855.926	4805
856.06	4809
856.194	4835
856.327	4675
856.461	4634
856.595	4622
856.729	4679
856.862	4793
856.996	4755
857.13	4725
857.263	4748
857.397	4839
857.53	4656
857.664	4752
857.797	4763
857.931	4805
858.064	4733
858.197	4790
858.331	4660
858.464	4653
858.597	4573
858.731	4649
858.864	4675
858.997	4622
859.13	4748
859.263	4725
859.396	4752
859.529	4649
859.662	4622
859.795	4569
859.928	4706
860.061	4790
860.194	4820
860.327	4660
860.46	4584
860.592	4698
860.725	4748
860.858	4774
860.99	4592
861.123	4546
861.256	4577
861.388	4626
861.521	5452
861.653	4512
861.786	4447
861.918	4462
862.05	4554
862.183	4573
862.315	4577
862.447	4702
862.58	4615
862.712	4459
862.844	4341
862.976	4489
863.108	4512
863.24	4896
863.372	4325
863.504	4481
863.636	4455
863.768	4531
863.9	4440
864.032	4394
864.164	4459
864.296	4455
864.428	4592
864.559	4603
864.691	4592
864.823	4542
864.954	4558
865.086	4519
865.217	4561
865.349	4413
865.48	4493
865.612	4523
865.743	4626
865.875	4516
866.006	4440
866.137	4485
866.269	4470
866.4	4455
866.531	4470
866.662	4428
866.793	4405
866.924	4447
867.055	4516
867.186	4440
867.317	4421
867.448	4432
867.579	4428
867.71	4386
867.841	4386
867.972	4519
868.103	4531
868.233	4474
868.364	4504
868.495	4531
868.625	4675
868.756	4797
868.886	4599
869.017	4672
869.147	4755
869.278	4778
869.408	4706
869.539	4679
869.669	4748
869.799	4694
869.929	4759
870.06	4740
870.19	4961
870.32	4961
870.45	4995
870.58	5018
870.71	5102
870.84	5083
870.97	4942
871.1	4892
871.23	5159
871.36	5159
871.489	5029
871.619	5086
871.749	5128
871.879	5151
872.008	5231
872.138	5056
872.267	4999
872.397	4889
872.526	4847
872.656	4725
872.785	4812
872.915	4972
873.044	5102
873.173	4995
873.303	4995
873.432	4991
873.561	5006
873.69	4896
873.819	4885
873.948	4870
874.077	4828
874.206	4748
874.335	4850
874.464	4961
874.593	5060
874.722	5033
874.851	5098
874.979	5121
875.108	5052
875.237	4938
875.365	4942
875.494	4930
875.623	4972
875.751	4873
875.88	4892
876.008	4987
876.136	5060
876.265	5277
876.393	5337
876.521	5254
876.65	5242
876.778	5185
876.906	5086
877.034	5075
877.162	5064
877.29	5037
877.418	5045
877.546	5086
877.674	5045
877.802	5052
877.93	5045
878.058	4938
878.185	4930
878.313	4942
878.441	4938
878.568	4816
878.696	4881
878.824	4968
878.951	4995
879.079	5223
879.206	5292
879.333	5136
879.461	4987
879.588	5003
879.715	5143
879.842	5235
879.97	5090
880.097	4820
880.224	4748
880.351	4847
880.478	4843
880.605	4820
880.732	4839
880.859	5109
880.986	4900
881.112	4923
881.239	4786
881.366	4710
881.493	4622
881.619	4603
881.746	4687
881.872	4626
881.999	4664
882.125	4694
882.252	4820
882.378	4790
882.505	4991
882.631	4835
882.757	4683
882.883	4717
883.01	4744
883.136	4675
883.262	4615
883.388	4679
883.514	4790
883.64	4908
883.766	4843
883.892	4714
884.018	4755
884.143	4881
884.269	5045
884.395	4691
884.52	4691
884.646	4687
884.772	4618
884.897	4596
885.023	4717
885.148	4744
885.274	4934
885.399	4805
885.524	4767
885.65	4755
885.775	4755
885.9	4744
886.025	4927
886.15	4793
886.275	4714
886.4	4687
886.525	4763
886.65	4694
886.775	4744
886.9	4972
887.025	5052
887.149	4790
887.274	4656
887.399	4649
887.523	4615
887.648	4607
887.773	4630
887.897	4809
888.021	4793
888.146	4626
888.27	4824
888.395	4881
888.519	4828
888.643	4847
888.767	4831
888.891	4687
889.015	4611
889.139	4649
889.263	4618
889.387	4767
889.511	4892
889.635	4828
889.759	4706
889.883	4649
890.006	4717
890.13	4885
890.254	4660
890.377	4698
890.501	4535
890.624	4546
890.748	4660
890.871	4538
890.995	4447
891.118	4436
891.241	4516
891.364	4504
891.488	4675
891.611	4455
891.734	4561
891.857	4634
891.98	4558
892.103	4653
892.226	4641
892.349	4535
892.471	4405
892.594	4561
892.717	4641
892.839	4618
892.962	4618
893.085	4729
893.207	4577
893.33	4493
893.452	4542
893.575	4679
893.697	4599
893.819	4809
893.941	4862
894.064	4828
894.186	4622
894.308	4596
894.43	4752
894.552	4801
894.674	4870
894.796	4573
894.918	4630
895.04	4573
895.161	4755
895.283	4653
895.405	4538
895.526	4607
895.648	4733
895.769	4675
895.891	4736
896.012	4748
896.134	4786
896.255	4641
896.376	4714
896.498	4622
896.619	4714
896.74	4649
896.861	4645
896.982	4953
897.103	5098
897.224	4885
897.345	4835
897.466	4706
897.587	4767
897.708	4900
897.828	4839
897.949	4733
898.07	4611
898.19	4641
898.311	4824
898.431	4675
898.552	4820
898.672	4877
898.792	4812
898.913	4710
899.033	4687
899.153	4554
899.273	4459
899.393	4489
899.513	4569
899.633	4561
899.753	4577
899.873	4516
899.993	4577
900.113	4527
900.232	4637
900.352	4550
900.472	4516
900.591	4432
900.711	4504
900.83	4447
900.95	4641
901.069	4675
901.189	4569
901.308	4322
901.427	4352
901.546	4386
901.665	4447
901.784	4489
901.904	4432
902.023	4341
902.141	4207
902.26	4188
902.379	4329
902.498	4230
902.617	4227
902.735	4417
902.854	4394
902.973	4344
903.091	4249
903.21	4276
903.328	4291
903.446	4265
903.565	4249
903.683	4402
903.801	4284
903.919	4386
904.038	4440
904.156	4325
904.274	4402
904.392	4390
904.51	4417
904.627	4493
904.745	4615
904.863	4683
904.981	4432
905.098	4337
905.216	4341
905.334	4447
905.451	4466
905.569	4432
905.686	4527
905.803	4554
905.921	4394
906.038	4584
906.155	4481
906.272	4398
906.389	4493
906.506	4383
906.623	4386
906.74	4405
906.857	4363
906.974	4386
907.091	4603
907.208	4694
907.324	4603
907.441	4542
907.557	4394
907.674	4367
907.79	4337
907.907	4398
908.023	4531
908.139	4500
908.256	4481
908.372	4470
908.488	4489
908.604	4402
908.72	4356
908.836	4390
908.952	4405
909.068	4466
909.184	4558
909.3	4500
909.415	4618
909.531	4561
909.647	4402
909.762	4390
909.878	4352
909.993	4424
910.108	4455
910.224	4470
910.339	4527
910.454	4417
910.57	4360
910.685	4344
910.8	4706
910.915	4592
911.03	4535
911.145	4352
911.259	4356
911.374	4383
911.489	4291
911.604	4299
911.718	4158
911.833	4230
911.947	4074
912.062	4029
912.176	4211
912.291	4234
912.405	4249
912.519	4500
912.633	4497
912.748	4363
912.862	4371
912.976	4207
913.09	4109
913.204	4204
913.318	4257
913.431	4344
913.545	4386
913.659	4417
913.772	4394
913.886	4238
914	4242
914.113	4405
914.226	4436
914.34	4367
914.453	4215
914.566	4432
914.68	4337
914.793	4318
914.906	4139
915.019	4169
915.132	4040
915.245	4158
915.358	4234
915.47	4253
915.583	4276
915.696	4303
915.809	4402
915.921	4470
916.034	4230
916.146	4303
916.259	4249
916.371	4379
916.483	4386
916.595	4280
916.708	4295
916.82	4348
916.932	4356
917.044	4329
917.156	4303
917.268	4242
917.38	4299
917.491	4287
917.603	4333
917.715	4417
917.826	4500
917.938	4421
918.049	4268
918.161	4394
918.272	4565
918.384	4596
918.495	4443
918.606	4299
918.717	4272
918.828	4348
918.939	4379
919.05	4246
919.161	4325
919.272	4131
919.383	4242
919.494	4455
919.604	4630
919.715	4424
919.826	4379
919.936	4390
920.047	4523
920.157	4542
920.267	4698
920.378	4508
920.488	4542
920.598	4691
920.708	4919
920.818	4786
920.928	4790
921.038	4968
921.148	4885
921.258	4630
921.368	4599
921.477	4531
921.587	4455
921.697	4398
921.806	4554
921.916	4447
922.025	4310
922.134	4227
922.244	4223
922.353	4333
922.462	4158
922.571	4143
922.68	4025
922.789	3983
922.898	4040
923.007	3991
923.116	4128
923.224	4063
923.333	4090
923.442	4040
923.55	4002
923.659	4051
923.767	4078
923.876	4040
923.984	4150
924.092	3998
924.201	4055
924.309	4067
924.417	4158
924.525	4071
924.633	4154
924.741	5067
924.849	3945
924.956	4162
925.064	3975
925.172	3896
925.279	3949
925.387	4048
925.494	4059
925.602	4215
925.709	4188
925.816	4013
925.924	4154
926.031	4211
926.138	4169
926.245	4196
926.352	4109
926.459	4261
926.566	4325
926.673	4154
926.779	4105
926.886	4116
926.993	4002
927.099	4025
927.206	3945
927.312	3960
927.419	4082
927.525	4059
927.631	4147
927.737	3964
927.843	3941
927.95	3869
928.056	3915
928.162	4010
928.267	4074
928.373	4584
928.479	4093
928.585	3876
928.69	4029
928.796	4101
928.901	3972
929.007	3808
929.112	4025
929.218	3941
929.323	3922
929.428	3953
929.533	4105
929.638	3911
929.743	3972
929.848	4025
929.953	4074
930.058	3930
930.163	3793
930.267	3850
930.372	3975
930.477	3838
930.581	4112
930.685	3983
930.79	3903
930.894	3899
930.998	3838
931.103	4051
931.207	3698
931.311	3694
931.415	3705
931.519	3523
931.623	3542
