Data from test_V78500241_1752.txt Node
Date: Fri Mar 25 17:01:11 CST 2022
User: usil
Spectrometer: V785-0024
Trigger mode: 0
Integration Time (sec): 4.000000E-1
Scans to average: 1
Nonlinearity correction enabled: false
Boxcar width: 0
Storing dark spectrum: false
XAxis mode: Wavelengths
Number of Pixels in Spectrum: 1024
>>>>>Begin Spectral Data<<<<<
801.071	7970
801.214	7982
801.356	7860
801.499	7925
801.641	7795
801.783	7788
801.926	8012
802.068	7936
802.211	7978
802.353	8027
802.496	7826
802.638	7856
802.78	7906
802.923	7951
803.065	7860
803.208	7814
803.35	8046
803.492	8058
803.635	8142
803.777	8054
803.919	8115
804.061	8499
804.204	8142
804.346	8111
804.488	7967
804.63	8084
804.773	7928
804.915	8111
805.057	8252
805.199	8195
805.341	8202
805.483	8279
805.626	8210
805.768	8100
805.91	8214
806.052	8271
806.194	8088
806.336	8259
806.478	8107
806.62	8100
806.762	8142
806.904	8259
807.046	8541
807.188	8355
807.33	8332
807.472	8377
807.614	8145
807.756	8149
807.898	8005
808.04	7898
808.182	7928
808.324	7921
808.465	7982
808.607	8111
808.749	8046
808.891	8263
809.033	8259
809.174	8271
809.316	8092
809.458	8043
809.6	8005
809.741	8073
809.883	8062
810.025	8058
810.166	8069
810.308	8065
810.45	7947
810.591	7784
810.733	7689
810.875	7696
811.016	7529
811.158	7445
811.299	7582
811.441	7742
811.582	7662
811.724	7578
811.865	7540
812.007	7559
812.148	7575
812.29	7628
812.431	7807
812.573	7871
812.714	8031
812.855	8115
812.997	8183
813.138	8374
813.279	8062
813.421	8062
813.562	7993
813.703	7784
813.845	7734
813.986	7426
814.127	7266
814.268	7213
814.41	7171
814.551	7187
814.692	7213
814.833	7091
814.974	7103
815.115	7118
815.256	7027
815.397	7004
815.539	6954
815.68	6791
815.821	6825
815.962	6844
816.103	6818
816.244	6669
816.385	6532
816.526	6582
816.666	6467
816.807	6319
816.948	6502
817.089	6456
817.23	6460
817.371	6372
817.512	6346
817.653	6418
817.793	6319
817.934	6479
818.075	6464
818.216	6403
818.356	6395
818.497	6243
818.638	6152
818.778	6186
818.919	6098
819.06	6129
819.2	6296
819.341	6308
819.481	6399
819.622	6540
819.762	6745
819.903	6681
820.043	6589
820.184	6559
820.324	6540
820.465	6745
820.605	6673
820.746	6608
820.886	6532
821.026	6715
821.167	6684
821.307	6795
821.447	6798
821.588	6669
821.728	6559
821.868	6528
822.008	6323
822.149	6353
822.289	6380
822.429	6201
822.569	6060
822.709	6125
822.849	5931
822.99	5935
823.13	5908
823.27	5969
823.41	5844
823.55	5824
823.69	5733
823.83	5748
823.97	5653
824.11	5486
824.25	5493
824.389	5516
824.529	5554
824.669	5474
824.809	5585
824.949	5668
825.089	5676
825.228	5554
825.368	5357
825.508	5368
825.648	5334
825.787	5330
825.927	5383
826.067	5307
826.206	5265
826.346	5372
826.485	5391
826.625	5376
826.765	5596
826.904	5512
827.044	5261
827.183	5208
827.323	5128
827.462	5269
827.601	5162
827.741	5254
827.88	5185
828.02	5117
828.159	5216
828.298	5296
828.437	5326
828.577	5246
828.716	5490
828.855	5341
828.994	5132
829.134	5151
829.273	5155
829.412	5140
829.551	5124
829.69	5113
829.829	5250
829.968	5391
830.107	5258
830.246	5303
830.385	5140
830.524	5128
830.663	5045
830.802	4995
830.941	4904
831.08	4850
831.219	4961
831.357	4919
831.496	5151
831.635	4915
831.774	4847
831.913	4812
832.051	4721
832.19	4721
832.329	4843
832.467	4733
832.606	4634
832.744	4721
832.883	4733
833.022	4748
833.16	4752
833.299	4809
833.437	4839
833.576	4809
833.714	4820
833.852	4892
833.991	4889
834.129	4938
834.267	4896
834.406	4919
834.544	4972
834.682	5006
834.821	4927
834.959	5185
835.097	5056
835.235	5159
835.373	5045
835.511	5064
835.65	5010
835.788	5041
835.926	4889
836.064	4816
836.202	4911
836.34	5189
836.478	5242
836.615	5140
836.753	5208
836.891	5269
837.029	5242
837.167	5170
837.305	5151
837.443	5159
837.58	5029
837.718	5250
837.856	5162
837.993	5170
838.131	5231
838.269	5204
838.406	5185
838.544	5143
838.681	5041
838.819	4999
838.956	4930
839.094	4866
839.231	4984
839.369	5105
839.506	5387
839.643	5288
839.781	5022
839.918	5025
840.055	5083
840.193	5113
840.33	5109
840.467	5136
840.604	5189
840.742	5391
840.879	5071
841.016	5079
841.153	5181
841.29	5406
841.427	5368
841.564	5303
841.701	5322
841.838	5250
841.975	5231
842.112	5307
842.249	5147
842.385	5086
842.522	5311
842.659	5159
842.796	5147
842.933	5189
843.069	5124
843.206	5124
843.343	5273
843.479	5197
843.616	5265
843.752	5018
843.889	4999
844.025	5181
844.162	5003
844.298	5185
844.435	5102
844.571	5033
844.708	5140
844.844	5307
844.98	5326
845.117	5322
845.253	5124
845.389	5067
845.525	5140
845.661	5151
845.798	5117
845.934	5128
846.07	5071
846.206	5178
846.342	5299
846.478	5143
846.614	4991
846.75	4934
846.886	4972
847.022	5136
847.158	4972
847.294	5006
847.429	5143
847.565	5037
847.701	5311
847.837	4835
847.972	4771
848.108	4930
848.244	4946
848.379	4786
848.515	4721
848.65	4683
848.786	4740
848.921	4744
849.057	4835
849.192	4866
849.328	4858
849.463	4816
849.598	4805
849.734	4744
849.869	4664
850.004	4596
850.14	4660
850.275	4607
850.41	4516
850.545	4554
850.68	4626
850.815	4634
850.95	4649
851.085	4843
851.22	4714
851.355	4656
851.49	4637
851.625	4641
851.76	4630
851.895	4569
852.03	4554
852.165	4656
852.299	4683
852.434	4809
852.569	4744
852.703	4744
852.838	4850
852.973	4949
853.107	4915
853.242	4698
853.376	4679
853.511	4588
853.645	4603
853.78	4797
853.914	4660
854.048	4672
854.183	4698
854.317	4683
854.451	4828
854.585	4641
854.72	4687
854.854	4752
854.988	4546
855.122	4622
855.256	4504
855.39	4649
855.524	4778
855.658	4717
855.792	4687
855.926	4744
856.06	4759
856.194	4809
856.327	4672
856.461	4626
856.595	4580
856.729	4634
856.862	4706
856.996	4698
857.13	4736
857.263	4710
857.397	4790
857.53	4634
857.664	4683
857.797	4721
857.931	4786
858.064	4691
858.197	4736
858.331	4634
858.464	4603
858.597	4516
858.731	4626
858.864	4630
858.997	4561
859.13	4664
859.263	4698
859.396	4702
859.529	4584
859.662	4577
859.795	4519
859.928	4649
860.061	4771
860.194	4797
860.327	4634
860.46	4569
860.592	4733
860.725	4706
860.858	4759
860.99	4615
861.123	4535
861.256	4470
861.388	4653
861.521	5292
861.653	4462
861.786	4413
861.918	4462
862.05	4504
862.183	4580
862.315	4611
862.447	4656
862.58	4512
862.712	4436
862.844	4360
862.976	4474
863.108	4474
863.24	4889
863.372	4314
863.504	4394
863.636	4379
863.768	4436
863.9	4436
864.032	4325
864.164	4356
864.296	4470
864.428	4558
864.559	4618
864.691	4531
864.823	4497
864.954	4462
865.086	4493
865.217	4402
865.349	4405
865.48	4459
865.612	4470
865.743	4599
865.875	4436
866.006	4402
866.137	4436
866.269	4424
866.4	4451
866.531	4424
866.662	4402
866.793	4409
866.924	4390
867.055	4500
867.186	4474
867.317	4409
867.448	4379
867.579	4398
867.71	4360
867.841	4383
867.972	4432
868.103	4474
868.233	4455
868.364	4428
868.495	4470
868.625	4649
868.756	4767
868.886	4588
869.017	4584
869.147	4782
869.278	4793
869.408	4672
869.539	4584
869.669	4691
869.799	4668
869.929	4744
870.06	4767
870.19	4995
870.32	4953
870.45	4946
870.58	5018
870.71	5086
870.84	5079
870.97	4896
871.1	4873
871.23	5128
871.36	5105
871.489	5025
871.619	5045
871.749	5083
871.879	5086
872.008	5181
872.138	5029
872.267	4965
872.397	4854
872.526	4782
872.656	4740
872.785	4763
872.915	4968
873.044	5010
873.173	4919
873.303	4946
873.432	4946
873.561	4915
873.69	4870
873.819	4892
873.948	4900
874.077	4797
874.206	4729
874.335	4805
874.464	4911
874.593	5048
874.722	4946
874.851	5090
874.979	5048
875.108	5029
875.237	4866
875.365	4915
875.494	4889
875.623	4961
875.751	4793
875.88	4858
876.008	4976
876.136	5037
876.265	5189
876.393	5299
876.521	5208
876.65	5212
876.778	5166
876.906	5056
877.034	5060
877.162	5003
877.29	4972
877.418	5006
877.546	5045
877.674	5006
877.802	4972
877.93	5025
878.058	4892
878.185	4854
878.313	4938
878.441	4957
878.568	4774
878.696	4877
878.824	4877
878.951	4976
879.079	5113
879.206	5258
879.333	5067
879.461	4957
879.588	5033
879.715	5143
879.842	5162
879.97	5022
880.097	4805
880.224	4717
880.351	4790
880.478	4786
880.605	4771
880.732	4774
880.859	5094
880.986	4919
881.112	4866
881.239	4771
881.366	4664
881.493	4592
881.619	4626
881.746	4634
881.872	4645
881.999	4634
882.125	4702
882.252	4774
882.378	4786
882.505	4961
882.631	4839
882.757	4694
882.883	4664
883.01	4729
883.136	4683
883.262	4569
883.388	4603
883.514	4790
883.64	4908
883.766	4755
883.892	4656
884.018	4660
884.143	4843
884.269	4995
884.395	4664
884.52	4622
884.646	4668
884.772	4577
884.897	4565
885.023	4641
885.148	4755
885.274	4881
885.399	4843
885.524	4725
885.65	4694
885.775	4729
885.9	4683
886.025	4877
886.15	4786
886.275	4694
886.4	4668
886.525	4706
886.65	4664
886.775	4710
886.9	4930
887.025	5010
887.149	4774
887.274	4714
887.399	4599
887.523	4554
887.648	4603
887.773	4618
887.897	4725
888.021	4782
888.146	4653
888.27	4786
888.395	4889
888.519	4763
888.643	4816
888.767	4858
888.891	4675
889.015	4569
889.139	4668
889.263	4611
889.387	4733
889.511	4911
889.635	4812
889.759	4630
889.883	4668
890.006	4736
890.13	4793
890.254	4622
890.377	4714
890.501	4584
890.624	4493
890.748	4649
890.871	4504
890.995	4424
891.118	4386
891.241	4577
891.364	4512
891.488	4615
891.611	4451
891.734	4523
891.857	4599
891.98	4531
892.103	4641
892.226	4584
892.349	4512
892.471	4394
892.594	4538
892.717	4596
892.839	4577
892.962	4634
893.085	4645
893.207	4584
893.33	4428
893.452	4474
893.575	4698
893.697	4561
893.819	4782
893.941	4812
894.064	4748
894.186	4565
894.308	4569
894.43	4687
894.552	4831
894.674	4710
894.796	4558
894.918	4611
895.04	4577
895.161	4710
895.283	4664
895.405	4615
895.526	4637
895.648	4733
895.769	4660
895.891	4710
896.012	4714
896.134	4767
896.255	4702
896.376	4668
896.498	4615
896.619	4668
896.74	4611
896.861	4649
896.982	4930
897.103	5037
897.224	4801
897.345	4729
897.466	4656
897.587	4733
897.708	4934
897.828	4797
897.949	4641
898.07	4599
898.19	4611
898.311	4831
898.431	4653
898.552	4729
898.672	4771
898.792	4816
898.913	4736
899.033	4649
899.153	4519
899.273	4466
899.393	4470
899.513	4542
899.633	4523
899.753	4580
899.873	4531
899.993	4565
900.113	4535
900.232	4584
900.352	4531
900.472	4481
900.591	4443
900.711	4504
900.83	4436
900.95	4550
901.069	4710
901.189	4527
901.308	4398
901.427	4341
901.546	4356
901.665	4474
901.784	4500
901.904	4386
902.023	4329
902.141	4207
902.26	4135
902.379	4295
902.498	4227
902.617	4215
902.735	4363
902.854	4440
902.973	4371
903.091	4154
903.21	4211
903.328	4348
903.446	4257
903.565	4246
903.683	4356
903.801	4268
903.919	4367
904.038	4443
904.156	4318
904.274	4417
904.392	4409
904.51	4417
904.627	4504
904.745	4580
904.863	4656
904.981	4394
905.098	4276
905.216	4367
905.334	4432
905.451	4474
905.569	4432
905.686	4538
905.803	4573
905.921	4409
906.038	4542
906.155	4474
906.272	4367
906.389	4493
906.506	4329
906.623	4375
906.74	4379
906.857	4295
906.974	4360
907.091	4554
907.208	4702
907.324	4558
907.441	4538
907.557	4322
907.674	4337
907.79	4314
907.907	4329
908.023	4512
908.139	4440
908.256	4424
908.372	4519
908.488	4451
908.604	4333
908.72	4314
908.836	4322
908.952	4356
909.068	4440
909.184	4558
909.3	4481
909.415	4618
909.531	4538
909.647	4383
909.762	4390
909.878	4322
909.993	4443
910.108	4383
910.224	4405
910.339	4497
910.454	4424
910.57	4394
910.685	4310
910.8	4637
910.915	4603
911.03	4470
911.145	4329
911.259	4329
911.374	4398
911.489	4303
911.604	4276
911.718	4215
911.833	4169
911.947	4044
912.062	4044
912.176	4204
912.291	4261
912.405	4238
912.519	4409
912.633	4497
912.748	4348
912.862	4295
912.976	4173
913.09	4124
913.204	4158
913.318	4291
913.431	4367
913.545	4375
913.659	4440
913.772	4325
913.886	4196
914	4238
914.113	4329
914.226	4402
914.34	4348
914.453	4238
914.566	4421
914.68	4287
914.793	4299
914.906	4173
915.019	4093
915.132	4090
915.245	4188
915.358	4219
915.47	4227
915.583	4314
915.696	4284
915.809	4443
915.921	4405
916.034	4280
916.146	4272
916.259	4242
916.371	4367
916.483	4303
916.595	4276
916.708	4314
916.82	4295
916.932	4303
917.044	4390
917.156	4303
917.268	4280
917.38	4257
917.491	4280
917.603	4360
917.715	4455
917.826	4398
917.938	4352
918.049	4284
918.161	4386
918.272	4573
918.384	4531
918.495	4451
918.606	4329
918.717	4261
918.828	4287
918.939	4432
919.05	4284
919.161	4303
919.272	4109
919.383	4242
919.494	4413
919.604	4618
919.715	4432
919.826	4306
919.936	4386
920.047	4508
920.157	4516
920.267	4736
920.378	4554
920.488	4535
920.598	4706
920.708	4881
920.818	4706
920.928	4767
921.038	4953
921.148	4953
921.258	4634
921.368	4584
921.477	4478
921.587	4436
921.697	4398
921.806	4542
921.916	4440
922.025	4230
922.134	4287
922.244	4223
922.353	4329
922.462	4207
922.571	4162
922.68	3979
922.789	3922
922.898	4048
923.007	4002
923.116	4071
923.224	4074
923.333	4078
923.442	3964
923.55	3953
923.659	4032
923.767	4093
923.876	4013
923.984	4158
924.092	3994
924.201	4116
924.309	4097
924.417	4093
924.525	4071
924.633	4135
924.741	5041
924.849	3911
924.956	4128
925.064	3979
925.172	3884
925.279	3994
925.387	4055
925.494	4040
925.602	4257
925.709	4211
925.816	4067
925.924	4162
926.031	4204
926.138	4185
926.245	4188
926.352	4109
926.459	4234
926.566	4287
926.673	4158
926.779	4090
926.886	4082
926.993	3964
927.099	3960
927.206	3937
927.312	3937
927.419	4044
927.525	4029
927.631	4116
927.737	4010
927.843	3937
927.95	3865
928.056	3926
928.162	4002
928.267	4078
928.373	4721
928.479	4109
928.585	3873
928.69	4010
928.796	4010
928.901	4002
929.007	3857
929.112	4002
929.218	3945
929.323	3979
929.428	3903
929.533	4055
929.638	3888
929.743	3949
929.848	4048
929.953	4002
930.058	3892
930.163	3785
930.267	3838
930.372	3979
930.477	3812
930.581	4112
930.685	3994
930.79	3800
930.894	3888
930.998	3846
931.103	4006
931.207	3732
931.311	3660
931.415	3728
931.519	3519
931.623	3564
