Data from test_V78500241_298.txt Node
Date: Fri Mar 25 16:51:04 CST 2022
User: usil
Spectrometer: V785-0024
Trigger mode: 0
Integration Time (sec): 4.000000E-1
Scans to average: 1
Nonlinearity correction enabled: false
Boxcar width: 0
Storing dark spectrum: false
XAxis mode: Wavelengths
Number of Pixels in Spectrum: 1024
>>>>>Begin Spectral Data<<<<<
801.071	8111
801.214	8001
801.356	7906
801.499	7856
801.641	7795
801.783	7849
801.926	7974
802.068	7955
802.211	8024
802.353	7986
802.496	7902
802.638	7898
802.78	7951
802.923	7986
803.065	7894
803.208	7852
803.35	7997
803.492	8100
803.635	8134
803.777	8024
803.919	8084
804.061	8446
804.204	8115
804.346	8103
804.488	7978
804.63	8077
804.773	7970
804.915	8138
805.057	8218
805.199	8172
805.341	8145
805.483	8256
805.626	8199
805.768	8126
805.91	8149
806.052	8214
806.194	8081
806.336	8294
806.478	8115
806.62	8100
806.762	8138
806.904	8233
807.046	8442
807.188	8385
807.33	8279
807.472	8298
807.614	8168
807.756	8161
807.898	8008
808.04	7868
808.182	7947
808.324	7909
808.465	7936
808.607	8096
808.749	8073
808.891	8164
809.033	8294
809.174	8172
809.316	8062
809.458	8073
809.6	8039
809.741	8027
809.883	7967
810.025	8107
810.166	8119
810.308	8062
810.45	8077
810.591	7841
810.733	7780
810.875	7693
811.016	7487
811.158	7487
811.299	7658
811.441	7662
811.582	7677
811.724	7491
811.865	7521
812.007	7651
812.148	7620
812.29	7647
812.431	7788
812.573	7913
812.714	7967
812.855	8096
812.997	8214
813.138	8252
813.279	8206
813.421	8096
813.562	8043
813.703	7830
813.845	7765
813.986	7430
814.127	7339
814.268	7293
814.41	7175
814.551	7168
814.692	7213
814.833	7050
814.974	7114
815.115	7152
815.256	6962
815.397	6920
815.539	6943
815.68	6772
815.821	6757
815.962	6859
816.103	6859
816.244	6711
816.385	6623
816.526	6639
816.666	6483
816.807	6350
816.948	6456
817.089	6578
817.23	6437
817.371	6311
817.512	6407
817.653	6353
817.793	6338
817.934	6361
818.075	6490
818.216	6426
818.356	6376
818.497	6243
818.638	6133
818.778	6163
818.919	6182
819.06	6167
819.2	6350
819.341	6311
819.481	6285
819.622	6490
819.762	6707
819.903	6703
820.043	6601
820.184	6547
820.324	6517
820.465	6616
820.605	6669
820.746	6665
820.886	6475
821.026	6639
821.167	6715
821.307	6730
821.447	6749
821.588	6711
821.728	6532
821.868	6502
822.008	6327
822.149	6357
822.289	6346
822.429	6091
822.569	6072
822.709	6106
822.849	5912
822.99	5927
823.13	5916
823.27	5935
823.41	5790
823.55	5798
823.69	5748
823.83	5805
823.97	5661
824.11	5535
824.25	5497
824.389	5539
824.529	5566
824.669	5520
824.809	5589
824.949	5665
825.089	5638
825.228	5589
825.368	5398
825.508	5395
825.648	5425
825.787	5349
825.927	5448
826.067	5357
826.206	5364
826.346	5402
826.485	5448
826.625	5444
826.765	5547
826.904	5509
827.044	5254
827.183	5212
827.323	5143
827.462	5204
827.601	5155
827.741	5201
827.88	5235
828.02	5124
828.159	5250
828.298	5315
828.437	5395
828.577	5311
828.716	5505
828.855	5402
828.994	5174
829.134	5174
829.273	5235
829.412	5189
829.551	5170
829.69	5216
829.829	5311
829.968	5357
830.107	5337
830.246	5337
830.385	5231
830.524	5155
830.663	5147
830.802	5045
830.941	4968
831.08	4889
831.219	5045
831.357	5018
831.496	5235
831.635	4968
831.774	4889
831.913	4904
832.051	4786
832.19	4782
832.329	4889
832.467	4771
832.606	4698
832.744	4793
832.883	4759
833.022	4752
833.16	4835
833.299	4850
833.437	4862
833.576	4885
833.714	4911
833.852	4927
833.991	4965
834.129	4976
834.267	5025
834.406	4953
834.544	5052
834.682	4984
834.821	5003
834.959	5201
835.097	5003
835.235	5193
835.373	5102
835.511	5155
835.65	5075
835.788	5109
835.926	4976
836.064	4934
836.202	4968
836.34	5193
836.478	5303
836.615	5128
836.753	5277
836.891	5330
837.029	5280
837.167	5204
837.305	5136
837.443	5166
837.58	5162
837.718	5288
837.856	5235
837.993	5166
838.131	5341
838.269	5277
838.406	5246
838.544	5235
838.681	5083
838.819	5045
838.956	4949
839.094	4911
839.231	4987
839.369	5109
839.506	5429
839.643	5326
839.781	5178
839.918	5071
840.055	5109
840.193	5155
840.33	5223
840.467	5185
840.604	5231
840.742	5467
840.879	5048
841.016	5147
841.153	5159
841.29	5429
841.427	5364
841.564	5406
841.701	5364
841.838	5341
841.975	5235
842.112	5349
842.249	5208
842.385	5159
842.522	5391
842.659	5280
842.796	5193
842.933	5216
843.069	5208
843.206	5231
843.343	5353
843.479	5315
843.616	5326
843.752	5064
843.889	5071
844.025	5265
844.162	5067
844.298	5181
844.435	5105
844.571	5052
844.708	5280
844.844	5318
844.98	5341
845.117	5341
845.253	5174
845.389	5109
845.525	5201
845.661	5208
845.798	5037
845.934	5166
846.07	5098
846.206	5250
846.342	5334
846.478	5299
846.614	5037
846.75	4984
846.886	4972
847.022	5189
847.158	5071
847.294	5117
847.429	5147
847.565	5071
847.701	5376
847.837	4881
847.972	4908
848.108	4995
848.244	4980
848.379	4824
848.515	4706
848.65	4725
848.786	4752
848.921	4809
849.057	4881
849.192	4927
849.328	4790
849.463	4889
849.598	4839
849.734	4793
849.869	4698
850.004	4634
850.14	4710
850.275	4656
850.41	4580
850.545	4622
850.68	4630
850.815	4626
850.95	4656
851.085	4885
851.22	4752
851.355	4721
851.49	4653
851.625	4744
851.76	4698
851.895	4596
852.03	4580
852.165	4706
852.299	4698
852.434	4828
852.569	4809
852.703	4767
852.838	4881
852.973	4968
853.107	4949
853.242	4778
853.376	4668
853.511	4558
853.645	4603
853.78	4870
853.914	4744
854.048	4702
854.183	4653
854.317	4790
854.451	4862
854.585	4748
854.72	4691
854.854	4786
854.988	4611
855.122	4668
855.256	4527
855.39	4672
855.524	4831
855.658	4790
855.792	4736
855.926	4702
856.06	4809
856.194	4828
856.327	4725
856.461	4668
856.595	4675
856.729	4656
856.862	4793
856.996	4744
857.13	4771
857.263	4759
857.397	4801
857.53	4721
857.664	4797
857.797	4828
857.931	4771
858.064	4759
858.197	4778
858.331	4729
858.464	4641
858.597	4546
858.731	4656
858.864	4702
858.997	4649
859.13	4679
859.263	4721
859.396	4740
859.529	4630
859.662	4592
859.795	4565
859.928	4653
860.061	4782
860.194	4793
860.327	4675
860.46	4607
860.592	4733
860.725	4801
860.858	4729
860.99	4558
861.123	4554
861.256	4523
861.388	4603
861.521	5337
861.653	4546
861.786	4474
861.918	4538
862.05	4558
862.183	4554
862.315	4630
862.447	4694
862.58	4580
862.712	4428
862.844	4409
862.976	4527
863.108	4474
863.24	4892
863.372	4356
863.504	4455
863.636	4440
863.768	4523
863.9	4440
864.032	4443
864.164	4440
864.296	4523
864.428	4577
864.559	4611
864.691	4554
864.823	4569
864.954	4500
865.086	4546
865.217	4504
865.349	4478
865.48	4531
865.612	4489
865.743	4672
865.875	4527
866.006	4489
866.137	4466
866.269	4440
866.4	4428
866.531	4466
866.662	4428
866.793	4394
866.924	4470
867.055	4538
867.186	4462
867.317	4436
867.448	4402
867.579	4402
867.71	4462
867.841	4363
867.972	4478
868.103	4481
868.233	4485
868.364	4531
868.495	4508
868.625	4729
868.756	4782
868.886	4577
869.017	4630
869.147	4759
869.278	4812
869.408	4672
869.539	4683
869.669	4755
869.799	4702
869.929	4809
870.06	4771
870.19	4987
870.32	4980
870.45	4965
870.58	5067
870.71	5102
870.84	5124
870.97	4968
871.1	4942
871.23	5193
871.36	5140
871.489	5079
871.619	5143
871.749	5124
871.879	5113
872.008	5181
872.138	5113
872.267	5025
872.397	4862
872.526	4805
872.656	4725
872.785	4915
872.915	4972
873.044	5045
873.173	4968
873.303	4953
873.432	4987
873.561	4957
873.69	4881
873.819	4896
873.948	4946
874.077	4793
874.206	4809
874.335	4885
874.464	4927
874.593	5064
874.722	5018
874.851	5067
874.979	5071
875.108	4968
875.237	4980
875.365	4908
875.494	4938
875.623	4980
875.751	4839
875.88	4911
876.008	4995
876.136	5056
876.265	5254
876.393	5406
876.521	5242
876.65	5242
876.778	5185
876.906	5124
877.034	5014
877.162	5094
877.29	5048
877.418	5083
877.546	5045
877.674	5079
877.802	5067
877.93	5037
878.058	4961
878.185	4911
878.313	4991
878.441	4987
878.568	4755
878.696	4858
878.824	4984
878.951	5037
879.079	5147
879.206	5315
879.333	5128
879.461	4987
879.588	5060
879.715	5201
879.842	5280
879.97	5079
880.097	4812
880.224	4790
880.351	4835
880.478	4847
880.605	4862
880.732	4885
880.859	5105
880.986	4946
881.112	4946
881.239	4862
881.366	4702
881.493	4656
881.619	4580
881.746	4710
881.872	4694
881.999	4668
882.125	4733
882.252	4793
882.378	4801
882.505	4976
882.631	4809
882.757	4706
882.883	4763
883.01	4721
883.136	4725
883.262	4634
883.388	4691
883.514	4812
883.64	4892
883.766	4786
883.892	4691
884.018	4710
884.143	4866
884.269	5018
884.395	4717
884.52	4641
884.646	4729
884.772	4607
884.897	4615
885.023	4717
885.148	4835
885.274	4885
885.399	4828
885.524	4740
885.65	4710
885.775	4767
885.9	4748
886.025	4900
886.15	4805
886.275	4759
886.4	4687
886.525	4748
886.65	4683
886.775	4759
886.9	4892
887.025	5083
887.149	4850
887.274	4672
887.399	4626
887.523	4596
887.648	4592
887.773	4615
887.897	4797
888.021	4774
888.146	4740
888.27	4824
888.395	4942
888.519	4816
888.643	4805
888.767	4843
888.891	4710
889.015	4603
889.139	4691
889.263	4588
889.387	4767
889.511	4889
889.635	4824
889.759	4672
889.883	4691
890.006	4714
890.13	4831
890.254	4611
890.377	4694
890.501	4573
890.624	4558
890.748	4645
890.871	4527
890.995	4451
891.118	4398
891.241	4535
891.364	4561
891.488	4641
891.611	4550
891.734	4569
891.857	4607
891.98	4584
892.103	4717
892.226	4603
892.349	4569
892.471	4440
892.594	4565
892.717	4569
892.839	4596
892.962	4611
893.085	4736
893.207	4603
893.33	4493
893.452	4542
893.575	4733
893.697	4653
893.819	4820
893.941	4870
894.064	4839
894.186	4599
894.308	4588
894.43	4736
894.552	4816
894.674	4755
894.796	4546
894.918	4599
895.04	4618
895.161	4763
895.283	4653
895.405	4592
895.526	4622
895.648	4744
895.769	4740
895.891	4706
896.012	4782
896.134	4729
896.255	4683
896.376	4630
896.498	4664
896.619	4725
896.74	4592
896.861	4634
896.982	4949
897.103	5029
897.224	4858
897.345	4782
897.466	4622
897.587	4729
897.708	4873
897.828	4805
897.949	4694
898.07	4596
898.19	4660
898.311	4858
898.431	4717
898.552	4801
898.672	4828
898.792	4809
898.913	4774
899.033	4653
899.153	4512
899.273	4455
899.393	4478
899.513	4542
899.633	4550
899.753	4611
899.873	4512
899.993	4588
900.113	4573
900.232	4611
900.352	4531
900.472	4516
900.591	4447
900.711	4497
900.83	4466
900.95	4626
901.069	4714
901.189	4584
901.308	4455
901.427	4310
901.546	4402
901.665	4504
901.784	4561
901.904	4474
902.023	4341
902.141	4230
902.26	4173
902.379	4363
902.498	4291
902.617	4261
902.735	4455
902.854	4383
902.973	4360
903.091	4200
903.21	4223
903.328	4341
903.446	4246
903.565	4246
903.683	4390
903.801	4261
903.919	4413
904.038	4421
904.156	4386
904.274	4485
904.392	4402
904.51	4447
904.627	4493
904.745	4569
904.863	4668
904.981	4417
905.098	4341
905.216	4417
905.334	4428
905.451	4436
905.569	4440
905.686	4535
905.803	4596
905.921	4466
906.038	4561
906.155	4512
906.272	4356
906.389	4470
906.506	4394
906.623	4379
906.74	4360
906.857	4325
906.974	4341
907.091	4672
907.208	4675
907.324	4599
907.441	4497
907.557	4352
907.674	4325
907.79	4325
907.907	4356
908.023	4493
908.139	4508
908.256	4436
908.372	4504
908.488	4428
908.604	4356
908.72	4314
908.836	4409
908.952	4363
909.068	4481
909.184	4580
909.3	4497
909.415	4573
909.531	4596
909.647	4352
909.762	4417
909.878	4318
909.993	4428
910.108	4436
910.224	4432
910.339	4504
910.454	4432
910.57	4398
910.685	4306
910.8	4668
910.915	4599
911.03	4519
911.145	4367
911.259	4325
911.374	4352
911.489	4299
911.604	4234
911.718	4162
911.833	4211
911.947	4147
912.062	4120
912.176	4223
912.291	4265
912.405	4291
912.519	4474
912.633	4519
912.748	4402
912.862	4325
912.976	4234
913.09	4139
913.204	4215
913.318	4280
913.431	4360
913.545	4409
913.659	4447
913.772	4409
913.886	4249
914	4242
914.113	4390
914.226	4447
914.34	4371
914.453	4253
914.566	4447
914.68	4295
914.793	4379
914.906	4181
915.019	4135
915.132	4105
915.245	4166
915.358	4173
915.47	4207
915.583	4306
915.696	4325
915.809	4428
915.921	4459
916.034	4249
916.146	4291
916.259	4253
916.371	4356
916.483	4363
916.595	4272
916.708	4306
916.82	4352
916.932	4337
917.044	4314
917.156	4348
917.268	4242
917.38	4318
917.491	4295
917.603	4344
917.715	4447
917.826	4447
917.938	4394
918.049	4223
918.161	4424
918.272	4554
918.384	4527
918.495	4466
918.606	4291
918.717	4249
918.828	4363
918.939	4402
919.05	4280
919.161	4329
919.272	4200
919.383	4287
919.494	4451
919.604	4637
919.715	4417
919.826	4348
919.936	4390
920.047	4558
920.157	4489
920.267	4698
920.378	4565
920.488	4497
920.598	4729
920.708	4900
920.818	4820
920.928	4771
921.038	4919
921.148	4915
921.258	4637
921.368	4558
921.477	4466
921.587	4512
921.697	4428
921.806	4569
921.916	4436
922.025	4291
922.134	4314
922.244	4238
922.353	4314
922.462	4200
922.571	4162
922.68	4044
922.789	3975
922.898	4010
923.007	4010
923.116	4071
923.224	4078
923.333	4093
923.442	4055
923.55	3953
923.659	4029
923.767	4135
923.876	3998
923.984	4131
924.092	4032
924.201	4067
924.309	4101
924.417	4105
924.525	4025
924.633	4097
924.741	5079
924.849	3892
924.956	4120
925.064	3945
925.172	3930
925.279	3945
925.387	4048
925.494	4071
925.602	4207
925.709	4166
925.816	4097
925.924	4177
926.031	4227
926.138	4185
926.245	4215
926.352	4128
926.459	4215
926.566	4310
926.673	4131
926.779	4112
926.886	4116
926.993	3975
927.099	3949
927.206	3953
927.312	3991
927.419	4071
927.525	4059
927.631	4067
927.737	3949
927.843	3979
927.95	3865
928.056	3983
928.162	3968
928.267	4063
928.373	4679
928.479	4112
928.585	3861
928.69	3994
928.796	4067
928.901	3975
929.007	3842
929.112	4002
929.218	3991
929.323	3964
929.428	3926
929.533	4112
929.638	3918
929.743	3945
929.848	4090
929.953	4010
930.058	3884
930.163	3800
930.267	3857
930.372	4017
930.477	3816
930.581	4078
930.685	3926
930.79	3812
930.894	3873
930.998	3850
931.103	4055
931.207	3728
931.311	3705
931.415	3671
931.519	3545
931.623	3534
