Data from test_V78500241_1949.txt Node
Date: Fri Mar 25 17:02:33 CST 2022
User: usil
Spectrometer: V785-0024
Trigger mode: 0
Integration Time (sec): 4.000000E-1
Scans to average: 1
Nonlinearity correction enabled: false
Boxcar width: 0
Storing dark spectrum: false
XAxis mode: Wavelengths
Number of Pixels in Spectrum: 1024
>>>>>Begin Spectral Data<<<<<
801.071	7902
801.214	7982
801.356	7871
801.499	7852
801.641	7792
801.783	7833
801.926	7963
802.068	7909
802.211	7993
802.353	7959
802.496	7826
802.638	7818
802.78	7822
802.923	7928
803.065	7868
803.208	7803
803.35	8001
803.492	8008
803.635	8107
803.777	8024
803.919	8096
804.061	8427
804.204	8111
804.346	8031
804.488	7982
804.63	8069
804.773	7982
804.915	8107
805.057	8366
805.199	8161
805.341	8149
805.483	8256
805.626	8202
805.768	8111
805.91	8183
806.052	8229
806.194	8100
806.336	8309
806.478	8031
806.62	8005
806.762	8111
806.904	8229
807.046	8400
807.188	8370
807.33	8301
807.472	8366
807.614	8149
807.756	8145
807.898	8020
808.04	7860
808.182	7887
808.324	7841
808.465	7864
808.607	8039
808.749	8100
808.891	8183
809.033	8275
809.174	8195
809.316	8115
809.458	8077
809.6	8024
809.741	7970
809.883	8084
810.025	8039
810.166	8005
810.308	8001
810.45	7997
810.591	7875
810.733	7769
810.875	7639
811.016	7559
811.158	7438
811.299	7502
811.441	7753
811.582	7662
811.724	7556
811.865	7537
812.007	7597
812.148	7567
812.29	7639
812.431	7742
812.573	7902
812.714	7955
812.855	8130
812.997	8161
813.138	8336
813.279	8153
813.421	7963
813.562	7921
813.703	7833
813.845	7704
813.986	7419
814.127	7259
814.268	7190
814.41	7175
814.551	7187
814.692	7244
814.833	7084
814.974	7072
815.115	7110
815.256	6916
815.397	6897
815.539	6943
815.68	6829
815.821	6810
815.962	6795
816.103	6802
816.244	6707
816.385	6627
816.526	6597
816.666	6460
816.807	6311
816.948	6395
817.089	6464
817.23	6445
817.371	6369
817.512	6319
817.653	6399
817.793	6350
817.934	6441
818.075	6486
818.216	6426
818.356	6369
818.497	6254
818.638	6148
818.778	6167
818.919	6163
819.06	6148
819.2	6369
819.341	6338
819.481	6410
819.622	6536
819.762	6730
819.903	6745
820.043	6608
820.184	6620
820.324	6597
820.465	6658
820.605	6722
820.746	6658
820.886	6532
821.026	6620
821.167	6711
821.307	6787
821.447	6757
821.588	6623
821.728	6559
821.868	6452
822.008	6346
822.149	6380
822.289	6308
822.429	6209
822.569	6041
822.709	6110
822.849	5847
822.99	5901
823.13	5882
823.27	5923
823.41	5771
823.55	5756
823.69	5729
823.83	5756
823.97	5623
824.11	5486
824.25	5509
824.389	5562
824.529	5577
824.669	5581
824.809	5615
824.949	5600
825.089	5653
825.228	5520
825.368	5395
825.508	5315
825.648	5376
825.787	5395
825.927	5318
826.067	5318
826.206	5261
826.346	5360
826.485	5440
826.625	5368
826.765	5532
826.904	5482
827.044	5273
827.183	5151
827.323	5067
827.462	5277
827.601	5083
827.741	5128
827.88	5193
828.02	5128
828.159	5220
828.298	5254
828.437	5360
828.577	5220
828.716	5471
828.855	5296
828.994	5166
829.134	5220
829.273	5223
829.412	5147
829.551	5181
829.69	5102
829.829	5284
829.968	5303
830.107	5269
830.246	5265
830.385	5143
830.524	5147
830.663	5075
830.802	5025
830.941	4873
831.08	4847
831.219	4984
831.357	4972
831.496	5121
831.635	4908
831.774	4805
831.913	4824
832.051	4694
832.19	4733
832.329	4801
832.467	4729
832.606	4675
832.744	4664
832.883	4679
833.022	4710
833.16	4778
833.299	4896
833.437	4824
833.576	4877
833.714	4858
833.852	4854
833.991	4896
834.129	4923
834.267	4911
834.406	4896
834.544	4999
834.682	4934
834.821	4923
834.959	5136
835.097	4980
835.235	5105
835.373	5064
835.511	5060
835.65	5014
835.788	4995
835.926	4915
836.064	4843
836.202	4839
836.34	5140
836.478	5223
836.615	5140
836.753	5246
836.891	5277
837.029	5212
837.167	5208
837.305	5159
837.443	5128
837.58	5079
837.718	5258
837.856	5197
837.993	5151
838.131	5185
838.269	5227
838.406	5227
838.544	5166
838.681	5018
838.819	5025
838.956	4885
839.094	4862
839.231	4942
839.369	5079
839.506	5429
839.643	5242
839.781	5010
839.918	4984
840.055	5136
840.193	5060
840.33	5109
840.467	5090
840.604	5159
840.742	5421
840.879	5090
841.016	5075
841.153	5128
841.29	5376
841.427	5349
841.564	5296
841.701	5296
841.838	5250
841.975	5204
842.112	5265
842.249	5109
842.385	5121
842.522	5315
842.659	5170
842.796	5121
842.933	5185
843.069	5140
843.206	5159
843.343	5284
843.479	5231
843.616	5250
843.752	4953
843.889	4980
844.025	5189
844.162	5014
844.298	5170
844.435	5124
844.571	5006
844.708	5197
844.844	5269
844.98	5330
845.117	5288
845.253	5140
845.389	4991
845.525	5128
845.661	5113
845.798	4995
845.934	5079
846.07	5003
846.206	5174
846.342	5292
846.478	5178
846.614	5010
846.75	4953
846.886	4927
847.022	5174
847.158	5003
847.294	5006
847.429	5067
847.565	5022
847.701	5265
847.837	4854
847.972	4786
848.108	4957
848.244	4904
848.379	4774
848.515	4714
848.65	4714
848.786	4744
848.921	4778
849.057	4835
849.192	4892
849.328	4812
849.463	4759
849.598	4790
849.734	4736
849.869	4668
850.004	4584
850.14	4653
850.275	4603
850.41	4523
850.545	4493
850.68	4584
850.815	4577
850.95	4607
851.085	4881
851.22	4736
851.355	4664
851.49	4596
851.625	4588
851.76	4599
851.895	4542
852.03	4577
852.165	4611
852.299	4736
852.434	4767
852.569	4740
852.703	4740
852.838	4854
852.973	4919
853.107	4896
853.242	4740
853.376	4656
853.511	4558
853.645	4584
853.78	4850
853.914	4668
854.048	4687
854.183	4603
854.317	4729
854.451	4831
854.585	4679
854.72	4622
854.854	4752
854.988	4588
855.122	4660
855.256	4512
855.39	4683
855.524	4782
855.658	4736
855.792	4714
855.926	4725
856.06	4748
856.194	4828
856.327	4721
856.461	4649
856.595	4615
856.729	4653
856.862	4771
856.996	4691
857.13	4706
857.263	4771
857.397	4820
857.53	4694
857.664	4782
857.797	4809
857.931	4820
858.064	4733
858.197	4797
858.331	4668
858.464	4653
858.597	4569
858.731	4683
858.864	4660
858.997	4668
859.13	4653
859.263	4653
859.396	4733
859.529	4660
859.662	4637
859.795	4554
859.928	4675
860.061	4767
860.194	4786
860.327	4656
860.46	4599
860.592	4668
860.725	4721
860.858	4786
860.99	4611
861.123	4565
861.256	4569
861.388	4630
861.521	5311
861.653	4538
861.786	4485
861.918	4519
862.05	4542
862.183	4565
862.315	4596
862.447	4664
862.58	4569
862.712	4424
862.844	4352
862.976	4485
863.108	4466
863.24	4801
863.372	4360
863.504	4451
863.636	4470
863.768	4504
863.9	4405
864.032	4360
864.164	4462
864.296	4577
864.428	4596
864.559	4573
864.691	4584
864.823	4527
864.954	4531
865.086	4519
865.217	4516
865.349	4451
865.48	4485
865.612	4497
865.743	4687
865.875	4527
866.006	4455
866.137	4447
866.269	4466
866.4	4485
866.531	4489
866.662	4421
866.793	4436
866.924	4466
867.055	4523
867.186	4508
867.317	4436
867.448	4405
867.579	4455
867.71	4466
867.841	4405
867.972	4481
868.103	4481
868.233	4485
868.364	4504
868.495	4500
868.625	4672
868.756	4733
868.886	4546
869.017	4679
869.147	4778
869.278	4778
869.408	4675
869.539	4694
869.669	4702
869.799	4714
869.929	4809
870.06	4774
870.19	5037
870.32	4957
870.45	4934
870.58	5048
870.71	5083
870.84	5113
870.97	4911
871.1	4877
871.23	5185
871.36	5162
871.489	5060
871.619	5094
871.749	5098
871.879	5136
872.008	5189
872.138	5113
872.267	5014
872.397	4835
872.526	4824
872.656	4752
872.785	4873
872.915	4987
873.044	5014
873.173	4953
873.303	5033
873.432	4999
873.561	5014
873.69	4885
873.819	4927
873.948	4946
874.077	4877
874.206	4793
874.335	4801
874.464	4953
874.593	5113
874.722	4980
874.851	5136
874.979	5052
875.108	5052
875.237	4968
875.365	4984
875.494	4911
875.623	5006
875.751	4839
875.88	4934
876.008	4991
876.136	5086
876.265	5181
876.393	5353
876.521	5258
876.65	5258
876.778	5193
876.906	5086
877.034	5086
877.162	5071
877.29	5064
877.418	5109
877.546	5052
877.674	5064
877.802	5048
877.93	5003
878.058	4957
878.185	4870
878.313	4991
878.441	4984
878.568	4816
878.696	4892
878.824	4972
878.951	5018
879.079	5124
879.206	5315
879.333	5147
879.461	5029
879.588	5025
879.715	5117
879.842	5258
879.97	5025
880.097	4801
880.224	4771
880.351	4771
880.478	4839
880.605	4854
880.732	4862
880.859	5174
880.986	4911
881.112	4911
881.239	4790
881.366	4691
881.493	4656
881.619	4622
881.746	4653
881.872	4698
881.999	4675
882.125	4702
882.252	4835
882.378	4839
882.505	5014
882.631	4809
882.757	4694
882.883	4740
883.01	4706
883.136	4679
883.262	4630
883.388	4653
883.514	4835
883.64	4930
883.766	4809
883.892	4714
884.018	4733
884.143	4904
884.269	5052
884.395	4729
884.52	4691
884.646	4641
884.772	4588
884.897	4607
885.023	4725
885.148	4790
885.274	4858
885.399	4847
885.524	4725
885.65	4774
885.775	4782
885.9	4714
886.025	4889
886.15	4850
886.275	4755
886.4	4653
886.525	4725
886.65	4698
886.775	4759
886.9	4953
887.025	5018
887.149	4881
887.274	4641
887.399	4641
887.523	4675
887.648	4596
887.773	4577
887.897	4797
888.021	4797
888.146	4755
888.27	4835
888.395	4919
888.519	4862
888.643	4812
888.767	4881
888.891	4698
889.015	4660
889.139	4706
889.263	4634
889.387	4820
889.511	4892
889.635	4839
889.759	4664
889.883	4668
890.006	4786
890.13	4862
890.254	4675
890.377	4683
890.501	4588
890.624	4538
890.748	4721
890.871	4550
890.995	4474
891.118	4421
891.241	4561
891.364	4599
891.488	4664
891.611	4550
891.734	4535
891.857	4634
891.98	4535
892.103	4714
892.226	4611
892.349	4516
892.471	4421
892.594	4607
892.717	4626
892.839	4580
892.962	4634
893.085	4691
893.207	4580
893.33	4455
893.452	4542
893.575	4706
893.697	4603
893.819	4774
893.941	4862
894.064	4805
894.186	4573
894.308	4573
894.43	4831
894.552	4854
894.674	4805
894.796	4519
894.918	4653
895.04	4611
895.161	4782
895.283	4702
895.405	4603
895.526	4645
895.648	4698
895.769	4702
895.891	4733
896.012	4721
896.134	4694
896.255	4706
896.376	4603
896.498	4649
896.619	4733
896.74	4645
896.861	4687
896.982	4934
897.103	5083
897.224	4801
897.345	4771
897.466	4656
897.587	4736
897.708	4862
897.828	4793
897.949	4679
898.07	4558
898.19	4622
898.311	4892
898.431	4694
898.552	4771
898.672	4862
898.792	4850
898.913	4736
899.033	4660
899.153	4497
899.273	4421
899.393	4516
899.513	4535
899.633	4527
899.753	4596
899.873	4493
899.993	4653
900.113	4584
900.232	4656
900.352	4519
900.472	4470
900.591	4447
900.711	4512
900.83	4455
900.95	4656
901.069	4710
901.189	4535
901.308	4405
901.427	4348
901.546	4436
901.665	4500
901.784	4512
901.904	4424
902.023	4329
902.141	4200
902.26	4185
902.379	4310
902.498	4303
902.617	4238
902.735	4398
902.854	4443
902.973	4398
903.091	4272
903.21	4230
903.328	4284
903.446	4299
903.565	4261
903.683	4348
903.801	4268
903.919	4386
904.038	4451
904.156	4333
904.274	4405
904.392	4398
904.51	4436
904.627	4462
904.745	4554
904.863	4634
904.981	4398
905.098	4299
905.216	4390
905.334	4462
905.451	4428
905.569	4428
905.686	4569
905.803	4573
905.921	4398
906.038	4542
906.155	4421
906.272	4417
906.389	4489
906.506	4417
906.623	4390
906.74	4443
906.857	4337
906.974	4424
907.091	4550
907.208	4656
907.324	4599
907.441	4512
907.557	4398
907.674	4371
907.79	4371
907.907	4440
908.023	4493
908.139	4455
908.256	4489
908.372	4462
908.488	4459
908.604	4348
908.72	4375
908.836	4344
908.952	4379
909.068	4451
909.184	4588
909.3	4497
909.415	4565
909.531	4550
909.647	4375
909.762	4360
909.878	4337
909.993	4424
910.108	4394
910.224	4398
910.339	4459
910.454	4405
910.57	4352
910.685	4333
910.8	4702
910.915	4607
911.03	4485
911.145	4318
911.259	4337
911.374	4367
911.489	4314
911.604	4272
911.718	4162
911.833	4223
911.947	4063
912.062	4055
912.176	4230
912.291	4234
912.405	4253
912.519	4516
912.633	4474
912.748	4367
912.862	4299
912.976	4234
913.09	4128
913.204	4181
913.318	4249
913.431	4356
913.545	4383
913.659	4493
913.772	4367
913.886	4238
914	4215
914.113	4333
914.226	4481
914.34	4409
914.453	4246
914.566	4443
914.68	4310
914.793	4356
914.906	4173
915.019	4177
915.132	4124
915.245	4211
915.358	4238
915.47	4227
915.583	4299
915.696	4287
915.809	4394
915.921	4421
916.034	4325
916.146	4234
916.259	4223
916.371	4379
916.483	4360
916.595	4242
916.708	4295
916.82	4322
916.932	4295
917.044	4329
917.156	4367
917.268	4211
917.38	4291
917.491	4215
917.603	4371
917.715	4409
917.826	4451
917.938	4341
918.049	4249
918.161	4352
918.272	4550
918.384	4558
918.495	4440
918.606	4291
918.717	4234
918.828	4341
918.939	4409
919.05	4295
919.161	4303
919.272	4128
919.383	4265
919.494	4398
919.604	4634
919.715	4428
919.826	4341
919.936	4432
920.047	4493
920.157	4443
920.267	4729
920.378	4508
920.488	4481
920.598	4755
920.708	4934
920.818	4748
920.928	4771
921.038	4991
921.148	4938
921.258	4668
921.368	4615
921.477	4531
921.587	4443
921.697	4405
921.806	4580
921.916	4462
922.025	4272
922.134	4295
922.244	4188
922.353	4424
922.462	4188
922.571	4124
922.68	4044
922.789	4021
922.898	4063
923.007	4044
923.116	4135
923.224	4082
923.333	4120
923.442	4006
923.55	4002
923.659	4051
923.767	4128
923.876	4051
923.984	4135
924.092	4002
924.201	4082
924.309	4120
924.417	4173
924.525	4093
924.633	4154
924.741	5109
924.849	3960
924.956	4162
925.064	3998
925.172	3915
925.279	3930
925.387	4090
925.494	4082
925.602	4219
925.709	4200
925.816	4097
925.924	4177
926.031	4306
926.138	4211
926.245	4272
926.352	4116
926.459	4299
926.566	4337
926.673	4219
926.779	4120
926.886	4162
926.993	4017
927.099	4013
927.206	3953
927.312	3960
927.419	4101
927.525	4105
927.631	4147
927.737	4025
927.843	3949
927.95	3892
928.056	3983
928.162	4021
928.267	4071
928.373	4664
928.479	4158
928.585	3907
928.69	4063
928.796	4116
928.901	4032
929.007	3907
929.112	4067
929.218	4036
929.323	4021
929.428	3972
929.533	4192
929.638	3903
929.743	4010
929.848	4120
929.953	4025
930.058	3991
930.163	3819
930.267	3865
930.372	4036
930.477	3888
930.581	4135
930.685	4002
930.79	3857
930.894	3937
930.998	3911
931.103	4032
931.207	3774
931.311	3747
931.415	3682
931.519	3572
931.623	3576
