Data from test_V78500241_2273.txt Node
Date: Fri Mar 25 17:04:48 CST 2022
User: usil
Spectrometer: V785-0024
Trigger mode: 0
Integration Time (sec): 4.000000E-1
Scans to average: 1
Nonlinearity correction enabled: false
Boxcar width: 0
Storing dark spectrum: false
XAxis mode: Wavelengths
Number of Pixels in Spectrum: 1024
>>>>>Begin Spectral Data<<<<<
801.071	8012
801.214	8012
801.356	7879
801.499	7833
801.641	7811
801.783	7875
801.926	7951
802.068	7909
802.211	7989
802.353	8062
802.496	7871
802.638	7841
802.78	7814
802.923	7944
803.065	7864
803.208	7875
803.35	8005
803.492	8088
803.635	8134
803.777	8069
803.919	8153
804.061	8480
804.204	8161
804.346	8107
804.488	7913
804.63	8103
804.773	8073
804.915	8153
805.057	8256
805.199	8145
805.341	8206
805.483	8271
805.626	8214
805.768	8103
805.91	8225
806.052	8210
806.194	8138
806.336	8298
806.478	8123
806.62	8001
806.762	8153
806.904	8233
807.046	8389
807.188	8271
807.33	8317
807.472	8351
807.614	8088
807.756	8149
807.898	8008
808.04	7879
808.182	7871
808.324	7906
808.465	7906
808.607	8046
808.749	8123
808.891	8153
809.033	8305
809.174	8233
809.316	8077
809.458	8054
809.6	7970
809.741	8069
809.883	8020
810.025	8100
810.166	8046
810.308	7989
810.45	8058
810.591	7871
810.733	7753
810.875	7731
811.016	7559
811.158	7457
811.299	7578
811.441	7731
811.582	7658
811.724	7559
811.865	7510
812.007	7521
812.148	7540
812.29	7605
812.431	7753
812.573	7925
812.714	7947
812.855	8069
812.997	8183
813.138	8290
813.279	8180
813.421	8035
813.562	7986
813.703	7814
813.845	7738
813.986	7362
814.127	7240
814.268	7270
814.41	7266
814.551	7114
814.692	7221
814.833	7027
814.974	7069
815.115	7110
815.256	7000
815.397	6985
815.539	6958
815.68	6802
815.821	6764
815.962	6863
816.103	6814
816.244	6639
816.385	6593
816.526	6612
816.666	6536
816.807	6311
816.948	6467
817.089	6445
817.23	6426
817.371	6380
817.512	6422
817.653	6384
817.793	6327
817.934	6426
818.075	6467
818.216	6452
818.356	6445
818.497	6197
818.638	6209
818.778	6152
818.919	6114
819.06	6102
819.2	6350
819.341	6296
819.481	6380
819.622	6555
819.762	6715
819.903	6722
820.043	6612
820.184	6559
820.324	6559
820.465	6639
820.605	6734
820.746	6589
820.886	6494
821.026	6700
821.167	6703
821.307	6795
821.447	6795
821.588	6669
821.728	6616
821.868	6479
822.008	6357
822.149	6384
822.289	6342
822.429	6171
822.569	6068
822.709	6106
822.849	5977
822.99	5916
823.13	5931
823.27	5901
823.41	5798
823.55	5779
823.69	5756
823.83	5748
823.97	5642
824.11	5490
824.25	5490
824.389	5596
824.529	5589
824.669	5532
824.809	5653
824.949	5680
825.089	5596
825.228	5623
825.368	5372
825.508	5330
825.648	5364
825.787	5391
825.927	5391
826.067	5280
826.206	5326
826.346	5349
826.485	5315
826.625	5402
826.765	5543
826.904	5463
827.044	5250
827.183	5178
827.323	5166
827.462	5250
827.601	5170
827.741	5201
827.88	5185
828.02	5060
828.159	5258
828.298	5261
828.437	5330
828.577	5277
828.716	5463
828.855	5353
828.994	5166
829.134	5121
829.273	5197
829.412	5090
829.551	5113
829.69	5174
829.829	5227
829.968	5334
830.107	5220
830.246	5269
830.385	5189
830.524	5132
830.663	5064
830.802	4987
830.941	4870
831.08	4915
831.219	4961
831.357	4934
831.496	5170
831.635	4957
831.774	4870
831.913	4839
832.051	4763
832.19	4767
832.329	4786
832.467	4653
832.606	4656
832.744	4733
832.883	4771
833.022	4698
833.16	4774
833.299	4771
833.437	4839
833.576	4816
833.714	4911
833.852	4885
833.991	4877
834.129	4961
834.267	4953
834.406	4904
834.544	4946
834.682	4976
834.821	4999
834.959	5162
835.097	5041
835.235	5140
835.373	5090
835.511	5105
835.65	5048
835.788	5010
835.926	4885
836.064	4904
836.202	4930
836.34	5124
836.478	5223
836.615	5071
836.753	5239
836.891	5246
837.029	5242
837.167	5242
837.305	5170
837.443	5170
837.58	5075
837.718	5258
837.856	5185
837.993	5102
838.131	5242
838.269	5193
838.406	5231
838.544	5208
838.681	5014
838.819	4961
838.956	4873
839.094	4908
839.231	5003
839.369	5105
839.506	5395
839.643	5223
839.781	5041
839.918	5010
840.055	5124
840.193	5083
840.33	5098
840.467	5159
840.604	5185
840.742	5452
840.879	5071
841.016	5094
841.153	5086
841.29	5357
841.427	5273
841.564	5330
841.701	5299
841.838	5258
841.975	5258
842.112	5242
842.249	5147
842.385	5113
842.522	5337
842.659	5113
842.796	5124
842.933	5181
843.069	5162
843.206	5147
843.343	5273
843.479	5216
843.616	5261
843.752	5025
843.889	5010
844.025	5201
844.162	5048
844.298	5231
844.435	5071
844.571	5079
844.708	5231
844.844	5315
844.98	5345
845.117	5318
845.253	5162
845.389	5094
845.525	5162
845.661	5162
845.798	5025
845.934	5121
846.07	5041
846.206	5216
846.342	5231
846.478	5136
846.614	5006
846.75	4972
846.886	4862
847.022	5166
847.158	5022
847.294	5083
847.429	5083
847.565	5003
847.701	5334
847.837	4835
847.972	4774
848.108	4980
848.244	4968
848.379	4752
848.515	4687
848.65	4729
848.786	4736
848.921	4793
849.057	4843
849.192	4908
849.328	4850
849.463	4824
849.598	4763
849.734	4782
849.869	4637
850.004	4687
850.14	4702
850.275	4592
850.41	4516
850.545	4569
850.68	4622
850.815	4622
850.95	4596
851.085	4854
851.22	4755
851.355	4622
851.49	4615
851.625	4611
851.76	4687
851.895	4546
852.03	4554
852.165	4672
852.299	4721
852.434	4790
852.569	4740
852.703	4759
852.838	4866
852.973	4915
853.107	4885
853.242	4774
853.376	4710
853.511	4527
853.645	4561
853.78	4793
853.914	4668
854.048	4714
854.183	4618
854.317	4653
854.451	4847
854.585	4717
854.72	4645
854.854	4725
854.988	4618
855.122	4641
855.256	4493
855.39	4679
855.524	4782
855.658	4733
855.792	4702
855.926	4752
856.06	4736
856.194	4805
856.327	4672
856.461	4637
856.595	4588
856.729	4580
856.862	4729
856.996	4660
857.13	4725
857.263	4778
857.397	4812
857.53	4660
857.664	4721
857.797	4759
857.931	4782
858.064	4675
858.197	4725
858.331	4649
858.464	4596
858.597	4519
858.731	4675
858.864	4664
858.997	4561
859.13	4630
859.263	4653
859.396	4679
859.529	4558
859.662	4558
859.795	4527
859.928	4641
860.061	4759
860.194	4759
860.327	4592
860.46	4577
860.592	4702
860.725	4706
860.858	4691
860.99	4565
861.123	4512
861.256	4523
861.388	4550
861.521	5227
861.653	4500
861.786	4417
861.918	4413
862.05	4489
862.183	4531
862.315	4588
862.447	4645
862.58	4558
862.712	4409
862.844	4360
862.976	4504
863.108	4478
863.24	4862
863.372	4299
863.504	4466
863.636	4352
863.768	4481
863.9	4451
864.032	4383
864.164	4424
864.296	4440
864.428	4554
864.559	4573
864.691	4531
864.823	4523
864.954	4500
865.086	4497
865.217	4436
865.349	4394
865.48	4421
865.612	4493
865.743	4607
865.875	4470
866.006	4424
866.137	4489
866.269	4436
866.4	4459
866.531	4424
866.662	4394
866.793	4390
866.924	4417
867.055	4470
867.186	4459
867.317	4436
867.448	4394
867.579	4390
867.71	4375
867.841	4367
867.972	4409
868.103	4523
868.233	4409
868.364	4451
868.495	4443
868.625	4687
868.756	4759
868.886	4538
869.017	4577
869.147	4778
869.278	4782
869.408	4656
869.539	4630
869.669	4717
869.799	4637
869.929	4752
870.06	4710
870.19	4938
870.32	4938
870.45	4934
870.58	4999
870.71	5102
870.84	5086
870.97	4919
871.1	4938
871.23	5132
871.36	5083
871.489	5014
871.619	5105
871.749	5079
871.879	5102
872.008	5178
872.138	5067
872.267	4965
872.397	4889
872.526	4839
872.656	4748
872.785	4774
872.915	4972
873.044	4987
873.173	4930
873.303	4965
873.432	4965
873.561	4961
873.69	4919
873.819	4835
873.948	4911
874.077	4816
874.206	4763
874.335	4767
874.464	4930
874.593	5071
874.722	4968
874.851	5086
874.979	5045
875.108	5041
875.237	4915
875.365	4900
875.494	4908
875.623	4938
875.751	4839
875.88	4850
876.008	5010
876.136	5037
876.265	5216
876.393	5334
876.521	5239
876.65	5261
876.778	5113
876.906	5079
877.034	4999
877.162	5022
877.29	4927
877.418	5086
877.546	5060
877.674	5052
877.802	5048
877.93	5010
878.058	4930
878.185	4881
878.313	4999
878.441	4953
878.568	4771
878.696	4835
878.824	4934
878.951	4987
879.079	5124
879.206	5258
879.333	5124
879.461	4961
879.588	5037
879.715	5124
879.842	5242
879.97	4953
880.097	4778
880.224	4748
880.351	4839
880.478	4850
880.605	4778
880.732	4740
880.859	5102
880.986	4908
881.112	4877
881.239	4759
881.366	4599
881.493	4630
881.619	4645
881.746	4634
881.872	4656
881.999	4630
882.125	4683
882.252	4782
882.378	4778
882.505	4938
882.631	4797
882.757	4694
882.883	4771
883.01	4687
883.136	4645
883.262	4637
883.388	4603
883.514	4782
883.64	4839
883.766	4797
883.892	4660
884.018	4725
884.143	4919
884.269	4984
884.395	4702
884.52	4626
884.646	4607
884.772	4512
884.897	4558
885.023	4660
885.148	4790
885.274	4930
885.399	4824
885.524	4702
885.65	4675
885.775	4755
885.9	4691
886.025	4904
886.15	4755
886.275	4725
886.4	4656
886.525	4736
886.65	4691
886.775	4626
886.9	4885
887.025	5029
887.149	4774
887.274	4634
887.399	4622
887.523	4603
887.648	4577
887.773	4577
887.897	4767
888.021	4812
888.146	4717
888.27	4797
888.395	4854
888.519	4824
888.643	4793
888.767	4812
888.891	4683
889.015	4607
889.139	4599
889.263	4573
889.387	4725
889.511	4877
889.635	4858
889.759	4649
889.883	4611
890.006	4721
890.13	4847
890.254	4599
890.377	4656
890.501	4531
890.624	4538
890.748	4611
890.871	4508
890.995	4447
891.118	4375
891.241	4497
891.364	4535
891.488	4615
891.611	4470
891.734	4489
891.857	4577
891.98	4565
892.103	4641
892.226	4565
892.349	4512
892.471	4394
892.594	4561
892.717	4618
892.839	4554
892.962	4577
893.085	4637
893.207	4653
893.33	4459
893.452	4573
893.575	4656
893.697	4588
893.819	4816
893.941	4843
894.064	4763
894.186	4577
894.308	4538
894.43	4717
894.552	4816
894.674	4748
894.796	4584
894.918	4577
895.04	4592
895.161	4714
895.283	4649
895.405	4573
895.526	4592
895.648	4668
895.769	4683
895.891	4672
896.012	4717
896.134	4725
896.255	4645
896.376	4656
896.498	4641
896.619	4637
896.74	4588
896.861	4649
896.982	4881
897.103	5022
897.224	4847
897.345	4698
897.466	4702
897.587	4733
897.708	4854
897.828	4763
897.949	4645
898.07	4558
898.19	4630
898.311	4790
898.431	4668
898.552	4702
898.672	4847
898.792	4767
898.913	4744
899.033	4634
899.153	4516
899.273	4428
899.393	4485
899.513	4516
899.633	4523
899.753	4592
899.873	4493
899.993	4561
900.113	4538
900.232	4645
900.352	4592
900.472	4504
900.591	4386
900.711	4493
900.83	4432
900.95	4611
901.069	4679
901.189	4497
901.308	4398
901.427	4299
901.546	4402
901.665	4440
901.784	4558
901.904	4409
902.023	4318
902.141	4192
902.26	4166
902.379	4303
902.498	4207
902.617	4246
902.735	4371
902.854	4379
902.973	4367
903.091	4211
903.21	4219
903.328	4280
903.446	4238
903.565	4207
903.683	4310
903.801	4287
903.919	4405
904.038	4432
904.156	4314
904.274	4379
904.392	4360
904.51	4398
904.627	4432
904.745	4588
904.863	4626
904.981	4386
905.098	4352
905.216	4383
905.334	4409
905.451	4440
905.569	4432
905.686	4565
905.803	4565
905.921	4413
906.038	4504
906.155	4478
906.272	4409
906.389	4440
906.506	4325
906.623	4367
906.74	4390
906.857	4310
906.974	4333
907.091	4573
907.208	4664
907.324	4558
907.441	4485
907.557	4329
907.674	4318
907.79	4333
907.907	4348
908.023	4466
908.139	4447
908.256	4402
908.372	4474
908.488	4451
908.604	4409
908.72	4325
908.836	4375
908.952	4367
909.068	4432
909.184	4558
909.3	4451
909.415	4592
909.531	4538
909.647	4367
909.762	4360
909.878	4341
909.993	4379
910.108	4386
910.224	4432
910.339	4497
910.454	4413
910.57	4333
910.685	4268
910.8	4664
910.915	4580
911.03	4527
911.145	4375
911.259	4371
911.374	4398
911.489	4276
911.604	4284
911.718	4230
911.833	4215
911.947	4093
912.062	4021
912.176	4196
912.291	4173
912.405	4257
912.519	4466
912.633	4478
912.748	4371
912.862	4230
912.976	4246
913.09	4055
913.204	4181
913.318	4242
913.431	4371
913.545	4360
913.659	4459
913.772	4367
913.886	4204
914	4204
914.113	4386
914.226	4451
914.34	4417
914.453	4230
914.566	4417
914.68	4337
914.793	4329
914.906	4192
915.019	4105
915.132	4086
915.245	4181
915.358	4253
915.47	4242
915.583	4299
915.696	4318
915.809	4417
915.921	4462
916.034	4276
916.146	4249
916.259	4192
916.371	4409
916.483	4356
916.595	4242
916.708	4310
916.82	4356
916.932	4337
917.044	4310
917.156	4344
917.268	4219
917.38	4295
917.491	4280
917.603	4325
917.715	4394
917.826	4447
917.938	4299
918.049	4227
918.161	4371
918.272	4523
918.384	4527
918.495	4447
918.606	4314
918.717	4246
918.828	4402
918.939	4341
919.05	4246
919.161	4322
919.272	4143
919.383	4230
919.494	4432
919.604	4599
919.715	4383
919.826	4344
919.936	4375
920.047	4550
920.157	4485
920.267	4679
920.378	4558
920.488	4485
920.598	4729
920.708	4911
920.818	4763
920.928	4714
921.038	4946
921.148	4881
921.258	4599
921.368	4573
921.477	4440
921.587	4459
921.697	4371
921.806	4558
921.916	4424
922.025	4291
922.134	4268
922.244	4192
922.353	4344
922.462	4158
922.571	4128
922.68	4036
922.789	3949
922.898	4032
923.007	3975
923.116	4032
923.224	4010
923.333	4078
923.442	3987
923.55	3968
923.659	4029
923.767	4044
923.876	4025
923.984	4101
924.092	3983
924.201	4044
924.309	4059
924.417	4040
924.525	4059
924.633	4086
924.741	4972
924.849	3918
924.956	4173
925.064	3941
925.172	3884
925.279	3953
925.387	4029
925.494	4090
925.602	4204
925.709	4169
925.816	3987
925.924	4131
926.031	4230
926.138	4158
926.245	4200
926.352	4090
926.459	4238
926.566	4272
926.673	4169
926.779	4055
926.886	4105
926.993	3964
927.099	3956
927.206	3937
927.312	3975
927.419	4036
927.525	4032
927.631	4074
927.737	3918
927.843	3934
927.95	3850
928.056	3953
928.162	4017
928.267	4074
928.373	4630
928.479	4090
928.585	3854
928.69	4021
928.796	4044
928.901	3934
929.007	3831
929.112	4021
929.218	3998
929.323	3911
929.428	3941
929.533	4074
929.638	3911
929.743	3949
929.848	4055
929.953	3972
930.058	3918
930.163	3774
930.267	3838
930.372	3987
930.477	3804
930.581	4078
930.685	3945
930.79	3816
930.894	3876
930.998	3846
931.103	4032
931.207	3705
931.311	3701
931.415	3656
931.519	3507
931.623	3507
