Data from test_V78500241_463.txt Node
Date: Fri Mar 25 16:52:13 CST 2022
User: usil
Spectrometer: V785-0024
Trigger mode: 0
Integration Time (sec): 4.000000E-1
Scans to average: 1
Nonlinearity correction enabled: false
Boxcar width: 0
Storing dark spectrum: false
XAxis mode: Wavelengths
Number of Pixels in Spectrum: 1024
>>>>>Begin Spectral Data<<<<<
801.071	8115
801.214	8001
801.356	7921
801.499	7906
801.641	7887
801.783	7860
801.926	8035
802.068	8077
802.211	8081
802.353	8084
802.496	7871
802.638	7951
802.78	7955
802.923	7982
803.065	7879
803.208	7951
803.35	8012
803.492	8062
803.635	8107
803.777	8084
803.919	8084
804.061	8370
804.204	8126
804.346	8043
804.488	7978
804.63	8065
804.773	8001
804.915	8172
805.057	8259
805.199	8237
805.341	8199
805.483	8244
805.626	8240
805.768	8054
805.91	8138
806.052	8161
806.194	8164
806.336	8248
806.478	8092
806.62	8039
806.762	8149
806.904	8374
807.046	8412
807.188	8332
807.33	8256
807.472	8313
807.614	8240
807.756	8138
807.898	7970
808.04	7898
808.182	7932
808.324	7967
808.465	8035
808.607	8065
808.749	8103
808.891	8130
809.033	8259
809.174	8244
809.316	8046
809.458	8092
809.6	8039
809.741	8035
809.883	8092
810.025	8111
810.166	8077
810.308	8024
810.45	7974
810.591	7830
810.733	7776
810.875	7651
811.016	7529
811.158	7548
811.299	7670
811.441	7731
811.582	7734
811.724	7590
811.865	7613
812.007	7670
812.148	7548
812.29	7708
812.431	7795
812.573	7909
812.714	8031
812.855	8199
812.997	8225
813.138	8381
813.279	8305
813.421	8176
813.562	8142
813.703	7944
813.845	7731
813.986	7556
814.127	7388
814.268	7316
814.41	7285
814.551	7213
814.692	7244
814.833	7084
814.974	7187
815.115	7164
815.256	6966
815.397	6913
815.539	6951
815.68	6863
815.821	6848
815.962	6954
816.103	6897
816.244	6753
816.385	6616
816.526	6673
816.666	6513
816.807	6311
816.948	6452
817.089	6483
817.23	6395
817.371	6422
817.512	6414
817.653	6361
817.793	6331
817.934	6441
818.075	6486
818.216	6513
818.356	6365
818.497	6247
818.638	6167
818.778	6178
818.919	6098
819.06	6171
819.2	6350
819.341	6285
819.481	6407
819.622	6585
819.762	6741
819.903	6734
820.043	6612
820.184	6608
820.324	6612
820.465	6764
820.605	6677
820.746	6650
820.886	6528
821.026	6711
821.167	6730
821.307	6787
821.447	6722
821.588	6673
821.728	6582
821.868	6490
822.008	6319
822.149	6388
822.289	6369
822.429	6171
822.569	6091
822.709	6091
822.849	5939
822.99	5950
823.13	5931
823.27	5916
823.41	5798
823.55	5786
823.69	5775
823.83	5786
823.97	5710
824.11	5566
824.25	5535
824.389	5520
824.529	5585
824.669	5535
824.809	5653
824.949	5672
825.089	5600
825.228	5543
825.368	5368
825.508	5357
825.648	5345
825.787	5372
825.927	5360
826.067	5318
826.206	5315
826.346	5398
826.485	5436
826.625	5448
826.765	5585
826.904	5501
827.044	5258
827.183	5242
827.323	5181
827.462	5239
827.601	5140
827.741	5235
827.88	5201
828.02	5113
828.159	5261
828.298	5250
828.437	5376
828.577	5273
828.716	5505
828.855	5326
828.994	5166
829.134	5197
829.273	5235
829.412	5162
829.551	5185
829.69	5193
829.829	5296
829.968	5383
830.107	5246
830.246	5330
830.385	5208
830.524	5102
830.663	5102
830.802	4984
830.941	4896
831.08	4870
831.219	5033
831.357	5025
831.496	5140
831.635	4946
831.774	4858
831.913	4862
832.051	4714
832.19	4824
832.329	4877
832.467	4702
832.606	4683
832.744	4744
832.883	4759
833.022	4752
833.16	4790
833.299	4870
833.437	4854
833.576	4839
833.714	4900
833.852	4930
833.991	4923
834.129	4965
834.267	4953
834.406	4858
834.544	4987
834.682	5025
834.821	4999
834.959	5136
835.097	4991
835.235	5197
835.373	5102
835.511	5105
835.65	5090
835.788	5048
835.926	4953
836.064	4866
836.202	5014
836.34	5159
836.478	5296
836.615	5098
836.753	5242
836.891	5250
837.029	5239
837.167	5193
837.305	5155
837.443	5121
837.58	5109
837.718	5223
837.856	5193
837.993	5132
838.131	5292
838.269	5261
838.406	5235
838.544	5212
838.681	5029
838.819	5018
838.956	4896
839.094	4889
839.231	4957
839.369	5109
839.506	5440
839.643	5296
839.781	5098
839.918	5071
840.055	5117
840.193	5124
840.33	5132
840.467	5113
840.604	5231
840.742	5387
840.879	5105
841.016	5102
841.153	5155
841.29	5345
841.427	5383
841.564	5341
841.701	5353
841.838	5258
841.975	5204
842.112	5265
842.249	5140
842.385	5155
842.522	5337
842.659	5174
842.796	5204
842.933	5189
843.069	5147
843.206	5197
843.343	5235
843.479	5284
843.616	5318
843.752	5037
843.889	5033
844.025	5193
844.162	5025
844.298	5227
844.435	5064
844.571	5041
844.708	5162
844.844	5284
844.98	5360
845.117	5261
845.253	5178
845.389	5105
845.525	5162
845.661	5162
845.798	5086
845.934	5166
846.07	5113
846.206	5193
846.342	5299
846.478	5204
846.614	5052
846.75	5045
846.886	4961
847.022	5174
847.158	5010
847.294	5075
847.429	5086
847.565	5090
847.701	5379
847.837	4873
847.972	4831
848.108	4987
848.244	4946
848.379	4828
848.515	4733
848.65	4721
848.786	4782
848.921	4774
849.057	4934
849.192	4900
849.328	4831
849.463	4847
849.598	4755
849.734	4763
849.869	4679
850.004	4660
850.14	4668
850.275	4626
850.41	4493
850.545	4580
850.68	4649
850.815	4615
850.95	4634
851.085	4824
851.22	4714
851.355	4649
851.49	4637
851.625	4618
851.76	4656
851.895	4611
852.03	4565
852.165	4656
852.299	4748
852.434	4793
852.569	4771
852.703	4786
852.838	4797
852.973	4908
853.107	4927
853.242	4725
853.376	4694
853.511	4504
853.645	4607
853.78	4771
853.914	4721
854.048	4691
854.183	4660
854.317	4687
854.451	4839
854.585	4664
854.72	4698
854.854	4752
854.988	4550
855.122	4626
855.256	4538
855.39	4672
855.524	4793
855.658	4748
855.792	4706
855.926	4717
856.06	4717
856.194	4786
856.327	4683
856.461	4622
856.595	4641
856.729	4618
856.862	4717
856.996	4698
857.13	4759
857.263	4759
857.397	4786
857.53	4645
857.664	4736
857.797	4763
857.931	4771
858.064	4714
858.197	4736
858.331	4660
858.464	4618
858.597	4538
858.731	4698
858.864	4634
858.997	4596
859.13	4672
859.263	4710
859.396	4664
859.529	4599
859.662	4599
859.795	4584
859.928	4656
860.061	4717
860.194	4755
860.327	4637
860.46	4588
860.592	4767
860.725	4721
860.858	4721
860.99	4599
861.123	4588
861.256	4519
861.388	4599
861.521	5334
861.653	4493
861.786	4451
861.918	4451
862.05	4599
862.183	4565
862.315	4596
862.447	4630
862.58	4592
862.712	4356
862.844	4325
862.976	4527
863.108	4500
863.24	4733
863.372	4333
863.504	4451
863.636	4390
863.768	4485
863.9	4428
864.032	4375
864.164	4417
864.296	4485
864.428	4588
864.559	4550
864.691	4561
864.823	4569
864.954	4481
865.086	4504
865.217	4436
865.349	4413
865.48	4462
865.612	4523
865.743	4630
865.875	4436
866.006	4432
866.137	4489
866.269	4432
866.4	4481
866.531	4462
866.662	4413
866.793	4443
866.924	4405
867.055	4512
867.186	4455
867.317	4440
867.448	4405
867.579	4424
867.71	4409
867.841	4341
867.972	4443
868.103	4455
868.233	4424
868.364	4504
868.495	4466
868.625	4645
868.756	4782
868.886	4569
869.017	4603
869.147	4786
869.278	4767
869.408	4679
869.539	4645
869.669	4668
869.799	4618
869.929	4721
870.06	4733
870.19	4961
870.32	4965
870.45	4946
870.58	5006
870.71	5090
870.84	5128
870.97	5006
871.1	4858
871.23	5159
871.36	5098
871.489	5056
871.619	5102
871.749	5132
871.879	5083
872.008	5223
872.138	5067
872.267	4991
872.397	4862
872.526	4763
872.656	4729
872.785	4847
872.915	4934
873.044	4999
873.173	4965
873.303	4957
873.432	4946
873.561	4984
873.69	4892
873.819	4896
873.948	4904
874.077	4790
874.206	4736
874.335	4801
874.464	4957
874.593	5064
874.722	4965
874.851	5113
874.979	5067
875.108	5029
875.237	4934
875.365	4873
875.494	4930
875.623	4934
875.751	4824
875.88	4870
876.008	4995
876.136	5048
876.265	5204
876.393	5330
876.521	5322
876.65	5212
876.778	5128
876.906	5124
877.034	4995
877.162	5037
877.29	4957
877.418	5117
877.546	5045
877.674	5052
877.802	5010
877.93	5041
878.058	4972
878.185	4870
878.313	4987
878.441	4911
878.568	4824
878.696	4892
878.824	5003
878.951	4999
879.079	5159
879.206	5318
879.333	5083
879.461	4995
879.588	5045
879.715	5128
879.842	5239
879.97	5094
880.097	4771
880.224	4729
880.351	4793
880.478	4816
880.605	4763
880.732	4816
880.859	5113
880.986	4900
881.112	4892
881.239	4782
881.366	4656
881.493	4626
881.619	4573
881.746	4626
881.872	4679
881.999	4637
882.125	4679
882.252	4809
882.378	4820
882.505	4961
882.631	4820
882.757	4675
882.883	4729
883.01	4748
883.136	4672
883.262	4599
883.388	4580
883.514	4824
883.64	4839
883.766	4801
883.892	4630
884.018	4725
884.143	4904
884.269	5037
884.395	4698
884.52	4668
884.646	4626
884.772	4599
884.897	4546
885.023	4672
885.148	4778
885.274	4801
885.399	4812
885.524	4748
885.65	4748
885.775	4767
885.9	4694
886.025	4797
886.15	4812
886.275	4763
886.4	4622
886.525	4721
886.65	4710
886.775	4710
886.9	4904
887.025	5037
887.149	4797
887.274	4660
887.399	4561
887.523	4603
887.648	4588
887.773	4596
887.897	4702
888.021	4812
888.146	4645
888.27	4778
888.395	4915
888.519	4797
888.643	4816
888.767	4801
888.891	4698
889.015	4641
889.139	4637
889.263	4599
889.387	4767
889.511	4809
889.635	4809
889.759	4618
889.883	4641
890.006	4729
890.13	4847
890.254	4607
890.377	4679
890.501	4569
890.624	4504
890.748	4649
890.871	4485
890.995	4405
891.118	4383
891.241	4500
891.364	4565
891.488	4634
891.611	4527
891.734	4577
891.857	4580
891.98	4645
892.103	4656
892.226	4577
892.349	4527
892.471	4405
892.594	4535
892.717	4603
892.839	4588
892.962	4630
893.085	4675
893.207	4554
893.33	4432
893.452	4538
893.575	4714
893.697	4554
893.819	4809
893.941	4862
894.064	4740
894.186	4622
894.308	4588
894.43	4736
894.552	4828
894.674	4702
894.796	4558
894.918	4618
895.04	4561
895.161	4733
895.283	4637
895.405	4634
895.526	4607
895.648	4668
895.769	4634
895.891	4698
896.012	4710
896.134	4675
896.255	4626
896.376	4641
896.498	4588
896.619	4725
896.74	4577
896.861	4672
896.982	4919
897.103	5098
897.224	4816
897.345	4759
897.466	4725
897.587	4694
897.708	4866
897.828	4843
897.949	4706
898.07	4569
898.19	4637
898.311	4820
898.431	4691
898.552	4714
898.672	4839
898.792	4786
898.913	4675
899.033	4634
899.153	4516
899.273	4424
899.393	4535
899.513	4588
899.633	4531
899.753	4561
899.873	4497
899.993	4542
900.113	4573
900.232	4607
900.352	4554
900.472	4470
900.591	4451
900.711	4516
900.83	4466
900.95	4615
901.069	4717
901.189	4565
901.308	4322
901.427	4318
901.546	4440
901.665	4462
901.784	4512
901.904	4398
902.023	4341
902.141	4223
902.26	4166
902.379	4337
902.498	4234
902.617	4204
902.735	4386
902.854	4390
902.973	4348
903.091	4211
903.21	4249
903.328	4265
903.446	4268
903.565	4234
903.683	4390
903.801	4295
903.919	4405
904.038	4443
904.156	4363
904.274	4455
904.392	4409
904.51	4436
904.627	4493
904.745	4584
904.863	4596
904.981	4409
905.098	4356
905.216	4409
905.334	4478
905.451	4451
905.569	4443
905.686	4580
905.803	4554
905.921	4337
906.038	4531
906.155	4485
906.272	4386
906.389	4447
906.506	4356
906.623	4367
906.74	4405
906.857	4318
906.974	4352
907.091	4580
907.208	4672
907.324	4565
907.441	4478
907.557	4398
907.674	4375
907.79	4310
907.907	4398
908.023	4470
908.139	4512
908.256	4432
908.372	4500
908.488	4459
908.604	4386
908.72	4310
908.836	4367
908.952	4432
909.068	4470
909.184	4626
909.3	4504
909.415	4584
909.531	4535
909.647	4333
909.762	4371
909.878	4344
909.993	4413
910.108	4421
910.224	4417
910.339	4440
910.454	4394
910.57	4356
910.685	4337
910.8	4675
910.915	4649
911.03	4516
911.145	4341
911.259	4322
911.374	4383
911.489	4303
911.604	4325
911.718	4124
911.833	4207
911.947	4112
912.062	4048
912.176	4192
912.291	4227
912.405	4265
912.519	4428
912.633	4516
912.748	4356
912.862	4230
912.976	4211
913.09	4093
913.204	4158
913.318	4272
913.431	4375
913.545	4348
913.659	4409
913.772	4383
913.886	4249
914	4227
914.113	4383
914.226	4447
914.34	4417
914.453	4272
914.566	4432
914.68	4299
914.793	4287
914.906	4177
915.019	4071
915.132	4082
915.245	4196
915.358	4204
915.47	4207
915.583	4265
915.696	4280
915.809	4379
915.921	4493
916.034	4242
916.146	4215
916.259	4227
916.371	4432
916.483	4367
916.595	4230
916.708	4310
916.82	4295
916.932	4337
917.044	4337
917.156	4303
917.268	4246
917.38	4280
917.491	4291
917.603	4352
917.715	4405
917.826	4424
917.938	4363
918.049	4272
918.161	4394
918.272	4542
918.384	4542
918.495	4497
918.606	4325
918.717	4204
918.828	4356
918.939	4363
919.05	4234
919.161	4363
919.272	4147
919.383	4207
919.494	4447
919.604	4649
919.715	4455
919.826	4363
919.936	4402
920.047	4561
920.157	4504
920.267	4668
920.378	4523
920.488	4485
920.598	4706
920.708	4904
920.818	4729
920.928	4771
921.038	4915
921.148	4904
921.258	4611
921.368	4569
921.477	4485
921.587	4462
921.697	4352
921.806	4504
921.916	4424
922.025	4261
922.134	4215
922.244	4230
922.353	4352
922.462	4169
922.571	4097
922.68	4032
922.789	3956
922.898	4002
923.007	3975
923.116	4109
923.224	4112
923.333	4040
923.442	3945
923.55	3918
923.659	4002
923.767	4082
923.876	3975
923.984	4128
924.092	4002
924.201	4067
924.309	4071
924.417	4109
924.525	4082
924.633	4086
924.741	5064
924.849	3937
924.956	4124
925.064	3945
925.172	3934
925.279	3949
925.387	4051
925.494	4090
925.602	4204
925.709	4181
925.816	4040
925.924	4139
926.031	4246
926.138	4169
926.245	4215
926.352	4090
926.459	4249
926.566	4280
926.673	4158
926.779	4067
926.886	4048
926.993	3994
927.099	3975
927.206	3930
927.312	3922
927.419	4067
927.525	4044
927.631	4071
927.737	3979
927.843	3983
927.95	3827
928.056	3968
928.162	3968
928.267	4040
928.373	4771
928.479	4158
928.585	3876
928.69	4029
928.796	4067
928.901	3979
929.007	3899
929.112	3991
929.218	3991
929.323	3941
929.428	3953
929.533	4135
929.638	3911
929.743	3994
929.848	4048
929.953	4006
930.058	3911
930.163	3774
930.267	3842
930.372	3994
930.477	3823
930.581	4124
930.685	3949
930.79	3880
930.894	3876
930.998	3854
931.103	4048
931.207	3698
931.311	3663
931.415	3690
931.519	3557
931.623	3587
