Data from test_V78500241_331.txt Node
Date: Fri Mar 25 16:51:18 CST 2022
User: usil
Spectrometer: V785-0024
Trigger mode: 0
Integration Time (sec): 4.000000E-1
Scans to average: 1
Nonlinearity correction enabled: false
Boxcar width: 0
Storing dark spectrum: false
XAxis mode: Wavelengths
Number of Pixels in Spectrum: 1024
>>>>>Begin Spectral Data<<<<<
801.071	8043
801.214	8016
801.356	7921
801.499	7860
801.641	7811
801.783	7894
801.926	8031
802.068	7936
802.211	7986
802.353	8012
802.496	7906
802.638	7936
802.78	7951
802.923	7989
803.065	7849
803.208	7890
803.35	7959
803.492	8058
803.635	8077
803.777	7993
803.919	8130
804.061	8473
804.204	8206
804.346	8073
804.488	7982
804.63	8077
804.773	8005
804.915	8145
805.057	8233
805.199	8138
805.341	8244
805.483	8271
805.626	8172
805.768	8115
805.91	8161
806.052	8191
806.194	8100
806.336	8332
806.478	8202
806.62	8149
806.762	8157
806.904	8256
807.046	8465
807.188	8294
807.33	8237
807.472	8362
807.614	8142
807.756	8107
807.898	8035
808.04	7921
808.182	7936
808.324	7928
808.465	8024
808.607	8081
808.749	8138
808.891	8309
809.033	8279
809.174	8176
809.316	8100
809.458	8073
809.6	8008
809.741	8069
809.883	7986
810.025	8077
810.166	8069
810.308	8031
810.45	8001
810.591	7856
810.733	7772
810.875	7772
811.016	7556
811.158	7525
811.299	7643
811.441	7757
811.582	7788
811.724	7636
811.865	7567
812.007	7647
812.148	7597
812.29	7643
812.431	7742
812.573	7852
812.714	7951
812.855	8043
812.997	8172
813.138	8286
813.279	8172
813.421	8142
813.562	7989
813.703	7841
813.845	7818
813.986	7491
814.127	7369
814.268	7251
814.41	7263
814.551	7133
814.692	7171
814.833	7069
814.974	7084
815.115	7133
815.256	7004
815.397	6916
815.539	6890
815.68	6829
815.821	6814
815.962	6905
816.103	6840
816.244	6745
816.385	6700
816.526	6623
816.666	6509
816.807	6334
816.948	6422
817.089	6460
817.23	6490
817.371	6369
817.512	6395
817.653	6399
817.793	6338
817.934	6365
818.075	6475
818.216	6471
818.356	6403
818.497	6243
818.638	6034
818.778	6171
818.919	6114
819.06	6213
819.2	6346
819.341	6346
819.481	6429
819.622	6536
819.762	6692
819.903	6677
820.043	6616
820.184	6506
820.324	6551
820.465	6658
820.605	6650
820.746	6627
820.886	6479
821.026	6719
821.167	6779
821.307	6798
821.447	6734
821.588	6711
821.728	6593
821.868	6532
822.008	6262
822.149	6399
822.289	6365
822.429	6083
822.569	6068
822.709	6053
822.849	5889
822.99	5973
823.13	5996
823.27	5908
823.41	5733
823.55	5809
823.69	5783
823.83	5836
823.97	5672
824.11	5524
824.25	5516
824.389	5547
824.529	5562
824.669	5551
824.809	5615
824.949	5577
825.089	5543
825.228	5577
825.368	5421
825.508	5379
825.648	5402
825.787	5417
825.927	5349
826.067	5250
826.206	5273
826.346	5383
826.485	5478
826.625	5440
826.765	5566
826.904	5512
827.044	5216
827.183	5181
827.323	5143
827.462	5208
827.601	5174
827.741	5208
827.88	5246
828.02	5132
828.159	5246
828.298	5299
828.437	5353
828.577	5242
828.716	5448
828.855	5357
828.994	5147
829.134	5128
829.273	5159
829.412	5178
829.551	5201
829.69	5166
829.829	5258
829.968	5368
830.107	5307
830.246	5269
830.385	5155
830.524	5162
830.663	5086
830.802	4938
830.941	4866
831.08	4885
831.219	4991
831.357	4934
831.496	5128
831.635	4934
831.774	4835
831.913	4812
832.051	4744
832.19	4717
832.329	4831
832.467	4740
832.606	4694
832.744	4729
832.883	4698
833.022	4698
833.16	4767
833.299	4801
833.437	4824
833.576	4847
833.714	4896
833.852	4904
833.991	4896
834.129	4927
834.267	4976
834.406	4915
834.544	4946
834.682	4976
834.821	4946
834.959	5117
835.097	4999
835.235	5166
835.373	5109
835.511	5140
835.65	5033
835.788	4976
835.926	4896
836.064	4896
836.202	4927
836.34	5212
836.478	5246
836.615	5102
836.753	5197
836.891	5299
837.029	5261
837.167	5178
837.305	5136
837.443	5121
837.58	5014
837.718	5216
837.856	5170
837.993	5159
838.131	5258
838.269	5261
838.406	5246
838.544	5155
838.681	5056
838.819	5014
838.956	4904
839.094	4915
839.231	4942
839.369	5056
839.506	5395
839.643	5273
839.781	5037
839.918	4980
840.055	5079
840.193	5117
840.33	5086
840.467	5132
840.604	5174
840.742	5387
840.879	5086
841.016	5083
841.153	5124
841.29	5368
841.427	5311
841.564	5318
841.701	5372
841.838	5261
841.975	5246
842.112	5265
842.249	5159
842.385	5113
842.522	5318
842.659	5166
842.796	5220
842.933	5216
843.069	5162
843.206	5162
843.343	5299
843.479	5216
843.616	5235
843.752	5006
843.889	4953
844.025	5201
844.162	5022
844.298	5204
844.435	5136
844.571	5056
844.708	5159
844.844	5353
844.98	5296
845.117	5258
845.253	5102
845.389	5105
845.525	5193
845.661	5109
845.798	5086
845.934	5143
846.07	5075
846.206	5235
846.342	5254
846.478	5204
846.614	5056
846.75	5003
846.886	5003
847.022	5166
847.158	5075
847.294	5045
847.429	5117
847.565	5006
847.701	5315
847.837	4892
847.972	4805
848.108	4938
848.244	4961
848.379	4820
848.515	4725
848.65	4733
848.786	4797
848.921	4801
849.057	4881
849.192	4870
849.328	4805
849.463	4885
849.598	4786
849.734	4790
849.869	4687
850.004	4603
850.14	4668
850.275	4611
850.41	4512
850.545	4588
850.68	4584
850.815	4626
850.95	4626
851.085	4843
851.22	4748
851.355	4649
851.49	4630
851.625	4645
851.76	4641
851.895	4588
852.03	4504
852.165	4645
852.299	4706
852.434	4759
852.569	4729
852.703	4748
852.838	4839
852.973	4915
853.107	4946
853.242	4748
853.376	4729
853.511	4580
853.645	4618
853.78	4790
853.914	4691
854.048	4641
854.183	4637
854.317	4653
854.451	4820
854.585	4679
854.72	4615
854.854	4733
854.988	4653
855.122	4565
855.256	4554
855.39	4679
855.524	4774
855.658	4664
855.792	4717
855.926	4744
856.06	4744
856.194	4774
856.327	4702
856.461	4584
856.595	4634
856.729	4607
856.862	4725
856.996	4634
857.13	4736
857.263	4812
857.397	4820
857.53	4626
857.664	4717
857.797	4759
857.931	4771
858.064	4653
858.197	4748
858.331	4675
858.464	4634
858.597	4550
858.731	4641
858.864	4577
858.997	4573
859.13	4668
859.263	4694
859.396	4725
859.529	4516
859.662	4558
859.795	4512
859.928	4637
860.061	4767
860.194	4801
860.327	4580
860.46	4577
860.592	4694
860.725	4736
860.858	4721
860.99	4603
861.123	4519
861.256	4569
861.388	4580
861.521	5315
861.653	4451
861.786	4493
861.918	4512
862.05	4523
862.183	4550
862.315	4596
862.447	4683
862.58	4618
862.712	4413
862.844	4394
862.976	4466
863.108	4485
863.24	4801
863.372	4360
863.504	4466
863.636	4405
863.768	4500
863.9	4481
864.032	4390
864.164	4436
864.296	4523
864.428	4558
864.559	4618
864.691	4558
864.823	4531
864.954	4550
865.086	4542
865.217	4493
865.349	4432
865.48	4489
865.612	4508
865.743	4698
865.875	4546
866.006	4436
866.137	4516
866.269	4478
866.4	4462
866.531	4459
866.662	4440
866.793	4474
866.924	4470
867.055	4493
867.186	4531
867.317	4462
867.448	4417
867.579	4447
867.71	4466
867.841	4447
867.972	4462
868.103	4466
868.233	4500
868.364	4489
868.495	4527
868.625	4710
868.756	4809
868.886	4615
869.017	4683
869.147	4866
869.278	4797
869.408	4710
869.539	4721
869.669	4774
869.799	4694
869.929	4812
870.06	4801
870.19	5018
870.32	4953
870.45	5014
870.58	5048
870.71	5178
870.84	5155
870.97	5025
871.1	4957
871.23	5220
871.36	5166
871.489	5064
871.619	5121
871.749	5105
871.879	5201
872.008	5227
872.138	5147
872.267	4961
872.397	4942
872.526	4877
872.656	4774
872.785	4862
872.915	4930
873.044	5117
873.173	4949
873.303	5006
873.432	5037
873.561	4991
873.69	4896
873.819	4873
873.948	4938
874.077	4858
874.206	4793
874.335	4862
874.464	4953
874.593	5117
874.722	5003
874.851	5105
874.979	5098
875.108	5083
875.237	4923
875.365	4908
875.494	4946
875.623	5006
875.751	4885
875.88	4923
876.008	5006
876.136	5121
876.265	5254
876.393	5383
876.521	5288
876.65	5250
876.778	5155
876.906	5075
877.034	5014
877.162	5132
877.29	5018
877.418	5037
877.546	5090
877.674	5102
877.802	5052
877.93	5029
878.058	4976
878.185	4900
878.313	4999
878.441	5029
878.568	4866
878.696	4904
878.824	4987
878.951	5037
879.079	5121
879.206	5273
879.333	5155
879.461	5014
879.588	5071
879.715	5170
879.842	5311
879.97	5067
880.097	4824
880.224	4790
880.351	4831
880.478	4896
880.605	4835
880.732	4820
880.859	5143
880.986	4942
881.112	4972
881.239	4816
881.366	4672
881.493	4660
881.619	4637
881.746	4675
881.872	4733
881.999	4725
882.125	4752
882.252	4847
882.378	4774
882.505	4942
882.631	4881
882.757	4710
882.883	4733
883.01	4786
883.136	4759
883.262	4645
883.388	4611
883.514	4881
883.64	4908
883.766	4790
883.892	4752
884.018	4774
884.143	4930
884.269	5090
884.395	4687
884.52	4660
884.646	4679
884.772	4588
884.897	4599
885.023	4736
885.148	4843
885.274	4870
885.399	4820
885.524	4687
885.65	4736
885.775	4778
885.9	4774
886.025	4889
886.15	4831
886.275	4733
886.4	4672
886.525	4790
886.65	4748
886.775	4717
886.9	4980
887.025	5071
887.149	4911
887.274	4679
887.399	4596
887.523	4618
887.648	4580
887.773	4611
887.897	4854
888.021	4812
888.146	4740
888.27	4862
888.395	4934
888.519	4862
888.643	4877
888.767	4843
888.891	4694
889.015	4641
889.139	4717
889.263	4672
889.387	4790
889.511	4892
889.635	4805
889.759	4656
889.883	4702
890.006	4793
890.13	4824
890.254	4637
890.377	4755
890.501	4615
890.624	4546
890.748	4664
890.871	4565
890.995	4447
891.118	4440
891.241	4554
891.364	4596
891.488	4649
891.611	4500
891.734	4577
891.857	4656
891.98	4615
892.103	4702
892.226	4634
892.349	4538
892.471	4466
892.594	4622
892.717	4611
892.839	4603
892.962	4618
893.085	4744
893.207	4668
893.33	4466
893.452	4550
893.575	4702
893.697	4588
893.819	4824
893.941	4885
894.064	4778
894.186	4656
894.308	4584
894.43	4744
894.552	4828
894.674	4839
894.796	4607
894.918	4607
895.04	4675
895.161	4664
895.283	4672
895.405	4637
895.526	4698
895.648	4717
895.769	4752
895.891	4740
896.012	4759
896.134	4771
896.255	4687
896.376	4694
896.498	4641
896.619	4717
896.74	4630
896.861	4634
896.982	4949
897.103	5064
897.224	4889
897.345	4771
897.466	4740
897.587	4782
897.708	4862
897.828	4824
897.949	4679
898.07	4622
898.19	4660
898.311	4870
898.431	4710
898.552	4816
898.672	4854
898.792	4801
898.913	4744
899.033	4649
899.153	4508
899.273	4493
899.393	4516
899.513	4535
899.633	4596
899.753	4596
899.873	4561
899.993	4588
900.113	4588
900.232	4611
900.352	4580
900.472	4577
900.591	4481
900.711	4512
900.83	4455
900.95	4645
901.069	4683
901.189	4569
901.308	4402
901.427	4341
901.546	4394
901.665	4504
901.784	4519
901.904	4447
902.023	4360
902.141	4200
902.26	4173
902.379	4333
902.498	4284
902.617	4253
902.735	4383
902.854	4466
902.973	4402
903.091	4219
903.21	4219
903.328	4314
903.446	4322
903.565	4341
903.683	4390
903.801	4341
903.919	4424
904.038	4455
904.156	4360
904.274	4485
904.392	4356
904.51	4455
904.627	4558
904.745	4626
904.863	4653
904.981	4451
905.098	4333
905.216	4379
905.334	4432
905.451	4481
905.569	4462
905.686	4573
905.803	4596
905.921	4413
906.038	4596
906.155	4493
906.272	4424
906.389	4466
906.506	4383
906.623	4375
906.74	4405
906.857	4348
906.974	4394
907.091	4546
907.208	4698
907.324	4634
907.441	4577
907.557	4402
907.674	4375
907.79	4325
907.907	4421
908.023	4512
908.139	4489
908.256	4428
908.372	4500
908.488	4516
908.604	4360
908.72	4363
908.836	4432
908.952	4405
909.068	4443
909.184	4630
909.3	4527
909.415	4626
909.531	4615
909.647	4417
909.762	4371
909.878	4386
909.993	4485
910.108	4485
910.224	4436
910.339	4516
910.454	4462
910.57	4398
910.685	4344
910.8	4672
910.915	4645
911.03	4523
911.145	4314
911.259	4371
911.374	4394
911.489	4291
911.604	4299
911.718	4227
911.833	4238
911.947	4131
912.062	4090
912.176	4219
912.291	4268
912.405	4276
912.519	4485
912.633	4508
912.748	4440
912.862	4344
912.976	4249
913.09	4124
913.204	4169
913.318	4280
913.431	4398
913.545	4405
913.659	4447
913.772	4356
913.886	4284
914	4249
914.113	4394
914.226	4474
914.34	4436
914.453	4299
914.566	4405
914.68	4329
914.793	4352
914.906	4173
915.019	4177
915.132	4109
915.245	4196
915.358	4234
915.47	4257
915.583	4318
915.696	4344
915.809	4402
915.921	4451
916.034	4287
916.146	4314
916.259	4276
916.371	4413
916.483	4398
916.595	4280
916.708	4352
916.82	4337
916.932	4405
917.044	4348
917.156	4379
917.268	4253
917.38	4284
917.491	4295
917.603	4417
917.715	4451
917.826	4466
917.938	4379
918.049	4261
918.161	4459
918.272	4535
918.384	4542
918.495	4451
918.606	4303
918.717	4261
918.828	4379
918.939	4325
919.05	4219
919.161	4367
919.272	4147
919.383	4242
919.494	4459
919.604	4649
919.715	4436
919.826	4352
919.936	4402
920.047	4573
920.157	4535
920.267	4721
920.378	4550
920.488	4519
920.598	4733
920.708	4949
920.818	4721
920.928	4736
921.038	5018
921.148	5006
921.258	4679
921.368	4596
921.477	4531
921.587	4512
921.697	4379
921.806	4531
921.916	4474
922.025	4287
922.134	4341
922.244	4291
922.353	4363
922.462	4173
922.571	4173
922.68	4010
922.789	4006
922.898	4067
923.007	4025
923.116	4097
923.224	4124
923.333	4082
923.442	4006
923.55	3972
923.659	4051
923.767	4147
923.876	4044
923.984	4169
924.092	4017
924.201	4112
924.309	4071
924.417	4131
924.525	4078
924.633	4128
924.741	4904
924.849	3918
924.956	4131
925.064	3983
925.172	3907
925.279	4017
925.387	4036
925.494	4071
925.602	4211
925.709	4227
925.816	4055
925.924	4177
926.031	4219
926.138	4207
926.245	4230
926.352	4135
926.459	4314
926.566	4299
926.673	4169
926.779	4093
926.886	4093
926.993	3998
927.099	3998
927.206	4013
927.312	3968
927.419	4067
927.525	4055
927.631	4150
927.737	3972
927.843	4013
927.95	3873
928.056	3998
928.162	4025
928.267	4071
928.373	4634
928.479	4139
928.585	3903
928.69	4059
928.796	4105
928.901	4040
929.007	3857
929.112	4044
929.218	4032
929.323	3941
929.428	3987
929.533	4128
929.638	3937
929.743	4017
929.848	4082
929.953	4063
930.058	3983
930.163	3785
930.267	3854
930.372	4036
930.477	3854
930.581	4128
930.685	3991
930.79	3884
930.894	3926
930.998	3926
931.103	4112
931.207	3778
931.311	3724
931.415	3740
931.519	3587
931.623	3603
