Data from test_V78500241_1129.txt Node
Date: Fri Mar 25 16:56:51 CST 2022
User: usil
Spectrometer: V785-0024
Trigger mode: 0
Integration Time (sec): 4.000000E-1
Scans to average: 1
Nonlinearity correction enabled: false
Boxcar width: 0
Storing dark spectrum: false
XAxis mode: Wavelengths
Number of Pixels in Spectrum: 1024
>>>>>Begin Spectral Data<<<<<
801.071	8054
801.214	8058
801.356	7925
801.499	7833
801.641	7780
801.783	7833
801.926	7955
802.068	7932
802.211	7963
802.353	8012
802.496	7852
802.638	7841
802.78	8012
802.923	8001
803.065	7932
803.208	7890
803.35	7993
803.492	8100
803.635	8195
803.777	8043
803.919	8092
804.061	8446
804.204	8149
804.346	8073
804.488	8027
804.63	8126
804.773	8020
804.915	8149
805.057	8233
805.199	8210
805.341	8195
805.483	8301
805.626	8157
805.768	8199
805.91	8130
806.052	8206
806.194	8115
806.336	8301
806.478	8123
806.62	8073
806.762	8115
806.904	8225
807.046	8438
807.188	8294
807.33	8317
807.472	8267
807.614	8088
807.756	8119
807.898	7970
808.04	7849
808.182	7860
808.324	7913
808.465	7898
808.607	8062
808.749	8073
808.891	8161
809.033	8233
809.174	8256
809.316	8058
809.458	8024
809.6	7974
809.741	8024
809.883	8020
810.025	8103
810.166	8054
810.308	8016
810.45	8081
810.591	7894
810.733	7704
810.875	7681
811.016	7476
811.158	7460
811.299	7571
811.441	7677
811.582	7731
811.724	7559
811.865	7514
812.007	7540
812.148	7559
812.29	7575
812.431	7746
812.573	7833
812.714	7986
812.855	8138
812.997	8187
813.138	8294
813.279	8202
813.421	8035
813.562	7913
813.703	7906
813.845	7731
813.986	7438
814.127	7228
814.268	7206
814.41	7164
814.551	7129
814.692	7164
814.833	7038
814.974	7023
815.115	7061
815.256	6916
815.397	6875
815.539	6909
815.68	6825
815.821	6776
815.962	6867
816.103	6856
816.244	6707
816.385	6627
816.526	6642
816.666	6479
816.807	6273
816.948	6384
817.089	6429
817.23	6395
817.371	6365
817.512	6346
817.653	6441
817.793	6353
817.934	6475
818.075	6467
818.216	6422
818.356	6407
818.497	6311
818.638	6095
818.778	6163
818.919	6102
819.06	6148
819.2	6319
819.341	6311
819.481	6414
819.622	6528
819.762	6726
819.903	6760
820.043	6578
820.184	6574
820.324	6574
820.465	6741
820.605	6703
820.746	6631
820.886	6506
821.026	6662
821.167	6692
821.307	6730
821.447	6776
821.588	6631
821.728	6566
821.868	6486
822.008	6273
822.149	6369
822.289	6399
822.429	6095
822.569	6083
822.709	6163
822.849	5889
822.99	5908
823.13	5935
823.27	5874
823.41	5707
823.55	5741
823.69	5790
823.83	5832
823.97	5729
824.11	5509
824.25	5532
824.389	5524
824.529	5589
824.669	5516
824.809	5627
824.949	5676
825.089	5600
825.228	5570
825.368	5425
825.508	5311
825.648	5330
825.787	5376
825.927	5330
826.067	5322
826.206	5292
826.346	5357
826.485	5440
826.625	5436
826.765	5562
826.904	5509
827.044	5242
827.183	5216
827.323	5083
827.462	5227
827.601	5151
827.741	5162
827.88	5242
828.02	5159
828.159	5223
828.298	5292
828.437	5315
828.577	5292
828.716	5459
828.855	5341
828.994	5201
829.134	5132
829.273	5197
829.412	5155
829.551	5117
829.69	5136
829.829	5273
829.968	5376
830.107	5273
830.246	5311
830.385	5242
830.524	5166
830.663	5067
830.802	4953
830.941	4843
831.08	4927
831.219	4999
831.357	4946
831.496	5121
831.635	4930
831.774	4847
831.913	4835
832.051	4729
832.19	4801
832.329	4866
832.467	4672
832.606	4656
832.744	4736
832.883	4653
833.022	4702
833.16	4771
833.299	4805
833.437	4828
833.576	4816
833.714	4866
833.852	4866
833.991	4866
834.129	4942
834.267	4927
834.406	4923
834.544	5014
834.682	4980
834.821	4911
834.959	5143
835.097	4961
835.235	5151
835.373	5025
835.511	5052
835.65	5025
835.788	4991
835.926	4889
836.064	4843
836.202	4915
836.34	5113
836.478	5239
836.615	5105
836.753	5231
836.891	5337
837.029	5292
837.167	5174
837.305	5140
837.443	5170
837.58	5067
837.718	5216
837.856	5128
837.993	5132
838.131	5265
838.269	5185
838.406	5189
838.544	5136
838.681	5048
838.819	5022
838.956	4938
839.094	4877
839.231	4961
839.369	5109
839.506	5391
839.643	5246
839.781	5041
839.918	5018
840.055	5083
840.193	5105
840.33	5094
840.467	5159
840.604	5208
840.742	5429
840.879	5075
841.016	5022
841.153	5124
841.29	5334
841.427	5288
841.564	5292
841.701	5349
841.838	5254
841.975	5220
842.112	5273
842.249	5143
842.385	5064
842.522	5307
842.659	5204
842.796	5170
842.933	5193
843.069	5166
843.206	5151
843.343	5334
843.479	5227
843.616	5258
843.752	5029
843.889	5018
844.025	5231
844.162	5048
844.298	5178
844.435	5052
844.571	5094
844.708	5223
844.844	5299
844.98	5353
845.117	5277
845.253	5086
845.389	5102
845.525	5170
845.661	5162
845.798	5037
845.934	5094
846.07	5048
846.206	5197
846.342	5204
846.478	5170
846.614	5022
846.75	4980
846.886	4930
847.022	5090
847.158	5022
847.294	5075
847.429	5094
847.565	5056
847.701	5315
847.837	4843
847.972	4752
848.108	4942
848.244	4949
848.379	4797
848.515	4710
848.65	4717
848.786	4736
848.921	4797
849.057	4881
849.192	4820
849.328	4805
849.463	4858
849.598	4771
849.734	4717
849.869	4698
850.004	4569
850.14	4694
850.275	4531
850.41	4516
850.545	4569
850.68	4561
850.815	4653
850.95	4675
851.085	4805
851.22	4694
851.355	4653
851.49	4611
851.625	4622
851.76	4649
851.895	4558
852.03	4527
852.165	4649
852.299	4698
852.434	4801
852.569	4752
852.703	4778
852.838	4809
852.973	4881
853.107	4892
853.242	4714
853.376	4603
853.511	4538
853.645	4561
853.78	4790
853.914	4694
854.048	4622
854.183	4645
854.317	4710
854.451	4850
854.585	4656
854.72	4592
854.854	4729
854.988	4592
855.122	4599
855.256	4508
855.39	4630
855.524	4793
855.658	4694
855.792	4664
855.926	4733
856.06	4752
856.194	4824
856.327	4653
856.461	4527
856.595	4645
856.729	4596
856.862	4740
856.996	4664
857.13	4702
857.263	4778
857.397	4782
857.53	4675
857.664	4729
857.797	4717
857.931	4759
858.064	4664
858.197	4755
858.331	4611
858.464	4599
858.597	4527
858.731	4596
858.864	4584
858.997	4592
859.13	4573
859.263	4668
859.396	4710
859.529	4558
859.662	4607
859.795	4493
859.928	4675
860.061	4767
860.194	4736
860.327	4645
860.46	4550
860.592	4656
860.725	4710
860.858	4736
860.99	4584
861.123	4512
861.256	4542
861.388	4603
861.521	5299
861.653	4459
861.786	4421
861.918	4481
862.05	4516
862.183	4546
862.315	4615
862.447	4626
862.58	4569
862.712	4440
862.844	4344
862.976	4466
863.108	4405
863.24	4881
863.372	4356
863.504	4428
863.636	4405
863.768	4459
863.9	4436
864.032	4371
864.164	4409
864.296	4421
864.428	4531
864.559	4531
864.691	4554
864.823	4538
864.954	4500
865.086	4519
865.217	4405
865.349	4386
865.48	4489
865.612	4519
865.743	4641
865.875	4481
866.006	4421
866.137	4466
866.269	4459
866.4	4443
866.531	4451
866.662	4432
866.793	4398
866.924	4402
867.055	4485
867.186	4409
867.317	4398
867.448	4386
867.579	4375
867.71	4398
867.841	4337
867.972	4478
868.103	4413
868.233	4440
868.364	4440
868.495	4474
868.625	4660
868.756	4714
868.886	4550
869.017	4618
869.147	4702
869.278	4812
869.408	4626
869.539	4603
869.669	4714
869.799	4656
869.929	4736
870.06	4706
870.19	4942
870.32	4885
870.45	4923
870.58	4976
870.71	5113
870.84	5052
870.97	4942
871.1	4892
871.23	5113
871.36	5094
871.489	4976
871.619	5018
871.749	5086
871.879	5075
872.008	5174
872.138	5064
872.267	4946
872.397	4824
872.526	4782
872.656	4675
872.785	4820
872.915	4927
873.044	4991
873.173	4904
873.303	4942
873.432	4908
873.561	4919
873.69	4843
873.819	4828
873.948	4892
874.077	4858
874.206	4691
874.335	4786
874.464	4824
874.593	5079
874.722	4949
874.851	5086
874.979	5086
875.108	5014
875.237	4908
875.365	4858
875.494	4873
875.623	4961
875.751	4805
875.88	4873
876.008	4984
876.136	4995
876.265	5220
876.393	5334
876.521	5265
876.65	5178
876.778	5128
876.906	5052
877.034	5067
877.162	5067
877.29	4972
877.418	5067
877.546	4980
877.674	5018
877.802	5029
877.93	4991
878.058	4919
878.185	4850
878.313	4927
878.441	4972
878.568	4816
878.696	4885
878.824	4934
878.951	4980
879.079	5117
879.206	5345
879.333	5075
879.461	4972
879.588	4949
879.715	5124
879.842	5140
879.97	5010
880.097	4752
880.224	4755
880.351	4759
880.478	4831
880.605	4801
880.732	4801
880.859	5075
880.986	4911
881.112	4850
881.239	4702
881.366	4607
881.493	4592
881.619	4569
881.746	4618
881.872	4653
881.999	4660
882.125	4656
882.252	4816
882.378	4797
882.505	4942
882.631	4843
882.757	4645
882.883	4763
883.01	4736
883.136	4637
883.262	4542
883.388	4577
883.514	4805
883.64	4812
883.766	4691
883.892	4634
884.018	4748
884.143	4892
884.269	4999
884.395	4687
884.52	4611
884.646	4637
884.772	4584
884.897	4584
885.023	4668
885.148	4698
885.274	4835
885.399	4771
885.524	4725
885.65	4687
885.775	4717
885.9	4660
886.025	4790
886.15	4801
886.275	4694
886.4	4626
886.525	4717
886.65	4687
886.775	4702
886.9	4877
887.025	5006
887.149	4824
887.274	4649
887.399	4630
887.523	4588
887.648	4554
887.773	4580
887.897	4744
888.021	4755
888.146	4656
888.27	4850
888.395	4934
888.519	4767
888.643	4797
888.767	4801
888.891	4645
889.015	4569
889.139	4630
889.263	4592
889.387	4740
889.511	4843
889.635	4835
889.759	4626
889.883	4653
890.006	4733
890.13	4820
890.254	4546
890.377	4687
890.501	4527
890.624	4508
890.748	4653
890.871	4504
890.995	4421
891.118	4363
891.241	4485
891.364	4527
891.488	4607
891.611	4493
891.734	4436
891.857	4603
891.98	4523
892.103	4615
892.226	4558
892.349	4535
892.471	4443
892.594	4516
892.717	4607
892.839	4527
892.962	4588
893.085	4645
893.207	4577
893.33	4390
893.452	4497
893.575	4664
893.697	4523
893.819	4736
893.941	4828
894.064	4736
894.186	4561
894.308	4550
894.43	4725
894.552	4812
894.674	4694
894.796	4523
894.918	4622
895.04	4569
895.161	4656
895.283	4672
895.405	4558
895.526	4588
895.648	4721
895.769	4706
895.891	4687
896.012	4767
896.134	4687
896.255	4626
896.376	4611
896.498	4611
896.619	4630
896.74	4554
896.861	4630
896.982	4930
897.103	5064
897.224	4835
897.345	4725
897.466	4691
897.587	4748
897.708	4793
897.828	4809
897.949	4710
898.07	4573
898.19	4577
898.311	4786
898.431	4626
898.552	4729
898.672	4805
898.792	4786
898.913	4725
899.033	4603
899.153	4500
899.273	4402
899.393	4519
899.513	4523
899.633	4508
899.753	4489
899.873	4470
899.993	4535
900.113	4554
900.232	4618
900.352	4512
900.472	4462
900.591	4379
900.711	4428
900.83	4379
900.95	4592
901.069	4653
901.189	4569
901.308	4352
901.427	4287
901.546	4375
901.665	4455
901.784	4481
901.904	4383
902.023	4363
902.141	4230
902.26	4162
902.379	4310
902.498	4276
902.617	4204
902.735	4371
902.854	4390
902.973	4348
903.091	4227
903.21	4215
903.328	4291
903.446	4295
903.565	4265
903.683	4379
903.801	4314
903.919	4337
904.038	4409
904.156	4272
904.274	4379
904.392	4363
904.51	4424
904.627	4489
904.745	4577
904.863	4649
904.981	4344
905.098	4303
905.216	4352
905.334	4409
905.451	4409
905.569	4443
905.686	4535
905.803	4558
905.921	4424
906.038	4550
906.155	4481
906.272	4421
906.389	4436
906.506	4363
906.623	4394
906.74	4386
906.857	4325
906.974	4348
907.091	4558
907.208	4721
907.324	4588
907.441	4516
907.557	4287
907.674	4303
907.79	4306
907.907	4421
908.023	4481
908.139	4459
908.256	4363
908.372	4455
908.488	4402
908.604	4303
908.72	4306
908.836	4371
908.952	4409
909.068	4375
909.184	4580
909.3	4497
909.415	4546
909.531	4527
909.647	4352
909.762	4417
909.878	4314
909.993	4413
910.108	4352
910.224	4394
910.339	4470
910.454	4375
910.57	4428
910.685	4310
910.8	4660
910.915	4634
911.03	4558
911.145	4318
911.259	4310
911.374	4348
911.489	4299
911.604	4295
911.718	4192
911.833	4147
911.947	4086
912.062	4048
912.176	4181
912.291	4227
912.405	4242
912.519	4409
912.633	4493
912.748	4398
912.862	4268
912.976	4188
913.09	4093
913.204	4185
913.318	4185
913.431	4322
913.545	4402
913.659	4405
913.772	4348
913.886	4219
914	4215
914.113	4394
914.226	4447
914.34	4379
914.453	4207
914.566	4428
914.68	4291
914.793	4325
914.906	4169
915.019	4105
915.132	4086
915.245	4192
915.358	4230
915.47	4211
915.583	4253
915.696	4318
915.809	4386
915.921	4417
916.034	4246
916.146	4219
916.259	4192
916.371	4383
916.483	4421
916.595	4268
916.708	4291
916.82	4325
916.932	4314
917.044	4325
917.156	4287
917.268	4246
917.38	4272
917.491	4280
917.603	4333
917.715	4405
917.826	4413
917.938	4329
918.049	4158
918.161	4390
918.272	4523
918.384	4516
918.495	4436
918.606	4295
918.717	4246
918.828	4284
918.939	4344
919.05	4280
919.161	4253
919.272	4116
919.383	4227
919.494	4493
919.604	4611
919.715	4398
919.826	4284
919.936	4371
920.047	4516
920.157	4519
920.267	4710
920.378	4535
920.488	4493
920.598	4679
920.708	4870
920.818	4763
920.928	4725
921.038	4930
921.148	4904
921.258	4603
921.368	4599
921.477	4519
921.587	4421
921.697	4375
921.806	4550
921.916	4428
922.025	4246
922.134	4265
922.244	4196
922.353	4306
922.462	4143
922.571	4124
922.68	4013
922.789	3972
922.898	4036
923.007	3987
923.116	4078
923.224	4051
923.333	4055
923.442	3949
923.55	3960
923.659	4021
923.767	4150
923.876	4013
923.984	4086
924.092	3960
924.201	4147
924.309	4097
924.417	4093
924.525	4029
924.633	4128
924.741	5045
924.849	3956
924.956	4093
925.064	3998
925.172	3934
925.279	3911
925.387	4071
925.494	4093
925.602	4234
925.709	4166
925.816	4044
925.924	4101
926.031	4181
926.138	4192
926.245	4158
926.352	4105
926.459	4291
926.566	4310
926.673	4200
926.779	4055
926.886	4036
926.993	3994
927.099	3918
927.206	3915
927.312	3880
927.419	4078
927.525	3991
927.631	4112
927.737	3926
927.843	3911
927.95	3850
928.056	3918
928.162	3960
928.267	4006
928.373	4664
928.479	4131
928.585	3884
928.69	4013
928.796	4074
928.901	3953
929.007	3842
929.112	4017
929.218	3991
929.323	3896
929.428	3907
929.533	4124
929.638	3907
929.743	3960
929.848	3998
929.953	3987
930.058	3907
930.163	3785
930.267	3854
930.372	3941
930.477	3781
930.581	4101
930.685	3934
930.79	3785
930.894	3861
930.998	3823
931.103	4048
931.207	3740
931.311	3717
931.415	3675
931.519	3561
931.623	3595
