Data from test_V78500241_211.txt Node
Date: Fri Mar 25 16:50:28 CST 2022
User: usil
Spectrometer: V785-0024
Trigger mode: 0
Integration Time (sec): 4.000000E-1
Scans to average: 1
Nonlinearity correction enabled: false
Boxcar width: 0
Storing dark spectrum: false
XAxis mode: Wavelengths
Number of Pixels in Spectrum: 1024
>>>>>Begin Spectral Data<<<<<
801.071	8031
801.214	8016
801.356	7860
801.499	7841
801.641	7807
801.783	7822
801.926	8001
802.068	7978
802.211	7951
802.353	8062
802.496	7845
802.638	7913
802.78	7925
802.923	7947
803.065	7864
803.208	7902
803.35	7978
803.492	8031
803.635	8168
803.777	7978
803.919	8138
804.061	8427
804.204	8092
804.346	8050
804.488	7932
804.63	8039
804.773	8043
804.915	8031
805.057	8225
805.199	8119
805.341	8195
805.483	8240
805.626	8149
805.768	8073
805.91	8164
806.052	8191
806.194	8043
806.336	8320
806.478	8096
806.62	8027
806.762	8115
806.904	8153
807.046	8396
807.188	8271
807.33	8301
807.472	8305
807.614	8126
807.756	8142
807.898	8008
808.04	7902
808.182	7925
808.324	7902
808.465	7959
808.607	8138
808.749	8126
808.891	8214
809.033	8229
809.174	8214
809.316	8058
809.458	8058
809.6	8024
809.741	8050
809.883	8043
810.025	8050
810.166	8149
810.308	8065
810.45	7944
810.591	7898
810.733	7780
810.875	7693
811.016	7476
811.158	7533
811.299	7567
811.441	7772
811.582	7666
811.724	7548
811.865	7510
812.007	7601
812.148	7590
812.29	7658
812.431	7818
812.573	7921
812.714	8001
812.855	8214
812.997	8229
813.138	8305
813.279	8218
813.421	8096
813.562	8001
813.703	7879
813.845	7795
813.986	7434
814.127	7202
814.268	7259
814.41	7266
814.551	7179
814.692	7171
814.833	7129
814.974	7122
815.115	7156
815.256	6993
815.397	6939
815.539	7000
815.68	6798
815.821	6791
815.962	6840
816.103	6802
816.244	6753
816.385	6665
816.526	6654
816.666	6555
816.807	6289
816.948	6414
817.089	6418
817.23	6479
817.371	6407
817.512	6350
817.653	6395
817.793	6357
817.934	6365
818.075	6422
818.216	6399
818.356	6410
818.497	6190
818.638	6083
818.778	6057
818.919	6095
819.06	6235
819.2	6319
819.341	6262
819.481	6372
819.622	6509
819.762	6669
819.903	6688
820.043	6559
820.184	6521
820.324	6540
820.465	6673
820.605	6662
820.746	6654
820.886	6486
821.026	6601
821.167	6734
821.307	6829
821.447	6738
821.588	6627
821.728	6612
821.868	6490
822.008	6281
822.149	6308
822.289	6331
822.429	6121
822.569	6076
822.709	6121
822.849	5923
822.99	5863
823.13	5901
823.27	5958
823.41	5741
823.55	5748
823.69	5805
823.83	5794
823.97	5619
824.11	5516
824.25	5493
824.389	5596
824.529	5573
824.669	5570
824.809	5627
824.949	5642
825.089	5627
825.228	5558
825.368	5379
825.508	5349
825.648	5322
825.787	5357
825.927	5376
826.067	5284
826.206	5307
826.346	5421
826.485	5341
826.625	5414
826.765	5566
826.904	5486
827.044	5254
827.183	5208
827.323	5140
827.462	5269
827.601	5143
827.741	5189
827.88	5181
828.02	5109
828.159	5212
828.298	5322
828.437	5360
828.577	5299
828.716	5463
828.855	5322
828.994	5136
829.134	5181
829.273	5212
829.412	5159
829.551	5105
829.69	5159
829.829	5216
829.968	5379
830.107	5261
830.246	5269
830.385	5128
830.524	5140
830.663	5067
830.802	4896
830.941	4900
831.08	4881
831.219	5022
831.357	5006
831.496	5147
831.635	4919
831.774	4843
831.913	4843
832.051	4748
832.19	4759
832.329	4847
832.467	4691
832.606	4637
832.744	4748
832.883	4744
833.022	4740
833.16	4816
833.299	4824
833.437	4854
833.576	4816
833.714	4885
833.852	4854
833.991	4908
834.129	4976
834.267	4953
834.406	4915
834.544	5003
834.682	4972
834.821	4991
834.959	5170
835.097	5025
835.235	5132
835.373	5098
835.511	5136
835.65	5022
835.788	5056
835.926	4904
836.064	4889
836.202	4877
836.34	5143
836.478	5208
836.615	5105
836.753	5140
836.891	5296
837.029	5265
837.167	5216
837.305	5151
837.443	5136
837.58	5090
837.718	5235
837.856	5143
837.993	5136
838.131	5250
838.269	5208
838.406	5166
838.544	5128
838.681	5003
838.819	5048
838.956	4919
839.094	4858
839.231	4938
839.369	5060
839.506	5360
839.643	5220
839.781	5037
839.918	5048
840.055	5113
840.193	5090
840.33	5109
840.467	5147
840.604	5155
840.742	5429
840.879	5048
841.016	5117
841.153	5155
841.29	5364
841.427	5318
841.564	5284
841.701	5398
841.838	5307
841.975	5242
842.112	5239
842.249	5124
842.385	5128
842.522	5360
842.659	5174
842.796	5178
842.933	5170
843.069	5181
843.206	5181
843.343	5318
843.479	5284
843.616	5280
843.752	5037
843.889	5003
844.025	5258
844.162	5025
844.298	5185
844.435	5067
844.571	5060
844.708	5220
844.844	5299
844.98	5357
845.117	5269
845.253	5178
845.389	5045
845.525	5166
845.661	5147
845.798	4999
845.934	5147
846.07	5037
846.206	5223
846.342	5254
846.478	5136
846.614	5041
846.75	5022
846.886	5014
847.022	5155
847.158	5033
847.294	5071
847.429	5113
847.565	5041
847.701	5296
847.837	4873
847.972	4850
848.108	4968
848.244	4957
848.379	4828
848.515	4710
848.65	4664
848.786	4740
848.921	4793
849.057	4889
849.192	4889
849.328	4854
849.463	4793
849.598	4839
849.734	4839
849.869	4683
850.004	4683
850.14	4668
850.275	4618
850.41	4531
850.545	4561
850.68	4588
850.815	4615
850.95	4626
851.085	4793
851.22	4771
851.355	4710
851.49	4653
851.625	4653
851.76	4649
851.895	4558
852.03	4542
852.165	4675
852.299	4691
852.434	4801
852.569	4752
852.703	4740
852.838	4824
852.973	4908
853.107	4946
853.242	4736
853.376	4683
853.511	4603
853.645	4596
853.78	4767
853.914	4622
854.048	4634
854.183	4630
854.317	4733
854.451	4828
854.585	4698
854.72	4679
854.854	4809
854.988	4573
855.122	4622
855.256	4558
855.39	4656
855.524	4790
855.658	4733
855.792	4645
855.926	4694
856.06	4774
856.194	4767
856.327	4675
856.461	4656
856.595	4615
856.729	4653
856.862	4771
856.996	4691
857.13	4759
857.263	4771
857.397	4786
857.53	4664
857.664	4729
857.797	4759
857.931	4797
858.064	4736
858.197	4691
858.331	4649
858.464	4618
858.597	4527
858.731	4630
858.864	4664
858.997	4588
859.13	4615
859.263	4702
859.396	4710
859.529	4561
859.662	4584
859.795	4584
859.928	4664
860.061	4763
860.194	4797
860.327	4634
860.46	4599
860.592	4729
860.725	4729
860.858	4767
860.99	4584
861.123	4531
861.256	4531
861.388	4626
861.521	5273
861.653	4470
861.786	4481
861.918	4497
862.05	4504
862.183	4592
862.315	4664
862.447	4645
862.58	4573
862.712	4424
862.844	4325
862.976	4451
863.108	4421
863.24	4885
863.372	4344
863.504	4428
863.636	4409
863.768	4470
863.9	4459
864.032	4383
864.164	4413
864.296	4497
864.428	4508
864.559	4542
864.691	4531
864.823	4569
864.954	4523
865.086	4478
865.217	4481
865.349	4417
865.48	4462
865.612	4497
865.743	4634
865.875	4470
866.006	4405
866.137	4474
866.269	4470
866.4	4421
866.531	4417
866.662	4421
866.793	4417
866.924	4455
867.055	4531
867.186	4447
867.317	4409
867.448	4440
867.579	4424
867.71	4421
867.841	4421
867.972	4436
868.103	4470
868.233	4428
868.364	4421
868.495	4497
868.625	4641
868.756	4793
868.886	4592
869.017	4683
869.147	4782
869.278	4755
869.408	4710
869.539	4615
869.669	4744
869.799	4596
869.929	4744
870.06	4759
870.19	4915
870.32	4896
870.45	5014
870.58	5018
870.71	5155
870.84	5124
870.97	5037
871.1	4934
871.23	5124
871.36	5113
871.489	5014
871.619	5067
871.749	5121
871.879	5060
872.008	5220
872.138	5075
872.267	5010
872.397	4870
872.526	4816
872.656	4706
872.785	4816
872.915	4991
873.044	5022
873.173	4972
873.303	4965
873.432	4957
873.561	4953
873.69	4877
873.819	4885
873.948	4908
874.077	4805
874.206	4771
874.335	4793
874.464	4934
874.593	5075
874.722	4968
874.851	5075
874.979	5075
875.108	5094
875.237	4858
875.365	4877
875.494	4847
875.623	4972
875.751	4816
875.88	4831
876.008	4972
876.136	5029
876.265	5197
876.393	5341
876.521	5212
876.65	5208
876.778	5132
876.906	5067
877.034	5029
877.162	5045
877.29	4927
877.418	5067
877.546	5052
877.674	5048
877.802	5041
877.93	5003
878.058	4915
878.185	4870
878.313	4911
878.441	5003
878.568	4778
878.696	4866
878.824	4946
878.951	5006
879.079	5121
879.206	5288
879.333	5124
879.461	4957
879.588	4999
879.715	5090
879.842	5231
879.97	5060
880.097	4774
880.224	4774
880.351	4854
880.478	4858
880.605	4816
880.732	4771
880.859	5109
880.986	4862
881.112	4915
881.239	4820
881.366	4694
881.493	4577
881.619	4573
881.746	4649
881.872	4683
881.999	4630
882.125	4694
882.252	4790
882.378	4847
882.505	4991
882.631	4820
882.757	4618
882.883	4778
883.01	4744
883.136	4668
883.262	4577
883.388	4588
883.514	4797
883.64	4908
883.766	4767
883.892	4656
884.018	4717
884.143	4904
884.269	5018
884.395	4641
884.52	4664
884.646	4649
884.772	4569
884.897	4596
885.023	4660
885.148	4782
885.274	4866
885.399	4828
885.524	4733
885.65	4687
885.775	4740
885.9	4714
886.025	4858
886.15	4835
886.275	4733
886.4	4649
886.525	4740
886.65	4698
886.775	4736
886.9	4927
887.025	5045
887.149	4790
887.274	4656
887.399	4645
887.523	4577
887.648	4542
887.773	4588
887.897	4752
888.021	4774
888.146	4675
888.27	4828
888.395	4908
888.519	4824
888.643	4755
888.767	4885
888.891	4717
889.015	4584
889.139	4660
889.263	4603
889.387	4786
889.511	4824
889.635	4782
889.759	4653
889.883	4641
890.006	4767
890.13	4854
890.254	4634
890.377	4702
890.501	4493
890.624	4573
890.748	4668
890.871	4542
890.995	4470
891.118	4386
891.241	4497
891.364	4577
891.488	4679
891.611	4561
891.734	4538
891.857	4664
891.98	4538
892.103	4653
892.226	4653
892.349	4531
892.471	4413
892.594	4531
892.717	4542
892.839	4580
892.962	4546
893.085	4656
893.207	4645
893.33	4470
893.452	4558
893.575	4717
893.697	4592
893.819	4828
893.941	4809
894.064	4782
894.186	4611
894.308	4542
894.43	4740
894.552	4812
894.674	4748
894.796	4542
894.918	4615
895.04	4603
895.161	4744
895.283	4694
895.405	4550
895.526	4626
895.648	4714
895.769	4679
895.891	4717
896.012	4748
896.134	4759
896.255	4683
896.376	4630
896.498	4656
896.619	4641
896.74	4641
896.861	4672
896.982	4949
897.103	5064
897.224	4847
897.345	4714
897.466	4630
897.587	4774
897.708	4904
897.828	4801
897.949	4634
898.07	4546
898.19	4607
898.311	4835
898.431	4736
898.552	4710
898.672	4782
898.792	4847
898.913	4729
899.033	4641
899.153	4538
899.273	4432
899.393	4512
899.513	4554
899.633	4527
899.753	4550
899.873	4474
899.993	4577
900.113	4523
900.232	4584
900.352	4523
900.472	4523
900.591	4417
900.711	4497
900.83	4409
900.95	4592
901.069	4748
901.189	4554
901.308	4386
901.427	4314
901.546	4421
901.665	4451
901.784	4508
901.904	4398
902.023	4291
902.141	4204
902.26	4200
902.379	4303
902.498	4272
902.617	4234
902.735	4371
902.854	4360
902.973	4352
903.091	4200
903.21	4219
903.328	4310
903.446	4291
903.565	4261
903.683	4360
903.801	4261
903.919	4379
904.038	4398
904.156	4291
904.274	4409
904.392	4436
904.51	4459
904.627	4493
904.745	4592
904.863	4679
904.981	4371
905.098	4306
905.216	4371
905.334	4462
905.451	4466
905.569	4417
905.686	4603
905.803	4565
905.921	4436
906.038	4573
906.155	4504
906.272	4409
906.389	4485
906.506	4386
906.623	4409
906.74	4394
906.857	4276
906.974	4360
907.091	4584
907.208	4679
907.324	4626
907.441	4554
907.557	4329
907.674	4379
907.79	4337
907.907	4417
908.023	4531
908.139	4485
908.256	4405
908.372	4455
908.488	4417
908.604	4371
908.72	4356
908.836	4428
908.952	4341
909.068	4455
909.184	4538
909.3	4519
909.415	4596
909.531	4569
909.647	4348
909.762	4333
909.878	4352
909.993	4470
910.108	4485
910.224	4424
910.339	4436
910.454	4443
910.57	4417
910.685	4303
910.8	4668
910.915	4599
911.03	4504
911.145	4306
911.259	4325
911.374	4341
911.489	4314
911.604	4295
911.718	4177
911.833	4185
911.947	4105
912.062	4051
912.176	4215
912.291	4215
912.405	4287
912.519	4497
912.633	4558
912.748	4443
912.862	4303
912.976	4223
913.09	4105
913.204	4177
913.318	4265
913.431	4413
913.545	4352
913.659	4466
913.772	4333
913.886	4276
914	4227
914.113	4428
914.226	4481
914.34	4379
914.453	4238
914.566	4447
914.68	4333
914.793	4303
914.906	4185
915.019	4185
915.132	4124
915.245	4169
915.358	4234
915.47	4253
915.583	4299
915.696	4249
915.809	4428
915.921	4402
916.034	4246
916.146	4246
916.259	4204
916.371	4417
916.483	4383
916.595	4306
916.708	4337
916.82	4325
916.932	4360
917.044	4310
917.156	4341
917.268	4253
917.38	4303
917.491	4272
917.603	4287
917.715	4421
917.826	4440
917.938	4322
918.049	4272
918.161	4413
918.272	4500
918.384	4554
918.495	4436
918.606	4329
918.717	4253
918.828	4348
918.939	4341
919.05	4314
919.161	4375
919.272	4147
919.383	4230
919.494	4432
919.604	4653
919.715	4462
919.826	4329
919.936	4424
920.047	4508
920.157	4516
920.267	4679
920.378	4554
920.488	4527
920.598	4748
920.708	4915
920.818	4733
920.928	4759
921.038	4938
921.148	4934
921.258	4641
921.368	4554
921.477	4531
921.587	4489
921.697	4424
921.806	4527
921.916	4417
922.025	4341
922.134	4227
922.244	4238
922.353	4325
922.462	4173
922.571	4135
922.68	4051
922.789	3975
922.898	4055
923.007	3968
923.116	4147
923.224	4082
923.333	4067
923.442	3987
923.55	3975
923.659	4048
923.767	4135
923.876	4006
923.984	4143
924.092	4036
924.201	4078
924.309	4105
924.417	4109
924.525	4036
924.633	4101
924.741	5041
924.849	3888
924.956	4162
925.064	4013
925.172	3915
925.279	3953
925.387	4120
925.494	4055
925.602	4181
925.709	4196
925.816	4051
925.924	4120
926.031	4253
926.138	4207
926.245	4291
926.352	4105
926.459	4249
926.566	4276
926.673	4162
926.779	4086
926.886	4150
926.993	4006
927.099	3975
927.206	3964
927.312	3983
927.419	4021
927.525	4048
927.631	4112
927.737	3964
927.843	3937
927.95	3842
928.056	4002
928.162	3979
928.267	4071
928.373	4725
928.479	4147
928.585	3842
928.69	4074
928.796	4086
928.901	3979
929.007	3857
929.112	4029
929.218	3983
929.323	3949
929.428	3918
929.533	4116
929.638	3930
929.743	3987
929.848	4048
929.953	3972
930.058	3941
930.163	3759
930.267	3823
930.372	3983
930.477	3812
930.581	4082
930.685	3945
930.79	3865
930.894	3896
930.998	3808
931.103	4048
931.207	3728
931.311	3740
931.415	3644
931.519	3549
931.623	3545
