Data from test_V78500241_1816.txt Node
Date: Fri Mar 25 17:01:37 CST 2022
User: usil
Spectrometer: V785-0024
Trigger mode: 0
Integration Time (sec): 4.000000E-1
Scans to average: 1
Nonlinearity correction enabled: false
Boxcar width: 0
Storing dark spectrum: false
XAxis mode: Wavelengths
Number of Pixels in Spectrum: 1024
>>>>>Begin Spectral Data<<<<<
801.071	8035
801.214	8001
801.356	7928
801.499	7799
801.641	7772
801.783	7811
801.926	7951
802.068	7951
802.211	8005
802.353	8020
802.496	7879
802.638	7830
802.78	7860
802.923	7970
803.065	7902
803.208	7845
803.35	7967
803.492	8073
803.635	8126
803.777	7978
803.919	8115
804.061	8488
804.204	8111
804.346	8058
804.488	7974
804.63	8073
804.773	7955
804.915	8084
805.057	8210
805.199	8180
805.341	8176
805.483	8229
805.626	8221
805.768	8100
805.91	8218
806.052	8218
806.194	8123
806.336	8317
806.478	8043
806.62	8046
806.762	8168
806.904	8252
807.046	8480
807.188	8332
807.33	8294
807.472	8317
807.614	8142
807.756	8138
807.898	7955
808.04	7921
808.182	7868
808.324	7887
808.465	7811
808.607	7986
808.749	8084
808.891	8145
809.033	8240
809.174	8271
809.316	8039
809.458	8054
809.6	7959
809.741	8046
809.883	7997
810.025	8020
810.166	8050
810.308	7970
810.45	7921
810.591	7871
810.733	7753
810.875	7639
811.016	7514
811.158	7460
811.299	7499
811.441	7723
811.582	7632
811.724	7525
811.865	7537
812.007	7613
812.148	7586
812.29	7605
812.431	7693
812.573	7833
812.714	7997
812.855	8187
812.997	8225
813.138	8305
813.279	8176
813.421	8069
813.562	7921
813.703	7772
813.845	7696
813.986	7434
814.127	7209
814.268	7244
814.41	7156
814.551	7133
814.692	7183
814.833	7103
814.974	7038
815.115	7152
815.256	6943
815.397	6958
815.539	6951
815.68	6837
815.821	6802
815.962	6859
816.103	6859
816.244	6677
816.385	6612
816.526	6578
816.666	6494
816.807	6281
816.948	6376
817.089	6513
817.23	6384
817.371	6331
817.512	6338
817.653	6365
817.793	6353
817.934	6350
818.075	6471
818.216	6403
818.356	6361
818.497	6232
818.638	6159
818.778	6205
818.919	6125
819.06	6102
819.2	6315
819.341	6254
819.481	6391
819.622	6467
819.762	6745
819.903	6738
820.043	6620
820.184	6578
820.324	6563
820.465	6673
820.605	6730
820.746	6589
820.886	6479
821.026	6620
821.167	6654
821.307	6749
821.447	6738
821.588	6642
821.728	6585
821.868	6536
822.008	6338
822.149	6361
822.289	6388
822.429	6102
822.569	6022
822.709	6091
822.849	5885
822.99	5859
823.13	5904
823.27	5885
823.41	5767
823.55	5798
823.69	5767
823.83	5771
823.97	5676
824.11	5516
824.25	5486
824.389	5539
824.529	5539
824.669	5505
824.809	5581
824.949	5600
825.089	5581
825.228	5532
825.368	5425
825.508	5360
825.648	5337
825.787	5387
825.927	5379
826.067	5265
826.206	5288
826.346	5391
826.485	5387
826.625	5379
826.765	5539
826.904	5520
827.044	5265
827.183	5220
827.323	5124
827.462	5250
827.601	5216
827.741	5159
827.88	5212
828.02	5098
828.159	5201
828.298	5341
828.437	5318
828.577	5326
828.716	5425
828.855	5303
828.994	5170
829.134	5098
829.273	5250
829.412	5178
829.551	5155
829.69	5181
829.829	5311
829.968	5391
830.107	5235
830.246	5303
830.385	5231
830.524	5128
830.663	5121
830.802	4980
830.941	4972
831.08	4877
831.219	4980
831.357	5018
831.496	5174
831.635	4968
831.774	4831
831.913	4854
832.051	4752
832.19	4729
832.329	4870
832.467	4729
832.606	4683
832.744	4755
832.883	4729
833.022	4748
833.16	4793
833.299	4908
833.437	4835
833.576	4877
833.714	4873
833.852	4858
833.991	4911
834.129	5006
834.267	5006
834.406	4968
834.544	4980
834.682	4991
834.821	4991
834.959	5181
835.097	5048
835.235	5151
835.373	5132
835.511	5098
835.65	5006
835.788	5090
835.926	4934
836.064	4942
836.202	4942
836.34	5246
836.478	5246
836.615	5212
836.753	5235
836.891	5280
837.029	5269
837.167	5239
837.305	5178
837.443	5204
837.58	5102
837.718	5303
837.856	5181
837.993	5174
838.131	5254
838.269	5261
838.406	5208
838.544	5189
838.681	5071
838.819	5033
838.956	4946
839.094	4953
839.231	5014
839.369	5083
839.506	5478
839.643	5273
839.781	5109
839.918	5033
840.055	5162
840.193	5128
840.33	5155
840.467	5136
840.604	5212
840.742	5478
840.879	5132
841.016	5140
841.153	5170
841.29	5410
841.427	5337
841.564	5357
841.701	5318
841.838	5341
841.975	5307
842.112	5284
842.249	5181
842.385	5067
842.522	5357
842.659	5189
842.796	5155
842.933	5204
843.069	5216
843.206	5189
843.343	5322
843.479	5254
843.616	5303
843.752	5067
843.889	5086
844.025	5254
844.162	5064
844.298	5185
844.435	5105
844.571	5098
844.708	5208
844.844	5322
844.98	5345
845.117	5315
845.253	5204
845.389	5132
845.525	5216
845.661	5121
845.798	5064
845.934	5128
846.07	5086
846.206	5208
846.342	5284
846.478	5227
846.614	5060
846.75	5022
846.886	4942
847.022	5117
847.158	5022
847.294	5075
847.429	5155
847.565	5105
847.701	5334
847.837	4908
847.972	4854
848.108	5014
848.244	4942
848.379	4812
848.515	4767
848.65	4740
848.786	4740
848.921	4793
849.057	4915
849.192	4873
849.328	4793
849.463	4839
849.598	4835
849.734	4774
849.869	4717
850.004	4664
850.14	4687
850.275	4656
850.41	4561
850.545	4618
850.68	4611
850.815	4653
850.95	4653
851.085	4900
851.22	4763
851.355	4706
851.49	4649
851.625	4687
851.76	4694
851.895	4664
852.03	4592
852.165	4698
852.299	4767
852.434	4854
852.569	4755
852.703	4793
852.838	4858
852.973	4965
853.107	4972
853.242	4801
853.376	4729
853.511	4565
853.645	4653
853.78	4870
853.914	4748
854.048	4675
854.183	4615
854.317	4691
854.451	4831
854.585	4668
854.72	4630
854.854	4797
854.988	4634
855.122	4626
855.256	4542
855.39	4698
855.524	4877
855.658	4774
855.792	4706
855.926	4755
856.06	4801
856.194	4854
856.327	4714
856.461	4630
856.595	4664
856.729	4645
856.862	4816
856.996	4714
857.13	4767
857.263	4805
857.397	4786
857.53	4706
857.664	4805
857.797	4774
857.931	4850
858.064	4733
858.197	4771
858.331	4649
858.464	4626
858.597	4542
858.731	4668
858.864	4698
858.997	4584
859.13	4714
859.263	4725
859.396	4714
859.529	4599
859.662	4596
859.795	4599
859.928	4653
860.061	4744
860.194	4824
860.327	4615
860.46	4618
860.592	4733
860.725	4725
860.858	4763
860.99	4618
861.123	4535
861.256	4569
861.388	4607
861.521	5429
861.653	4493
861.786	4447
861.918	4474
862.05	4565
862.183	4577
862.315	4584
862.447	4622
862.58	4561
862.712	4394
862.844	4367
862.976	4508
863.108	4512
863.24	4927
863.372	4341
863.504	4451
863.636	4470
863.768	4546
863.9	4440
864.032	4363
864.164	4417
864.296	4512
864.428	4626
864.559	4584
864.691	4577
864.823	4512
864.954	4512
865.086	4508
865.217	4516
865.349	4432
865.48	4527
865.612	4538
865.743	4679
865.875	4481
866.006	4447
866.137	4470
866.269	4470
866.4	4459
866.531	4409
866.662	4432
866.793	4440
866.924	4440
867.055	4516
867.186	4462
867.317	4424
867.448	4409
867.579	4432
867.71	4440
867.841	4360
867.972	4516
868.103	4428
868.233	4500
868.364	4504
868.495	4542
868.625	4660
868.756	4736
868.886	4630
869.017	4660
869.147	4786
869.278	4793
869.408	4683
869.539	4694
869.669	4744
869.799	4668
869.929	4809
870.06	4763
870.19	5045
870.32	4961
870.45	4968
870.58	5041
870.71	5105
870.84	5105
870.97	4923
871.1	4911
871.23	5140
871.36	5105
871.489	5003
871.619	5071
871.749	5117
871.879	5102
872.008	5208
872.138	5071
872.267	5006
872.397	4885
872.526	4831
872.656	4725
872.785	4820
872.915	4976
873.044	5033
873.173	4972
873.303	4987
873.432	4957
873.561	4984
873.69	4904
873.819	4896
873.948	4965
874.077	4843
874.206	4812
874.335	4782
874.464	4930
874.593	5052
874.722	4987
874.851	5140
874.979	5086
875.108	5075
875.237	4942
875.365	4938
875.494	4908
875.623	4957
875.751	4877
875.88	4873
876.008	4995
876.136	5025
876.265	5227
876.393	5391
876.521	5242
876.65	5231
876.778	5132
876.906	5086
877.034	5003
877.162	5037
877.29	5022
877.418	5071
877.546	5094
877.674	5048
877.802	5025
877.93	4984
878.058	4999
878.185	4881
878.313	5006
878.441	4938
878.568	4839
878.696	4908
878.824	4946
878.951	5022
879.079	5117
879.206	5299
879.333	5094
879.461	5010
879.588	5006
879.715	5155
879.842	5227
879.97	5048
880.097	4828
880.224	4736
880.351	4790
880.478	4866
880.605	4835
880.732	4850
880.859	5143
880.986	4900
881.112	4915
881.239	4774
881.366	4679
881.493	4637
881.619	4599
881.746	4603
881.872	4668
881.999	4710
882.125	4729
882.252	4831
882.378	4820
882.505	4987
882.631	4828
882.757	4679
882.883	4759
883.01	4744
883.136	4691
883.262	4584
883.388	4641
883.514	4839
883.64	4930
883.766	4797
883.892	4679
884.018	4714
884.143	4968
884.269	5067
884.395	4664
884.52	4637
884.646	4664
884.772	4592
884.897	4592
885.023	4698
885.148	4816
885.274	4892
885.399	4828
885.524	4698
885.65	4698
885.775	4733
885.9	4691
886.025	4885
886.15	4824
886.275	4755
886.4	4729
886.525	4733
886.65	4660
886.775	4649
886.9	4915
887.025	5045
887.149	4820
887.274	4656
887.399	4607
887.523	4596
887.648	4649
887.773	4618
887.897	4790
888.021	4767
888.146	4683
888.27	4812
888.395	4911
888.519	4835
888.643	4843
888.767	4850
888.891	4683
889.015	4618
889.139	4637
889.263	4603
889.387	4748
889.511	4854
889.635	4835
889.759	4618
889.883	4618
890.006	4721
890.13	4854
890.254	4634
890.377	4702
890.501	4546
890.624	4535
890.748	4683
890.871	4531
890.995	4459
891.118	4413
891.241	4527
891.364	4531
891.488	4649
891.611	4474
891.734	4554
891.857	4649
891.98	4584
892.103	4698
892.226	4641
892.349	4550
892.471	4386
892.594	4531
892.717	4580
892.839	4573
892.962	4577
893.085	4660
893.207	4622
893.33	4493
893.452	4546
893.575	4679
893.697	4577
893.819	4778
893.941	4797
894.064	4801
894.186	4588
894.308	4588
894.43	4736
894.552	4816
894.674	4763
894.796	4546
894.918	4615
895.04	4565
895.161	4759
895.283	4656
895.405	4611
895.526	4641
895.648	4675
895.769	4721
895.891	4714
896.012	4755
896.134	4714
896.255	4660
896.376	4660
896.498	4660
896.619	4683
896.74	4618
896.861	4675
896.982	4942
897.103	5083
897.224	4820
897.345	4740
897.466	4675
897.587	4729
897.708	4850
897.828	4782
897.949	4675
898.07	4558
898.19	4599
898.311	4843
898.431	4679
898.552	4771
898.672	4793
898.792	4793
898.913	4733
899.033	4664
899.153	4535
899.273	4440
899.393	4497
899.513	4527
899.633	4489
899.753	4554
899.873	4519
899.993	4622
900.113	4558
900.232	4573
900.352	4542
900.472	4512
900.591	4402
900.711	4451
900.83	4474
900.95	4580
901.069	4717
901.189	4546
901.308	4356
901.427	4291
901.546	4417
901.665	4489
901.784	4504
901.904	4402
902.023	4348
902.141	4192
902.26	4147
902.379	4322
902.498	4257
902.617	4253
902.735	4379
902.854	4405
902.973	4383
903.091	4253
903.21	4223
903.328	4280
903.446	4268
903.565	4333
903.683	4402
903.801	4284
903.919	4417
904.038	4447
904.156	4325
904.274	4436
904.392	4451
904.51	4493
904.627	4504
904.745	4622
904.863	4618
904.981	4424
905.098	4314
905.216	4390
905.334	4459
905.451	4466
905.569	4466
905.686	4580
905.803	4603
905.921	4447
906.038	4569
906.155	4497
906.272	4432
906.389	4466
906.506	4371
906.623	4417
906.74	4455
906.857	4363
906.974	4432
907.091	4599
907.208	4675
907.324	4607
907.441	4523
907.557	4352
907.674	4352
907.79	4360
907.907	4485
908.023	4535
908.139	4531
908.256	4470
908.372	4542
908.488	4519
908.604	4440
908.72	4333
908.836	4413
908.952	4436
909.068	4497
909.184	4558
909.3	4481
909.415	4645
909.531	4561
909.647	4424
909.762	4440
909.878	4409
909.993	4493
910.108	4478
910.224	4413
910.339	4504
910.454	4466
910.57	4462
910.685	4409
910.8	4710
910.915	4656
911.03	4485
911.145	4360
911.259	4367
911.374	4424
911.489	4314
911.604	4295
911.718	4219
911.833	4242
911.947	4090
912.062	4093
912.176	4230
912.291	4234
912.405	4276
912.519	4500
912.633	4527
912.748	4341
912.862	4386
912.976	4227
913.09	4177
913.204	4188
913.318	4249
913.431	4386
913.545	4390
913.659	4432
913.772	4394
913.886	4295
914	4249
914.113	4428
914.226	4451
914.34	4394
914.453	4268
914.566	4531
914.68	4344
914.793	4413
914.906	4257
915.019	4181
915.132	4120
915.245	4215
915.358	4227
915.47	4265
915.583	4367
915.696	4268
915.809	4455
915.921	4428
916.034	4303
916.146	4280
916.259	4200
916.371	4428
916.483	4424
916.595	4341
916.708	4379
916.82	4363
916.932	4360
917.044	4341
917.156	4318
917.268	4234
917.38	4329
917.491	4310
917.603	4375
917.715	4417
917.826	4470
917.938	4409
918.049	4287
918.161	4428
918.272	4569
918.384	4573
918.495	4443
918.606	4360
918.717	4268
918.828	4356
918.939	4386
919.05	4303
919.161	4360
919.272	4158
919.383	4272
919.494	4485
919.604	4664
919.715	4432
919.826	4390
919.936	4451
920.047	4538
920.157	4561
920.267	4706
920.378	4611
920.488	4489
920.598	4725
920.708	4949
920.818	4797
920.928	4809
921.038	4961
921.148	4930
921.258	4679
921.368	4592
921.477	4535
921.587	4531
921.697	4394
921.806	4584
921.916	4443
922.025	4295
922.134	4284
922.244	4310
922.353	4367
922.462	4219
922.571	4185
922.68	4040
922.789	4048
922.898	4082
923.007	4067
923.116	4135
923.224	4097
923.333	4078
923.442	4013
923.55	4021
923.659	4059
923.767	4150
923.876	4029
923.984	4162
924.092	4040
924.201	4086
924.309	4124
924.417	4124
924.525	4074
924.633	4150
924.741	5132
924.849	3941
924.956	4169
925.064	3949
925.172	3937
925.279	3979
925.387	4135
925.494	4086
925.602	4265
925.709	4185
925.816	4074
925.924	4207
926.031	4268
926.138	4227
926.245	4257
926.352	4105
926.459	4272
926.566	4299
926.673	4169
926.779	4086
926.886	4120
926.993	4029
927.099	3979
927.206	4006
927.312	3972
927.419	4082
927.525	4036
927.631	4143
927.737	3991
927.843	3983
927.95	3884
928.056	3991
928.162	4002
928.267	4112
928.373	4584
928.479	4139
928.585	3903
928.69	4010
928.796	4120
928.901	3998
929.007	3903
929.112	4063
929.218	4006
929.323	3968
929.428	3979
929.533	4135
929.638	3975
929.743	3968
929.848	4067
929.953	4055
930.058	3953
930.163	3827
930.267	3854
930.372	3983
930.477	3854
930.581	4166
930.685	3949
930.79	3827
930.894	3888
930.998	3888
931.103	4055
931.207	3732
931.311	3732
931.415	3675
931.519	3542
931.623	3542
