Data from test_V78500241_1203.txt Node
Date: Fri Mar 25 16:57:21 CST 2022
User: usil
Spectrometer: V785-0024
Trigger mode: 0
Integration Time (sec): 4.000000E-1
Scans to average: 1
Nonlinearity correction enabled: false
Boxcar width: 0
Storing dark spectrum: false
XAxis mode: Wavelengths
Number of Pixels in Spectrum: 1024
>>>>>Begin Spectral Data<<<<<
801.071	8111
801.214	8054
801.356	7970
801.499	7928
801.641	7769
801.783	7837
801.926	8043
802.068	7982
802.211	8073
802.353	8016
802.496	7856
802.638	7894
802.78	7986
802.923	8016
803.065	7955
803.208	7959
803.35	8001
803.492	8123
803.635	8107
803.777	8107
803.919	8172
804.061	8469
804.204	8164
804.346	8153
804.488	8054
804.63	8130
804.773	8008
804.915	8119
805.057	8294
805.199	8252
805.341	8259
805.483	8294
805.626	8240
805.768	8126
805.91	8256
806.052	8225
806.194	8130
806.336	8225
806.478	8161
806.62	8054
806.762	8142
806.904	8366
807.046	8511
807.188	8351
807.33	8317
807.472	8317
807.614	8145
807.756	8149
807.898	8092
808.04	7913
808.182	7959
808.324	7970
808.465	7997
808.607	8058
808.749	8195
808.891	8195
809.033	8317
809.174	8282
809.316	8073
809.458	8088
809.6	7925
809.741	8084
809.883	8035
810.025	8138
810.166	8050
810.308	8043
810.45	8084
810.591	7852
810.733	7700
810.875	7594
811.016	7514
811.158	7506
811.299	7677
811.441	7750
811.582	7685
811.724	7567
811.865	7521
812.007	7636
812.148	7689
812.29	7685
812.431	7757
812.573	7925
812.714	8050
812.855	8161
812.997	8259
813.138	8343
813.279	8263
813.421	8111
813.562	8008
813.703	7898
813.845	7753
813.986	7392
814.127	7221
814.268	7240
814.41	7228
814.551	7171
814.692	7194
814.833	7126
814.974	7091
815.115	7114
815.256	6981
815.397	6947
815.539	6954
815.68	6837
815.821	6772
815.962	6875
816.103	6867
816.244	6745
816.385	6665
816.526	6646
816.666	6498
816.807	6292
816.948	6407
817.089	6517
817.23	6429
817.371	6388
817.512	6410
817.653	6441
817.793	6342
817.934	6418
818.075	6422
818.216	6433
818.356	6410
818.497	6304
818.638	6117
818.778	6167
818.919	6148
819.06	6213
819.2	6270
819.341	6372
819.481	6372
819.622	6551
819.762	6719
819.903	6734
820.043	6623
820.184	6608
820.324	6578
820.465	6738
820.605	6646
820.746	6665
820.886	6540
821.026	6662
821.167	6658
821.307	6856
821.447	6776
821.588	6703
821.728	6578
821.868	6536
822.008	6308
822.149	6372
822.289	6357
822.429	6163
822.569	6106
822.709	6167
822.849	5904
822.99	5904
823.13	5920
823.27	5935
823.41	5764
823.55	5786
823.69	5760
823.83	5786
823.97	5646
824.11	5558
824.25	5493
824.389	5528
824.529	5649
824.669	5532
824.809	5611
824.949	5695
825.089	5611
825.228	5512
825.368	5398
825.508	5372
825.648	5307
825.787	5406
825.927	5414
826.067	5307
826.206	5284
826.346	5345
826.485	5433
826.625	5440
826.765	5535
826.904	5467
827.044	5254
827.183	5181
827.323	5102
827.462	5280
827.601	5128
827.741	5151
827.88	5201
828.02	5185
828.159	5231
828.298	5303
828.437	5322
828.577	5277
828.716	5493
828.855	5318
828.994	5132
829.134	5124
829.273	5208
829.412	5136
829.551	5174
829.69	5166
829.829	5189
829.968	5357
830.107	5277
830.246	5258
830.385	5185
830.524	5121
830.663	5071
830.802	5006
830.941	4889
831.08	4896
831.219	5033
831.357	5010
831.496	5162
831.635	4938
831.774	4866
831.913	4790
832.051	4744
832.19	4752
832.329	4850
832.467	4668
832.606	4653
832.744	4729
832.883	4702
833.022	4759
833.16	4809
833.299	4850
833.437	4866
833.576	4862
833.714	4854
833.852	4877
833.991	4862
834.129	4968
834.267	4949
834.406	4930
834.544	5014
834.682	5003
834.821	4946
834.959	5181
835.097	5056
835.235	5136
835.373	5071
835.511	5105
835.65	5022
835.788	5029
835.926	4911
836.064	4900
836.202	4927
836.34	5155
836.478	5265
836.615	5098
836.753	5208
836.891	5303
837.029	5326
837.167	5197
837.305	5201
837.443	5185
837.58	5105
837.718	5273
837.856	5197
837.993	5140
838.131	5212
838.269	5227
838.406	5174
838.544	5189
838.681	5045
838.819	5064
838.956	4896
839.094	4896
839.231	4957
839.369	5064
839.506	5440
839.643	5239
839.781	5048
839.918	5064
840.055	5086
840.193	5079
840.33	5079
840.467	5102
840.604	5155
840.742	5383
840.879	5052
841.016	5090
841.153	5155
841.29	5421
841.427	5353
841.564	5322
841.701	5410
841.838	5258
841.975	5235
842.112	5269
842.249	5113
842.385	5140
842.522	5349
842.659	5204
842.796	5151
842.933	5204
843.069	5151
843.206	5109
843.343	5318
843.479	5208
843.616	5269
843.752	5033
843.889	4995
844.025	5235
844.162	5010
844.298	5220
844.435	5098
844.571	5041
844.708	5246
844.844	5326
844.98	5345
845.117	5303
845.253	5109
845.389	5109
845.525	5174
845.661	5128
845.798	5014
845.934	5159
846.07	5075
846.206	5174
846.342	5299
846.478	5201
846.614	5045
846.75	5006
846.886	4976
847.022	5159
847.158	5010
847.294	5060
847.429	5136
847.565	5033
847.701	5318
847.837	4877
847.972	4805
848.108	4904
848.244	4938
848.379	4797
848.515	4767
848.65	4698
848.786	4759
848.921	4812
849.057	4843
849.192	4866
849.328	4831
849.463	4862
849.598	4797
849.734	4748
849.869	4733
850.004	4668
850.14	4672
850.275	4622
850.41	4535
850.545	4565
850.68	4634
850.815	4607
850.95	4656
851.085	4835
851.22	4725
851.355	4691
851.49	4569
851.625	4599
851.76	4641
851.895	4538
852.03	4546
852.165	4679
852.299	4714
852.434	4744
852.569	4687
852.703	4790
852.838	4870
852.973	4927
853.107	4919
853.242	4755
853.376	4618
853.511	4546
853.645	4626
853.78	4824
853.914	4717
854.048	4672
854.183	4683
854.317	4656
854.451	4881
854.585	4694
854.72	4637
854.854	4740
854.988	4584
855.122	4603
855.256	4512
855.39	4641
855.524	4809
855.658	4702
855.792	4725
855.926	4729
856.06	4752
856.194	4828
856.327	4679
856.461	4607
856.595	4683
856.729	4645
856.862	4740
856.996	4694
857.13	4717
857.263	4740
857.397	4778
857.53	4710
857.664	4744
857.797	4782
857.931	4828
858.064	4717
858.197	4733
858.331	4691
858.464	4653
858.597	4527
858.731	4634
858.864	4637
858.997	4588
859.13	4702
859.263	4679
859.396	4702
859.529	4577
859.662	4538
859.795	4527
859.928	4656
860.061	4733
860.194	4782
860.327	4649
860.46	4611
860.592	4691
860.725	4752
860.858	4744
860.99	4550
861.123	4527
861.256	4466
861.388	4615
861.521	5280
861.653	4474
861.786	4432
861.918	4504
862.05	4546
862.183	4565
862.315	4622
862.447	4634
862.58	4588
862.712	4363
862.844	4337
862.976	4436
863.108	4462
863.24	4858
863.372	4295
863.504	4432
863.636	4421
863.768	4523
863.9	4462
864.032	4352
864.164	4390
864.296	4478
864.428	4577
864.559	4504
864.691	4516
864.823	4554
864.954	4538
865.086	4470
865.217	4440
865.349	4398
865.48	4478
865.612	4481
865.743	4569
865.875	4443
866.006	4455
866.137	4478
866.269	4447
866.4	4455
866.531	4394
866.662	4363
866.793	4363
866.924	4390
867.055	4512
867.186	4451
867.317	4432
867.448	4352
867.579	4398
867.71	4383
867.841	4356
867.972	4493
868.103	4462
868.233	4478
868.364	4455
868.495	4481
868.625	4675
868.756	4729
868.886	4565
869.017	4622
869.147	4748
869.278	4736
869.408	4607
869.539	4615
869.669	4694
869.799	4649
869.929	4736
870.06	4740
870.19	4968
870.32	4923
870.45	4927
870.58	4949
870.71	5060
870.84	5075
870.97	4900
871.1	4900
871.23	5128
871.36	5151
871.489	5052
871.619	5025
871.749	5079
871.879	5109
872.008	5155
872.138	5033
872.267	4961
872.397	4805
872.526	4797
872.656	4725
872.785	4805
872.915	4968
873.044	5025
873.173	5003
873.303	4972
873.432	4961
873.561	4889
873.69	4866
873.819	4828
873.948	4908
874.077	4809
874.206	4774
874.335	4801
874.464	4957
874.593	5018
874.722	4961
874.851	5109
874.979	5018
875.108	5037
875.237	4915
875.365	4816
875.494	4847
875.623	4976
875.751	4801
875.88	4889
876.008	4946
876.136	4995
876.265	5121
876.393	5337
876.521	5223
876.65	5223
876.778	5170
876.906	5083
877.034	5022
877.162	5083
877.29	4991
877.418	5067
877.546	5067
877.674	5006
877.802	4999
877.93	5022
878.058	4908
878.185	4896
878.313	4915
878.441	4927
878.568	4809
878.696	4862
878.824	4953
878.951	4972
879.079	5086
879.206	5261
879.333	5098
879.461	4968
879.588	5006
879.715	5109
879.842	5223
879.97	4965
880.097	4771
880.224	4752
880.351	4820
880.478	4797
880.605	4774
880.732	4786
880.859	5056
880.986	4889
881.112	4900
881.239	4797
881.366	4656
881.493	4603
881.619	4592
881.746	4637
881.872	4637
881.999	4634
882.125	4672
882.252	4839
882.378	4858
882.505	4930
882.631	4805
882.757	4664
882.883	4691
883.01	4714
883.136	4687
883.262	4622
883.388	4607
883.514	4828
883.64	4835
883.766	4759
883.892	4656
884.018	4714
884.143	4877
884.269	5045
884.395	4626
884.52	4599
884.646	4634
884.772	4634
884.897	4546
885.023	4641
885.148	4763
885.274	4850
885.399	4828
885.524	4733
885.65	4736
885.775	4752
885.9	4717
886.025	4850
886.15	4820
886.275	4691
886.4	4615
886.525	4702
886.65	4714
886.775	4725
886.9	4862
887.025	5022
887.149	4862
887.274	4653
887.399	4592
887.523	4607
887.648	4569
887.773	4584
887.897	4740
888.021	4831
888.146	4660
888.27	4786
888.395	4862
888.519	4793
888.643	4854
888.767	4790
888.891	4660
889.015	4611
889.139	4592
889.263	4618
889.387	4774
889.511	4862
889.635	4748
889.759	4618
889.883	4618
890.006	4706
890.13	4839
890.254	4584
890.377	4675
890.501	4523
890.624	4500
890.748	4588
890.871	4542
890.995	4424
891.118	4371
891.241	4497
891.364	4569
891.488	4599
891.611	4478
891.734	4519
891.857	4611
891.98	4550
892.103	4649
892.226	4550
892.349	4478
892.471	4436
892.594	4519
892.717	4599
892.839	4588
892.962	4569
893.085	4656
893.207	4596
893.33	4432
893.452	4451
893.575	4637
893.697	4611
893.819	4805
893.941	4870
894.064	4725
894.186	4561
894.308	4554
894.43	4729
894.552	4866
894.674	4736
894.796	4535
894.918	4630
895.04	4584
895.161	4679
895.283	4668
895.405	4565
895.526	4607
895.648	4672
895.769	4656
895.891	4672
896.012	4744
896.134	4706
896.255	4675
896.376	4592
896.498	4603
896.619	4672
896.74	4592
896.861	4626
896.982	4923
897.103	5045
897.224	4850
897.345	4698
897.466	4691
897.587	4748
897.708	4805
897.828	4782
897.949	4664
898.07	4580
898.19	4645
898.311	4854
898.431	4592
898.552	4733
898.672	4767
898.792	4759
898.913	4729
899.033	4615
899.153	4527
899.273	4398
899.393	4489
899.513	4531
899.633	4535
899.753	4504
899.873	4500
899.993	4584
900.113	4493
900.232	4569
900.352	4550
900.472	4455
900.591	4375
900.711	4523
900.83	4390
900.95	4592
901.069	4675
901.189	4542
901.308	4341
901.427	4337
901.546	4371
901.665	4489
901.784	4466
901.904	4398
902.023	4325
902.141	4204
902.26	4169
902.379	4295
902.498	4185
902.617	4192
902.735	4379
902.854	4413
902.973	4333
903.091	4227
903.21	4173
903.328	4287
903.446	4227
903.565	4215
903.683	4367
903.801	4261
903.919	4417
904.038	4394
904.156	4303
904.274	4443
904.392	4402
904.51	4421
904.627	4474
904.745	4588
904.863	4535
904.981	4386
905.098	4318
905.216	4375
905.334	4481
905.451	4421
905.569	4440
905.686	4584
905.803	4508
905.921	4367
906.038	4558
906.155	4493
906.272	4356
906.389	4383
906.506	4310
906.623	4367
906.74	4371
906.857	4284
906.974	4329
907.091	4573
907.208	4668
907.324	4561
907.441	4512
907.557	4333
907.674	4348
907.79	4306
907.907	4390
908.023	4424
908.139	4409
908.256	4428
908.372	4489
908.488	4417
908.604	4386
908.72	4318
908.836	4352
908.952	4322
909.068	4432
909.184	4550
909.3	4470
909.415	4592
909.531	4569
909.647	4356
909.762	4348
909.878	4299
909.993	4405
910.108	4409
910.224	4390
910.339	4493
910.454	4386
910.57	4413
910.685	4295
910.8	4645
910.915	4596
911.03	4512
911.145	4333
911.259	4360
911.374	4344
911.489	4287
911.604	4257
911.718	4135
911.833	4181
911.947	4124
912.062	3983
912.176	4238
912.291	4261
912.405	4276
912.519	4459
912.633	4531
912.748	4379
912.862	4314
912.976	4177
913.09	4112
913.204	4120
913.318	4230
913.431	4344
913.545	4390
913.659	4417
913.772	4333
913.886	4265
914	4249
914.113	4379
914.226	4440
914.34	4371
914.453	4219
914.566	4413
914.68	4295
914.793	4337
914.906	4143
915.019	4112
915.132	4112
915.245	4192
915.358	4188
915.47	4166
915.583	4276
915.696	4303
915.809	4440
915.921	4470
916.034	4284
916.146	4253
916.259	4188
916.371	4379
916.483	4329
916.595	4268
916.708	4367
916.82	4299
916.932	4318
917.044	4261
917.156	4272
917.268	4249
917.38	4325
917.491	4268
917.603	4310
917.715	4371
917.826	4405
917.938	4310
918.049	4272
918.161	4386
918.272	4542
918.384	4527
918.495	4455
918.606	4280
918.717	4272
918.828	4276
918.939	4360
919.05	4246
919.161	4299
919.272	4135
919.383	4242
919.494	4455
919.604	4618
919.715	4421
919.826	4363
919.936	4409
920.047	4531
920.157	4443
920.267	4675
920.378	4542
920.488	4550
920.598	4668
920.708	4892
920.818	4733
920.928	4744
921.038	4919
921.148	4949
921.258	4611
921.368	4519
921.477	4523
921.587	4470
921.697	4383
921.806	4523
921.916	4383
922.025	4230
922.134	4265
922.244	4207
922.353	4341
922.462	4139
922.571	4150
922.68	4021
922.789	3987
922.898	4067
923.007	3934
923.116	4097
923.224	4093
923.333	4086
923.442	3960
923.55	3953
923.659	4044
923.767	4109
923.876	3991
923.984	4051
924.092	3998
924.201	4074
924.309	4093
924.417	4063
924.525	4044
924.633	4090
924.741	5056
924.849	3888
924.956	4120
925.064	3998
925.172	3915
925.279	3941
925.387	4013
925.494	4017
925.602	4139
925.709	4215
925.816	4032
925.924	4093
926.031	4219
926.138	4238
926.245	4150
926.352	4097
926.459	4257
926.566	4276
926.673	4162
926.779	4124
926.886	4097
926.993	3949
927.099	3945
927.206	3937
927.312	3911
927.419	4059
927.525	4025
927.631	4086
927.737	3945
927.843	3956
927.95	3842
928.056	3945
928.162	3956
928.267	4078
928.373	4675
928.479	4158
928.585	3865
928.69	4010
928.796	4029
928.901	3979
929.007	3831
929.112	3998
929.218	3934
929.323	3960
929.428	3918
929.533	4093
929.638	3949
929.743	3975
929.848	3991
929.953	3979
930.058	3949
930.163	3732
930.267	3819
930.372	4036
930.477	3781
930.581	4090
930.685	3949
930.79	3876
930.894	3873
930.998	3835
931.103	3979
931.207	3701
931.311	3663
931.415	3625
931.519	3519
931.623	3545
