Data from test_V78500241_2354.txt Node
Date: Fri Mar 25 17:05:22 CST 2022
User: usil
Spectrometer: V785-0024
Trigger mode: 0
Integration Time (sec): 4.000000E-1
Scans to average: 1
Nonlinearity correction enabled: false
Boxcar width: 0
Storing dark spectrum: false
XAxis mode: Wavelengths
Number of Pixels in Spectrum: 1024
>>>>>Begin Spectral Data<<<<<
801.071	8058
801.214	8016
801.356	7928
801.499	7890
801.641	7860
801.783	7803
801.926	7883
802.068	8024
802.211	7993
802.353	7978
802.496	7852
802.638	7887
802.78	7875
802.923	8005
803.065	7928
803.208	7871
803.35	7970
803.492	8157
803.635	8199
803.777	8081
803.919	8145
804.061	8457
804.204	8195
804.346	8096
804.488	7963
804.63	8123
804.773	8027
804.915	8153
805.057	8370
805.199	8191
805.341	8263
805.483	8305
805.626	8256
805.768	8123
805.91	8240
806.052	8240
806.194	8081
806.336	8256
806.478	8065
806.62	8088
806.762	8202
806.904	8282
807.046	8450
807.188	8438
807.33	8305
807.472	8298
807.614	8172
807.756	8164
807.898	8062
808.04	7909
808.182	7894
808.324	7909
808.465	7944
808.607	8119
808.749	8134
808.891	8240
809.033	8294
809.174	8240
809.316	8054
809.458	8145
809.6	8027
809.741	8054
809.883	8054
810.025	8123
810.166	8130
810.308	8035
810.45	7978
810.591	7890
810.733	7750
810.875	7643
811.016	7605
811.158	7422
811.299	7620
811.441	7761
811.582	7731
811.724	7518
811.865	7552
812.007	7563
812.148	7620
812.29	7677
812.431	7811
812.573	7883
812.714	7925
812.855	8126
812.997	8244
813.138	8324
813.279	8225
813.421	8142
813.562	7906
813.703	7875
813.845	7723
813.986	7502
814.127	7274
814.268	7263
814.41	7187
814.551	7228
814.692	7305
814.833	7160
814.974	7046
815.115	7141
815.256	6935
815.397	7004
815.539	6943
815.68	6829
815.821	6810
815.962	6886
816.103	6806
816.244	6722
816.385	6582
816.526	6582
816.666	6517
816.807	6346
816.948	6475
817.089	6437
817.23	6483
817.371	6437
817.512	6422
817.653	6418
817.793	6376
817.934	6414
818.075	6426
818.216	6407
818.356	6426
818.497	6243
818.638	6175
818.778	6148
818.919	6232
819.06	6175
819.2	6380
819.341	6426
819.481	6426
819.622	6620
819.762	6715
819.903	6738
820.043	6517
820.184	6578
820.324	6547
820.465	6715
820.605	6722
820.746	6681
820.886	6593
821.026	6700
821.167	6734
821.307	6844
821.447	6810
821.588	6726
821.728	6623
821.868	6517
822.008	6292
822.149	6342
822.289	6346
822.429	6194
822.569	6125
822.709	6159
822.849	5961
822.99	5927
823.13	5946
823.27	5923
823.41	5840
823.55	5798
823.69	5790
823.83	5840
823.97	5676
824.11	5600
824.25	5505
824.389	5581
824.529	5649
824.669	5562
824.809	5638
824.949	5661
825.089	5627
825.228	5646
825.368	5417
825.508	5402
825.648	5353
825.787	5341
825.927	5402
826.067	5322
826.206	5349
826.346	5398
826.485	5421
826.625	5417
826.765	5570
826.904	5486
827.044	5277
827.183	5220
827.323	5143
827.462	5227
827.601	5147
827.741	5227
827.88	5193
828.02	5147
828.159	5204
828.298	5391
828.437	5326
828.577	5284
828.716	5486
828.855	5360
828.994	5208
829.134	5136
829.273	5204
829.412	5124
829.551	5189
829.69	5098
829.829	5216
829.968	5360
830.107	5307
830.246	5296
830.385	5128
830.524	5121
830.663	5105
830.802	5025
830.941	4911
831.08	4828
831.219	4949
831.357	4976
831.496	5181
831.635	4930
831.774	4854
831.913	4881
832.051	4740
832.19	4809
832.329	4862
832.467	4733
832.606	4634
832.744	4721
832.883	4725
833.022	4714
833.16	4755
833.299	4839
833.437	4790
833.576	4812
833.714	4938
833.852	4904
833.991	4877
834.129	4968
834.267	4961
834.406	4938
834.544	5006
834.682	5041
834.821	4976
834.959	5185
835.097	4965
835.235	5174
835.373	5029
835.511	5121
835.65	5006
835.788	5003
835.926	4896
836.064	4896
836.202	4953
836.34	5147
836.478	5166
836.615	5098
836.753	5212
836.891	5318
837.029	5227
837.167	5212
837.305	5197
837.443	5109
837.58	5090
837.718	5250
837.856	5239
837.993	5162
838.131	5197
838.269	5258
838.406	5216
838.544	5140
838.681	5056
838.819	5048
838.956	4881
839.094	4938
839.231	4968
839.369	5113
839.506	5406
839.643	5311
839.781	5128
839.918	5045
840.055	5132
840.193	5071
840.33	5098
840.467	5147
840.604	5170
840.742	5459
840.879	5067
841.016	5109
841.153	5140
841.29	5398
841.427	5349
841.564	5357
841.701	5334
841.838	5303
841.975	5254
842.112	5303
842.249	5136
842.385	5147
842.522	5334
842.659	5170
842.796	5117
842.933	5208
843.069	5159
843.206	5147
843.343	5288
843.479	5242
843.616	5284
843.752	5064
843.889	5014
844.025	5235
844.162	5018
844.298	5227
844.435	5064
844.571	5067
844.708	5174
844.844	5296
844.98	5368
845.117	5246
845.253	5151
845.389	5109
845.525	5193
845.661	5117
845.798	5010
845.934	5170
846.07	5086
846.206	5269
846.342	5269
846.478	5193
846.614	5033
846.75	4961
846.886	4930
847.022	5136
847.158	5029
847.294	5041
847.429	5143
847.565	5060
847.701	5330
847.837	4915
847.972	4839
848.108	4927
848.244	4919
848.379	4805
848.515	4759
848.65	4759
848.786	4759
848.921	4793
849.057	4915
849.192	4896
849.328	4843
849.463	4877
849.598	4740
849.734	4763
849.869	4717
850.004	4626
850.14	4607
850.275	4611
850.41	4577
850.545	4554
850.68	4592
850.815	4668
850.95	4607
851.085	4870
851.22	4740
851.355	4733
851.49	4679
851.625	4622
851.76	4588
851.895	4531
852.03	4538
852.165	4668
852.299	4759
852.434	4816
852.569	4717
852.703	4729
852.838	4896
852.973	4953
853.107	4946
853.242	4771
853.376	4710
853.511	4558
853.645	4580
853.78	4790
853.914	4721
854.048	4653
854.183	4645
854.317	4744
854.451	4850
854.585	4679
854.72	4641
854.854	4797
854.988	4584
855.122	4656
855.256	4519
855.39	4668
855.524	4797
855.658	4721
855.792	4733
855.926	4698
856.06	4748
856.194	4793
856.327	4672
856.461	4626
856.595	4603
856.729	4634
856.862	4748
856.996	4706
857.13	4717
857.263	4755
857.397	4774
857.53	4679
857.664	4698
857.797	4767
857.931	4828
858.064	4698
858.197	4736
858.331	4641
858.464	4607
858.597	4504
858.731	4656
858.864	4599
858.997	4588
859.13	4630
859.263	4683
859.396	4683
859.529	4565
859.662	4588
859.795	4596
859.928	4618
860.061	4740
860.194	4790
860.327	4607
860.46	4554
860.592	4683
860.725	4740
860.858	4733
860.99	4584
861.123	4519
861.256	4554
861.388	4603
861.521	5235
861.653	4489
861.786	4436
861.918	4455
862.05	4535
862.183	4558
862.315	4630
862.447	4691
862.58	4527
862.712	4367
862.844	4314
862.976	4466
863.108	4462
863.24	4858
863.372	4352
863.504	4402
863.636	4455
863.768	4500
863.9	4424
864.032	4322
864.164	4398
864.296	4466
864.428	4527
864.559	4561
864.691	4535
864.823	4519
864.954	4504
865.086	4462
865.217	4462
865.349	4394
865.48	4478
865.612	4497
865.743	4637
865.875	4497
866.006	4443
866.137	4443
866.269	4459
866.4	4413
866.531	4459
866.662	4390
866.793	4394
866.924	4443
867.055	4489
867.186	4485
867.317	4398
867.448	4413
867.579	4394
867.71	4417
867.841	4367
867.972	4485
868.103	4493
868.233	4440
868.364	4424
868.495	4447
868.625	4656
868.756	4755
868.886	4554
869.017	4596
869.147	4740
869.278	4774
869.408	4641
869.539	4630
869.669	4729
869.799	4664
869.929	4797
870.06	4740
870.19	4976
870.32	4908
870.45	4972
870.58	4987
870.71	5113
870.84	5067
870.97	4904
871.1	4900
871.23	5124
871.36	5140
871.489	5048
871.619	5075
871.749	5071
871.879	5132
872.008	5178
872.138	5071
872.267	5006
872.397	4850
872.526	4771
872.656	4702
872.785	4843
872.915	4934
873.044	5048
873.173	4980
873.303	4984
873.432	4938
873.561	5014
873.69	4881
873.819	4847
873.948	4927
874.077	4809
874.206	4767
874.335	4801
874.464	4908
874.593	5056
874.722	4930
874.851	5147
874.979	5052
875.108	5037
875.237	4930
875.365	4923
875.494	4923
875.623	4930
875.751	4850
875.88	4885
876.008	4957
876.136	4995
876.265	5151
876.393	5341
876.521	5227
876.65	5258
876.778	5174
876.906	5098
877.034	5022
877.162	5067
877.29	4972
877.418	5090
877.546	4987
877.674	5048
877.802	5003
877.93	4991
878.058	4938
878.185	4934
878.313	5037
878.441	4961
878.568	4790
878.696	4900
878.824	4930
878.951	4987
879.079	5155
879.206	5280
879.333	5098
879.461	4915
879.588	5041
879.715	5143
879.842	5242
879.97	4961
880.097	4812
880.224	4786
880.351	4824
880.478	4816
880.605	4767
880.732	4801
880.859	5090
880.986	4911
881.112	4904
881.239	4805
881.366	4717
881.493	4618
881.619	4596
881.746	4668
881.872	4637
881.999	4668
882.125	4702
882.252	4763
882.378	4839
882.505	4927
882.631	4820
882.757	4626
882.883	4782
883.01	4729
883.136	4675
883.262	4637
883.388	4622
883.514	4801
883.64	4873
883.766	4797
883.892	4694
884.018	4771
884.143	4885
884.269	4976
884.395	4668
884.52	4641
884.646	4653
884.772	4592
884.897	4550
885.023	4691
885.148	4816
885.274	4873
885.399	4790
885.524	4691
885.65	4672
885.775	4755
885.9	4721
886.025	4892
886.15	4790
886.275	4774
886.4	4675
886.525	4717
886.65	4694
886.775	4672
886.9	4904
887.025	5018
887.149	4870
887.274	4645
887.399	4573
887.523	4618
887.648	4565
887.773	4519
887.897	4774
888.021	4774
888.146	4687
888.27	4786
888.395	4904
888.519	4793
888.643	4786
888.767	4816
888.891	4664
889.015	4592
889.139	4637
889.263	4649
889.387	4729
889.511	4889
889.635	4763
889.759	4626
889.883	4668
890.006	4710
890.13	4835
890.254	4603
890.377	4698
890.501	4531
890.624	4516
890.748	4603
890.871	4538
890.995	4481
891.118	4341
891.241	4542
891.364	4542
891.488	4687
891.611	4523
891.734	4573
891.857	4592
891.98	4554
892.103	4596
892.226	4561
892.349	4493
892.471	4455
892.594	4580
892.717	4565
892.839	4569
892.962	4607
893.085	4641
893.207	4611
893.33	4478
893.452	4523
893.575	4630
893.697	4588
893.819	4828
893.941	4835
894.064	4782
894.186	4596
894.308	4569
894.43	4748
894.552	4816
894.674	4740
894.796	4535
894.918	4580
895.04	4592
895.161	4702
895.283	4634
895.405	4596
895.526	4622
895.648	4664
895.769	4744
895.891	4752
896.012	4759
896.134	4736
896.255	4706
896.376	4622
896.498	4611
896.619	4710
896.74	4603
896.861	4691
896.982	4923
897.103	5075
897.224	4858
897.345	4748
897.466	4664
897.587	4717
897.708	4873
897.828	4786
897.949	4691
898.07	4580
898.19	4611
898.311	4843
898.431	4668
898.552	4710
898.672	4831
898.792	4778
898.913	4767
899.033	4603
899.153	4550
899.273	4447
899.393	4474
899.513	4485
899.633	4535
899.753	4527
899.873	4508
899.993	4599
900.113	4531
900.232	4592
900.352	4592
900.472	4478
900.591	4398
900.711	4493
900.83	4440
900.95	4622
901.069	4653
901.189	4527
901.308	4402
901.427	4322
901.546	4356
901.665	4459
901.784	4504
901.904	4386
902.023	4352
902.141	4188
902.26	4131
902.379	4310
902.498	4257
902.617	4207
902.735	4329
902.854	4386
902.973	4363
903.091	4192
903.21	4238
903.328	4246
903.446	4276
903.565	4287
903.683	4367
903.801	4249
903.919	4466
904.038	4386
904.156	4322
904.274	4447
904.392	4379
904.51	4443
904.627	4489
904.745	4561
904.863	4630
904.981	4409
905.098	4314
905.216	4379
905.334	4436
905.451	4375
905.569	4424
905.686	4546
905.803	4554
905.921	4428
906.038	4561
906.155	4447
906.272	4386
906.389	4466
906.506	4371
906.623	4409
906.74	4405
906.857	4284
906.974	4405
907.091	4580
907.208	4714
907.324	4580
907.441	4508
907.557	4360
907.674	4318
907.79	4284
907.907	4367
908.023	4443
908.139	4478
908.256	4451
908.372	4500
908.488	4394
908.604	4341
908.72	4314
908.836	4356
908.952	4363
909.068	4436
909.184	4596
909.3	4455
909.415	4550
909.531	4535
909.647	4352
909.762	4337
909.878	4337
909.993	4398
910.108	4367
910.224	4375
910.339	4470
910.454	4348
910.57	4405
910.685	4306
910.8	4641
910.915	4596
911.03	4478
911.145	4341
911.259	4325
911.374	4360
911.489	4295
911.604	4306
911.718	4211
911.833	4185
911.947	4101
912.062	4021
912.176	4188
912.291	4192
912.405	4257
912.519	4470
912.633	4535
912.748	4341
912.862	4318
912.976	4211
913.09	4105
913.204	4204
913.318	4246
913.431	4341
913.545	4375
913.659	4424
913.772	4356
913.886	4253
914	4204
914.113	4386
914.226	4428
914.34	4360
914.453	4230
914.566	4447
914.68	4318
914.793	4352
914.906	4173
915.019	4101
915.132	4082
915.245	4139
915.358	4227
915.47	4272
915.583	4257
915.696	4284
915.809	4462
915.921	4383
916.034	4261
916.146	4238
916.259	4211
916.371	4348
916.483	4363
916.595	4242
916.708	4356
916.82	4306
916.932	4306
917.044	4280
917.156	4333
917.268	4261
917.38	4303
917.491	4268
917.603	4341
917.715	4394
917.826	4421
917.938	4337
918.049	4211
918.161	4371
918.272	4538
918.384	4493
918.495	4455
918.606	4303
918.717	4253
918.828	4322
918.939	4398
919.05	4287
919.161	4291
919.272	4177
919.383	4207
919.494	4440
919.604	4603
919.715	4436
919.826	4337
919.936	4409
920.047	4485
920.157	4485
920.267	4687
920.378	4527
920.488	4542
920.598	4668
920.708	4854
920.818	4755
920.928	4763
921.038	4965
921.148	4881
921.258	4603
921.368	4527
921.477	4504
921.587	4443
921.697	4371
921.806	4500
921.916	4474
922.025	4261
922.134	4265
922.244	4200
922.353	4310
922.462	4166
922.571	4143
922.68	3975
922.789	3915
922.898	4059
923.007	3956
923.116	4112
923.224	4105
923.333	4128
923.442	3975
923.55	3953
923.659	4029
923.767	4143
923.876	3983
923.984	4196
924.092	4006
924.201	4055
924.309	4082
924.417	4116
924.525	4101
924.633	4093
924.741	5037
924.849	3953
924.956	4154
925.064	3956
925.172	3926
925.279	3945
925.387	4048
925.494	4048
925.602	4185
925.709	4173
925.816	4048
925.924	4166
926.031	4204
926.138	4207
926.245	4215
926.352	4074
926.459	4234
926.566	4287
926.673	4120
926.779	4032
926.886	4093
926.993	3941
927.099	3907
927.206	3918
927.312	3941
927.419	4074
927.525	4048
927.631	4082
927.737	4013
927.843	3941
927.95	3759
928.056	3922
928.162	3972
928.267	4055
928.373	4569
928.479	4112
928.585	3850
928.69	4013
928.796	4101
928.901	3956
929.007	3846
929.112	3968
929.218	4040
929.323	3918
929.428	3915
929.533	4093
929.638	3979
929.743	3945
929.848	4078
929.953	3991
930.058	3937
930.163	3736
930.267	3827
930.372	3975
930.477	3797
930.581	4109
930.685	3972
930.79	3812
930.894	3896
930.998	3831
931.103	4032
931.207	3732
931.311	3705
931.415	3724
931.519	3526
931.623	3557
