Data from test_V78500241_2203.txt Node
Date: Fri Mar 25 17:04:19 CST 2022
User: usil
Spectrometer: V785-0024
Trigger mode: 0
Integration Time (sec): 4.000000E-1
Scans to average: 1
Nonlinearity correction enabled: false
Boxcar width: 0
Storing dark spectrum: false
XAxis mode: Wavelengths
Number of Pixels in Spectrum: 1024
>>>>>Begin Spectral Data<<<<<
801.071	8008
801.214	7959
801.356	7845
801.499	7822
801.641	7837
801.783	7734
801.926	7917
802.068	7940
802.211	7978
802.353	7940
802.496	7845
802.638	7818
802.78	7868
802.923	7871
803.065	7826
803.208	7879
803.35	7978
803.492	8119
803.635	8111
803.777	8005
803.919	8062
804.061	8400
804.204	8172
804.346	8050
804.488	7925
804.63	8103
804.773	8027
804.915	8039
805.057	8210
805.199	8046
805.341	8153
805.483	8279
805.626	8202
805.768	8092
805.91	8172
806.052	8199
806.194	8084
806.336	8301
806.478	8081
806.62	8054
806.762	8202
806.904	8263
807.046	8476
807.188	8305
807.33	8377
807.472	8328
807.614	8168
807.756	8134
807.898	8016
808.04	7822
808.182	7883
808.324	7887
808.465	7879
808.607	8073
808.749	8107
808.891	8191
809.033	8347
809.174	8202
809.316	8134
809.458	8046
809.6	7974
809.741	8039
809.883	7982
810.025	8134
810.166	8115
810.308	8012
810.45	7974
810.591	7868
810.733	7734
810.875	7666
811.016	7460
811.158	7491
811.299	7556
811.441	7658
811.582	7696
811.724	7582
811.865	7575
812.007	7601
812.148	7575
812.29	7613
812.431	7738
812.573	7875
812.714	7963
812.855	8187
812.997	8168
813.138	8237
813.279	8183
813.421	8088
813.562	7970
813.703	7875
813.845	7776
813.986	7384
814.127	7209
814.268	7213
814.41	7217
814.551	7160
814.692	7187
814.833	7095
814.974	7080
815.115	7145
815.256	7046
815.397	6916
815.539	6935
815.68	6840
815.821	6741
815.962	6783
816.103	6844
816.244	6753
816.385	6601
816.526	6574
816.666	6483
816.807	6353
816.948	6414
817.089	6483
817.23	6403
817.371	6350
817.512	6346
817.653	6395
817.793	6331
817.934	6342
818.075	6437
818.216	6395
818.356	6448
818.497	6266
818.638	6136
818.778	6140
818.919	6114
819.06	6186
819.2	6342
819.341	6361
819.481	6395
819.622	6525
819.762	6745
819.903	6696
820.043	6544
820.184	6570
820.324	6563
820.465	6673
820.605	6646
820.746	6688
820.886	6506
821.026	6616
821.167	6684
821.307	6757
821.447	6734
821.588	6662
821.728	6528
821.868	6486
822.008	6311
822.149	6357
822.289	6369
822.429	6136
822.569	6053
822.709	6133
822.849	5851
822.99	5904
823.13	5866
823.27	5927
823.41	5859
823.55	5802
823.69	5752
823.83	5790
823.97	5657
824.11	5532
824.25	5512
824.389	5528
824.529	5615
824.669	5516
824.809	5596
824.949	5661
825.089	5638
825.228	5520
825.368	5421
825.508	5395
825.648	5337
825.787	5341
825.927	5357
826.067	5299
826.206	5277
826.346	5322
826.485	5349
826.625	5433
826.765	5611
826.904	5463
827.044	5242
827.183	5193
827.323	5094
827.462	5208
827.601	5170
827.741	5178
827.88	5220
828.02	5117
828.159	5201
828.298	5246
828.437	5360
828.577	5299
828.716	5539
828.855	5345
828.994	5216
829.134	5140
829.273	5239
829.412	5178
829.551	5159
829.69	5189
829.829	5227
829.968	5398
830.107	5265
830.246	5261
830.385	5284
830.524	5124
830.663	5083
830.802	5006
830.941	4930
831.08	4934
831.219	5029
831.357	5006
831.496	5147
831.635	4965
831.774	4835
831.913	4828
832.051	4771
832.19	4801
832.329	4835
832.467	4725
832.606	4675
832.744	4702
832.883	4782
833.022	4691
833.16	4866
833.299	4877
833.437	4889
833.576	4812
833.714	4896
833.852	4900
833.991	4927
834.129	5018
834.267	4949
834.406	4923
834.544	4987
834.682	4965
834.821	4968
834.959	5185
835.097	5060
835.235	5197
835.373	5193
835.511	5113
835.65	5064
835.788	5060
835.926	4987
836.064	4896
836.202	4984
836.34	5227
836.478	5273
836.615	5189
836.753	5227
836.891	5292
837.029	5292
837.167	5178
837.305	5216
837.443	5174
837.58	5140
837.718	5284
837.856	5223
837.993	5204
838.131	5334
838.269	5235
838.406	5250
838.544	5250
838.681	5041
838.819	5052
838.956	4923
839.094	4934
839.231	5022
839.369	5140
839.506	5467
839.643	5269
839.781	5136
839.918	5064
840.055	5212
840.193	5136
840.33	5136
840.467	5170
840.604	5201
840.742	5429
840.879	5147
841.016	5113
841.153	5185
841.29	5383
841.427	5357
841.564	5364
841.701	5425
841.838	5303
841.975	5273
842.112	5311
842.249	5212
842.385	5174
842.522	5303
842.659	5212
842.796	5151
842.933	5162
843.069	5151
843.206	5231
843.343	5303
843.479	5265
843.616	5269
843.752	5071
843.889	5048
844.025	5223
844.162	5052
844.298	5265
844.435	5102
844.571	5071
844.708	5220
844.844	5330
844.98	5368
845.117	5284
845.253	5166
845.389	5067
845.525	5197
845.661	5151
845.798	5029
845.934	5201
846.07	5086
846.206	5250
846.342	5322
846.478	5220
846.614	5109
846.75	5022
846.886	4919
847.022	5128
847.158	5025
847.294	5090
847.429	5128
847.565	5105
847.701	5345
847.837	4900
847.972	4862
848.108	5014
848.244	4953
848.379	4839
848.515	4786
848.65	4752
848.786	4744
848.921	4793
849.057	4854
849.192	4885
849.328	4816
849.463	4877
849.598	4866
849.734	4786
849.869	4679
850.004	4637
850.14	4698
850.275	4637
850.41	4596
850.545	4577
850.68	4599
850.815	4660
850.95	4637
851.085	4854
851.22	4801
851.355	4706
851.49	4649
851.625	4656
851.76	4634
851.895	4565
852.03	4588
852.165	4721
852.299	4733
852.434	4839
852.569	4774
852.703	4805
852.838	4923
852.973	4923
853.107	4957
853.242	4744
853.376	4721
853.511	4630
853.645	4641
853.78	4816
853.914	4755
854.048	4702
854.183	4672
854.317	4694
854.451	4873
854.585	4733
854.72	4675
854.854	4755
854.988	4637
855.122	4649
855.256	4542
855.39	4675
855.524	4839
855.658	4782
855.792	4698
855.926	4752
856.06	4812
856.194	4797
856.327	4725
856.461	4653
856.595	4641
856.729	4702
856.862	4778
856.996	4706
857.13	4763
857.263	4744
857.397	4850
857.53	4706
857.664	4790
857.797	4816
857.931	4782
858.064	4721
858.197	4763
858.331	4679
858.464	4637
858.597	4550
858.731	4641
858.864	4694
858.997	4641
859.13	4714
859.263	4714
859.396	4736
859.529	4634
859.662	4622
859.795	4527
859.928	4626
860.061	4774
860.194	4809
860.327	4626
860.46	4569
860.592	4763
860.725	4782
860.858	4714
860.99	4565
861.123	4478
861.256	4542
861.388	4645
861.521	5345
861.653	4470
861.786	4478
861.918	4478
862.05	4542
862.183	4592
862.315	4626
862.447	4675
862.58	4592
862.712	4455
862.844	4337
862.976	4470
863.108	4432
863.24	4782
863.372	4363
863.504	4424
863.636	4421
863.768	4531
863.9	4466
864.032	4394
864.164	4398
864.296	4527
864.428	4500
864.559	4550
864.691	4535
864.823	4527
864.954	4527
865.086	4512
865.217	4489
865.349	4474
865.48	4504
865.612	4550
865.743	4618
865.875	4497
866.006	4489
866.137	4451
866.269	4481
866.4	4470
866.531	4432
866.662	4409
866.793	4481
866.924	4470
867.055	4474
867.186	4478
867.317	4462
867.448	4383
867.579	4424
867.71	4428
867.841	4394
867.972	4489
868.103	4478
868.233	4508
868.364	4481
868.495	4508
868.625	4710
868.756	4744
868.886	4561
869.017	4672
869.147	4801
869.278	4816
869.408	4687
869.539	4645
869.669	4748
869.799	4645
869.929	4774
870.06	4763
870.19	4991
870.32	4984
870.45	4953
870.58	5018
870.71	5083
870.84	5064
870.97	4984
871.1	4946
871.23	5136
871.36	5212
871.489	5045
871.619	5124
871.749	5147
871.879	5132
872.008	5208
872.138	5090
872.267	5048
872.397	4896
872.526	4820
872.656	4767
872.785	4896
872.915	4965
873.044	4991
873.173	4961
873.303	4953
873.432	4984
873.561	4968
873.69	4885
873.819	4877
873.948	4953
874.077	4828
874.206	4790
874.335	4797
874.464	4915
874.593	5094
874.722	4965
874.851	5140
874.979	5113
875.108	5075
875.237	4987
875.365	4889
875.494	4919
875.623	5022
875.751	4835
875.88	4965
876.008	5006
876.136	5033
876.265	5261
876.393	5337
876.521	5273
876.65	5254
876.778	5174
876.906	5117
877.034	5075
877.162	5041
877.29	5052
877.418	5105
877.546	5071
877.674	5064
877.802	5041
877.93	5041
878.058	4942
878.185	4919
878.313	4991
878.441	4953
878.568	4839
878.696	4847
878.824	4942
878.951	5029
879.079	5162
879.206	5288
879.333	5174
879.461	4957
879.588	5025
879.715	5094
879.842	5223
879.97	5014
880.097	4805
880.224	4767
880.351	4847
880.478	4820
880.605	4816
880.732	4816
880.859	5102
880.986	4892
881.112	4946
881.239	4820
881.366	4675
881.493	4622
881.619	4596
881.746	4641
881.872	4687
881.999	4687
882.125	4733
882.252	4790
882.378	4885
882.505	4965
882.631	4805
882.757	4694
882.883	4771
883.01	4706
883.136	4702
883.262	4630
883.388	4618
883.514	4782
883.64	4889
883.766	4790
883.892	4668
884.018	4725
884.143	4942
884.269	4991
884.395	4691
884.52	4637
884.646	4630
884.772	4569
884.897	4538
885.023	4752
885.148	4820
885.274	4892
885.399	4793
885.524	4729
885.65	4771
885.775	4809
885.9	4710
886.025	4873
886.15	4782
886.275	4736
886.4	4637
886.525	4767
886.65	4675
886.775	4717
886.9	4930
887.025	5029
887.149	4812
887.274	4683
887.399	4569
887.523	4603
887.648	4588
887.773	4573
887.897	4759
888.021	4740
888.146	4694
888.27	4820
888.395	4919
888.519	4824
888.643	4805
888.767	4889
888.891	4714
889.015	4615
889.139	4687
889.263	4687
889.387	4793
889.511	4877
889.635	4805
889.759	4691
889.883	4622
890.006	4748
890.13	4892
890.254	4584
890.377	4649
890.501	4588
890.624	4569
890.748	4641
890.871	4523
890.995	4451
891.118	4409
891.241	4538
891.364	4558
891.488	4645
891.611	4527
891.734	4542
891.857	4626
891.98	4554
892.103	4653
892.226	4611
892.349	4519
892.471	4436
892.594	4546
892.717	4588
892.839	4584
892.962	4637
893.085	4691
893.207	4607
893.33	4489
893.452	4584
893.575	4702
893.697	4588
893.819	4843
893.941	4889
894.064	4752
894.186	4580
894.308	4584
894.43	4771
894.552	4862
894.674	4752
894.796	4573
894.918	4630
895.04	4603
895.161	4729
895.283	4721
895.405	4573
895.526	4660
895.648	4668
895.769	4736
895.891	4759
896.012	4767
896.134	4752
896.255	4714
896.376	4645
896.498	4611
896.619	4660
896.74	4618
896.861	4603
896.982	4953
897.103	5083
897.224	4847
897.345	4714
897.466	4694
897.587	4755
897.708	4847
897.828	4786
897.949	4672
898.07	4550
898.19	4656
898.311	4790
898.431	4736
898.552	4729
898.672	4812
898.792	4805
898.913	4778
899.033	4634
899.153	4470
899.273	4436
899.393	4508
899.513	4527
899.633	4523
899.753	4538
899.873	4451
899.993	4573
900.113	4504
900.232	4622
900.352	4523
900.472	4462
900.591	4394
900.711	4535
900.83	4394
900.95	4603
901.069	4691
901.189	4516
901.308	4371
901.427	4360
901.546	4360
901.665	4493
901.784	4516
901.904	4417
902.023	4329
902.141	4207
902.26	4185
902.379	4341
902.498	4287
902.617	4287
902.735	4413
902.854	4436
902.973	4356
903.091	4200
903.21	4306
903.328	4329
903.446	4303
903.565	4211
903.683	4402
903.801	4363
903.919	4409
904.038	4451
904.156	4348
904.274	4447
904.392	4424
904.51	4459
904.627	4516
904.745	4626
904.863	4668
904.981	4436
905.098	4367
905.216	4405
905.334	4481
905.451	4470
905.569	4451
905.686	4592
905.803	4569
905.921	4466
906.038	4615
906.155	4542
906.272	4466
906.389	4497
906.506	4360
906.623	4398
906.74	4459
906.857	4341
906.974	4405
907.091	4588
907.208	4725
907.324	4626
907.441	4550
907.557	4398
907.674	4371
907.79	4379
907.907	4421
908.023	4546
908.139	4546
908.256	4466
908.372	4474
908.488	4470
908.604	4424
908.72	4363
908.836	4447
908.952	4417
909.068	4481
909.184	4611
909.3	4523
909.415	4668
909.531	4580
909.647	4417
909.762	4417
909.878	4417
909.993	4493
910.108	4424
910.224	4459
910.339	4497
910.454	4466
910.57	4405
910.685	4322
910.8	4694
910.915	4645
911.03	4542
911.145	4375
911.259	4383
911.374	4413
911.489	4341
911.604	4322
911.718	4200
911.833	4234
911.947	4128
912.062	4101
912.176	4265
912.291	4265
912.405	4284
912.519	4550
912.633	4516
912.748	4409
912.862	4371
912.976	4268
913.09	4128
913.204	4238
913.318	4287
913.431	4421
913.545	4405
913.659	4428
913.772	4394
913.886	4287
914	4249
914.113	4405
914.226	4493
914.34	4417
914.453	4261
914.566	4497
914.68	4337
914.793	4390
914.906	4181
915.019	4166
915.132	4116
915.245	4253
915.358	4215
915.47	4272
915.583	4287
915.696	4363
915.809	4451
915.921	4436
916.034	4299
916.146	4287
916.259	4215
916.371	4367
916.483	4375
916.595	4272
916.708	4371
916.82	4367
916.932	4329
917.044	4413
917.156	4367
917.268	4268
917.38	4329
917.491	4310
917.603	4398
917.715	4424
917.826	4481
917.938	4375
918.049	4314
918.161	4470
918.272	4523
918.384	4573
918.495	4474
918.606	4375
918.717	4291
918.828	4344
918.939	4421
919.05	4287
919.161	4360
919.272	4166
919.383	4261
919.494	4512
919.604	4664
919.715	4493
919.826	4367
919.936	4443
920.047	4561
920.157	4508
920.267	4736
920.378	4607
920.488	4512
920.598	4774
920.708	4911
920.818	4744
920.928	4858
921.038	4965
921.148	4968
921.258	4634
921.368	4641
921.477	4519
921.587	4493
921.697	4424
921.806	4641
921.916	4455
922.025	4341
922.134	4318
922.244	4249
922.353	4363
922.462	4173
922.571	4169
922.68	4051
922.789	4013
922.898	4071
923.007	3983
923.116	4124
923.224	4090
923.333	4082
923.442	4029
923.55	3998
923.659	4067
923.767	4166
923.876	4032
923.984	4128
924.092	4036
924.201	4112
924.309	4154
924.417	4139
924.525	4048
924.633	4147
924.741	5098
924.849	3926
924.956	4169
925.064	3991
925.172	3915
925.279	4032
925.387	4101
925.494	4131
925.602	4280
925.709	4196
925.816	4078
925.924	4169
926.031	4257
926.138	4181
926.245	4246
926.352	4147
926.459	4291
926.566	4344
926.673	4162
926.779	4128
926.886	4097
926.993	4013
927.099	4025
927.206	3994
927.312	3949
927.419	4135
927.525	4055
927.631	4112
927.737	3998
927.843	3956
927.95	3884
928.056	4010
928.162	4048
928.267	4051
928.373	4683
928.479	4154
928.585	3884
928.69	4029
928.796	4112
928.901	4002
929.007	3861
929.112	4036
929.218	4044
929.323	3960
929.428	3975
929.533	4105
929.638	3937
929.743	3994
929.848	4071
929.953	4013
930.058	3972
930.163	3812
930.267	3854
930.372	4013
930.477	3838
930.581	4101
930.685	4021
930.79	3869
930.894	3892
930.998	3903
931.103	4071
931.207	3755
931.311	3736
931.415	3694
931.519	3591
931.623	3564
