Data from test_V78500241_2592.txt Node
Date: Fri Mar 25 17:07:01 CST 2022
User: usil
Spectrometer: V785-0024
Trigger mode: 0
Integration Time (sec): 4.000000E-1
Scans to average: 1
Nonlinearity correction enabled: false
Boxcar width: 0
Storing dark spectrum: false
XAxis mode: Wavelengths
Number of Pixels in Spectrum: 1024
>>>>>Begin Spectral Data<<<<<
801.071	8027
801.214	7997
801.356	7913
801.499	7837
801.641	7780
801.783	7826
801.926	7913
802.068	7909
802.211	8027
802.353	8027
802.496	7856
802.638	7875
802.78	7856
802.923	7944
803.065	7871
803.208	7803
803.35	7932
803.492	8077
803.635	8172
803.777	8043
803.919	8111
804.061	8465
804.204	8153
804.346	8054
804.488	8016
804.63	8088
804.773	8008
804.915	8130
805.057	8263
805.199	8202
805.341	8180
805.483	8229
805.626	8271
805.768	8111
805.91	8191
806.052	8187
806.194	8142
806.336	8259
806.478	8123
806.62	8046
806.762	8138
806.904	8294
807.046	8457
807.188	8355
807.33	8259
807.472	8396
807.614	8145
807.756	8111
807.898	7974
808.04	7921
808.182	7871
808.324	7833
808.465	7894
808.607	8115
808.749	8123
808.891	8221
809.033	8271
809.174	8229
809.316	8043
809.458	8103
809.6	8008
809.741	8081
809.883	8024
810.025	8027
810.166	8054
810.308	7955
810.45	8016
810.591	7909
810.733	7750
810.875	7681
811.016	7563
811.158	7457
811.299	7582
811.441	7708
811.582	7689
811.724	7609
811.865	7578
812.007	7540
812.148	7575
812.29	7609
812.431	7757
812.573	7894
812.714	7944
812.855	8062
812.997	8183
813.138	8282
813.279	8180
813.421	8008
813.562	7993
813.703	7875
813.845	7765
813.986	7464
814.127	7266
814.268	7244
814.41	7183
814.551	7156
814.692	7247
814.833	7129
814.974	7057
815.115	7091
815.256	6996
815.397	6901
815.539	6920
815.68	6871
815.821	6821
815.962	6901
816.103	6833
816.244	6684
816.385	6646
816.526	6646
816.666	6460
816.807	6376
816.948	6513
817.089	6426
817.23	6498
817.371	6403
817.512	6388
817.653	6399
817.793	6388
817.934	6422
818.075	6441
818.216	6460
818.356	6399
818.497	6273
818.638	6159
818.778	6152
818.919	6190
819.06	6163
819.2	6388
819.341	6365
819.481	6391
819.622	6593
819.762	6730
819.903	6703
820.043	6608
820.184	6566
820.324	6589
820.465	6798
820.605	6688
820.746	6627
820.886	6521
821.026	6711
821.167	6703
821.307	6795
821.447	6783
821.588	6669
821.728	6616
821.868	6513
822.008	6346
822.149	6410
822.289	6426
822.429	6133
822.569	6110
822.709	6133
822.849	5931
822.99	5935
823.13	5874
823.27	5935
823.41	5764
823.55	5783
823.69	5745
823.83	5745
823.97	5646
824.11	5604
824.25	5554
824.389	5570
824.529	5657
824.669	5524
824.809	5646
824.949	5642
825.089	5592
825.228	5585
825.368	5452
825.508	5318
825.648	5326
825.787	5414
825.927	5387
826.067	5269
826.206	5254
826.346	5364
826.485	5360
826.625	5429
826.765	5554
826.904	5535
827.044	5197
827.183	5220
827.323	5151
827.462	5303
827.601	5166
827.741	5155
827.88	5197
828.02	5109
828.159	5246
828.298	5273
828.437	5360
828.577	5284
828.716	5471
828.855	5318
828.994	5189
829.134	5140
829.273	5242
829.412	5185
829.551	5121
829.69	5201
829.829	5220
829.968	5414
830.107	5296
830.246	5280
830.385	5143
830.524	5140
830.663	5033
830.802	4976
830.941	4930
831.08	4873
831.219	5014
831.357	5018
831.496	5117
831.635	4942
831.774	4862
831.913	4881
832.051	4733
832.19	4778
832.329	4866
832.467	4656
832.606	4641
832.744	4714
832.883	4706
833.022	4786
833.16	4809
833.299	4824
833.437	4881
833.576	4870
833.714	4892
833.852	4900
833.991	4889
834.129	4957
834.267	4938
834.406	4858
834.544	5010
834.682	4972
834.821	4942
834.959	5162
835.097	5003
835.235	5128
835.373	5071
835.511	5071
835.65	5033
835.788	4976
835.926	4934
836.064	4866
836.202	4904
836.34	5212
836.478	5235
836.615	5162
836.753	5197
836.891	5273
837.029	5303
837.167	5201
837.305	5178
837.443	5162
837.58	5064
837.718	5303
837.856	5189
837.993	5132
838.131	5242
838.269	5227
838.406	5147
838.544	5147
838.681	5022
838.819	5033
838.956	4908
839.094	4877
839.231	4976
839.369	5132
839.506	5357
839.643	5292
839.781	5056
839.918	4965
840.055	5071
840.193	5124
840.33	5067
840.467	5124
840.604	5223
840.742	5406
840.879	5052
841.016	5113
841.153	5121
841.29	5387
841.427	5376
841.564	5277
841.701	5376
841.838	5311
841.975	5307
842.112	5216
842.249	5170
842.385	5064
842.522	5307
842.659	5143
842.796	5204
842.933	5117
843.069	5113
843.206	5151
843.343	5311
843.479	5220
843.616	5277
843.752	5052
843.889	5006
844.025	5170
844.162	5014
844.298	5159
844.435	5094
844.571	5022
844.708	5174
844.844	5261
844.98	5414
845.117	5307
845.253	5109
845.389	5109
845.525	5147
845.661	5178
845.798	4968
845.934	5185
846.07	5090
846.206	5155
846.342	5277
846.478	5174
846.614	5006
846.75	4987
846.886	4919
847.022	5147
847.158	5048
847.294	5010
847.429	5056
847.565	5102
847.701	5239
847.837	4877
847.972	4790
848.108	4976
848.244	4946
848.379	4786
848.515	4721
848.65	4717
848.786	4778
848.921	4736
849.057	4858
849.192	4858
849.328	4831
849.463	4805
849.598	4824
849.734	4809
849.869	4679
850.004	4649
850.14	4679
850.275	4588
850.41	4519
850.545	4599
850.68	4561
850.815	4592
850.95	4592
851.085	4812
851.22	4733
851.355	4645
851.49	4675
851.625	4618
851.76	4664
851.895	4535
852.03	4554
852.165	4656
852.299	4725
852.434	4801
852.569	4744
852.703	4793
852.838	4835
852.973	4965
853.107	4949
853.242	4691
853.376	4656
853.511	4573
853.645	4588
853.78	4767
853.914	4691
854.048	4679
854.183	4653
854.317	4729
854.451	4839
854.585	4649
854.72	4637
854.854	4797
854.988	4599
855.122	4641
855.256	4558
855.39	4679
855.524	4809
855.658	4729
855.792	4694
855.926	4721
856.06	4755
856.194	4801
856.327	4634
856.461	4592
856.595	4607
856.729	4607
856.862	4733
856.996	4694
857.13	4744
857.263	4714
857.397	4797
857.53	4626
857.664	4774
857.797	4778
857.931	4805
858.064	4660
858.197	4771
858.331	4634
858.464	4592
858.597	4542
858.731	4603
858.864	4596
858.997	4580
859.13	4641
859.263	4706
859.396	4729
859.529	4630
859.662	4573
859.795	4561
859.928	4607
860.061	4752
860.194	4744
860.327	4656
860.46	4584
860.592	4660
860.725	4721
860.858	4740
860.99	4645
861.123	4569
861.256	4497
861.388	4599
861.521	5349
861.653	4421
861.786	4485
861.918	4481
862.05	4554
862.183	4538
862.315	4618
862.447	4653
862.58	4538
862.712	4409
862.844	4295
862.976	4474
863.108	4523
863.24	4767
863.372	4299
863.504	4443
863.636	4409
863.768	4459
863.9	4440
864.032	4356
864.164	4405
864.296	4436
864.428	4550
864.559	4542
864.691	4519
864.823	4558
864.954	4474
865.086	4519
865.217	4428
865.349	4413
865.48	4485
865.612	4493
865.743	4618
865.875	4500
866.006	4455
866.137	4478
866.269	4447
866.4	4447
866.531	4421
866.662	4432
866.793	4413
866.924	4432
867.055	4516
867.186	4424
867.317	4455
867.448	4390
867.579	4409
867.71	4402
867.841	4394
867.972	4462
868.103	4470
868.233	4451
868.364	4474
868.495	4504
868.625	4645
868.756	4736
868.886	4588
869.017	4660
869.147	4748
869.278	4736
869.408	4687
869.539	4634
869.669	4740
869.799	4672
869.929	4736
870.06	4774
870.19	4938
870.32	4919
870.45	4904
870.58	4976
870.71	5083
870.84	5056
870.97	4946
871.1	4930
871.23	5174
871.36	5143
871.489	5014
871.619	5029
871.749	5014
871.879	5094
872.008	5212
872.138	5052
872.267	4965
872.397	4866
872.526	4778
872.656	4664
872.785	4778
872.915	4946
873.044	5014
873.173	4934
873.303	5010
873.432	4934
873.561	4965
873.69	4877
873.819	4854
873.948	4949
874.077	4854
874.206	4771
874.335	4786
874.464	4938
874.593	5045
874.722	4911
874.851	5113
874.979	5067
875.108	5010
875.237	4942
875.365	4904
875.494	4885
875.623	4972
875.751	4824
875.88	4904
876.008	4968
876.136	5052
876.265	5178
876.393	5360
876.521	5292
876.65	5197
876.778	5140
876.906	5124
877.034	4949
877.162	5022
877.29	5025
877.418	5018
877.546	5037
877.674	4976
877.802	5029
877.93	5045
878.058	4957
878.185	4870
878.313	4987
878.441	4961
878.568	4831
878.696	4850
878.824	4965
878.951	4984
879.079	5102
879.206	5296
879.333	5102
879.461	4980
879.588	5056
879.715	5147
879.842	5166
879.97	5010
880.097	4759
880.224	4714
880.351	4843
880.478	4858
880.605	4774
880.732	4786
880.859	5067
880.986	4934
881.112	4885
881.239	4767
881.366	4672
881.493	4592
881.619	4626
881.746	4626
881.872	4588
881.999	4660
882.125	4664
882.252	4691
882.378	4824
882.505	4961
882.631	4824
882.757	4721
882.883	4740
883.01	4736
883.136	4675
883.262	4573
883.388	4584
883.514	4767
883.64	4812
883.766	4771
883.892	4656
884.018	4702
884.143	4854
884.269	5003
884.395	4683
884.52	4664
884.646	4645
884.772	4603
884.897	4546
885.023	4706
885.148	4801
885.274	4915
885.399	4835
885.524	4744
885.65	4717
885.775	4717
885.9	4736
886.025	4862
886.15	4774
886.275	4714
886.4	4641
886.525	4767
886.65	4714
886.775	4710
886.9	4946
887.025	5045
887.149	4850
887.274	4626
887.399	4615
887.523	4542
887.648	4554
887.773	4599
887.897	4782
888.021	4771
888.146	4668
888.27	4839
888.395	4908
888.519	4763
888.643	4774
888.767	4816
888.891	4687
889.015	4580
889.139	4675
889.263	4626
889.387	4736
889.511	4858
889.635	4790
889.759	4645
889.883	4683
890.006	4748
890.13	4824
890.254	4637
890.377	4687
890.501	4550
890.624	4527
890.748	4694
890.871	4504
890.995	4447
891.118	4371
891.241	4478
891.364	4554
891.488	4653
891.611	4512
891.734	4554
891.857	4618
891.98	4584
892.103	4637
892.226	4603
892.349	4577
892.471	4489
892.594	4554
892.717	4622
892.839	4592
892.962	4592
893.085	4637
893.207	4588
893.33	4470
893.452	4580
893.575	4630
893.697	4542
893.819	4809
893.941	4820
894.064	4721
894.186	4634
894.308	4554
894.43	4691
894.552	4805
894.674	4706
894.796	4569
894.918	4607
895.04	4577
895.161	4706
895.283	4656
895.405	4550
895.526	4637
895.648	4729
895.769	4691
895.891	4755
896.012	4736
896.134	4733
896.255	4698
896.376	4622
896.498	4637
896.619	4687
896.74	4596
896.861	4626
896.982	4957
897.103	5079
897.224	4854
897.345	4778
897.466	4653
897.587	4733
897.708	4866
897.828	4801
897.949	4675
898.07	4561
898.19	4672
898.311	4828
898.431	4664
898.552	4733
898.672	4820
898.792	4767
898.913	4729
899.033	4615
899.153	4531
899.273	4432
899.393	4508
899.513	4561
899.633	4531
899.753	4516
899.873	4485
899.993	4550
900.113	4516
900.232	4607
900.352	4550
900.472	4489
900.591	4405
900.711	4512
900.83	4447
900.95	4618
901.069	4721
901.189	4523
901.308	4356
901.427	4280
901.546	4379
901.665	4440
901.784	4504
901.904	4394
902.023	4318
902.141	4181
902.26	4112
902.379	4291
902.498	4200
902.617	4166
902.735	4394
902.854	4356
902.973	4360
903.091	4211
903.21	4219
903.328	4276
903.446	4265
903.565	4219
903.683	4344
903.801	4291
903.919	4394
904.038	4375
904.156	4310
904.274	4462
904.392	4440
904.51	4424
904.627	4485
904.745	4569
904.863	4634
904.981	4394
905.098	4367
905.216	4272
905.334	4402
905.451	4440
905.569	4413
905.686	4584
905.803	4607
905.921	4383
906.038	4550
906.155	4459
906.272	4398
906.389	4447
906.506	4348
906.623	4314
906.74	4386
906.857	4333
906.974	4344
907.091	4573
907.208	4664
907.324	4554
907.441	4470
907.557	4375
907.674	4379
907.79	4295
907.907	4363
908.023	4481
908.139	4481
908.256	4451
908.372	4474
908.488	4447
908.604	4322
908.72	4276
908.836	4367
908.952	4405
909.068	4443
909.184	4561
909.3	4508
909.415	4588
909.531	4580
909.647	4363
909.762	4405
909.878	4371
909.993	4440
910.108	4394
910.224	4421
910.339	4481
910.454	4409
910.57	4383
910.685	4329
910.8	4668
910.915	4592
911.03	4459
911.145	4348
911.259	4314
911.374	4352
911.489	4303
911.604	4287
911.718	4177
911.833	4200
911.947	4055
912.062	4063
912.176	4230
912.291	4280
912.405	4253
912.519	4466
912.633	4459
912.748	4371
912.862	4348
912.976	4242
913.09	4105
913.204	4158
913.318	4253
913.431	4394
913.545	4390
913.659	4428
913.772	4356
913.886	4257
914	4204
914.113	4405
914.226	4428
914.34	4379
914.453	4246
914.566	4432
914.68	4261
914.793	4299
914.906	4131
915.019	4154
915.132	4067
915.245	4150
915.358	4177
915.47	4192
915.583	4272
915.696	4268
915.809	4428
915.921	4436
916.034	4234
916.146	4284
916.259	4230
916.371	4386
916.483	4405
916.595	4249
916.708	4325
916.82	4295
916.932	4284
917.044	4371
917.156	4299
917.268	4173
917.38	4299
917.491	4284
917.603	4341
917.715	4447
917.826	4451
917.938	4318
918.049	4257
918.161	4360
918.272	4516
918.384	4504
918.495	4489
918.606	4265
918.717	4204
918.828	4310
918.939	4367
919.05	4295
919.161	4371
919.272	4143
919.383	4234
919.494	4424
919.604	4641
919.715	4413
919.826	4329
919.936	4394
920.047	4542
920.157	4493
920.267	4660
920.378	4580
920.488	4500
920.598	4771
920.708	4892
920.818	4740
920.928	4763
921.038	4957
921.148	4892
921.258	4656
921.368	4573
921.477	4516
921.587	4440
921.697	4386
921.806	4519
921.916	4409
922.025	4230
922.134	4253
922.244	4177
922.353	4352
922.462	4185
922.571	4124
922.68	4021
922.789	3956
922.898	4036
923.007	3998
923.116	4101
923.224	4055
923.333	4071
923.442	3968
923.55	3994
923.659	4010
923.767	4059
923.876	3972
923.984	4128
924.092	3975
924.201	4063
924.309	4036
924.417	4093
924.525	4097
924.633	4067
924.741	5022
924.849	3915
924.956	4116
925.064	3964
925.172	3926
925.279	3994
925.387	4071
925.494	4059
925.602	4196
925.709	4143
925.816	4051
925.924	4143
926.031	4223
926.138	4116
926.245	4192
926.352	4131
926.459	4261
926.566	4371
926.673	4169
926.779	4120
926.886	4082
926.993	3972
927.099	3949
927.206	3915
927.312	3937
927.419	4051
927.525	4040
927.631	4128
927.737	3994
927.843	3888
927.95	3850
928.056	3953
928.162	3998
928.267	4055
928.373	4596
928.479	4097
928.585	3922
928.69	4021
928.796	4116
928.901	3953
929.007	3835
929.112	3994
929.218	3960
929.323	3915
929.428	3953
929.533	4116
929.638	3899
929.743	3953
929.848	4059
929.953	4025
930.058	3953
930.163	3778
930.267	3823
930.372	3979
930.477	3800
930.581	4093
930.685	3911
930.79	3804
930.894	3857
930.998	3880
931.103	4063
931.207	3637
931.311	3667
931.415	3690
931.519	3485
931.623	3561
