Data from test_V78500241_2604.txt Node
Date: Fri Mar 25 17:07:06 CST 2022
User: usil
Spectrometer: V785-0024
Trigger mode: 0
Integration Time (sec): 4.000000E-1
Scans to average: 1
Nonlinearity correction enabled: false
Boxcar width: 0
Storing dark spectrum: false
XAxis mode: Wavelengths
Number of Pixels in Spectrum: 1024
>>>>>Begin Spectral Data<<<<<
801.071	8016
801.214	8043
801.356	7898
801.499	7875
801.641	7826
801.783	7837
801.926	7974
802.068	7959
802.211	7963
802.353	8031
802.496	7833
802.638	8020
802.78	7940
802.923	7928
803.065	7925
803.208	7864
803.35	8001
803.492	8145
803.635	8176
803.777	8001
803.919	8229
804.061	8419
804.204	8172
804.346	8123
804.488	7982
804.63	8111
804.773	8008
804.915	8142
805.057	8263
805.199	8126
805.341	8248
805.483	8320
805.626	8343
805.768	8210
805.91	8237
806.052	8202
806.194	8180
806.336	8286
806.478	8103
806.62	8092
806.762	8084
806.904	8286
807.046	8488
807.188	8374
807.33	8271
807.472	8279
807.614	8191
807.756	8088
807.898	8016
808.04	7921
808.182	7822
808.324	7898
808.465	7879
808.607	8088
808.749	8123
808.891	8248
809.033	8377
809.174	8199
809.316	8084
809.458	8054
809.6	8001
809.741	8027
809.883	8069
810.025	8161
810.166	8073
810.308	8001
810.45	8008
810.591	7837
810.733	7807
810.875	7677
811.016	7525
811.158	7533
811.299	7567
811.441	7788
811.582	7769
811.724	7559
811.865	7609
812.007	7590
812.148	7632
812.29	7636
812.431	7757
812.573	7841
812.714	8001
812.855	8115
812.997	8221
813.138	8271
813.279	8202
813.421	8031
813.562	7955
813.703	7940
813.845	7738
813.986	7441
814.127	7282
814.268	7259
814.41	7183
814.551	7187
814.692	7312
814.833	7187
814.974	7160
815.115	7126
815.256	7015
815.397	6962
815.539	6954
815.68	6932
815.821	6776
815.962	6867
816.103	6871
816.244	6741
816.385	6650
816.526	6696
816.666	6517
816.807	6353
816.948	6483
817.089	6521
817.23	6445
817.371	6422
817.512	6369
817.653	6433
817.793	6350
817.934	6460
818.075	6521
818.216	6410
818.356	6414
818.497	6296
818.638	6140
818.778	6159
818.919	6159
819.06	6213
819.2	6399
819.341	6346
819.481	6372
819.622	6506
819.762	6722
819.903	6768
820.043	6612
820.184	6551
820.324	6608
820.465	6730
820.605	6703
820.746	6703
820.886	6517
821.026	6734
821.167	6715
821.307	6814
821.447	6802
821.588	6703
821.728	6597
821.868	6540
822.008	6338
822.149	6399
822.289	6410
822.429	6152
822.569	6136
822.709	6095
822.849	5980
822.99	5920
823.13	5984
823.27	5961
823.41	5836
823.55	5802
823.69	5783
823.83	5828
823.97	5688
824.11	5551
824.25	5558
824.389	5554
824.529	5611
824.669	5573
824.809	5646
824.949	5707
825.089	5665
825.228	5577
825.368	5444
825.508	5383
825.648	5326
825.787	5349
825.927	5364
826.067	5288
826.206	5242
826.346	5436
826.485	5421
826.625	5425
826.765	5600
826.904	5486
827.044	5254
827.183	5231
827.323	5162
827.462	5284
827.601	5201
827.741	5220
827.88	5216
828.02	5132
828.159	5223
828.298	5311
828.437	5341
828.577	5330
828.716	5478
828.855	5349
828.994	5151
829.134	5147
829.273	5227
829.412	5132
829.551	5151
829.69	5197
829.829	5254
829.968	5364
830.107	5357
830.246	5299
830.385	5212
830.524	5178
830.663	5064
830.802	4976
830.941	4930
831.08	4873
831.219	5014
831.357	4984
831.496	5121
831.635	4965
831.774	4870
831.913	4870
832.051	4748
832.19	4778
832.329	4866
832.467	4729
832.606	4683
832.744	4721
832.883	4782
833.022	4752
833.16	4744
833.299	4835
833.437	4805
833.576	4839
833.714	4900
833.852	4881
833.991	4934
834.129	4976
834.267	4961
834.406	4847
834.544	4957
834.682	4999
834.821	4987
834.959	5147
835.097	4976
835.235	5166
835.373	5094
835.511	5128
835.65	5033
835.788	5022
835.926	4938
836.064	4896
836.202	4908
836.34	5178
836.478	5242
836.615	5121
836.753	5227
836.891	5265
837.029	5269
837.167	5208
837.305	5181
837.443	5193
837.58	5098
837.718	5273
837.856	5208
837.993	5155
838.131	5261
838.269	5254
838.406	5181
838.544	5166
838.681	5052
838.819	5029
838.956	4938
839.094	4904
839.231	4965
839.369	5064
839.506	5463
839.643	5246
839.781	5033
839.918	4972
840.055	5079
840.193	5067
840.33	5132
840.467	5140
840.604	5174
840.742	5402
840.879	5067
841.016	5105
841.153	5185
841.29	5353
841.427	5315
841.564	5368
841.701	5303
841.838	5250
841.975	5216
842.112	5296
842.249	5117
842.385	5140
842.522	5357
842.659	5162
842.796	5140
842.933	5151
843.069	5136
843.206	5124
843.343	5311
843.479	5185
843.616	5258
843.752	5067
843.889	4980
844.025	5204
844.162	5022
844.298	5162
844.435	5090
844.571	5060
844.708	5193
844.844	5318
844.98	5334
845.117	5292
845.253	5166
845.389	5071
845.525	5197
845.661	5166
845.798	5033
845.934	5143
846.07	5045
846.206	5280
846.342	5292
846.478	5189
846.614	5045
846.75	4968
846.886	4984
847.022	5143
847.158	5045
847.294	5022
847.429	5079
847.565	5064
847.701	5349
847.837	4889
847.972	4847
848.108	4980
848.244	4953
848.379	4771
848.515	4774
848.65	4714
848.786	4763
848.921	4771
849.057	4873
849.192	4904
849.328	4801
849.463	4847
849.598	4824
849.734	4767
849.869	4717
850.004	4653
850.14	4672
850.275	4584
850.41	4573
850.545	4561
850.68	4611
850.815	4717
850.95	4561
851.085	4809
851.22	4752
851.355	4702
851.49	4645
851.625	4664
851.76	4675
851.895	4546
852.03	4561
852.165	4664
852.299	4740
852.434	4740
852.569	4759
852.703	4786
852.838	4850
852.973	4930
853.107	4942
853.242	4714
853.376	4683
853.511	4554
853.645	4603
853.78	4759
853.914	4668
854.048	4694
854.183	4649
854.317	4702
854.451	4870
854.585	4675
854.72	4664
854.854	4774
854.988	4535
855.122	4679
855.256	4504
855.39	4721
855.524	4801
855.658	4755
855.792	4702
855.926	4729
856.06	4748
856.194	4801
856.327	4733
856.461	4542
856.595	4653
856.729	4626
856.862	4759
856.996	4691
857.13	4714
857.263	4767
857.397	4782
857.53	4622
857.664	4748
857.797	4812
857.931	4778
858.064	4683
858.197	4748
858.331	4668
858.464	4603
858.597	4500
858.731	4679
858.864	4611
858.997	4603
859.13	4664
859.263	4672
859.396	4694
859.529	4599
859.662	4554
859.795	4554
859.928	4577
860.061	4729
860.194	4721
860.327	4618
860.46	4577
860.592	4714
860.725	4733
860.858	4683
860.99	4554
861.123	4512
861.256	4508
861.388	4611
861.521	5368
861.653	4508
861.786	4478
861.918	4459
862.05	4478
862.183	4523
862.315	4569
862.447	4649
862.58	4538
862.712	4386
862.844	4322
862.976	4478
863.108	4485
863.24	4782
863.372	4341
863.504	4421
863.636	4405
863.768	4481
863.9	4424
864.032	4318
864.164	4394
864.296	4451
864.428	4531
864.559	4546
864.691	4546
864.823	4535
864.954	4470
865.086	4531
865.217	4481
865.349	4417
865.48	4466
865.612	4455
865.743	4626
865.875	4459
866.006	4398
866.137	4451
866.269	4405
866.4	4462
866.531	4405
866.662	4405
866.793	4455
866.924	4409
867.055	4512
867.186	4478
867.317	4375
867.448	4379
867.579	4394
867.71	4402
867.841	4402
867.972	4470
868.103	4436
868.233	4405
868.364	4436
868.495	4489
868.625	4634
868.756	4714
868.886	4546
869.017	4615
869.147	4774
869.278	4816
869.408	4649
869.539	4641
869.669	4702
869.799	4694
869.929	4774
870.06	4755
870.19	4976
870.32	4900
870.45	4946
870.58	4987
870.71	5094
870.84	5071
870.97	4930
871.1	4904
871.23	5159
871.36	5113
871.489	4984
871.619	5075
871.749	5143
871.879	5143
872.008	5201
872.138	5083
872.267	4980
872.397	4839
872.526	4755
872.656	4725
872.785	4858
872.915	4968
873.044	5067
873.173	4957
873.303	4946
873.432	4904
873.561	4938
873.69	4900
873.819	4828
873.948	4873
874.077	4793
874.206	4786
874.335	4850
874.464	4919
874.593	5136
874.722	4965
874.851	5083
874.979	5094
875.108	5056
875.237	4908
875.365	4881
875.494	4904
875.623	4968
875.751	4801
875.88	4847
876.008	4991
876.136	5022
876.265	5170
876.393	5379
876.521	5269
876.65	5197
876.778	5109
876.906	5083
877.034	5018
877.162	5102
877.29	5067
877.418	5025
877.546	5010
877.674	5041
877.802	5041
877.93	5018
878.058	4961
878.185	4889
878.313	4942
878.441	4949
878.568	4828
878.696	4809
878.824	4953
878.951	4927
879.079	5170
879.206	5277
879.333	5098
879.461	4968
879.588	4972
879.715	5109
879.842	5246
879.97	5022
880.097	4790
880.224	4782
880.351	4828
880.478	4824
880.605	4793
880.732	4786
880.859	5090
880.986	4900
881.112	4870
881.239	4763
881.366	4649
881.493	4588
881.619	4603
881.746	4611
881.872	4637
881.999	4622
882.125	4733
882.252	4778
882.378	4816
882.505	5003
882.631	4793
882.757	4656
882.883	4721
883.01	4725
883.136	4687
883.262	4596
883.388	4611
883.514	4828
883.64	4816
883.766	4793
883.892	4645
884.018	4687
884.143	4885
884.269	4999
884.395	4691
884.52	4653
884.646	4626
884.772	4580
884.897	4618
885.023	4664
885.148	4793
885.274	4873
885.399	4759
885.524	4725
885.65	4687
885.775	4752
885.9	4664
886.025	4896
886.15	4828
886.275	4702
886.4	4660
886.525	4714
886.65	4698
886.775	4687
886.9	4927
887.025	5029
887.149	4801
887.274	4656
887.399	4641
887.523	4622
887.648	4542
887.773	4584
887.897	4809
888.021	4759
888.146	4702
888.27	4843
888.395	4873
888.519	4771
888.643	4847
888.767	4831
888.891	4710
889.015	4599
889.139	4691
889.263	4660
889.387	4748
889.511	4877
889.635	4854
889.759	4672
889.883	4668
890.006	4744
890.13	4812
890.254	4660
890.377	4641
890.501	4569
890.624	4500
890.748	4672
890.871	4550
890.995	4432
891.118	4390
891.241	4493
891.364	4523
891.488	4599
891.611	4436
891.734	4550
891.857	4630
891.98	4523
892.103	4618
892.226	4596
892.349	4542
892.471	4371
892.594	4565
892.717	4596
892.839	4577
892.962	4603
893.085	4698
893.207	4599
893.33	4489
893.452	4508
893.575	4672
893.697	4603
893.819	4774
893.941	4850
894.064	4744
894.186	4592
894.308	4546
894.43	4717
894.552	4824
894.674	4729
894.796	4535
894.918	4577
895.04	4550
895.161	4675
895.283	4725
895.405	4580
895.526	4580
895.648	4721
895.769	4626
895.891	4691
896.012	4744
896.134	4748
896.255	4687
896.376	4618
896.498	4596
896.619	4645
896.74	4637
896.861	4580
896.982	4972
897.103	5090
897.224	4839
897.345	4782
897.466	4672
897.587	4691
897.708	4850
897.828	4797
897.949	4637
898.07	4584
898.19	4641
898.311	4824
898.431	4675
898.552	4759
898.672	4809
898.792	4831
898.913	4736
899.033	4626
899.153	4512
899.273	4443
899.393	4504
899.513	4512
899.633	4508
899.753	4558
899.873	4535
899.993	4611
900.113	4542
900.232	4554
900.352	4531
900.472	4485
900.591	4386
900.711	4493
900.83	4485
900.95	4599
901.069	4710
901.189	4535
901.308	4402
901.427	4341
901.546	4379
901.665	4512
901.784	4519
901.904	4318
902.023	4383
902.141	4188
902.26	4219
902.379	4341
902.498	4268
902.617	4204
902.735	4341
902.854	4394
902.973	4383
903.091	4204
903.21	4215
903.328	4284
903.446	4284
903.565	4299
903.683	4344
903.801	4253
903.919	4424
904.038	4424
904.156	4284
904.274	4424
904.392	4440
904.51	4424
904.627	4466
904.745	4516
904.863	4599
904.981	4375
905.098	4291
905.216	4371
905.334	4398
905.451	4447
905.569	4455
905.686	4584
905.803	4546
905.921	4383
906.038	4535
906.155	4504
906.272	4398
906.389	4466
906.506	4363
906.623	4413
906.74	4417
906.857	4348
906.974	4402
907.091	4542
907.208	4630
907.324	4660
907.441	4523
907.557	4329
907.674	4341
907.79	4295
907.907	4333
908.023	4519
908.139	4481
908.256	4459
908.372	4478
908.488	4481
908.604	4363
908.72	4322
908.836	4363
908.952	4371
909.068	4443
909.184	4550
909.3	4493
909.415	4584
909.531	4565
909.647	4329
909.762	4318
909.878	4325
909.993	4447
910.108	4436
910.224	4462
910.339	4493
910.454	4413
910.57	4344
910.685	4318
910.8	4630
910.915	4577
911.03	4478
911.145	4284
911.259	4299
911.374	4325
911.489	4306
911.604	4303
911.718	4120
911.833	4204
911.947	4078
912.062	4021
912.176	4219
912.291	4287
912.405	4242
912.519	4447
912.633	4485
912.748	4379
912.862	4337
912.976	4173
913.09	4059
913.204	4181
913.318	4196
913.431	4363
913.545	4383
913.659	4443
913.772	4394
913.886	4280
914	4207
914.113	4375
914.226	4443
914.34	4398
914.453	4204
914.566	4413
914.68	4352
914.793	4306
914.906	4207
915.019	4143
915.132	4067
915.245	4200
915.358	4215
915.47	4242
915.583	4219
915.696	4325
915.809	4390
915.921	4447
916.034	4234
916.146	4234
916.259	4173
916.371	4398
916.483	4337
916.595	4234
916.708	4322
916.82	4318
916.932	4348
917.044	4318
917.156	4303
917.268	4268
917.38	4253
917.491	4268
917.603	4272
917.715	4424
917.826	4451
917.938	4367
918.049	4158
918.161	4386
918.272	4527
918.384	4523
918.495	4432
918.606	4284
918.717	4215
918.828	4333
918.939	4386
919.05	4272
919.161	4303
919.272	4082
919.383	4204
919.494	4493
919.604	4618
919.715	4402
919.826	4352
919.936	4451
920.047	4497
920.157	4489
920.267	4641
920.378	4546
920.488	4580
920.598	4672
920.708	4862
920.818	4721
920.928	4774
921.038	4946
921.148	4885
921.258	4618
921.368	4565
921.477	4497
921.587	4508
921.697	4440
921.806	4546
921.916	4459
922.025	4303
922.134	4257
922.244	4230
922.353	4310
922.462	4177
922.571	4124
922.68	3998
922.789	3987
922.898	4021
923.007	3972
923.116	4071
923.224	4090
923.333	4055
923.442	3975
923.55	3926
923.659	4029
923.767	4082
923.876	4021
923.984	4116
924.092	3964
924.201	4082
924.309	4101
924.417	4090
924.525	4029
924.633	4105
924.741	5045
924.849	3888
924.956	4097
925.064	3922
925.172	3907
925.279	3892
925.387	4032
925.494	4067
925.602	4227
925.709	4204
925.816	4029
925.924	4109
926.031	4223
926.138	4192
926.245	4219
926.352	4116
926.459	4238
926.566	4314
926.673	4120
926.779	4059
926.886	4048
926.993	3998
927.099	3953
927.206	3956
927.312	3930
927.419	4086
927.525	4021
927.631	4097
927.737	3968
927.843	3964
927.95	3850
928.056	3960
928.162	3949
928.267	4086
928.373	4599
928.479	4162
928.585	3926
928.69	4010
928.796	4025
928.901	3979
929.007	3884
929.112	3987
929.218	4006
929.323	3922
929.428	3941
929.533	4105
929.638	3892
929.743	3926
929.848	4048
929.953	4010
930.058	3892
930.163	3819
930.267	3857
930.372	3934
930.477	3823
930.581	4090
930.685	3934
930.79	3789
930.894	3934
930.998	3876
931.103	4048
931.207	3736
931.311	3682
931.415	3663
931.519	3504
931.623	3576
