Data from test_V78500241_2242.txt Node
Date: Fri Mar 25 17:04:35 CST 2022
User: usil
Spectrometer: V785-0024
Trigger mode: 0
Integration Time (sec): 4.000000E-1
Scans to average: 1
Nonlinearity correction enabled: false
Boxcar width: 0
Storing dark spectrum: false
XAxis mode: Wavelengths
Number of Pixels in Spectrum: 1024
>>>>>Begin Spectral Data<<<<<
801.071	8054
801.214	8024
801.356	7807
801.499	7833
801.641	7776
801.783	7894
801.926	7936
802.068	7887
802.211	7913
802.353	8012
802.496	7822
802.638	7837
802.78	7856
802.923	7921
803.065	7860
803.208	7868
803.35	8050
803.492	8096
803.635	8195
803.777	7997
803.919	8180
804.061	8370
804.204	8168
804.346	8039
804.488	7967
804.63	8027
804.773	8046
804.915	8157
805.057	8324
805.199	8210
805.341	8237
805.483	8240
805.626	8263
805.768	8096
805.91	8244
806.052	8267
806.194	8073
806.336	8275
806.478	8134
806.62	8050
806.762	8096
806.904	8248
807.046	8495
807.188	8351
807.33	8343
807.472	8339
807.614	8172
807.756	8187
807.898	8065
808.04	7822
808.182	7921
808.324	7898
808.465	7902
808.607	8088
808.749	8077
808.891	8199
809.033	8336
809.174	8187
809.316	8073
809.458	8084
809.6	8050
809.741	8065
809.883	7989
810.025	8111
810.166	8092
810.308	7982
810.45	8016
810.591	7909
810.733	7712
810.875	7655
811.016	7426
811.158	7495
811.299	7556
811.441	7715
811.582	7643
811.724	7658
811.865	7586
812.007	7590
812.148	7578
812.29	7620
812.431	7761
812.573	7902
812.714	7974
812.855	8123
812.997	8202
813.138	8324
813.279	8168
813.421	8020
813.562	7974
813.703	7818
813.845	7712
813.986	7384
814.127	7221
814.268	7232
814.41	7164
814.551	7190
814.692	7244
814.833	7076
814.974	7076
815.115	7080
815.256	6989
815.397	6920
815.539	6951
815.68	6745
815.821	6772
815.962	6840
816.103	6852
816.244	6688
816.385	6620
816.526	6555
816.666	6555
816.807	6327
816.948	6429
817.089	6456
817.23	6448
817.371	6372
817.512	6353
817.653	6391
817.793	6334
817.934	6448
818.075	6426
818.216	6395
818.356	6407
818.497	6277
818.638	6060
818.778	6205
818.919	6117
819.06	6213
819.2	6304
819.341	6350
819.481	6338
819.622	6532
819.762	6726
819.903	6681
820.043	6631
820.184	6536
820.324	6677
820.465	6719
820.605	6654
820.746	6662
820.886	6551
821.026	6677
821.167	6734
821.307	6738
821.447	6787
821.588	6593
821.728	6593
821.868	6506
822.008	6327
822.149	6353
822.289	6331
822.429	6228
822.569	6106
822.709	6152
822.849	5878
822.99	5893
823.13	5973
823.27	5954
823.41	5821
823.55	5817
823.69	5802
823.83	5767
823.97	5691
824.11	5528
824.25	5471
824.389	5615
824.529	5600
824.669	5535
824.809	5638
824.949	5653
825.089	5596
825.228	5604
825.368	5368
825.508	5337
825.648	5337
825.787	5337
825.927	5372
826.067	5364
826.206	5277
826.346	5345
826.485	5421
826.625	5459
826.765	5520
826.904	5512
827.044	5277
827.183	5250
827.323	5162
827.462	5212
827.601	5117
827.741	5159
827.88	5181
828.02	5143
828.159	5239
828.298	5261
828.437	5379
828.577	5261
828.716	5478
828.855	5322
828.994	5174
829.134	5143
829.273	5143
829.412	5147
829.551	5143
829.69	5185
829.829	5265
829.968	5364
830.107	5246
830.246	5227
830.385	5132
830.524	5090
830.663	5083
830.802	4980
830.941	4854
831.08	4881
831.219	4957
831.357	4976
831.496	5143
831.635	4896
831.774	4877
831.913	4824
832.051	4736
832.19	4755
832.329	4850
832.467	4675
832.606	4660
832.744	4740
832.883	4691
833.022	4714
833.16	4782
833.299	4847
833.437	4835
833.576	4870
833.714	4881
833.852	4881
833.991	4896
834.129	4976
834.267	4877
834.406	4949
834.544	5018
834.682	4991
834.821	4976
834.959	5189
835.097	4942
835.235	5151
835.373	5056
835.511	5086
835.65	5056
835.788	4995
835.926	4850
836.064	4889
836.202	4915
836.34	5155
836.478	5201
836.615	5174
836.753	5178
836.891	5284
837.029	5250
837.167	5227
837.305	5166
837.443	5140
837.58	5109
837.718	5231
837.856	5220
837.993	5105
838.131	5269
838.269	5212
838.406	5178
838.544	5159
838.681	5010
838.819	5018
838.956	4877
839.094	4915
839.231	4953
839.369	5090
839.506	5417
839.643	5265
839.781	5048
839.918	4987
840.055	5128
840.193	5098
840.33	5117
840.467	5166
840.604	5254
840.742	5455
840.879	5102
841.016	5113
841.153	5124
841.29	5326
841.427	5315
841.564	5315
841.701	5372
841.838	5265
841.975	5277
842.112	5280
842.249	5121
842.385	5086
842.522	5318
842.659	5136
842.796	5181
842.933	5159
843.069	5151
843.206	5090
843.343	5345
843.479	5178
843.616	5227
843.752	5014
843.889	4991
844.025	5227
844.162	5018
844.298	5181
844.435	5037
844.571	4995
844.708	5178
844.844	5273
844.98	5318
845.117	5284
845.253	5090
845.389	5037
845.525	5174
845.661	5174
845.798	5037
845.934	5094
846.07	5071
846.206	5235
846.342	5269
846.478	5151
846.614	4938
846.75	4972
846.886	4938
847.022	5174
847.158	4968
847.294	5086
847.429	5079
847.565	5094
847.701	5315
847.837	4892
847.972	4828
848.108	4953
848.244	4923
848.379	4721
848.515	4759
848.65	4691
848.786	4740
848.921	4782
849.057	4881
849.192	4889
849.328	4831
849.463	4793
849.598	4782
849.734	4774
849.869	4653
850.004	4607
850.14	4656
850.275	4565
850.41	4565
850.545	4538
850.68	4615
850.815	4603
850.95	4573
851.085	4854
851.22	4698
851.355	4679
851.49	4660
851.625	4588
851.76	4611
851.895	4577
852.03	4516
852.165	4675
852.299	4748
852.434	4793
852.569	4752
852.703	4782
852.838	4870
852.973	4919
853.107	4930
853.242	4729
853.376	4687
853.511	4558
853.645	4580
853.78	4828
853.914	4679
854.048	4672
854.183	4622
854.317	4736
854.451	4862
854.585	4626
854.72	4630
854.854	4759
854.988	4584
855.122	4637
855.256	4508
855.39	4683
855.524	4771
855.658	4679
855.792	4664
855.926	4710
856.06	4774
856.194	4835
856.327	4706
856.461	4588
856.595	4611
856.729	4637
856.862	4698
856.996	4710
857.13	4710
857.263	4691
857.397	4782
857.53	4645
857.664	4729
857.797	4721
857.931	4786
858.064	4656
858.197	4714
858.331	4634
858.464	4626
858.597	4535
858.731	4618
858.864	4596
858.997	4603
859.13	4603
859.263	4641
859.396	4615
859.529	4603
859.662	4535
859.795	4550
859.928	4580
860.061	4763
860.194	4767
860.327	4573
860.46	4565
860.592	4706
860.725	4725
860.858	4744
860.99	4611
861.123	4500
861.256	4523
861.388	4634
861.521	5277
861.653	4516
861.786	4470
861.918	4470
862.05	4516
862.183	4569
862.315	4611
862.447	4622
862.58	4554
862.712	4402
862.844	4306
862.976	4508
863.108	4443
863.24	4847
863.372	4303
863.504	4383
863.636	4428
863.768	4451
863.9	4489
864.032	4398
864.164	4398
864.296	4436
864.428	4523
864.559	4561
864.691	4538
864.823	4504
864.954	4519
865.086	4531
865.217	4436
865.349	4428
865.48	4417
865.612	4504
865.743	4599
865.875	4447
866.006	4424
866.137	4481
866.269	4466
866.4	4428
866.531	4443
866.662	4390
866.793	4405
866.924	4432
867.055	4459
867.186	4443
867.317	4432
867.448	4405
867.579	4394
867.71	4375
867.841	4363
867.972	4474
868.103	4440
868.233	4432
868.364	4436
868.495	4447
868.625	4634
868.756	4782
868.886	4565
869.017	4599
869.147	4767
869.278	4759
869.408	4672
869.539	4630
869.669	4675
869.799	4672
869.929	4717
870.06	4733
870.19	4938
870.32	4870
870.45	4968
870.58	5022
870.71	5128
870.84	5090
870.97	4953
871.1	4900
871.23	5109
871.36	5067
871.489	5064
871.619	5086
871.749	5083
871.879	5124
872.008	5151
872.138	5083
872.267	5006
872.397	4790
872.526	4805
872.656	4714
872.785	4812
872.915	5003
873.044	5033
873.173	4953
873.303	5010
873.432	4934
873.561	4976
873.69	4862
873.819	4831
873.948	4900
874.077	4801
874.206	4729
874.335	4790
874.464	4942
874.593	5041
874.722	4991
874.851	5124
874.979	5010
875.108	5048
875.237	4923
875.365	4885
875.494	4862
875.623	5041
875.751	4812
875.88	4881
876.008	5006
876.136	5048
876.265	5147
876.393	5322
876.521	5227
876.65	5254
876.778	5159
876.906	5045
877.034	5048
877.162	5041
877.29	4972
877.418	5086
877.546	5060
877.674	5067
877.802	4965
877.93	5018
878.058	4927
878.185	4862
878.313	4946
878.441	4934
878.568	4809
878.696	4839
878.824	4976
878.951	4991
879.079	5121
879.206	5269
879.333	5109
879.461	4976
879.588	5018
879.715	5128
879.842	5269
879.97	5041
880.097	4809
880.224	4698
880.351	4786
880.478	4812
880.605	4828
880.732	4771
880.859	5094
880.986	4866
881.112	4892
881.239	4816
881.366	4664
881.493	4588
881.619	4599
881.746	4645
881.872	4637
881.999	4668
882.125	4687
882.252	4736
882.378	4797
882.505	4957
882.631	4786
882.757	4641
882.883	4706
883.01	4721
883.136	4683
883.262	4607
883.388	4615
883.514	4873
883.64	4900
883.766	4767
883.892	4691
884.018	4679
884.143	4858
884.269	5010
884.395	4656
884.52	4641
884.646	4668
884.772	4603
884.897	4573
885.023	4596
885.148	4763
885.274	4881
885.399	4850
885.524	4698
885.65	4714
885.775	4755
885.9	4710
886.025	4831
886.15	4778
886.275	4714
886.4	4618
886.525	4744
886.65	4675
886.775	4771
886.9	4877
887.025	5045
887.149	4805
887.274	4626
887.399	4599
887.523	4588
887.648	4603
887.773	4569
887.897	4740
888.021	4790
888.146	4634
888.27	4831
888.395	4877
888.519	4717
888.643	4877
888.767	4786
888.891	4706
889.015	4622
889.139	4653
889.263	4588
889.387	4733
889.511	4835
889.635	4778
889.759	4637
889.883	4664
890.006	4767
890.13	4805
890.254	4596
890.377	4615
890.501	4561
890.624	4519
890.748	4603
890.871	4478
890.995	4432
891.118	4363
891.241	4508
891.364	4550
891.488	4653
891.611	4470
891.734	4550
891.857	4626
891.98	4584
892.103	4649
892.226	4611
892.349	4527
892.471	4436
892.594	4542
892.717	4615
892.839	4523
892.962	4592
893.085	4630
893.207	4611
893.33	4459
893.452	4531
893.575	4637
893.697	4538
893.819	4744
893.941	4820
894.064	4771
894.186	4588
894.308	4508
894.43	4687
894.552	4854
894.674	4782
894.796	4546
894.918	4599
895.04	4535
895.161	4641
895.283	4634
895.405	4569
895.526	4611
895.648	4672
895.769	4691
895.891	4660
896.012	4694
896.134	4691
896.255	4683
896.376	4634
896.498	4622
896.619	4645
896.74	4599
896.861	4618
896.982	4934
897.103	5083
897.224	4816
897.345	4778
897.466	4641
897.587	4729
897.708	4873
897.828	4767
897.949	4694
898.07	4565
898.19	4626
898.311	4816
898.431	4694
898.552	4755
898.672	4793
898.792	4809
898.913	4725
899.033	4626
899.153	4493
899.273	4394
899.393	4500
899.513	4519
899.633	4550
899.753	4542
899.873	4508
899.993	4622
900.113	4531
900.232	4554
900.352	4497
900.472	4462
900.591	4348
900.711	4440
900.83	4379
900.95	4611
901.069	4664
901.189	4561
901.308	4394
901.427	4348
901.546	4398
901.665	4466
901.784	4489
901.904	4344
902.023	4322
902.141	4150
902.26	4204
902.379	4329
902.498	4249
902.617	4253
902.735	4402
902.854	4398
902.973	4314
903.091	4204
903.21	4223
903.328	4295
903.446	4268
903.565	4238
903.683	4325
903.801	4356
903.919	4413
904.038	4432
904.156	4325
904.274	4432
904.392	4379
904.51	4428
904.627	4462
904.745	4558
904.863	4626
904.981	4436
905.098	4295
905.216	4344
905.334	4383
905.451	4459
905.569	4451
905.686	4580
905.803	4542
905.921	4413
906.038	4565
906.155	4485
906.272	4421
906.389	4485
906.506	4344
906.623	4386
906.74	4379
906.857	4337
906.974	4360
907.091	4596
907.208	4668
907.324	4580
907.441	4489
907.557	4356
907.674	4352
907.79	4306
907.907	4322
908.023	4447
908.139	4451
908.256	4462
908.372	4421
908.488	4432
908.604	4383
908.72	4306
908.836	4383
908.952	4379
909.068	4459
909.184	4653
909.3	4470
909.415	4561
909.531	4554
909.647	4306
909.762	4295
909.878	4337
909.993	4443
910.108	4398
910.224	4409
910.339	4470
910.454	4409
910.57	4360
910.685	4329
910.8	4660
910.915	4637
911.03	4493
911.145	4337
911.259	4306
911.374	4325
911.489	4329
911.604	4291
911.718	4158
911.833	4173
911.947	4071
912.062	4017
912.176	4211
912.291	4253
912.405	4272
912.519	4459
912.633	4542
912.748	4356
912.862	4246
912.976	4204
913.09	4082
913.204	4162
913.318	4238
913.431	4409
913.545	4386
913.659	4413
913.772	4383
913.886	4215
914	4238
914.113	4394
914.226	4363
914.34	4405
914.453	4257
914.566	4394
914.68	4318
914.793	4360
914.906	4150
915.019	4112
915.132	4063
915.245	4162
915.358	4227
915.47	4234
915.583	4253
915.696	4276
915.809	4421
915.921	4386
916.034	4249
916.146	4253
916.259	4207
916.371	4333
916.483	4371
916.595	4268
916.708	4329
916.82	4352
916.932	4306
917.044	4318
917.156	4318
917.268	4227
917.38	4287
917.491	4261
917.603	4348
917.715	4424
917.826	4402
917.938	4337
918.049	4268
918.161	4402
918.272	4531
918.384	4500
918.495	4424
918.606	4280
918.717	4261
918.828	4306
918.939	4333
919.05	4268
919.161	4329
919.272	4131
919.383	4238
919.494	4455
919.604	4573
919.715	4440
919.826	4344
919.936	4402
920.047	4546
920.157	4519
920.267	4668
920.378	4580
920.488	4474
920.598	4733
920.708	4862
920.818	4752
920.928	4755
921.038	4866
921.148	4923
921.258	4645
921.368	4561
921.477	4538
921.587	4447
921.697	4375
921.806	4561
921.916	4474
922.025	4261
922.134	4261
922.244	4211
922.353	4333
922.462	4181
922.571	4169
922.68	3991
922.789	3979
922.898	4055
923.007	4044
923.116	4059
923.224	4067
923.333	4109
923.442	3960
923.55	4021
923.659	4025
923.767	4082
923.876	3991
923.984	4135
924.092	3987
924.201	4112
924.309	4109
924.417	4177
924.525	4078
924.633	4059
924.741	5083
924.849	3896
924.956	4124
925.064	3918
925.172	3884
925.279	3960
925.387	4032
925.494	4051
925.602	4242
925.709	4185
925.816	4013
925.924	4143
926.031	4227
926.138	4211
926.245	4200
926.352	4074
926.459	4234
926.566	4306
926.673	4135
926.779	4086
926.886	4116
926.993	3994
927.099	3926
927.206	3930
927.312	3945
927.419	4044
927.525	4013
927.631	4090
927.737	3960
927.843	3934
927.95	3846
928.056	3949
928.162	3979
928.267	4063
928.373	4717
928.479	4101
928.585	3888
928.69	4048
928.796	4093
928.901	3968
929.007	3892
929.112	4010
929.218	3991
929.323	3926
929.428	3945
929.533	4093
929.638	3888
929.743	3983
929.848	4025
929.953	4017
930.058	3911
930.163	3759
930.267	3835
930.372	3968
930.477	3838
930.581	4109
930.685	3968
930.79	3869
930.894	3903
930.998	3896
931.103	4048
931.207	3724
931.311	3663
931.415	3679
931.519	3530
931.623	3530
