Data from test_V78500241_1187.txt Node
Date: Fri Mar 25 16:57:15 CST 2022
User: usil
Spectrometer: V785-0024
Trigger mode: 0
Integration Time (sec): 4.000000E-1
Scans to average: 1
Nonlinearity correction enabled: false
Boxcar width: 0
Storing dark spectrum: false
XAxis mode: Wavelengths
Number of Pixels in Spectrum: 1024
>>>>>Begin Spectral Data<<<<<
801.071	8012
801.214	8027
801.356	7947
801.499	7906
801.641	7837
801.783	7811
801.926	7928
802.068	7963
802.211	7955
802.353	7967
802.496	7875
802.638	7890
802.78	7917
802.923	7913
803.065	7951
803.208	7849
803.35	7947
803.492	8062
803.635	8134
803.777	8054
803.919	8134
804.061	8522
804.204	8153
804.346	8050
804.488	7955
804.63	8195
804.773	8058
804.915	8115
805.057	8282
805.199	8176
805.341	8221
805.483	8298
805.626	8248
805.768	8142
805.91	8271
806.052	8221
806.194	8126
806.336	8343
806.478	8081
806.62	8043
806.762	8088
806.904	8301
807.046	8431
807.188	8313
807.33	8294
807.472	8366
807.614	8183
807.756	8126
807.898	8027
808.04	7917
808.182	7868
808.324	7928
808.465	7967
808.607	8172
808.749	8130
808.891	8271
809.033	8343
809.174	8248
809.316	8043
809.458	8024
809.6	8035
809.741	8054
809.883	8054
810.025	8130
810.166	8039
810.308	8103
810.45	8050
810.591	7887
810.733	7807
810.875	7734
811.016	7521
811.158	7567
811.299	7647
811.441	7792
811.582	7700
811.724	7540
811.865	7525
812.007	7548
812.148	7590
812.29	7655
812.431	7780
812.573	7940
812.714	7982
812.855	8164
812.997	8218
813.138	8355
813.279	8267
813.421	8073
813.562	7940
813.703	7765
813.845	7837
813.986	7502
814.127	7320
814.268	7236
814.41	7263
814.551	7194
814.692	7225
814.833	7145
814.974	7069
815.115	7091
815.256	6966
815.397	7023
815.539	6939
815.68	6821
815.821	6856
815.962	6928
816.103	6818
816.244	6707
816.385	6616
816.526	6673
816.666	6521
816.807	6281
816.948	6486
817.089	6509
817.23	6452
817.371	6403
817.512	6445
817.653	6452
817.793	6399
817.934	6445
818.075	6460
818.216	6502
818.356	6426
818.497	6239
818.638	6171
818.778	6155
818.919	6159
819.06	6220
819.2	6350
819.341	6285
819.481	6407
819.622	6540
819.762	6726
819.903	6745
820.043	6665
820.184	6608
820.324	6608
820.465	6650
820.605	6692
820.746	6654
820.886	6479
821.026	6711
821.167	6730
821.307	6806
821.447	6791
821.588	6673
821.728	6631
821.868	6486
822.008	6300
822.149	6357
822.289	6350
822.429	6167
822.569	6106
822.709	6152
822.849	5977
822.99	5950
823.13	5942
823.27	5961
823.41	5805
823.55	5741
823.69	5821
823.83	5805
823.97	5710
824.11	5577
824.25	5554
824.389	5566
824.529	5604
824.669	5516
824.809	5680
824.949	5634
825.089	5642
825.228	5596
825.368	5421
825.508	5379
825.648	5326
825.787	5376
825.927	5406
826.067	5330
826.206	5273
826.346	5349
826.485	5417
826.625	5376
826.765	5551
826.904	5570
827.044	5212
827.183	5155
827.323	5155
827.462	5239
827.601	5155
827.741	5227
827.88	5223
828.02	5105
828.159	5269
828.298	5303
828.437	5368
828.577	5318
828.716	5512
828.855	5353
828.994	5151
829.134	5151
829.273	5181
829.412	5147
829.551	5185
829.69	5197
829.829	5269
829.968	5417
830.107	5258
830.246	5292
830.385	5189
830.524	5159
830.663	5083
830.802	5056
830.941	4889
831.08	4911
831.219	4877
831.357	4984
831.496	5143
831.635	4968
831.774	4885
831.913	4919
832.051	4683
832.19	4755
832.329	4847
832.467	4714
832.606	4622
832.744	4744
832.883	4694
833.022	4725
833.16	4797
833.299	4812
833.437	4892
833.576	4870
833.714	4873
833.852	4873
833.991	4889
834.129	4972
834.267	4957
834.406	4885
834.544	4995
834.682	4991
834.821	4961
834.959	5151
835.097	5025
835.235	5121
835.373	5083
835.511	5143
835.65	5094
835.788	5086
835.926	4942
836.064	4881
836.202	4942
836.34	5227
836.478	5159
836.615	5143
836.753	5242
836.891	5307
837.029	5223
837.167	5193
837.305	5273
837.443	5220
837.58	5098
837.718	5261
837.856	5201
837.993	5166
838.131	5265
838.269	5208
838.406	5227
838.544	5143
838.681	5041
838.819	5025
838.956	4934
839.094	4900
839.231	4984
839.369	5105
839.506	5414
839.643	5280
839.781	5060
839.918	5064
840.055	5079
840.193	5128
840.33	5048
840.467	5109
840.604	5189
840.742	5452
840.879	5071
841.016	5124
841.153	5174
841.29	5372
841.427	5341
841.564	5376
841.701	5402
841.838	5254
841.975	5250
842.112	5299
842.249	5178
842.385	5121
842.522	5387
842.659	5239
842.796	5155
842.933	5208
843.069	5170
843.206	5193
843.343	5345
843.479	5242
843.616	5254
843.752	5086
843.889	5018
844.025	5204
844.162	5022
844.298	5189
844.435	5071
844.571	5067
844.708	5220
844.844	5341
844.98	5341
845.117	5296
845.253	5143
845.389	5140
845.525	5117
845.661	5105
845.798	5048
845.934	5128
846.07	5083
846.206	5147
846.342	5235
846.478	5162
846.614	4991
846.75	4987
846.886	4972
847.022	5136
847.158	4991
847.294	5083
847.429	5094
847.565	5064
847.701	5307
847.837	4850
847.972	4805
848.108	4930
848.244	4991
848.379	4778
848.515	4702
848.65	4748
848.786	4729
848.921	4733
849.057	4942
849.192	4908
849.328	4793
849.463	4896
849.598	4801
849.734	4748
849.869	4694
850.004	4611
850.14	4675
850.275	4634
850.41	4550
850.545	4577
850.68	4569
850.815	4634
850.95	4634
851.085	4820
851.22	4717
851.355	4679
851.49	4599
851.625	4683
851.76	4668
851.895	4584
852.03	4508
852.165	4656
852.299	4733
852.434	4755
852.569	4816
852.703	4835
852.838	4831
852.973	4908
853.107	4938
853.242	4809
853.376	4694
853.511	4561
853.645	4641
853.78	4786
853.914	4649
854.048	4672
854.183	4637
854.317	4702
854.451	4873
854.585	4656
854.72	4626
854.854	4778
854.988	4622
855.122	4664
855.256	4542
855.39	4683
855.524	4759
855.658	4721
855.792	4641
855.926	4733
856.06	4767
856.194	4809
856.327	4691
856.461	4599
856.595	4588
856.729	4702
856.862	4752
856.996	4721
857.13	4755
857.263	4725
857.397	4774
857.53	4660
857.664	4645
857.797	4752
857.931	4793
858.064	4687
858.197	4759
858.331	4664
858.464	4615
858.597	4497
858.731	4592
858.864	4664
858.997	4607
859.13	4653
859.263	4691
859.396	4683
859.529	4645
859.662	4599
859.795	4550
859.928	4622
860.061	4793
860.194	4763
860.327	4599
860.46	4561
860.592	4683
860.725	4740
860.858	4717
860.99	4611
861.123	4531
861.256	4558
861.388	4611
861.521	5357
861.653	4481
861.786	4481
861.918	4459
862.05	4538
862.183	4516
862.315	4580
862.447	4649
862.58	4550
862.712	4421
862.844	4329
862.976	4508
863.108	4447
863.24	4934
863.372	4322
863.504	4447
863.636	4443
863.768	4508
863.9	4451
864.032	4363
864.164	4409
864.296	4474
864.428	4546
864.559	4596
864.691	4481
864.823	4497
864.954	4550
865.086	4523
865.217	4462
865.349	4440
865.48	4470
865.612	4470
865.743	4656
865.875	4405
866.006	4451
866.137	4455
866.269	4413
866.4	4402
866.531	4428
866.662	4371
866.793	4478
866.924	4440
867.055	4481
867.186	4443
867.317	4428
867.448	4394
867.579	4398
867.71	4383
867.841	4409
867.972	4508
868.103	4455
868.233	4485
868.364	4474
868.495	4485
868.625	4637
868.756	4752
868.886	4538
869.017	4637
869.147	4752
869.278	4763
869.408	4675
869.539	4656
869.669	4675
869.799	4691
869.929	4782
870.06	4774
870.19	4949
870.32	4915
870.45	4870
870.58	5064
870.71	5155
870.84	5056
870.97	4965
871.1	4847
871.23	5166
871.36	5090
871.489	5010
871.619	5010
871.749	5071
871.879	5102
872.008	5143
872.138	5064
872.267	4995
872.397	4858
872.526	4778
872.656	4664
872.785	4835
872.915	4896
873.044	5037
873.173	4892
873.303	4938
873.432	4923
873.561	4987
873.69	4870
873.819	4854
873.948	4965
874.077	4831
874.206	4714
874.335	4755
874.464	4873
874.593	5071
874.722	4938
874.851	5041
874.979	5045
875.108	5056
875.237	4911
875.365	4900
875.494	4889
875.623	4987
875.751	4828
875.88	4889
876.008	4968
876.136	5018
876.265	5140
876.393	5345
876.521	5189
876.65	5181
876.778	5170
876.906	5109
877.034	5041
877.162	5029
877.29	5041
877.418	5045
877.546	5025
877.674	5048
877.802	5052
877.93	5003
878.058	4938
878.185	4824
878.313	4976
878.441	4965
878.568	4824
878.696	4915
878.824	4942
878.951	4957
879.079	5128
879.206	5303
879.333	5079
879.461	5041
879.588	5018
879.715	5113
879.842	5170
879.97	5029
880.097	4759
880.224	4778
880.351	4809
880.478	4839
880.605	4740
880.732	4725
880.859	5113
880.986	4892
881.112	4919
881.239	4812
881.366	4672
881.493	4615
881.619	4615
881.746	4672
881.872	4679
881.999	4618
882.125	4653
882.252	4786
882.378	4881
882.505	4938
882.631	4824
882.757	4668
882.883	4748
883.01	4725
883.136	4679
883.262	4611
883.388	4558
883.514	4790
883.64	4835
883.766	4778
883.892	4656
884.018	4710
884.143	4908
884.269	5010
884.395	4748
884.52	4626
884.646	4630
884.772	4607
884.897	4580
885.023	4706
885.148	4729
885.274	4847
885.399	4847
885.524	4698
885.65	4721
885.775	4721
885.9	4706
886.025	4858
886.15	4786
886.275	4698
886.4	4668
886.525	4698
886.65	4755
886.775	4721
886.9	4919
887.025	5006
887.149	4790
887.274	4656
887.399	4538
887.523	4535
887.648	4588
887.773	4596
887.897	4786
888.021	4797
888.146	4698
888.27	4809
888.395	4873
888.519	4759
888.643	4839
888.767	4820
888.891	4637
889.015	4561
889.139	4683
889.263	4626
889.387	4809
889.511	4866
889.635	4793
889.759	4664
889.883	4588
890.006	4733
890.13	4858
890.254	4645
890.377	4714
890.501	4573
890.624	4546
890.748	4637
890.871	4516
890.995	4436
891.118	4390
891.241	4538
891.364	4550
891.488	4637
891.611	4459
891.734	4519
891.857	4588
891.98	4577
892.103	4660
892.226	4618
892.349	4527
892.471	4405
892.594	4554
892.717	4573
892.839	4588
892.962	4588
893.085	4618
893.207	4554
893.33	4451
893.452	4512
893.575	4645
893.697	4611
893.819	4835
893.941	4812
894.064	4771
894.186	4542
894.308	4584
894.43	4729
894.552	4809
894.674	4771
894.796	4542
894.918	4584
895.04	4565
895.161	4710
895.283	4622
895.405	4554
895.526	4626
895.648	4710
895.769	4675
895.891	4714
896.012	4740
896.134	4748
896.255	4668
896.376	4634
896.498	4618
896.619	4698
896.74	4634
896.861	4626
896.982	4885
897.103	5083
897.224	4839
897.345	4729
897.466	4660
897.587	4725
897.708	4862
897.828	4755
897.949	4691
898.07	4527
898.19	4592
898.311	4797
898.431	4687
898.552	4721
898.672	4812
898.792	4755
898.913	4767
899.033	4637
899.153	4500
899.273	4455
899.393	4497
899.513	4500
899.633	4462
899.753	4565
899.873	4497
899.993	4554
900.113	4550
900.232	4588
900.352	4504
900.472	4485
900.591	4405
900.711	4497
900.83	4462
900.95	4584
901.069	4675
901.189	4535
901.308	4341
901.427	4287
901.546	4386
901.665	4447
901.784	4508
901.904	4390
902.023	4299
902.141	4227
902.26	4150
902.379	4287
902.498	4234
902.617	4185
902.735	4402
902.854	4413
902.973	4356
903.091	4234
903.21	4223
903.328	4280
903.446	4280
903.565	4265
903.683	4333
903.801	4265
903.919	4405
904.038	4455
904.156	4287
904.274	4428
904.392	4363
904.51	4383
904.627	4504
904.745	4569
904.863	4653
904.981	4409
905.098	4291
905.216	4322
905.334	4428
905.451	4417
905.569	4447
905.686	4535
905.803	4569
905.921	4371
906.038	4523
906.155	4519
906.272	4375
906.389	4424
906.506	4348
906.623	4390
906.74	4428
906.857	4291
906.974	4409
907.091	4538
907.208	4679
907.324	4603
907.441	4500
907.557	4333
907.674	4329
907.79	4314
907.907	4390
908.023	4485
908.139	4462
908.256	4470
908.372	4478
908.488	4405
908.604	4356
908.72	4352
908.836	4367
908.952	4360
909.068	4424
909.184	4550
909.3	4466
909.415	4577
909.531	4592
909.647	4337
909.762	4325
909.878	4314
909.993	4432
910.108	4436
910.224	4432
910.339	4474
910.454	4402
910.57	4371
910.685	4322
910.8	4626
910.915	4637
911.03	4508
911.145	4276
911.259	4341
911.374	4371
911.489	4329
911.604	4257
911.718	4215
911.833	4158
911.947	4074
912.062	4044
912.176	4215
912.291	4207
912.405	4249
912.519	4451
912.633	4470
912.748	4352
912.862	4367
912.976	4154
913.09	4074
913.204	4150
913.318	4219
913.431	4386
913.545	4352
913.659	4360
913.772	4356
913.886	4265
914	4215
914.113	4352
914.226	4409
914.34	4379
914.453	4242
914.566	4394
914.68	4318
914.793	4325
914.906	4120
915.019	4143
915.132	4067
915.245	4173
915.358	4223
915.47	4227
915.583	4227
915.696	4325
915.809	4390
915.921	4424
916.034	4268
916.146	4284
916.259	4204
916.371	4356
916.483	4383
916.595	4265
916.708	4325
916.82	4329
916.932	4299
917.044	4287
917.156	4280
917.268	4211
917.38	4284
917.491	4253
917.603	4299
917.715	4379
917.826	4371
917.938	4371
918.049	4249
918.161	4409
918.272	4504
918.384	4523
918.495	4421
918.606	4314
918.717	4280
918.828	4322
918.939	4367
919.05	4207
919.161	4299
919.272	4097
919.383	4211
919.494	4455
919.604	4611
919.715	4398
919.826	4329
919.936	4417
920.047	4489
920.157	4489
920.267	4691
920.378	4580
920.488	4497
920.598	4740
920.708	4858
920.818	4740
920.928	4729
921.038	4965
921.148	4896
921.258	4584
921.368	4558
921.477	4432
921.587	4424
921.697	4344
921.806	4546
921.916	4402
922.025	4261
922.134	4234
922.244	4227
922.353	4322
922.462	4246
922.571	4105
922.68	4025
922.789	3968
922.898	4044
923.007	3953
923.116	4120
923.224	4074
923.333	4074
923.442	3987
923.55	3930
923.659	4025
923.767	4093
923.876	3975
923.984	4086
924.092	3960
924.201	4093
924.309	4090
924.417	4128
924.525	4048
924.633	4086
924.741	5037
924.849	3945
924.956	4109
925.064	3968
925.172	3941
925.279	3994
925.387	4021
925.494	4040
925.602	4177
925.709	4192
925.816	4086
925.924	4162
926.031	4196
926.138	4169
926.245	4223
926.352	4082
926.459	4268
926.566	4261
926.673	4116
926.779	4109
926.886	4071
926.993	3968
927.099	3956
927.206	3945
927.312	3941
927.419	4059
927.525	4025
927.631	4044
927.737	3956
927.843	3930
927.95	3869
928.056	3983
928.162	3975
928.267	4040
928.373	4672
928.479	4120
928.585	3846
928.69	4021
928.796	4082
928.901	3934
929.007	3838
929.112	3956
929.218	3983
929.323	3918
929.428	3922
929.533	4082
929.638	3880
929.743	3937
929.848	4082
929.953	3991
930.058	3911
930.163	3797
930.267	3823
930.372	3979
930.477	3835
930.581	4086
930.685	3941
930.79	3880
930.894	3896
930.998	3865
931.103	4002
931.207	3690
931.311	3652
931.415	3667
931.519	3553
931.623	3523
