Data from test_V78500241_2426.txt Node
Date: Fri Mar 25 17:05:52 CST 2022
User: usil
Spectrometer: V785-0024
Trigger mode: 0
Integration Time (sec): 4.000000E-1
Scans to average: 1
Nonlinearity correction enabled: false
Boxcar width: 0
Storing dark spectrum: false
XAxis mode: Wavelengths
Number of Pixels in Spectrum: 1024
>>>>>Begin Spectral Data<<<<<
801.071	7917
801.214	7997
801.356	7871
801.499	7826
801.641	7788
801.783	7811
801.926	8046
802.068	7947
802.211	7955
802.353	7978
802.496	7852
802.638	7875
802.78	7932
802.923	7913
803.065	7879
803.208	7837
803.35	7852
803.492	8134
803.635	8142
803.777	8077
803.919	8195
804.061	8518
804.204	8168
804.346	8020
804.488	7913
804.63	8111
804.773	7986
804.915	8134
805.057	8343
805.199	8145
805.341	8210
805.483	8298
805.626	8256
805.768	8168
805.91	8218
806.052	8180
806.194	8065
806.336	8252
806.478	8134
806.62	8020
806.762	8172
806.904	8286
807.046	8396
807.188	8305
807.33	8229
807.472	8298
807.614	8259
807.756	8123
807.898	8020
808.04	7887
808.182	7845
808.324	7826
808.465	7871
808.607	8001
808.749	8054
808.891	8145
809.033	8244
809.174	8191
809.316	8035
809.458	8100
809.6	8020
809.741	8027
809.883	8031
810.025	8058
810.166	8050
810.308	7993
810.45	7959
810.591	7845
810.733	7677
810.875	7639
811.016	7502
811.158	7430
811.299	7620
811.441	7662
811.582	7594
811.724	7571
811.865	7540
812.007	7620
812.148	7563
812.29	7643
812.431	7738
812.573	7879
812.714	8012
812.855	8149
812.997	8233
813.138	8282
813.279	8187
813.421	8138
813.562	7955
813.703	7871
813.845	7723
813.986	7430
814.127	7335
814.268	7187
814.41	7221
814.551	7149
814.692	7259
814.833	7004
814.974	7133
815.115	7095
815.256	6928
815.397	6913
815.539	6939
815.68	6795
815.821	6776
815.962	6886
816.103	6802
816.244	6700
816.385	6654
816.526	6566
816.666	6566
816.807	6304
816.948	6471
817.089	6517
817.23	6414
817.371	6422
817.512	6365
817.653	6372
817.793	6407
817.934	6433
818.075	6448
818.216	6422
818.356	6441
818.497	6304
818.638	6171
818.778	6152
818.919	6117
819.06	6114
819.2	6304
819.341	6281
819.481	6338
819.622	6498
819.762	6757
819.903	6623
820.043	6616
820.184	6597
820.324	6494
820.465	6700
820.605	6692
820.746	6681
820.886	6475
821.026	6623
821.167	6711
821.307	6749
821.447	6848
821.588	6692
821.728	6616
821.868	6479
822.008	6315
822.149	6357
822.289	6391
822.429	6110
822.569	6106
822.709	6106
822.849	5931
822.99	5920
823.13	5920
823.27	5908
823.41	5855
823.55	5794
823.69	5779
823.83	5805
823.97	5649
824.11	5505
824.25	5539
824.389	5562
824.529	5642
824.669	5509
824.809	5604
824.949	5592
825.089	5562
825.228	5547
825.368	5395
825.508	5357
825.648	5326
825.787	5349
825.927	5357
826.067	5330
826.206	5315
826.346	5402
826.485	5376
826.625	5387
826.765	5524
826.904	5493
827.044	5242
827.183	5254
827.323	5151
827.462	5296
827.601	5166
827.741	5151
827.88	5261
828.02	5071
828.159	5246
828.298	5292
828.437	5368
828.577	5292
828.716	5463
828.855	5330
828.994	5159
829.134	5166
829.273	5212
829.412	5143
829.551	5162
829.69	5178
829.829	5216
829.968	5387
830.107	5254
830.246	5261
830.385	5159
830.524	5140
830.663	5041
830.802	5018
830.941	4904
831.08	4889
831.219	4961
831.357	4938
831.496	5151
831.635	4934
831.774	4809
831.913	4824
832.051	4755
832.19	4748
832.329	4828
832.467	4664
832.606	4603
832.744	4691
832.883	4759
833.022	4782
833.16	4733
833.299	4828
833.437	4850
833.576	4809
833.714	4801
833.852	4896
833.991	4862
834.129	4987
834.267	4961
834.406	4866
834.544	4980
834.682	4972
834.821	4946
834.959	5151
835.097	4980
835.235	5105
835.373	5094
835.511	5105
835.65	5041
835.788	5056
835.926	4839
836.064	4900
836.202	4927
836.34	5140
836.478	5258
836.615	5079
836.753	5216
836.891	5242
837.029	5246
837.167	5239
837.305	5136
837.443	5079
837.58	5071
837.718	5242
837.856	5155
837.993	5117
838.131	5220
838.269	5220
838.406	5181
838.544	5185
838.681	5033
838.819	4984
838.956	4904
839.094	4881
839.231	4980
839.369	5056
839.506	5425
839.643	5280
839.781	5064
839.918	4987
840.055	5102
840.193	5113
840.33	5113
840.467	5159
840.604	5140
840.742	5364
840.879	5124
841.016	5045
841.153	5170
841.29	5360
841.427	5334
841.564	5334
841.701	5353
841.838	5250
841.975	5223
842.112	5277
842.249	5117
842.385	5098
842.522	5303
842.659	5136
842.796	5132
842.933	5174
843.069	5140
843.206	5181
843.343	5277
843.479	5239
843.616	5239
843.752	5029
843.889	5045
844.025	5231
844.162	5064
844.298	5261
844.435	5064
844.571	5045
844.708	5147
844.844	5254
844.98	5322
845.117	5337
845.253	5132
845.389	5105
845.525	5105
845.661	5147
845.798	5022
845.934	5132
846.07	5033
846.206	5185
846.342	5269
846.478	5143
846.614	5010
846.75	5014
846.886	4968
847.022	5121
847.158	5010
847.294	5041
847.429	5075
847.565	5056
847.701	5334
847.837	4809
847.972	4805
848.108	4980
848.244	4953
848.379	4763
848.515	4733
848.65	4698
848.786	4752
848.921	4778
849.057	4854
849.192	4881
849.328	4805
849.463	4870
849.598	4790
849.734	4752
849.869	4725
850.004	4622
850.14	4660
850.275	4615
850.41	4504
850.545	4565
850.68	4656
850.815	4599
850.95	4672
851.085	4812
851.22	4786
851.355	4630
851.49	4634
851.625	4622
851.76	4649
851.895	4523
852.03	4527
852.165	4653
852.299	4740
852.434	4786
852.569	4736
852.703	4752
852.838	4831
852.973	4949
853.107	4934
853.242	4675
853.376	4721
853.511	4523
853.645	4630
853.78	4801
853.914	4717
854.048	4694
854.183	4641
854.317	4706
854.451	4831
854.585	4683
854.72	4675
854.854	4721
854.988	4626
855.122	4596
855.256	4531
855.39	4656
855.524	4767
855.658	4714
855.792	4729
855.926	4759
856.06	4782
856.194	4763
856.327	4611
856.461	4558
856.595	4679
856.729	4618
856.862	4763
856.996	4683
857.13	4733
857.263	4767
857.397	4767
857.53	4653
857.664	4774
857.797	4752
857.931	4801
858.064	4706
858.197	4710
858.331	4637
858.464	4645
858.597	4531
858.731	4702
858.864	4653
858.997	4592
859.13	4683
859.263	4603
859.396	4725
859.529	4596
859.662	4573
859.795	4546
859.928	4679
860.061	4771
860.194	4782
860.327	4618
860.46	4607
860.592	4767
860.725	4683
860.858	4717
860.99	4546
861.123	4516
861.256	4527
861.388	4653
861.521	5357
861.653	4455
861.786	4485
861.918	4466
862.05	4512
862.183	4531
862.315	4607
862.447	4596
862.58	4535
862.712	4363
862.844	4318
862.976	4447
863.108	4481
863.24	4782
863.372	4337
863.504	4417
863.636	4424
863.768	4470
863.9	4375
864.032	4344
864.164	4390
864.296	4478
864.428	4558
864.559	4577
864.691	4516
864.823	4497
864.954	4489
865.086	4500
865.217	4504
865.349	4428
865.48	4455
865.612	4466
865.743	4584
865.875	4443
866.006	4440
866.137	4474
866.269	4443
866.4	4443
866.531	4432
866.662	4421
866.793	4398
866.924	4417
867.055	4508
867.186	4451
867.317	4413
867.448	4371
867.579	4398
867.71	4360
867.841	4386
867.972	4474
868.103	4493
868.233	4443
868.364	4394
868.495	4485
868.625	4630
868.756	4702
868.886	4550
869.017	4580
869.147	4786
869.278	4733
869.408	4645
869.539	4622
869.669	4717
869.799	4622
869.929	4740
870.06	4733
870.19	4938
870.32	4949
870.45	4968
870.58	4991
870.71	5048
870.84	5098
870.97	4976
871.1	4908
871.23	5132
871.36	5143
871.489	5029
871.619	5079
871.749	5048
871.879	5147
872.008	5166
872.138	5079
872.267	4984
872.397	4873
872.526	4786
872.656	4725
872.785	4824
872.915	4904
873.044	5041
873.173	4949
873.303	4972
873.432	4930
873.561	4942
873.69	4881
873.819	4870
873.948	4908
874.077	4889
874.206	4816
874.335	4797
874.464	4976
874.593	5098
874.722	4957
874.851	5098
874.979	5102
875.108	4995
875.237	4889
875.365	4858
875.494	4873
875.623	4953
875.751	4828
875.88	4873
876.008	4984
876.136	5029
876.265	5174
876.393	5296
876.521	5284
876.65	5239
876.778	5143
876.906	5060
877.034	5037
877.162	5052
877.29	4980
877.418	5048
877.546	5033
877.674	5067
877.802	5060
877.93	4991
878.058	4946
878.185	4889
878.313	4938
878.441	4957
878.568	4797
878.696	4896
878.824	4987
878.951	4995
879.079	5075
879.206	5258
879.333	5143
879.461	4968
879.588	5003
879.715	5117
879.842	5197
879.97	4995
880.097	4771
880.224	4752
880.351	4771
880.478	4820
880.605	4763
880.732	4771
880.859	5105
880.986	4934
881.112	4900
881.239	4763
881.366	4660
881.493	4607
881.619	4603
881.746	4584
881.872	4668
881.999	4653
882.125	4668
882.252	4771
882.378	4816
882.505	4938
882.631	4828
882.757	4694
882.883	4698
883.01	4702
883.136	4691
883.262	4584
883.388	4611
883.514	4778
883.64	4858
883.766	4816
883.892	4664
884.018	4702
884.143	4858
884.269	5003
884.395	4664
884.52	4603
884.646	4592
884.772	4596
884.897	4550
885.023	4637
885.148	4710
885.274	4843
885.399	4809
885.524	4721
885.65	4717
885.775	4691
885.9	4679
886.025	4828
886.15	4801
886.275	4733
886.4	4630
886.525	4721
886.65	4687
886.775	4725
886.9	4934
887.025	5006
887.149	4805
887.274	4675
887.399	4561
887.523	4584
887.648	4607
887.773	4561
887.897	4729
888.021	4790
888.146	4664
888.27	4835
888.395	4908
888.519	4782
888.643	4816
888.767	4793
888.891	4672
889.015	4615
889.139	4687
889.263	4634
889.387	4725
889.511	4919
889.635	4805
889.759	4675
889.883	4653
890.006	4740
890.13	4896
890.254	4664
890.377	4683
890.501	4584
890.624	4588
890.748	4656
890.871	4554
890.995	4531
891.118	4379
891.241	4554
891.364	4561
891.488	4687
891.611	4561
891.734	4542
891.857	4656
891.98	4588
892.103	4687
892.226	4630
892.349	4550
892.471	4493
892.594	4588
892.717	4653
892.839	4618
892.962	4634
893.085	4748
893.207	4653
893.33	4523
893.452	4558
893.575	4706
893.697	4622
893.819	4866
893.941	4873
894.064	4805
894.186	4645
894.308	4618
894.43	4763
894.552	4828
894.674	4801
894.796	4573
894.918	4675
895.04	4615
895.161	4771
895.283	4702
895.405	4630
895.526	4691
895.648	4744
895.769	4729
895.891	4710
896.012	4809
896.134	4793
896.255	4630
896.376	4714
896.498	4615
896.619	4706
896.74	4626
896.861	4698
896.982	4957
897.103	5079
897.224	4911
897.345	4778
897.466	4694
897.587	4763
897.708	4877
897.828	4835
897.949	4714
898.07	4660
898.19	4664
898.311	4866
898.431	4698
898.552	4755
898.672	4839
898.792	4793
898.913	4755
899.033	4656
899.153	4550
899.273	4470
899.393	4538
899.513	4584
899.633	4573
899.753	4577
899.873	4527
899.993	4660
900.113	4573
900.232	4569
900.352	4542
900.472	4542
900.591	4409
900.711	4516
900.83	4500
900.95	4656
901.069	4710
901.189	4542
901.308	4379
901.427	4333
901.546	4432
901.665	4546
901.784	4558
901.904	4451
902.023	4341
902.141	4295
902.26	4227
902.379	4337
902.498	4265
902.617	4303
902.735	4390
902.854	4447
902.973	4375
903.091	4284
903.21	4261
903.328	4356
903.446	4329
903.565	4284
903.683	4405
903.801	4348
903.919	4447
904.038	4493
904.156	4356
904.274	4424
904.392	4462
904.51	4504
904.627	4523
904.745	4664
904.863	4683
904.981	4424
905.098	4348
905.216	4432
905.334	4462
905.451	4493
905.569	4470
905.686	4588
905.803	4550
905.921	4455
906.038	4546
906.155	4497
906.272	4402
906.389	4459
906.506	4379
906.623	4398
906.74	4462
906.857	4322
906.974	4417
907.091	4634
907.208	4729
907.324	4584
907.441	4573
907.557	4383
907.674	4367
907.79	4329
907.907	4375
908.023	4542
908.139	4535
908.256	4440
908.372	4497
908.488	4417
908.604	4360
908.72	4367
908.836	4428
908.952	4398
909.068	4481
909.184	4660
909.3	4538
909.415	4573
909.531	4538
909.647	4405
909.762	4402
909.878	4375
909.993	4440
910.108	4459
910.224	4470
910.339	4508
910.454	4432
910.57	4413
910.685	4352
910.8	4649
910.915	4634
911.03	4599
911.145	4421
911.259	4360
911.374	4398
911.489	4310
911.604	4352
911.718	4200
911.833	4234
911.947	4071
912.062	4036
912.176	4238
912.291	4242
912.405	4299
912.519	4523
912.633	4558
912.748	4405
912.862	4375
912.976	4230
913.09	4082
913.204	4204
913.318	4310
913.431	4402
913.545	4413
913.659	4504
913.772	4367
913.886	4303
914	4272
914.113	4409
914.226	4485
914.34	4417
914.453	4299
914.566	4436
914.68	4386
914.793	4325
914.906	4181
915.019	4169
915.132	4120
915.245	4181
915.358	4192
915.47	4249
915.583	4299
915.696	4314
915.809	4451
915.921	4443
916.034	4253
916.146	4306
916.259	4257
916.371	4383
916.483	4371
916.595	4284
916.708	4341
916.82	4360
916.932	4341
917.044	4341
917.156	4375
917.268	4246
917.38	4356
917.491	4287
917.603	4360
917.715	4424
917.826	4455
917.938	4352
918.049	4257
918.161	4443
918.272	4504
918.384	4569
918.495	4459
918.606	4360
918.717	4280
918.828	4356
918.939	4421
919.05	4303
919.161	4337
919.272	4173
919.383	4268
919.494	4455
919.604	4672
919.715	4459
919.826	4390
919.936	4428
920.047	4573
920.157	4538
920.267	4778
920.378	4573
920.488	4474
920.598	4740
920.708	4877
920.818	4748
920.928	4782
921.038	5029
921.148	4904
921.258	4698
921.368	4584
921.477	4573
921.587	4417
921.697	4375
921.806	4592
921.916	4493
922.025	4303
922.134	4272
922.244	4227
922.353	4386
922.462	4207
922.571	4162
922.68	3994
922.789	4044
922.898	4090
923.007	4048
923.116	4135
923.224	4051
923.333	4090
923.442	4029
923.55	4025
923.659	4086
923.767	4101
923.876	4059
923.984	4150
924.092	4002
924.201	4097
924.309	4128
924.417	4147
924.525	4093
924.633	4086
924.741	5014
924.849	3930
924.956	4154
925.064	3998
925.172	3922
925.279	3998
925.387	4112
925.494	4055
925.602	4234
925.709	4207
925.816	4078
925.924	4196
926.031	4280
926.138	4204
926.245	4211
926.352	4082
926.459	4303
926.566	4310
926.673	4169
926.779	4139
926.886	4154
926.993	4017
927.099	4013
927.206	3968
927.312	3960
927.419	4093
927.525	4048
927.631	4116
927.737	3949
927.843	3972
927.95	3884
928.056	3979
928.162	4044
928.267	4112
928.373	4729
928.479	4124
928.585	3865
928.69	4071
928.796	4112
928.901	3991
929.007	3907
929.112	4006
929.218	4006
929.323	3949
929.428	3949
929.533	4150
929.638	3937
929.743	3983
929.848	4078
929.953	4036
930.058	3949
930.163	3797
930.267	3896
930.372	4044
930.477	3846
930.581	4135
930.685	3953
930.79	3838
930.894	3865
930.998	3903
931.103	4055
931.207	3736
931.311	3675
931.415	3682
931.519	3545
931.623	3584
