Data from test_V78500241_580.txt Node
Date: Fri Mar 25 16:53:02 CST 2022
User: usil
Spectrometer: V785-0024
Trigger mode: 0
Integration Time (sec): 4.000000E-1
Scans to average: 1
Nonlinearity correction enabled: false
Boxcar width: 0
Storing dark spectrum: false
XAxis mode: Wavelengths
Number of Pixels in Spectrum: 1024
>>>>>Begin Spectral Data<<<<<
801.071	8050
801.214	8031
801.356	7856
801.499	7845
801.641	7757
801.783	7822
801.926	8065
802.068	7993
802.211	8069
802.353	7959
802.496	7906
802.638	7955
802.78	7913
802.923	7936
803.065	7883
803.208	7837
803.35	7944
803.492	8058
803.635	8058
803.777	8031
803.919	8096
804.061	8404
804.204	8088
804.346	8058
804.488	7970
804.63	8092
804.773	8081
804.915	8088
805.057	8305
805.199	8206
805.341	8221
805.483	8317
805.626	8187
805.768	8084
805.91	8168
806.052	8229
806.194	8077
806.336	8279
806.478	8168
806.62	8103
806.762	8176
806.904	8229
807.046	8355
807.188	8324
807.33	8320
807.472	8332
807.614	8225
807.756	8107
807.898	8005
808.04	7871
808.182	7967
808.324	7868
808.465	7894
808.607	8084
808.749	8081
808.891	8161
809.033	8259
809.174	8145
809.316	8046
809.458	8054
809.6	8008
809.741	8001
809.883	8020
810.025	8043
810.166	8024
810.308	8054
810.45	8062
810.591	7917
810.733	7734
810.875	7624
811.016	7548
811.158	7483
811.299	7597
811.441	7704
811.582	7719
811.724	7613
811.865	7578
812.007	7609
812.148	7601
812.29	7639
812.431	7719
812.573	7845
812.714	7989
812.855	8191
812.997	8271
813.138	8309
813.279	8244
813.421	8149
813.562	8001
813.703	7856
813.845	7814
813.986	7480
814.127	7335
814.268	7282
814.41	7240
814.551	7202
814.692	7168
814.833	7061
814.974	7091
815.115	7080
815.256	6958
815.397	6882
815.539	6928
815.68	6833
815.821	6779
815.962	6901
816.103	6856
816.244	6757
816.385	6620
816.526	6612
816.666	6467
816.807	6346
816.948	6437
817.089	6456
817.23	6407
817.371	6304
817.512	6365
817.653	6414
817.793	6372
817.934	6365
818.075	6490
818.216	6388
818.356	6399
818.497	6194
818.638	6121
818.778	6121
818.919	6197
819.06	6152
819.2	6353
819.341	6372
819.481	6338
819.622	6483
819.762	6753
819.903	6715
820.043	6612
820.184	6566
820.324	6582
820.465	6681
820.605	6669
820.746	6582
820.886	6494
821.026	6654
821.167	6715
821.307	6768
821.447	6719
821.588	6703
821.728	6547
821.868	6429
822.008	6308
822.149	6327
822.289	6376
822.429	6152
822.569	6030
822.709	6087
822.849	5927
822.99	5904
823.13	5939
823.27	5844
823.41	5836
823.55	5745
823.69	5718
823.83	5786
823.97	5653
824.11	5532
824.25	5562
824.389	5516
824.529	5539
824.669	5509
824.809	5570
824.949	5665
825.089	5596
825.228	5516
825.368	5417
825.508	5345
825.648	5349
825.787	5353
825.927	5372
826.067	5292
826.206	5311
826.346	5372
826.485	5357
826.625	5398
826.765	5547
826.904	5493
827.044	5246
827.183	5208
827.323	5086
827.462	5307
827.601	5159
827.741	5223
827.88	5174
828.02	5105
828.159	5227
828.298	5284
828.437	5337
828.577	5235
828.716	5493
828.855	5315
828.994	5216
829.134	5155
829.273	5220
829.412	5124
829.551	5094
829.69	5117
829.829	5265
829.968	5387
830.107	5315
830.246	5254
830.385	5197
830.524	5128
830.663	5079
830.802	4999
830.941	4862
831.08	4877
831.219	4957
831.357	5006
831.496	5121
831.635	4957
831.774	4831
831.913	4892
832.051	4763
832.19	4725
832.329	4809
832.467	4687
832.606	4668
832.744	4725
832.883	4748
833.022	4721
833.16	4767
833.299	4881
833.437	4812
833.576	4805
833.714	4854
833.852	4866
833.991	4873
834.129	4915
834.267	4965
834.406	4892
834.544	4957
834.682	4961
834.821	4965
834.959	5216
835.097	4984
835.235	5155
835.373	5083
835.511	5075
835.65	5014
835.788	5010
835.926	4843
836.064	4854
836.202	4866
836.34	5105
836.478	5261
836.615	5117
836.753	5220
836.891	5307
837.029	5242
837.167	5208
837.305	5162
837.443	5140
837.58	5056
837.718	5235
837.856	5147
837.993	5197
838.131	5288
838.269	5235
838.406	5258
838.544	5117
838.681	5045
838.819	5006
838.956	4915
839.094	4919
839.231	4946
839.369	5045
839.506	5379
839.643	5280
839.781	5033
839.918	5102
840.055	5090
840.193	5048
840.33	5132
840.467	5201
840.604	5220
840.742	5425
840.879	5136
841.016	5079
841.153	5181
841.29	5372
841.427	5326
841.564	5334
841.701	5372
841.838	5288
841.975	5216
842.112	5299
842.249	5162
842.385	5094
842.522	5326
842.659	5143
842.796	5159
842.933	5185
843.069	5109
843.206	5181
843.343	5280
843.479	5216
843.616	5208
843.752	4980
843.889	4976
844.025	5181
844.162	5014
844.298	5220
844.435	5083
844.571	5075
844.708	5212
844.844	5315
844.98	5292
845.117	5277
845.253	5155
845.389	5102
845.525	5151
845.661	5143
845.798	5014
845.934	5140
846.07	5037
846.206	5140
846.342	5254
846.478	5159
846.614	5003
846.75	4968
846.886	4904
847.022	5143
847.158	4987
847.294	5064
847.429	5064
847.565	5033
847.701	5311
847.837	4854
847.972	4809
848.108	4999
848.244	4915
848.379	4771
848.515	4721
848.65	4759
848.786	4763
848.921	4755
849.057	4896
849.192	4919
849.328	4805
849.463	4870
849.598	4809
849.734	4767
849.869	4668
850.004	4656
850.14	4702
850.275	4577
850.41	4561
850.545	4500
850.68	4622
850.815	4653
850.95	4675
851.085	4793
851.22	4767
851.355	4664
851.49	4622
851.625	4622
851.76	4645
851.895	4588
852.03	4508
852.165	4626
852.299	4725
852.434	4752
852.569	4687
852.703	4736
852.838	4835
852.973	4881
853.107	4961
853.242	4744
853.376	4691
853.511	4535
853.645	4622
853.78	4816
853.914	4683
854.048	4733
854.183	4672
854.317	4649
854.451	4870
854.585	4664
854.72	4603
854.854	4816
854.988	4603
855.122	4691
855.256	4500
855.39	4664
855.524	4778
855.658	4721
855.792	4687
855.926	4698
856.06	4763
856.194	4809
856.327	4733
856.461	4596
856.595	4611
856.729	4626
856.862	4733
856.996	4706
857.13	4710
857.263	4744
857.397	4782
857.53	4683
857.664	4687
857.797	4721
857.931	4752
858.064	4683
858.197	4778
858.331	4622
858.464	4672
858.597	4497
858.731	4580
858.864	4675
858.997	4577
859.13	4653
859.263	4683
859.396	4714
859.529	4577
859.662	4561
859.795	4519
859.928	4672
860.061	4771
860.194	4778
860.327	4645
860.46	4573
860.592	4687
860.725	4683
860.858	4683
860.99	4599
861.123	4508
861.256	4481
861.388	4599
861.521	5376
861.653	4485
861.786	4485
861.918	4436
862.05	4531
862.183	4512
862.315	4599
862.447	4645
862.58	4565
862.712	4383
862.844	4363
862.976	4447
863.108	4421
863.24	4805
863.372	4295
863.504	4383
863.636	4424
863.768	4489
863.9	4413
864.032	4356
864.164	4348
864.296	4432
864.428	4565
864.559	4550
864.691	4535
864.823	4504
864.954	4493
865.086	4512
865.217	4386
865.349	4402
865.48	4447
865.612	4538
865.743	4611
865.875	4485
866.006	4432
866.137	4462
866.269	4455
866.4	4398
866.531	4428
866.662	4383
866.793	4443
866.924	4386
867.055	4485
867.186	4398
867.317	4421
867.448	4390
867.579	4383
867.71	4379
867.841	4341
867.972	4474
868.103	4462
868.233	4436
868.364	4451
868.495	4462
868.625	4675
868.756	4774
868.886	4546
869.017	4634
869.147	4805
869.278	4805
869.408	4645
869.539	4618
869.669	4706
869.799	4645
869.929	4782
870.06	4729
870.19	4953
870.32	4946
870.45	4927
870.58	4968
870.71	5105
870.84	5060
870.97	4980
871.1	4904
871.23	5136
871.36	5159
871.489	5048
871.619	5033
871.749	5094
871.879	5143
872.008	5174
872.138	5056
872.267	4949
872.397	4809
872.526	4812
872.656	4645
872.785	4843
872.915	4915
873.044	5010
873.173	4911
873.303	4980
873.432	4934
873.561	4946
873.69	4866
873.819	4866
873.948	4915
874.077	4877
874.206	4744
874.335	4733
874.464	4908
874.593	5033
874.722	4961
874.851	5083
874.979	5048
875.108	5010
875.237	4923
875.365	4873
875.494	4843
875.623	5018
875.751	4812
875.88	4904
876.008	4976
876.136	5037
876.265	5147
876.393	5383
876.521	5212
876.65	5258
876.778	5197
876.906	5041
877.034	4984
877.162	5006
877.29	4942
877.418	5025
877.546	5037
877.674	5018
877.802	5003
877.93	5010
878.058	4934
878.185	4866
878.313	4934
878.441	4919
878.568	4831
878.696	4896
878.824	4976
878.951	4968
879.079	5132
879.206	5220
879.333	5086
879.461	4984
879.588	5025
879.715	5147
879.842	5246
879.97	4980
880.097	4797
880.224	4706
880.351	4797
880.478	4824
880.605	4786
880.732	4782
880.859	5060
880.986	4877
881.112	4900
881.239	4733
881.366	4660
881.493	4577
881.619	4580
881.746	4611
881.872	4611
881.999	4664
882.125	4691
882.252	4828
882.378	4786
882.505	4972
882.631	4771
882.757	4672
882.883	4729
883.01	4763
883.136	4630
883.262	4523
883.388	4645
883.514	4767
883.64	4896
883.766	4774
883.892	4679
884.018	4736
884.143	4923
884.269	4991
884.395	4683
884.52	4626
884.646	4618
884.772	4611
884.897	4558
885.023	4622
885.148	4782
885.274	4828
885.399	4847
885.524	4736
885.65	4645
885.775	4687
885.9	4687
886.025	4839
886.15	4771
886.275	4714
886.4	4630
886.525	4687
886.65	4672
886.775	4637
886.9	4923
887.025	5041
887.149	4801
887.274	4626
887.399	4558
887.523	4561
887.648	4641
887.773	4554
887.897	4786
888.021	4752
888.146	4649
888.27	4778
888.395	4923
888.519	4782
888.643	4809
888.767	4828
888.891	4660
889.015	4588
889.139	4664
889.263	4580
889.387	4725
889.511	4889
889.635	4820
889.759	4664
889.883	4618
890.006	4771
890.13	4843
890.254	4664
890.377	4710
890.501	4504
890.624	4561
890.748	4618
890.871	4508
890.995	4466
891.118	4428
891.241	4508
891.364	4516
891.488	4649
891.611	4527
891.734	4558
891.857	4569
891.98	4531
892.103	4630
892.226	4592
892.349	4531
892.471	4390
892.594	4527
892.717	4577
892.839	4565
892.962	4565
893.085	4656
893.207	4634
893.33	4447
893.452	4554
893.575	4637
893.697	4554
893.819	4771
893.941	4866
894.064	4774
894.186	4569
894.308	4580
894.43	4748
894.552	4809
894.674	4740
894.796	4516
894.918	4535
895.04	4523
895.161	4683
895.283	4649
895.405	4542
895.526	4664
895.648	4714
895.769	4668
895.891	4710
896.012	4771
896.134	4668
896.255	4694
896.376	4615
896.498	4618
896.619	4653
896.74	4603
896.861	4607
896.982	4942
897.103	5045
897.224	4824
897.345	4744
897.466	4653
897.587	4721
897.708	4870
897.828	4771
897.949	4634
898.07	4558
898.19	4637
898.311	4809
898.431	4683
898.552	4729
898.672	4786
898.792	4801
898.913	4736
899.033	4641
899.153	4474
899.273	4451
899.393	4447
899.513	4516
899.633	4550
899.753	4580
899.873	4504
899.993	4516
900.113	4569
900.232	4599
900.352	4535
900.472	4497
900.591	4409
900.711	4481
900.83	4424
900.95	4637
901.069	4675
901.189	4481
901.308	4344
901.427	4303
901.546	4363
901.665	4531
901.784	4470
901.904	4375
902.023	4306
902.141	4200
902.26	4169
902.379	4337
902.498	4227
902.617	4242
902.735	4310
902.854	4421
902.973	4360
903.091	4192
903.21	4204
903.328	4325
903.446	4200
903.565	4272
903.683	4356
903.801	4295
903.919	4432
904.038	4474
904.156	4325
904.274	4462
904.392	4451
904.51	4443
904.627	4443
904.745	4592
904.863	4607
904.981	4352
905.098	4303
905.216	4310
905.334	4447
905.451	4451
905.569	4386
905.686	4561
905.803	4516
905.921	4402
906.038	4508
906.155	4470
906.272	4398
906.389	4447
906.506	4337
906.623	4360
906.74	4436
906.857	4284
906.974	4360
907.091	4550
907.208	4702
907.324	4546
907.441	4504
907.557	4322
907.674	4363
907.79	4318
907.907	4379
908.023	4466
908.139	4451
908.256	4451
908.372	4462
908.488	4447
908.604	4348
908.72	4284
908.836	4348
908.952	4379
909.068	4436
909.184	4546
909.3	4485
909.415	4504
909.531	4550
909.647	4367
909.762	4360
909.878	4341
909.993	4466
910.108	4394
910.224	4417
910.339	4481
910.454	4344
910.57	4363
910.685	4303
910.8	4603
910.915	4561
911.03	4512
911.145	4356
911.259	4344
911.374	4337
911.489	4268
911.604	4306
911.718	4162
911.833	4230
911.947	4067
912.062	3987
912.176	4166
912.291	4242
912.405	4204
912.519	4443
912.633	4497
912.748	4375
912.862	4249
912.976	4147
913.09	4101
913.204	4139
913.318	4261
913.431	4421
913.545	4394
913.659	4481
913.772	4272
913.886	4249
914	4246
914.113	4333
914.226	4421
914.34	4417
914.453	4211
914.566	4443
914.68	4287
914.793	4341
914.906	4131
915.019	4067
915.132	4105
915.245	4139
915.358	4253
915.47	4234
915.583	4238
915.696	4276
915.809	4394
915.921	4432
916.034	4280
916.146	4249
916.259	4227
916.371	4386
916.483	4322
916.595	4280
916.708	4310
916.82	4284
916.932	4375
917.044	4306
917.156	4303
917.268	4246
917.38	4310
917.491	4310
917.603	4383
917.715	4489
917.826	4462
917.938	4344
918.049	4284
918.161	4447
918.272	4535
918.384	4535
918.495	4516
918.606	4306
918.717	4314
918.828	4405
918.939	4424
919.05	4303
919.161	4394
919.272	4150
919.383	4261
919.494	4459
919.604	4649
919.715	4474
919.826	4383
919.936	4421
920.047	4584
920.157	4558
920.267	4729
920.378	4615
920.488	4580
920.598	4744
920.708	4953
920.818	4786
920.928	4778
921.038	5018
921.148	4965
921.258	4637
921.368	4561
921.477	4478
921.587	4516
921.697	4421
921.806	4588
921.916	4478
922.025	4257
922.134	4295
922.244	4287
922.353	4394
922.462	4207
922.571	4173
922.68	4063
922.789	4013
922.898	4063
923.007	3987
923.116	4169
923.224	4105
923.333	4097
923.442	3979
923.55	4029
923.659	4040
923.767	4105
923.876	4059
923.984	4150
924.092	4051
924.201	4120
924.309	4124
924.417	4162
924.525	4120
924.633	4162
924.741	5113
924.849	3972
924.956	4173
925.064	3991
925.172	3956
925.279	3972
925.387	4071
925.494	4124
925.602	4238
925.709	4215
925.816	4067
925.924	4196
926.031	4257
926.138	4204
926.245	4234
926.352	4101
926.459	4284
926.566	4325
926.673	4181
926.779	4139
926.886	4147
926.993	4051
927.099	4006
927.206	3960
927.312	3964
927.419	4120
927.525	4063
927.631	4143
927.737	4002
927.843	3964
927.95	3857
928.056	3949
928.162	4010
928.267	4055
928.373	4759
928.479	4177
928.585	3941
928.69	4040
928.796	4139
928.901	4025
929.007	3854
929.112	4044
929.218	3983
929.323	3983
929.428	3994
929.533	4158
929.638	3937
929.743	4010
929.848	4055
929.953	4002
930.058	3972
930.163	3804
930.267	3857
930.372	4029
930.477	3819
930.581	4093
930.685	4013
930.79	3857
930.894	3899
930.998	3892
931.103	4074
931.207	3751
931.311	3747
931.415	3701
931.519	3568
931.623	3549
