Data from test_V78500241_1909.txt Node
Date: Fri Mar 25 17:02:16 CST 2022
User: usil
Spectrometer: V785-0024
Trigger mode: 0
Integration Time (sec): 4.000000E-1
Scans to average: 1
Nonlinearity correction enabled: false
Boxcar width: 0
Storing dark spectrum: false
XAxis mode: Wavelengths
Number of Pixels in Spectrum: 1024
>>>>>Begin Spectral Data<<<<<
801.071	8001
801.214	7978
801.356	7772
801.499	7792
801.641	7822
801.783	7879
801.926	7955
802.068	7879
802.211	7993
802.353	8016
802.496	7909
802.638	7772
802.78	7883
802.923	7928
803.065	7849
803.208	7826
803.35	7978
803.492	8058
803.635	8153
803.777	8035
803.919	8180
804.061	8480
804.204	8142
804.346	8126
804.488	7970
804.63	8073
804.773	7993
804.915	8050
805.057	8282
805.199	8145
805.341	8263
805.483	8271
805.626	8191
805.768	8123
805.91	8221
806.052	8233
806.194	8084
806.336	8286
806.478	8142
806.62	8008
806.762	8149
806.904	8263
807.046	8427
807.188	8389
807.33	8370
807.472	8343
807.614	8157
807.756	8164
807.898	7989
808.04	7879
808.182	7887
808.324	7883
808.465	7947
808.607	8043
808.749	8100
808.891	8202
809.033	8347
809.174	8145
809.316	8073
809.458	8096
809.6	8001
809.741	8058
809.883	8031
810.025	8134
810.166	8092
810.308	7947
810.45	7959
810.591	7845
810.733	7719
810.875	7662
811.016	7567
811.158	7438
811.299	7594
811.441	7792
811.582	7620
811.724	7582
811.865	7506
812.007	7590
812.148	7620
812.29	7647
812.431	7772
812.573	7898
812.714	7963
812.855	8161
812.997	8202
813.138	8275
813.279	8180
813.421	8035
813.562	7951
813.703	7898
813.845	7753
813.986	7415
814.127	7251
814.268	7221
814.41	7149
814.551	7152
814.692	7206
814.833	7069
814.974	7046
815.115	7137
815.256	6947
815.397	6905
815.539	6932
815.68	6798
815.821	6776
815.962	6829
816.103	6802
816.244	6585
816.385	6570
816.526	6566
816.666	6532
816.807	6273
816.948	6429
817.089	6479
817.23	6414
817.371	6327
817.512	6327
817.653	6414
817.793	6327
817.934	6372
818.075	6445
818.216	6372
818.356	6350
818.497	6235
818.638	6083
818.778	6178
818.919	6159
819.06	6159
819.2	6300
819.341	6372
819.481	6323
819.622	6483
819.762	6696
819.903	6665
820.043	6506
820.184	6555
820.324	6559
820.465	6681
820.605	6696
820.746	6623
820.886	6528
821.026	6711
821.167	6662
821.307	6818
821.447	6734
821.588	6639
821.728	6589
821.868	6528
822.008	6243
822.149	6357
822.289	6380
822.429	6133
822.569	6060
822.709	6152
822.849	5958
822.99	5931
823.13	5939
823.27	5923
823.41	5798
823.55	5741
823.69	5798
823.83	5771
823.97	5661
824.11	5554
824.25	5459
824.389	5539
824.529	5577
824.669	5524
824.809	5703
824.949	5691
825.089	5570
825.228	5528
825.368	5383
825.508	5337
825.648	5315
825.787	5410
825.927	5357
826.067	5341
826.206	5296
826.346	5326
826.485	5387
826.625	5372
826.765	5524
826.904	5463
827.044	5277
827.183	5223
827.323	5147
827.462	5242
827.601	5147
827.741	5193
827.88	5265
828.02	5128
828.159	5212
828.298	5318
828.437	5307
828.577	5235
828.716	5467
828.855	5345
828.994	5117
829.134	5178
829.273	5140
829.412	5060
829.551	5098
829.69	5151
829.829	5193
829.968	5383
830.107	5239
830.246	5265
830.385	5162
830.524	5098
830.663	5041
830.802	4953
830.941	4862
831.08	4881
831.219	4987
831.357	4984
831.496	5136
831.635	4915
831.774	4889
831.913	4816
832.051	4691
832.19	4763
832.329	4824
832.467	4653
832.606	4599
832.744	4675
832.883	4736
833.022	4721
833.16	4774
833.299	4797
833.437	4809
833.576	4812
833.714	4793
833.852	4877
833.991	4885
834.129	4915
834.267	4930
834.406	4862
834.544	5018
834.682	4961
834.821	4984
834.959	5132
835.097	4980
835.235	5090
835.373	5109
835.511	5067
835.65	5010
835.788	4984
835.926	4862
836.064	4847
836.202	4862
836.34	5121
836.478	5166
836.615	5147
836.753	5189
836.891	5254
837.029	5239
837.167	5204
837.305	5189
837.443	5166
837.58	5128
837.718	5239
837.856	5193
837.993	5155
838.131	5151
838.269	5223
838.406	5185
838.544	5166
838.681	5041
838.819	4968
838.956	4831
839.094	4900
839.231	4946
839.369	5094
839.506	5425
839.643	5299
839.781	5029
839.918	5006
840.055	5117
840.193	5029
840.33	5075
840.467	5193
840.604	5166
840.742	5459
840.879	5064
841.016	5094
841.153	5102
841.29	5345
841.427	5345
841.564	5357
841.701	5349
841.838	5280
841.975	5208
842.112	5246
842.249	5155
842.385	5075
842.522	5303
842.659	5121
842.796	5189
842.933	5151
843.069	5147
843.206	5166
843.343	5326
843.479	5246
843.616	5258
843.752	4999
843.889	5037
844.025	5204
844.162	5045
844.298	5208
844.435	5083
844.571	5067
844.708	5208
844.844	5239
844.98	5299
845.117	5326
845.253	5159
845.389	5067
845.525	5162
845.661	5136
845.798	5056
845.934	5018
846.07	5041
846.206	5166
846.342	5254
846.478	5166
846.614	5045
846.75	4976
846.886	4934
847.022	5109
847.158	5006
847.294	5090
847.429	5098
847.565	5060
847.701	5330
847.837	4828
847.972	4828
848.108	4968
848.244	4873
848.379	4786
848.515	4736
848.65	4683
848.786	4752
848.921	4767
849.057	4908
849.192	4873
849.328	4824
849.463	4862
849.598	4790
849.734	4717
849.869	4725
850.004	4607
850.14	4634
850.275	4618
850.41	4512
850.545	4561
850.68	4611
850.815	4618
850.95	4599
851.085	4843
851.22	4752
851.355	4656
851.49	4558
851.625	4615
851.76	4634
851.895	4554
852.03	4542
852.165	4603
852.299	4687
852.434	4771
852.569	4752
852.703	4755
852.838	4843
852.973	4892
853.107	4896
853.242	4679
853.376	4702
853.511	4531
853.645	4569
853.78	4805
853.914	4675
854.048	4649
854.183	4634
854.317	4721
854.451	4843
854.585	4679
854.72	4584
854.854	4729
854.988	4558
855.122	4599
855.256	4550
855.39	4660
855.524	4771
855.658	4683
855.792	4717
855.926	4736
856.06	4786
856.194	4797
856.327	4664
856.461	4577
856.595	4611
856.729	4618
856.862	4782
856.996	4649
857.13	4725
857.263	4748
857.397	4755
857.53	4630
857.664	4729
857.797	4736
857.931	4740
858.064	4672
858.197	4759
858.331	4668
858.464	4615
858.597	4504
858.731	4561
858.864	4615
858.997	4584
859.13	4626
859.263	4653
859.396	4668
859.529	4592
859.662	4565
859.795	4554
859.928	4607
860.061	4740
860.194	4755
860.327	4565
860.46	4584
860.592	4714
860.725	4721
860.858	4725
860.99	4577
861.123	4447
861.256	4531
861.388	4580
861.521	5292
861.653	4489
861.786	4436
861.918	4443
862.05	4584
862.183	4618
862.315	4580
862.447	4592
862.58	4577
862.712	4424
862.844	4337
862.976	4451
863.108	4440
863.24	4771
863.372	4325
863.504	4405
863.636	4402
863.768	4436
863.9	4402
864.032	4417
864.164	4325
864.296	4440
864.428	4569
864.559	4584
864.691	4497
864.823	4504
864.954	4512
865.086	4466
865.217	4443
865.349	4409
865.48	4447
865.612	4489
865.743	4653
865.875	4466
866.006	4394
866.137	4462
866.269	4440
866.4	4417
866.531	4394
866.662	4379
866.793	4367
866.924	4398
867.055	4531
867.186	4462
867.317	4424
867.448	4409
867.579	4402
867.71	4390
867.841	4348
867.972	4459
868.103	4478
868.233	4432
868.364	4455
868.495	4466
868.625	4630
868.756	4755
868.886	4569
869.017	4641
869.147	4801
869.278	4786
869.408	4664
869.539	4637
869.669	4774
869.799	4592
869.929	4797
870.06	4736
870.19	4965
870.32	4942
870.45	4904
870.58	5018
870.71	5071
870.84	5052
870.97	4927
871.1	4885
871.23	5075
871.36	5086
871.489	5041
871.619	5090
871.749	5022
871.879	5098
872.008	5212
872.138	4984
872.267	4995
872.397	4892
872.526	4831
872.656	4710
872.785	4824
872.915	4949
873.044	5048
873.173	4877
873.303	4991
873.432	4930
873.561	4942
873.69	4892
873.819	4850
873.948	4850
874.077	4843
874.206	4755
874.335	4774
874.464	4904
874.593	5037
874.722	4889
874.851	5079
874.979	5041
875.108	4999
875.237	4919
875.365	4847
875.494	4885
875.623	4938
875.751	4778
875.88	4881
876.008	4976
876.136	5010
876.265	5185
876.393	5345
876.521	5216
876.65	5246
876.778	5140
876.906	5045
877.034	4995
877.162	5045
877.29	4968
877.418	5075
877.546	5033
877.674	5037
877.802	4984
877.93	5033
878.058	4957
878.185	4885
878.313	4965
878.441	4949
878.568	4786
878.696	4824
878.824	4915
878.951	4965
879.079	5128
879.206	5318
879.333	5124
879.461	4938
879.588	4987
879.715	5121
879.842	5239
879.97	5014
880.097	4736
880.224	4774
880.351	4824
880.478	4847
880.605	4790
880.732	4801
880.859	5079
880.986	4881
881.112	4881
881.239	4774
881.366	4660
881.493	4622
881.619	4584
881.746	4637
881.872	4630
881.999	4626
882.125	4641
882.252	4778
882.378	4778
882.505	4949
882.631	4793
882.757	4672
882.883	4748
883.01	4729
883.136	4668
883.262	4584
883.388	4577
883.514	4824
883.64	4854
883.766	4805
883.892	4679
884.018	4740
884.143	4911
884.269	4991
884.395	4683
884.52	4618
884.646	4630
884.772	4584
884.897	4504
885.023	4664
885.148	4755
885.274	4847
885.399	4801
885.524	4706
885.65	4721
885.775	4706
885.9	4698
886.025	4854
886.15	4812
886.275	4729
886.4	4645
886.525	4710
886.65	4691
886.775	4683
886.9	4885
887.025	5056
887.149	4809
887.274	4675
887.399	4599
887.523	4607
887.648	4538
887.773	4561
887.897	4763
888.021	4782
888.146	4668
888.27	4805
888.395	4854
888.519	4782
888.643	4816
888.767	4843
888.891	4653
889.015	4577
889.139	4645
889.263	4615
889.387	4740
889.511	4843
889.635	4774
889.759	4649
889.883	4634
890.006	4774
890.13	4816
890.254	4569
890.377	4645
890.501	4535
890.624	4535
890.748	4641
890.871	4489
890.995	4424
891.118	4348
891.241	4481
891.364	4561
891.488	4618
891.611	4478
891.734	4523
891.857	4558
891.98	4561
892.103	4653
892.226	4592
892.349	4523
892.471	4417
892.594	4584
892.717	4611
892.839	4527
892.962	4607
893.085	4649
893.207	4584
893.33	4459
893.452	4508
893.575	4660
893.697	4588
893.819	4824
893.941	4816
894.064	4759
894.186	4565
894.308	4554
894.43	4721
894.552	4771
894.674	4721
894.796	4569
894.918	4561
895.04	4546
895.161	4702
895.283	4615
895.405	4599
895.526	4660
895.648	4702
895.769	4637
895.891	4736
896.012	4771
896.134	4721
896.255	4649
896.376	4649
896.498	4596
896.619	4649
896.74	4546
896.861	4645
896.982	4881
897.103	5033
897.224	4812
897.345	4706
897.466	4717
897.587	4691
897.708	4866
897.828	4729
897.949	4664
898.07	4558
898.19	4599
898.311	4847
898.431	4599
898.552	4755
898.672	4850
898.792	4782
898.913	4694
899.033	4634
899.153	4481
899.273	4451
899.393	4474
899.513	4508
899.633	4565
899.753	4516
899.873	4535
899.993	4577
900.113	4577
900.232	4561
900.352	4523
900.472	4462
900.591	4322
900.711	4462
900.83	4394
900.95	4569
901.069	4672
901.189	4569
901.308	4363
901.427	4272
901.546	4386
901.665	4508
901.784	4508
901.904	4356
902.023	4314
902.141	4188
902.26	4143
902.379	4341
902.498	4234
902.617	4192
902.735	4398
902.854	4424
902.973	4360
903.091	4200
903.21	4238
903.328	4238
903.446	4253
903.565	4238
903.683	4348
903.801	4249
903.919	4398
904.038	4459
904.156	4306
904.274	4440
904.392	4405
904.51	4405
904.627	4424
904.745	4580
904.863	4672
904.981	4383
905.098	4265
905.216	4421
905.334	4428
905.451	4440
905.569	4421
905.686	4607
905.803	4565
905.921	4447
906.038	4527
906.155	4519
906.272	4394
906.389	4451
906.506	4344
906.623	4394
906.74	4398
906.857	4356
906.974	4363
907.091	4588
907.208	4656
907.324	4569
907.441	4459
907.557	4344
907.674	4272
907.79	4295
907.907	4394
908.023	4451
908.139	4474
908.256	4409
908.372	4462
908.488	4478
908.604	4337
908.72	4280
908.836	4337
908.952	4333
909.068	4424
909.184	4546
909.3	4481
909.415	4554
909.531	4527
909.647	4329
909.762	4348
909.878	4341
909.993	4402
910.108	4455
910.224	4405
910.339	4462
910.454	4367
910.57	4329
910.685	4314
910.8	4607
910.915	4599
911.03	4466
911.145	4329
911.259	4299
911.374	4367
911.489	4246
911.604	4325
911.718	4158
911.833	4238
911.947	4093
912.062	3991
912.176	4200
912.291	4280
912.405	4162
912.519	4470
912.633	4516
912.748	4318
912.862	4303
912.976	4181
913.09	4093
913.204	4131
913.318	4265
913.431	4409
913.545	4348
913.659	4455
913.772	4356
913.886	4185
914	4272
914.113	4367
914.226	4402
914.34	4402
914.453	4238
914.566	4455
914.68	4322
914.793	4287
914.906	4166
915.019	4078
915.132	4063
915.245	4154
915.358	4207
915.47	4227
915.583	4246
915.696	4306
915.809	4398
915.921	4421
916.034	4287
916.146	4287
916.259	4242
916.371	4333
916.483	4367
916.595	4215
916.708	4337
916.82	4295
916.932	4306
917.044	4322
917.156	4363
917.268	4204
917.38	4280
917.491	4246
917.603	4303
917.715	4383
917.826	4462
917.938	4310
918.049	4253
918.161	4405
918.272	4550
918.384	4508
918.495	4421
918.606	4238
918.717	4223
918.828	4341
918.939	4322
919.05	4230
919.161	4363
919.272	4120
919.383	4223
919.494	4417
919.604	4637
919.715	4436
919.826	4333
919.936	4421
920.047	4542
920.157	4462
920.267	4653
920.378	4569
920.488	4500
920.598	4664
920.708	4896
920.818	4733
920.928	4721
921.038	4934
921.148	4908
921.258	4596
921.368	4561
921.477	4481
921.587	4470
921.697	4356
921.806	4516
921.916	4421
922.025	4249
922.134	4253
922.244	4177
922.353	4310
922.462	4150
922.571	4082
922.68	4002
922.789	3953
922.898	3994
923.007	3983
923.116	4090
923.224	4002
923.333	4067
923.442	3964
923.55	4002
923.659	4017
923.767	4120
923.876	4025
923.984	4112
924.092	3979
924.201	4055
924.309	4078
924.417	4097
924.525	4059
924.633	4093
924.741	5041
924.849	3876
924.956	4120
925.064	3922
925.172	3884
925.279	3953
925.387	4040
925.494	4017
925.602	4207
925.709	4162
925.816	4044
925.924	4158
926.031	4242
926.138	4173
926.245	4192
926.352	4071
926.459	4234
926.566	4314
926.673	4116
926.779	4067
926.886	4082
926.993	3934
927.099	3956
927.206	3987
927.312	3937
927.419	4059
927.525	3987
927.631	4093
927.737	4013
927.843	3899
927.95	3838
928.056	3945
928.162	4006
928.267	4036
928.373	4611
928.479	4128
928.585	3854
928.69	4017
928.796	4067
928.901	4013
929.007	3884
929.112	3983
929.218	4006
929.323	3975
929.428	3930
929.533	4120
929.638	3899
929.743	3956
929.848	4055
929.953	3975
930.058	3907
930.163	3774
930.267	3827
930.372	3994
930.477	3819
930.581	4093
930.685	3922
930.79	3793
930.894	3934
930.998	3804
931.103	4048
931.207	3713
931.311	3663
931.415	3690
931.519	3492
931.623	3526
