Data from test_V78500241_2475.txt Node
Date: Fri Mar 25 17:06:12 CST 2022
User: usil
Spectrometer: V785-0024
Trigger mode: 0
Integration Time (sec): 4.000000E-1
Scans to average: 1
Nonlinearity correction enabled: false
Boxcar width: 0
Storing dark spectrum: false
XAxis mode: Wavelengths
Number of Pixels in Spectrum: 1024
>>>>>Begin Spectral Data<<<<<
801.071	7970
801.214	7974
801.356	7803
801.499	7803
801.641	7765
801.783	7841
801.926	7928
802.068	7932
802.211	7955
802.353	7974
802.496	7890
802.638	7906
802.78	7947
802.923	7974
803.065	7860
803.208	7792
803.35	7986
803.492	8046
803.635	8130
803.777	8035
803.919	8111
804.061	8450
804.204	8142
804.346	8069
804.488	7978
804.63	8142
804.773	7997
804.915	8100
805.057	8259
805.199	8153
805.341	8164
805.483	8320
805.626	8233
805.768	8138
805.91	8195
806.052	8240
806.194	8020
806.336	8244
806.478	8092
806.62	8084
806.762	8126
806.904	8267
807.046	8396
807.188	8336
807.33	8244
807.472	8347
807.614	8130
807.756	8149
807.898	8043
808.04	7879
808.182	7826
808.324	7890
808.465	7887
808.607	8126
808.749	8081
808.891	8229
809.033	8294
809.174	8176
809.316	8103
809.458	8054
809.6	8065
809.741	8088
809.883	8012
810.025	8065
810.166	8142
810.308	7974
810.45	7890
810.591	7833
810.733	7765
810.875	7609
811.016	7510
811.158	7502
811.299	7521
811.441	7677
811.582	7666
811.724	7506
811.865	7472
812.007	7548
812.148	7544
812.29	7571
812.431	7769
812.573	7868
812.714	7921
812.855	8126
812.997	8218
813.138	8301
813.279	8123
813.421	8077
813.562	7959
813.703	7887
813.845	7833
813.986	7487
814.127	7282
814.268	7187
814.41	7194
814.551	7160
814.692	7194
814.833	7141
814.974	7027
815.115	7095
815.256	7012
815.397	6943
815.539	6981
815.68	6863
815.821	6753
815.962	6806
816.103	6859
816.244	6715
816.385	6627
816.526	6582
816.666	6547
816.807	6319
816.948	6483
817.089	6513
817.23	6380
817.371	6391
817.512	6380
817.653	6395
817.793	6414
817.934	6372
818.075	6483
818.216	6467
818.356	6331
818.497	6251
818.638	6125
818.778	6117
818.919	6125
819.06	6155
819.2	6357
819.341	6327
819.481	6357
819.622	6601
819.762	6749
819.903	6696
820.043	6604
820.184	6589
820.324	6601
820.465	6692
820.605	6658
820.746	6692
820.886	6597
821.026	6681
821.167	6715
821.307	6802
821.447	6833
821.588	6692
821.728	6544
821.868	6494
822.008	6315
822.149	6365
822.289	6323
822.429	6144
822.569	6190
822.709	6095
822.849	5958
822.99	5920
823.13	5942
823.27	5927
823.41	5824
823.55	5866
823.69	5805
823.83	5832
823.97	5638
824.11	5596
824.25	5554
824.389	5600
824.529	5581
824.669	5482
824.809	5623
824.949	5646
825.089	5577
825.228	5573
825.368	5360
825.508	5337
825.648	5326
825.787	5398
825.927	5421
826.067	5299
826.206	5330
826.346	5395
826.485	5383
826.625	5383
826.765	5493
826.904	5406
827.044	5288
827.183	5201
827.323	5136
827.462	5246
827.601	5193
827.741	5220
827.88	5212
828.02	5098
828.159	5258
828.298	5326
828.437	5372
828.577	5269
828.716	5452
828.855	5311
828.994	5201
829.134	5151
829.273	5170
829.412	5155
829.551	5071
829.69	5197
829.829	5239
829.968	5360
830.107	5261
830.246	5273
830.385	5181
830.524	5105
830.663	5045
830.802	4968
830.941	4896
831.08	4873
831.219	4930
831.357	4930
831.496	5155
831.635	4934
831.774	4854
831.913	4828
832.051	4748
832.19	4729
832.329	4870
832.467	4672
832.606	4634
832.744	4717
832.883	4721
833.022	4698
833.16	4767
833.299	4782
833.437	4831
833.576	4797
833.714	4824
833.852	4870
833.991	4889
834.129	4892
834.267	4946
834.406	4965
834.544	4991
834.682	4965
834.821	4942
834.959	5159
835.097	5018
835.235	5155
835.373	5109
835.511	5109
835.65	5056
835.788	5037
835.926	4908
836.064	4923
836.202	4957
836.34	5185
836.478	5178
836.615	5128
836.753	5181
836.891	5330
837.029	5227
837.167	5208
837.305	5155
837.443	5155
837.58	5060
837.718	5273
837.856	5178
837.993	5159
838.131	5254
838.269	5231
838.406	5174
838.544	5178
838.681	4995
838.819	4995
838.956	4873
839.094	4892
839.231	4995
839.369	5067
839.506	5425
839.643	5277
839.781	5067
839.918	5006
840.055	5045
840.193	5102
840.33	5140
840.467	5140
840.604	5178
840.742	5433
840.879	5064
841.016	5071
841.153	5143
841.29	5372
841.427	5353
841.564	5345
841.701	5368
841.838	5265
841.975	5258
842.112	5258
842.249	5159
842.385	5113
842.522	5364
842.659	5143
842.796	5113
842.933	5170
843.069	5155
843.206	5132
843.343	5315
843.479	5208
843.616	5277
843.752	5006
843.889	5064
844.025	5193
844.162	5083
844.298	5258
844.435	5094
844.571	5033
844.708	5151
844.844	5307
844.98	5231
845.117	5288
845.253	5132
845.389	5113
845.525	5193
845.661	5174
845.798	5003
845.934	5147
846.07	5010
846.206	5185
846.342	5265
846.478	5216
846.614	5045
846.75	4961
846.886	4930
847.022	5151
847.158	5045
847.294	4995
847.429	5094
847.565	5045
847.701	5299
847.837	4885
847.972	4805
848.108	4934
848.244	4965
848.379	4786
848.515	4698
848.65	4702
848.786	4771
848.921	4805
849.057	4919
849.192	4870
849.328	4820
849.463	4908
849.598	4744
849.734	4805
849.869	4672
850.004	4622
850.14	4630
850.275	4641
850.41	4485
850.545	4542
850.68	4607
850.815	4607
850.95	4622
851.085	4866
851.22	4774
851.355	4664
851.49	4649
851.625	4607
851.76	4653
851.895	4577
852.03	4538
852.165	4672
852.299	4733
852.434	4797
852.569	4714
852.703	4774
852.838	4885
852.973	4949
853.107	4938
853.242	4717
853.376	4630
853.511	4538
853.645	4611
853.78	4805
853.914	4660
854.048	4683
854.183	4641
854.317	4721
854.451	4847
854.585	4660
854.72	4656
854.854	4774
854.988	4569
855.122	4634
855.256	4573
855.39	4672
855.524	4733
855.658	4725
855.792	4729
855.926	4721
856.06	4809
856.194	4786
856.327	4672
856.461	4611
856.595	4603
856.729	4630
856.862	4710
856.996	4672
857.13	4729
857.263	4714
857.397	4797
857.53	4656
857.664	4729
857.797	4782
857.931	4763
858.064	4683
858.197	4729
858.331	4634
858.464	4637
858.597	4538
858.731	4641
858.864	4630
858.997	4565
859.13	4637
859.263	4698
859.396	4675
859.529	4584
859.662	4561
859.795	4500
859.928	4641
860.061	4752
860.194	4752
860.327	4542
860.46	4569
860.592	4721
860.725	4721
860.858	4694
860.99	4573
861.123	4531
861.256	4527
861.388	4592
861.521	5166
861.653	4466
861.786	4432
861.918	4436
862.05	4531
862.183	4546
862.315	4573
862.447	4641
862.58	4550
862.712	4405
862.844	4284
862.976	4485
863.108	4516
863.24	4854
863.372	4325
863.504	4398
863.636	4367
863.768	4440
863.9	4447
864.032	4417
864.164	4386
864.296	4485
864.428	4565
864.559	4542
864.691	4546
864.823	4485
864.954	4497
865.086	4459
865.217	4474
865.349	4443
865.48	4466
865.612	4504
865.743	4626
865.875	4538
866.006	4402
866.137	4432
866.269	4432
866.4	4421
866.531	4421
866.662	4443
866.793	4363
866.924	4447
867.055	4478
867.186	4489
867.317	4409
867.448	4367
867.579	4356
867.71	4398
867.841	4318
867.972	4451
868.103	4443
868.233	4440
868.364	4466
868.495	4481
868.625	4683
868.756	4793
868.886	4615
869.017	4607
869.147	4824
869.278	4771
869.408	4679
869.539	4664
869.669	4687
869.799	4660
869.929	4816
870.06	4721
870.19	4927
870.32	4915
870.45	4946
870.58	4991
870.71	5109
870.84	5128
870.97	4908
871.1	4866
871.23	5117
871.36	5121
871.489	5014
871.619	5060
871.749	5071
871.879	5117
872.008	5159
872.138	5045
872.267	4961
872.397	4812
872.526	4839
872.656	4714
872.785	4843
872.915	4946
873.044	5037
873.173	4915
873.303	4919
873.432	4930
873.561	4976
873.69	4858
873.819	4885
873.948	4927
874.077	4809
874.206	4733
874.335	4812
874.464	4949
874.593	5022
874.722	4942
874.851	5067
874.979	4984
875.108	5022
875.237	4934
875.365	4820
875.494	4915
875.623	4987
875.751	4858
875.88	4839
876.008	4968
876.136	5025
876.265	5181
876.393	5368
876.521	5246
876.65	5223
876.778	5166
876.906	5052
877.034	4984
877.162	5014
877.29	5006
877.418	5086
877.546	5037
877.674	5060
877.802	5045
877.93	5003
878.058	4965
878.185	4885
878.313	4942
878.441	4976
878.568	4816
878.696	4885
878.824	4987
878.951	4949
879.079	5155
879.206	5315
879.333	5098
879.461	4927
879.588	4991
879.715	5140
879.842	5239
879.97	5010
880.097	4801
880.224	4774
880.351	4793
880.478	4873
880.605	4805
880.732	4812
880.859	5083
880.986	4896
881.112	4904
881.239	4786
881.366	4656
881.493	4569
881.619	4577
881.746	4630
881.872	4630
881.999	4615
882.125	4653
882.252	4850
882.378	4835
882.505	4980
882.631	4809
882.757	4683
882.883	4752
883.01	4733
883.136	4710
883.262	4615
883.388	4615
883.514	4816
883.64	4847
883.766	4752
883.892	4649
884.018	4710
884.143	4881
884.269	4972
884.395	4702
884.52	4675
884.646	4603
884.772	4596
884.897	4561
885.023	4687
885.148	4782
885.274	4858
885.399	4774
885.524	4660
885.65	4729
885.775	4733
885.9	4714
886.025	4850
886.15	4797
886.275	4729
886.4	4637
886.525	4755
886.65	4668
886.775	4687
886.9	4900
887.025	5006
887.149	4843
887.274	4626
887.399	4577
887.523	4558
887.648	4599
887.773	4592
887.897	4763
888.021	4805
888.146	4637
888.27	4812
888.395	4911
888.519	4809
888.643	4843
888.767	4805
888.891	4679
889.015	4668
889.139	4656
889.263	4607
889.387	4752
889.511	4885
889.635	4812
889.759	4637
889.883	4618
890.006	4706
890.13	4824
890.254	4660
890.377	4729
890.501	4535
890.624	4535
890.748	4618
890.871	4538
890.995	4481
891.118	4352
891.241	4493
891.364	4550
891.488	4641
891.611	4516
891.734	4500
891.857	4584
891.98	4603
892.103	4668
892.226	4622
892.349	4554
892.471	4459
892.594	4550
892.717	4603
892.839	4554
892.962	4573
893.085	4706
893.207	4637
893.33	4470
893.452	4508
893.575	4611
893.697	4558
893.819	4782
893.941	4809
894.064	4763
894.186	4573
894.308	4577
894.43	4683
894.552	4831
894.674	4782
894.796	4607
894.918	4561
895.04	4569
895.161	4653
895.283	4668
895.405	4565
895.526	4634
895.648	4698
895.769	4698
895.891	4656
896.012	4752
896.134	4786
896.255	4656
896.376	4637
896.498	4592
896.619	4694
896.74	4622
896.861	4622
896.982	4961
897.103	5064
897.224	4809
897.345	4714
897.466	4637
897.587	4729
897.708	4858
897.828	4771
897.949	4656
898.07	4565
898.19	4596
898.311	4812
898.431	4683
898.552	4721
898.672	4866
898.792	4778
898.913	4736
899.033	4645
899.153	4508
899.273	4421
899.393	4535
899.513	4527
899.633	4516
899.753	4531
899.873	4516
899.993	4546
900.113	4538
900.232	4599
900.352	4550
900.472	4478
900.591	4371
900.711	4470
900.83	4470
900.95	4599
901.069	4706
901.189	4584
901.308	4341
901.427	4325
901.546	4314
901.665	4504
901.784	4535
901.904	4379
902.023	4257
902.141	4196
902.26	4188
902.379	4287
902.498	4219
902.617	4200
902.735	4405
902.854	4405
902.973	4383
903.091	4211
903.21	4280
903.328	4299
903.446	4246
903.565	4253
903.683	4394
903.801	4291
903.919	4398
904.038	4443
904.156	4299
904.274	4383
904.392	4363
904.51	4402
904.627	4485
904.745	4603
904.863	4637
904.981	4402
905.098	4318
905.216	4390
905.334	4455
905.451	4432
905.569	4447
905.686	4531
905.803	4561
905.921	4417
906.038	4478
906.155	4470
906.272	4432
906.389	4459
906.506	4348
906.623	4386
906.74	4344
906.857	4299
906.974	4405
907.091	4546
907.208	4641
907.324	4573
907.441	4512
907.557	4314
907.674	4352
907.79	4329
907.907	4356
908.023	4485
908.139	4519
908.256	4440
908.372	4478
908.488	4489
908.604	4344
908.72	4337
908.836	4367
908.952	4318
909.068	4428
909.184	4580
909.3	4485
909.415	4573
909.531	4527
909.647	4383
909.762	4360
909.878	4329
909.993	4432
910.108	4443
910.224	4386
910.339	4493
910.454	4394
910.57	4356
910.685	4314
910.8	4630
910.915	4596
911.03	4489
911.145	4333
911.259	4333
911.374	4352
911.489	4310
911.604	4265
911.718	4223
911.833	4185
911.947	4025
912.062	4006
912.176	4223
912.291	4242
912.405	4223
912.519	4478
912.633	4489
912.748	4379
912.862	4322
912.976	4215
913.09	4112
913.204	4166
913.318	4215
913.431	4398
913.545	4421
913.659	4417
913.772	4344
913.886	4192
914	4192
914.113	4383
914.226	4436
914.34	4390
914.453	4265
914.566	4402
914.68	4310
914.793	4303
914.906	4158
915.019	4101
915.132	4059
915.245	4207
915.358	4192
915.47	4188
915.583	4268
915.696	4318
915.809	4436
915.921	4405
916.034	4287
916.146	4242
916.259	4181
916.371	4360
916.483	4325
916.595	4291
916.708	4333
916.82	4337
916.932	4337
917.044	4299
917.156	4337
917.268	4215
917.38	4310
917.491	4329
917.603	4287
917.715	4455
917.826	4405
917.938	4329
918.049	4234
918.161	4386
918.272	4535
918.384	4554
918.495	4462
918.606	4344
918.717	4249
918.828	4341
918.939	4383
919.05	4234
919.161	4314
919.272	4177
919.383	4215
919.494	4451
919.604	4615
919.715	4398
919.826	4394
919.936	4360
920.047	4546
920.157	4516
920.267	4698
920.378	4561
920.488	4485
920.598	4694
920.708	4816
920.818	4740
920.928	4763
921.038	4946
921.148	4877
921.258	4607
921.368	4546
921.477	4504
921.587	4432
921.697	4402
921.806	4584
921.916	4424
922.025	4284
922.134	4287
922.244	4200
922.353	4295
922.462	4128
922.571	4097
922.68	3964
922.789	3964
922.898	4021
923.007	4032
923.116	4093
923.224	4067
923.333	4097
923.442	4010
923.55	3956
923.659	4074
923.767	4105
923.876	4002
923.984	4128
924.092	3983
924.201	4097
924.309	4093
924.417	4147
924.525	4055
924.633	4071
924.741	5067
924.849	3918
924.956	4090
925.064	3937
925.172	3865
925.279	3945
925.387	4063
925.494	4063
925.602	4196
925.709	4185
925.816	4025
925.924	4135
926.031	4261
926.138	4173
926.245	4219
926.352	4112
926.459	4253
926.566	4253
926.673	4131
926.779	4055
926.886	4048
926.993	3987
927.099	3941
927.206	3937
927.312	3960
927.419	4078
927.525	4036
927.631	4101
927.737	3930
927.843	3926
927.95	3835
928.056	3972
928.162	4021
928.267	4093
928.373	4698
928.479	4067
928.585	3892
928.69	3983
928.796	4036
928.901	3972
929.007	3869
929.112	3972
929.218	3991
929.323	3960
929.428	3915
929.533	4097
929.638	3884
929.743	3960
929.848	4021
929.953	3994
930.058	3903
930.163	3823
930.267	3816
930.372	3983
930.477	3838
930.581	4086
930.685	3953
930.79	3804
930.894	3903
930.998	3861
931.103	4010
931.207	3701
931.311	3656
931.415	3648
931.519	3534
931.623	3561
