Data from test_V78500241_1076.txt Node
Date: Fri Mar 25 16:56:29 CST 2022
User: usil
Spectrometer: V785-0024
Trigger mode: 0
Integration Time (sec): 4.000000E-1
Scans to average: 1
Nonlinearity correction enabled: false
Boxcar width: 0
Storing dark spectrum: false
XAxis mode: Wavelengths
Number of Pixels in Spectrum: 1024
>>>>>Begin Spectral Data<<<<<
801.071	8008
801.214	8024
801.356	7826
801.499	7845
801.641	7772
801.783	7795
801.926	7986
802.068	7982
802.211	7917
802.353	7928
802.496	7814
802.638	7883
802.78	7894
802.923	7970
803.065	7795
803.208	7909
803.35	8001
803.492	8062
803.635	8134
803.777	8012
803.919	8161
804.061	8415
804.204	8096
804.346	8035
804.488	7959
804.63	8107
804.773	8008
804.915	8046
805.057	8290
805.199	8145
805.341	8157
805.483	8248
805.626	8286
805.768	8157
805.91	8195
806.052	8142
806.194	8043
806.336	8282
806.478	8058
806.62	8027
806.762	8100
806.904	8244
807.046	8415
807.188	8279
807.33	8279
807.472	8317
807.614	8134
807.756	8065
807.898	8020
808.04	7887
808.182	7868
808.324	7852
808.465	7928
808.607	8035
808.749	8111
808.891	8149
809.033	8267
809.174	8164
809.316	8084
809.458	8054
809.6	7921
809.741	8039
809.883	8046
810.025	8024
810.166	8046
810.308	8031
810.45	7959
810.591	7875
810.733	7689
810.875	7677
811.016	7468
811.158	7533
811.299	7719
811.441	7708
811.582	7651
811.724	7590
811.865	7502
812.007	7521
812.148	7525
812.29	7613
812.431	7731
812.573	7826
812.714	7963
812.855	8088
812.997	8062
813.138	8286
813.279	8172
813.421	8107
813.562	8008
813.703	7818
813.845	7742
813.986	7445
814.127	7251
814.268	7179
814.41	7198
814.551	7091
814.692	7145
814.833	7103
814.974	7110
815.115	7050
815.256	6890
815.397	6882
815.539	6916
815.68	6787
815.821	6806
815.962	6856
816.103	6859
816.244	6745
816.385	6692
816.526	6646
816.666	6464
816.807	6258
816.948	6452
817.089	6414
817.23	6448
817.371	6369
817.512	6357
817.653	6395
817.793	6407
817.934	6391
818.075	6422
818.216	6399
818.356	6361
818.497	6220
818.638	6068
818.778	6140
818.919	6152
819.06	6163
819.2	6342
819.341	6296
819.481	6372
819.622	6490
819.762	6703
819.903	6677
820.043	6589
820.184	6578
820.324	6490
820.465	6662
820.605	6662
820.746	6601
820.886	6547
821.026	6711
821.167	6688
821.307	6806
821.447	6711
821.588	6627
821.728	6498
821.868	6532
822.008	6342
822.149	6338
822.289	6281
822.429	6121
822.569	6015
822.709	6057
822.849	5863
822.99	5889
823.13	5920
823.27	5908
823.41	5821
823.55	5794
823.69	5748
823.83	5756
823.97	5627
824.11	5486
824.25	5486
824.389	5570
824.529	5604
824.669	5471
824.809	5611
824.949	5634
825.089	5573
825.228	5551
825.368	5433
825.508	5273
825.648	5318
825.787	5395
825.927	5372
826.067	5303
826.206	5277
826.346	5341
826.485	5387
826.625	5372
826.765	5532
826.904	5478
827.044	5235
827.183	5178
827.323	5109
827.462	5212
827.601	5185
827.741	5212
827.88	5204
828.02	5071
828.159	5254
828.298	5303
828.437	5315
828.577	5254
828.716	5520
828.855	5277
828.994	5136
829.134	5143
829.273	5124
829.412	5121
829.551	5121
829.69	5121
829.829	5254
829.968	5379
830.107	5239
830.246	5277
830.385	5174
830.524	5090
830.663	5041
830.802	4946
830.941	4858
831.08	4870
831.219	4942
831.357	4991
831.496	5151
831.635	4896
831.774	4870
831.913	4793
832.051	4714
832.19	4736
832.329	4801
832.467	4675
832.606	4622
832.744	4683
832.883	4702
833.022	4733
833.16	4763
833.299	4790
833.437	4759
833.576	4835
833.714	4812
833.852	4862
833.991	4942
834.129	4984
834.267	4908
834.406	4904
834.544	4953
834.682	4957
834.821	4942
834.959	5117
835.097	4934
835.235	5109
835.373	5075
835.511	5064
835.65	5052
835.788	5022
835.926	4904
836.064	4881
836.202	4911
836.34	5151
836.478	5235
836.615	5140
836.753	5208
836.891	5303
837.029	5292
837.167	5174
837.305	5155
837.443	5147
837.58	5067
837.718	5223
837.856	5193
837.993	5155
838.131	5204
838.269	5174
838.406	5178
838.544	5235
838.681	4968
838.819	4968
838.956	4889
839.094	4915
839.231	4923
839.369	5071
839.506	5421
839.643	5235
839.781	5067
839.918	4999
840.055	5102
840.193	5113
840.33	5083
840.467	5147
840.604	5124
840.742	5402
840.879	5037
841.016	5079
841.153	5113
841.29	5337
841.427	5330
841.564	5318
841.701	5334
841.838	5269
841.975	5216
842.112	5250
842.249	5109
842.385	5102
842.522	5341
842.659	5136
842.796	5170
842.933	5189
843.069	5117
843.206	5117
843.343	5372
843.479	5235
843.616	5296
843.752	4976
843.889	5041
844.025	5117
844.162	5041
844.298	5189
844.435	5086
844.571	4957
844.708	5193
844.844	5307
844.98	5349
845.117	5303
845.253	5117
845.389	5064
845.525	5143
845.661	5143
845.798	4984
845.934	5067
846.07	5060
846.206	5223
846.342	5223
846.478	5159
846.614	5064
846.75	4904
846.886	4942
847.022	5124
847.158	4961
847.294	5048
847.429	5056
847.565	5014
847.701	5296
847.837	4831
847.972	4744
848.108	4900
848.244	4923
848.379	4752
848.515	4706
848.65	4691
848.786	4786
848.921	4721
849.057	4881
849.192	4854
849.328	4774
849.463	4831
849.598	4752
849.734	4778
849.869	4729
850.004	4649
850.14	4618
850.275	4603
850.41	4527
850.545	4546
850.68	4580
850.815	4630
850.95	4599
851.085	4828
851.22	4714
851.355	4702
851.49	4588
851.625	4588
851.76	4641
851.895	4546
852.03	4527
852.165	4634
852.299	4687
852.434	4767
852.569	4683
852.703	4717
852.838	4790
852.973	4938
853.107	4908
853.242	4706
853.376	4656
853.511	4519
853.645	4603
853.78	4793
853.914	4691
854.048	4630
854.183	4630
854.317	4679
854.451	4862
854.585	4660
854.72	4679
854.854	4778
854.988	4596
855.122	4611
855.256	4535
855.39	4637
855.524	4759
855.658	4729
855.792	4691
855.926	4763
856.06	4759
856.194	4752
856.327	4679
856.461	4599
856.595	4637
856.729	4592
856.862	4729
856.996	4607
857.13	4710
857.263	4729
857.397	4790
857.53	4637
857.664	4679
857.797	4725
857.931	4771
858.064	4679
858.197	4717
858.331	4626
858.464	4577
858.597	4535
858.731	4637
858.864	4596
858.997	4592
859.13	4615
859.263	4679
859.396	4679
859.529	4622
859.662	4500
859.795	4558
859.928	4630
860.061	4736
860.194	4774
860.327	4626
860.46	4527
860.592	4672
860.725	4706
860.858	4710
860.99	4538
861.123	4470
861.256	4554
861.388	4584
861.521	5402
861.653	4443
861.786	4413
861.918	4462
862.05	4542
862.183	4558
862.315	4607
862.447	4611
862.58	4538
862.712	4417
862.844	4291
862.976	4459
863.108	4432
863.24	4835
863.372	4329
863.504	4386
863.636	4383
863.768	4432
863.9	4432
864.032	4360
864.164	4371
864.296	4394
864.428	4500
864.559	4523
864.691	4512
864.823	4508
864.954	4451
865.086	4542
865.217	4447
865.349	4398
865.48	4413
865.612	4474
865.743	4588
865.875	4432
866.006	4451
866.137	4451
866.269	4417
866.4	4459
866.531	4386
866.662	4344
866.793	4383
866.924	4413
867.055	4470
867.186	4417
867.317	4402
867.448	4341
867.579	4394
867.71	4402
867.841	4341
867.972	4443
868.103	4451
868.233	4402
868.364	4440
868.495	4447
868.625	4668
868.756	4778
868.886	4546
869.017	4599
869.147	4714
869.278	4763
869.408	4645
869.539	4653
869.669	4729
869.799	4645
869.929	4725
870.06	4733
870.19	4957
870.32	4919
870.45	4957
870.58	4961
870.71	5060
870.84	5071
870.97	4919
871.1	4866
871.23	5098
871.36	5094
871.489	5022
871.619	5037
871.749	5113
871.879	5117
872.008	5121
872.138	5067
872.267	4976
872.397	4797
872.526	4774
872.656	4649
872.785	4797
872.915	4911
873.044	5018
873.173	4919
873.303	4946
873.432	4934
873.561	4957
873.69	4900
873.819	4835
873.948	4885
874.077	4816
874.206	4786
874.335	4733
874.464	4919
874.593	5067
874.722	4946
874.851	5140
874.979	5022
875.108	4980
875.237	4896
875.365	4824
875.494	4881
875.623	4972
875.751	4801
875.88	4854
876.008	4938
876.136	5056
876.265	5189
876.393	5303
876.521	5254
876.65	5185
876.778	5136
876.906	5083
877.034	4972
877.162	5033
877.29	4984
877.418	5033
877.546	5003
877.674	4984
877.802	5025
877.93	4987
878.058	4908
878.185	4843
878.313	4957
878.441	4942
878.568	4771
878.696	4866
878.824	4980
878.951	5014
879.079	5128
879.206	5334
879.333	5048
879.461	4980
879.588	5006
879.715	5105
879.842	5166
879.97	4980
880.097	4759
880.224	4748
880.351	4809
880.478	4835
880.605	4748
880.732	4809
880.859	5060
880.986	4904
881.112	4900
881.239	4793
881.366	4634
881.493	4615
881.619	4542
881.746	4611
881.872	4634
881.999	4656
882.125	4653
882.252	4755
882.378	4793
882.505	4949
882.631	4759
882.757	4649
882.883	4702
883.01	4694
883.136	4675
883.262	4611
883.388	4565
883.514	4805
883.64	4809
883.766	4797
883.892	4626
884.018	4706
884.143	4927
884.269	4987
884.395	4691
884.52	4653
884.646	4660
884.772	4527
884.897	4554
885.023	4599
885.148	4736
885.274	4828
885.399	4812
885.524	4733
885.65	4698
885.775	4725
885.9	4687
886.025	4854
886.15	4805
886.275	4767
886.4	4637
886.525	4687
886.65	4694
886.775	4649
886.9	4854
887.025	5010
887.149	4744
887.274	4630
887.399	4546
887.523	4550
887.648	4580
887.773	4569
887.897	4748
888.021	4790
888.146	4664
888.27	4771
888.395	4904
888.519	4831
888.643	4763
888.767	4812
888.891	4630
889.015	4611
889.139	4649
889.263	4577
889.387	4767
889.511	4835
889.635	4797
889.759	4599
889.883	4588
890.006	4694
890.13	4797
890.254	4626
890.377	4717
890.501	4546
890.624	4542
890.748	4573
890.871	4485
890.995	4409
891.118	4360
891.241	4535
891.364	4500
891.488	4596
891.611	4462
891.734	4561
891.857	4618
891.98	4558
892.103	4653
892.226	4596
892.349	4504
892.471	4421
892.594	4554
892.717	4554
892.839	4538
892.962	4596
893.085	4691
893.207	4596
893.33	4459
893.452	4538
893.575	4687
893.697	4580
893.819	4778
893.941	4790
894.064	4774
894.186	4569
894.308	4519
894.43	4721
894.552	4790
894.674	4744
894.796	4573
894.918	4626
895.04	4603
895.161	4687
895.283	4664
895.405	4531
895.526	4645
895.648	4687
895.769	4668
895.891	4736
896.012	4740
896.134	4702
896.255	4683
896.376	4607
896.498	4584
896.619	4649
896.74	4588
896.861	4622
896.982	4885
897.103	5064
897.224	4839
897.345	4736
897.466	4611
897.587	4755
897.708	4816
897.828	4714
897.949	4698
898.07	4588
898.19	4664
898.311	4793
898.431	4653
898.552	4706
898.672	4835
898.792	4797
898.913	4729
899.033	4656
899.153	4459
899.273	4440
899.393	4489
899.513	4485
899.633	4466
899.753	4573
899.873	4538
899.993	4535
900.113	4519
900.232	4573
900.352	4519
900.472	4451
900.591	4386
900.711	4481
900.83	4459
900.95	4599
901.069	4634
901.189	4512
901.308	4303
901.427	4322
901.546	4348
901.665	4523
901.784	4504
901.904	4344
902.023	4329
902.141	4166
902.26	4192
902.379	4295
902.498	4249
902.617	4257
902.735	4356
902.854	4348
902.973	4344
903.091	4207
903.21	4219
903.328	4265
903.446	4253
903.565	4211
903.683	4371
903.801	4314
903.919	4398
904.038	4371
904.156	4261
904.274	4474
904.392	4367
904.51	4390
904.627	4432
904.745	4546
904.863	4634
904.981	4371
905.098	4249
905.216	4356
905.334	4424
905.451	4394
905.569	4466
905.686	4535
905.803	4554
905.921	4413
906.038	4531
906.155	4470
906.272	4379
906.389	4459
906.506	4348
906.623	4344
906.74	4363
906.857	4276
906.974	4371
907.091	4508
907.208	4675
907.324	4554
907.441	4519
907.557	4344
907.674	4379
907.79	4356
907.907	4390
908.023	4493
908.139	4519
908.256	4451
908.372	4443
908.488	4424
908.604	4333
908.72	4341
908.836	4375
908.952	4402
909.068	4428
909.184	4584
909.3	4512
909.415	4573
909.531	4504
909.647	4367
909.762	4344
909.878	4341
909.993	4413
910.108	4417
910.224	4402
910.339	4443
910.454	4421
910.57	4341
910.685	4291
910.8	4641
910.915	4584
911.03	4474
911.145	4314
911.259	4363
911.374	4356
911.489	4280
911.604	4268
911.718	4177
911.833	4204
911.947	4071
912.062	4067
912.176	4223
912.291	4192
912.405	4272
912.519	4481
912.633	4504
912.748	4325
912.862	4318
912.976	4230
913.09	4097
913.204	4124
913.318	4223
913.431	4314
913.545	4402
913.659	4455
913.772	4344
913.886	4204
914	4234
914.113	4360
914.226	4440
914.34	4413
914.453	4181
914.566	4440
914.68	4261
914.793	4352
914.906	4147
915.019	4086
915.132	4078
915.245	4166
915.358	4238
915.47	4188
915.583	4215
915.696	4268
915.809	4375
915.921	4421
916.034	4223
916.146	4295
916.259	4196
916.371	4375
916.483	4375
916.595	4238
916.708	4329
916.82	4238
916.932	4291
917.044	4344
917.156	4284
917.268	4188
917.38	4295
917.491	4211
917.603	4303
917.715	4402
917.826	4451
917.938	4295
918.049	4215
918.161	4421
918.272	4516
918.384	4538
918.495	4443
918.606	4280
918.717	4284
918.828	4337
918.939	4352
919.05	4242
919.161	4344
919.272	4078
919.383	4188
919.494	4459
919.604	4588
919.715	4432
919.826	4386
919.936	4402
920.047	4493
920.157	4481
920.267	4710
920.378	4577
920.488	4440
920.598	4706
920.708	4843
920.818	4763
920.928	4702
921.038	4953
921.148	4934
921.258	4618
921.368	4550
921.477	4481
921.587	4478
921.697	4371
921.806	4519
921.916	4421
922.025	4268
922.134	4272
922.244	4207
922.353	4287
922.462	4200
922.571	4135
922.68	3987
922.789	3994
922.898	4048
923.007	3968
923.116	4059
923.224	4032
923.333	4093
923.442	3972
923.55	3979
923.659	4029
923.767	4101
923.876	3987
923.984	4135
924.092	3964
924.201	4090
924.309	4093
924.417	4131
924.525	4013
924.633	4067
924.741	5033
924.849	3896
924.956	4063
925.064	3968
925.172	3907
925.279	3930
925.387	4048
925.494	4017
925.602	4158
925.709	4166
925.816	4013
925.924	4105
926.031	4154
926.138	4139
926.245	4223
926.352	4067
926.459	4223
926.566	4272
926.673	4196
926.779	4063
926.886	4105
926.993	3979
927.099	3975
927.206	3945
927.312	3896
927.419	4071
927.525	4074
927.631	4071
927.737	3968
927.843	3903
927.95	3838
928.056	3926
928.162	4021
928.267	4029
928.373	4691
928.479	4048
928.585	3861
928.69	4002
928.796	4025
928.901	3915
929.007	3812
929.112	4017
929.218	3937
929.323	3930
929.428	3922
929.533	4071
929.638	3888
929.743	3956
929.848	4055
929.953	4002
930.058	3953
930.163	3778
930.267	3854
930.372	3972
930.477	3827
930.581	4120
930.685	3930
930.79	3808
930.894	3907
930.998	3835
931.103	4017
931.207	3743
931.311	3690
931.415	3652
931.519	3515
931.623	3515
