Data from test_V78500241_697.txt Node
Date: Fri Mar 25 16:53:50 CST 2022
User: usil
Spectrometer: V785-0024
Trigger mode: 0
Integration Time (sec): 4.000000E-1
Scans to average: 1
Nonlinearity correction enabled: false
Boxcar width: 0
Storing dark spectrum: false
XAxis mode: Wavelengths
Number of Pixels in Spectrum: 1024
>>>>>Begin Spectral Data<<<<<
801.071	8084
801.214	8031
801.356	7936
801.499	7856
801.641	7875
801.783	7864
801.926	8005
802.068	7921
802.211	7978
802.353	7989
802.496	7871
802.638	7944
802.78	7898
802.923	7921
803.065	7849
803.208	7864
803.35	8039
803.492	8077
803.635	8103
803.777	8024
803.919	8069
804.061	8446
804.204	8126
804.346	8081
804.488	8001
804.63	8142
804.773	8081
804.915	8153
805.057	8309
805.199	8096
805.341	8229
805.483	8305
805.626	8248
805.768	8172
805.91	8225
806.052	8172
806.194	8142
806.336	8355
806.478	8050
806.62	8054
806.762	8157
806.904	8225
807.046	8419
807.188	8374
807.33	8355
807.472	8366
807.614	8221
807.756	8164
807.898	8088
808.04	7845
808.182	7879
808.324	7890
808.465	7940
808.607	8027
808.749	8054
808.891	8199
809.033	8275
809.174	8191
809.316	8096
809.458	8046
809.6	7974
809.741	8035
809.883	8043
810.025	8126
810.166	8065
810.308	8008
810.45	8088
810.591	7871
810.733	7757
810.875	7693
811.016	7559
811.158	7468
811.299	7548
811.441	7693
811.582	7708
811.724	7529
811.865	7525
812.007	7605
812.148	7548
812.29	7597
812.431	7700
812.573	7928
812.714	7944
812.855	8164
812.997	8225
813.138	8389
813.279	8218
813.421	8149
813.562	7974
813.703	7875
813.845	7807
813.986	7480
814.127	7346
814.268	7259
814.41	7225
814.551	7198
814.692	7156
814.833	7076
814.974	7069
815.115	7168
815.256	6954
815.397	6973
815.539	6993
815.68	6905
815.821	6802
815.962	6833
816.103	6738
816.244	6749
816.385	6654
816.526	6616
816.666	6528
816.807	6213
816.948	6410
817.089	6460
817.23	6433
817.371	6365
817.512	6422
817.653	6380
817.793	6376
817.934	6437
818.075	6422
818.216	6437
818.356	6433
818.497	6190
818.638	6064
818.778	6140
818.919	6178
819.06	6186
819.2	6327
819.341	6300
819.481	6342
819.622	6547
819.762	6715
819.903	6681
820.043	6570
820.184	6601
820.324	6509
820.465	6627
820.605	6681
820.746	6601
820.886	6536
821.026	6658
821.167	6696
821.307	6764
821.447	6772
821.588	6658
821.728	6601
821.868	6490
822.008	6323
822.149	6357
822.289	6376
822.429	6148
822.569	6140
822.709	6057
822.849	5935
822.99	5908
823.13	5904
823.27	5893
823.41	5783
823.55	5767
823.69	5771
823.83	5821
823.97	5649
824.11	5497
824.25	5524
824.389	5634
824.529	5581
824.669	5532
824.809	5600
824.949	5623
825.089	5627
825.228	5558
825.368	5414
825.508	5398
825.648	5368
825.787	5322
825.927	5368
826.067	5299
826.206	5353
826.346	5349
826.485	5433
826.625	5421
826.765	5509
826.904	5512
827.044	5277
827.183	5185
827.323	5140
827.462	5216
827.601	5174
827.741	5136
827.88	5212
828.02	5083
828.159	5212
828.298	5353
828.437	5372
828.577	5303
828.716	5501
828.855	5330
828.994	5147
829.134	5208
829.273	5223
829.412	5204
829.551	5140
829.69	5128
829.829	5231
829.968	5364
830.107	5254
830.246	5330
830.385	5197
830.524	5143
830.663	5075
830.802	4980
830.941	4843
831.08	4877
831.219	4987
831.357	4991
831.496	5147
831.635	4949
831.774	4839
831.913	4866
832.051	4725
832.19	4710
832.329	4873
832.467	4668
832.606	4637
832.744	4725
832.883	4679
833.022	4790
833.16	4763
833.299	4771
833.437	4889
833.576	4816
833.714	4877
833.852	4870
833.991	4889
834.129	4976
834.267	4938
834.406	4881
834.544	5014
834.682	5006
834.821	5037
834.959	5121
835.097	5014
835.235	5143
835.373	5109
835.511	5136
835.65	5041
835.788	5041
835.926	4889
836.064	4904
836.202	4873
836.34	5147
836.478	5231
836.615	5159
836.753	5208
836.891	5269
837.029	5246
837.167	5151
837.305	5162
837.443	5159
837.58	5075
837.718	5231
837.856	5162
837.993	5170
838.131	5235
838.269	5212
838.406	5208
838.544	5197
838.681	5045
838.819	5003
838.956	4934
839.094	4877
839.231	4991
839.369	5075
839.506	5474
839.643	5288
839.781	5056
839.918	5003
840.055	5109
840.193	5098
840.33	5124
840.467	5090
840.604	5193
840.742	5429
840.879	5086
841.016	5102
841.153	5117
841.29	5410
841.427	5326
841.564	5330
841.701	5379
841.838	5258
841.975	5261
842.112	5242
842.249	5174
842.385	5098
842.522	5334
842.659	5239
842.796	5121
842.933	5212
843.069	5143
843.206	5189
843.343	5349
843.479	5189
843.616	5273
843.752	5079
843.889	5018
844.025	5189
844.162	5083
844.298	5239
844.435	5083
844.571	5056
844.708	5212
844.844	5311
844.98	5349
845.117	5265
845.253	5162
845.389	5121
845.525	5193
845.661	5086
845.798	5045
845.934	5143
846.07	5064
846.206	5155
846.342	5296
846.478	5170
846.614	5064
846.75	5010
846.886	4900
847.022	5090
847.158	5022
847.294	5048
847.429	5079
847.565	5022
847.701	5349
847.837	4862
847.972	4801
848.108	4957
848.244	4923
848.379	4755
848.515	4736
848.65	4698
848.786	4763
848.921	4752
849.057	4854
849.192	4919
849.328	4767
849.463	4850
849.598	4793
849.734	4778
849.869	4702
850.004	4641
850.14	4675
850.275	4615
850.41	4527
850.545	4542
850.68	4580
850.815	4645
850.95	4649
851.085	4885
851.22	4729
851.355	4653
851.49	4599
851.625	4607
851.76	4683
851.895	4554
852.03	4531
852.165	4634
852.299	4763
852.434	4748
852.569	4733
852.703	4812
852.838	4839
852.973	4923
853.107	4934
853.242	4736
853.376	4668
853.511	4565
853.645	4588
853.78	4755
853.914	4668
854.048	4656
854.183	4622
854.317	4725
854.451	4828
854.585	4698
854.72	4618
854.854	4748
854.988	4588
855.122	4668
855.256	4500
855.39	4653
855.524	4790
855.658	4706
855.792	4668
855.926	4717
856.06	4675
856.194	4820
856.327	4679
856.461	4622
856.595	4569
856.729	4634
856.862	4774
856.996	4687
857.13	4717
857.263	4714
857.397	4812
857.53	4618
857.664	4778
857.797	4793
857.931	4793
858.064	4721
858.197	4748
858.331	4675
858.464	4599
858.597	4565
858.731	4618
858.864	4641
858.997	4569
859.13	4679
859.263	4694
859.396	4672
859.529	4592
859.662	4558
859.795	4493
859.928	4599
860.061	4771
860.194	4782
860.327	4607
860.46	4592
860.592	4733
860.725	4733
860.858	4729
860.99	4615
861.123	4538
861.256	4508
861.388	4626
861.521	5303
861.653	4512
861.786	4462
861.918	4481
862.05	4485
862.183	4558
862.315	4584
862.447	4622
862.58	4535
862.712	4474
862.844	4344
862.976	4474
863.108	4447
863.24	4831
863.372	4306
863.504	4390
863.636	4398
863.768	4508
863.9	4466
864.032	4348
864.164	4383
864.296	4497
864.428	4531
864.559	4577
864.691	4550
864.823	4516
864.954	4523
865.086	4512
865.217	4424
865.349	4447
865.48	4432
865.612	4504
865.743	4630
865.875	4470
866.006	4462
866.137	4493
866.269	4462
866.4	4462
866.531	4421
866.662	4398
866.793	4390
866.924	4417
867.055	4504
867.186	4489
867.317	4390
867.448	4371
867.579	4436
867.71	4421
867.841	4379
867.972	4489
868.103	4500
868.233	4436
868.364	4455
868.495	4459
868.625	4645
868.756	4759
868.886	4546
869.017	4622
869.147	4771
869.278	4778
869.408	4679
869.539	4664
869.669	4733
869.799	4683
869.929	4752
870.06	4778
870.19	4942
870.32	4957
870.45	4949
870.58	5060
870.71	5060
870.84	5075
870.97	4892
871.1	4915
871.23	5162
871.36	5128
871.489	5014
871.619	5071
871.749	5109
871.879	5083
872.008	5151
872.138	5067
872.267	4991
872.397	4831
872.526	4797
872.656	4733
872.785	4831
872.915	4968
873.044	5018
873.173	4957
873.303	4919
873.432	4896
873.561	4949
873.69	4881
873.819	4824
873.948	4904
874.077	4782
874.206	4793
874.335	4801
874.464	4965
874.593	5022
874.722	4942
874.851	5075
874.979	5083
875.108	5079
875.237	4923
875.365	4881
875.494	4892
875.623	5003
875.751	4831
875.88	4900
876.008	4999
876.136	4987
876.265	5151
876.393	5322
876.521	5227
876.65	5223
876.778	5170
876.906	5098
877.034	5022
877.162	5022
877.29	4965
877.418	5022
877.546	5071
877.674	5048
877.802	5041
877.93	5033
878.058	4987
878.185	4870
878.313	4980
878.441	4968
878.568	4805
878.696	4877
878.824	4953
878.951	4995
879.079	5143
879.206	5330
879.333	5102
879.461	5041
879.588	4976
879.715	5113
879.842	5277
879.97	5014
880.097	4774
880.224	4752
880.351	4858
880.478	4839
880.605	4740
880.732	4740
880.859	5033
880.986	4835
881.112	4938
881.239	4790
881.366	4706
881.493	4615
881.619	4531
881.746	4634
881.872	4702
881.999	4660
882.125	4694
882.252	4774
882.378	4831
882.505	4999
882.631	4797
882.757	4706
882.883	4778
883.01	4771
883.136	4672
883.262	4561
883.388	4637
883.514	4790
883.64	4854
883.766	4809
883.892	4637
884.018	4668
884.143	4850
884.269	5018
884.395	4645
884.52	4649
884.646	4607
884.772	4596
884.897	4584
885.023	4615
885.148	4744
885.274	4915
885.399	4778
885.524	4672
885.65	4675
885.775	4744
885.9	4740
886.025	4900
886.15	4835
886.275	4687
886.4	4672
886.525	4774
886.65	4679
886.775	4660
886.9	4919
887.025	5060
887.149	4805
887.274	4664
887.399	4561
887.523	4611
887.648	4584
887.773	4584
887.897	4755
888.021	4805
888.146	4694
888.27	4812
888.395	4946
888.519	4778
888.643	4793
888.767	4850
888.891	4691
889.015	4630
889.139	4637
889.263	4607
889.387	4763
889.511	4892
889.635	4767
889.759	4645
889.883	4656
890.006	4698
890.13	4809
890.254	4599
890.377	4672
890.501	4535
890.624	4500
890.748	4603
890.871	4519
890.995	4383
891.118	4363
891.241	4527
891.364	4546
891.488	4626
891.611	4497
891.734	4531
891.857	4599
891.98	4538
892.103	4637
892.226	4577
892.349	4500
892.471	4383
892.594	4577
892.717	4622
892.839	4519
892.962	4577
893.085	4615
893.207	4599
893.33	4443
893.452	4546
893.575	4645
893.697	4588
893.819	4786
893.941	4797
894.064	4778
894.186	4603
894.308	4577
894.43	4725
894.552	4778
894.674	4721
894.796	4546
894.918	4596
895.04	4542
895.161	4691
895.283	4615
895.405	4577
895.526	4664
895.648	4694
895.769	4691
895.891	4702
896.012	4763
896.134	4683
896.255	4641
896.376	4626
896.498	4611
896.619	4683
896.74	4618
896.861	4607
896.982	4930
897.103	5083
897.224	4847
897.345	4748
897.466	4637
897.587	4809
897.708	4862
897.828	4801
897.949	4656
898.07	4569
898.19	4599
898.311	4774
898.431	4675
898.552	4702
898.672	4801
898.792	4809
898.913	4717
899.033	4588
899.153	4493
899.273	4440
899.393	4485
899.513	4519
899.633	4527
899.753	4474
899.873	4546
899.993	4577
900.113	4554
900.232	4626
900.352	4554
900.472	4470
900.591	4428
900.711	4481
900.83	4455
900.95	4561
901.069	4687
901.189	4561
901.308	4383
901.427	4268
901.546	4386
901.665	4485
901.784	4493
901.904	4383
902.023	4299
902.141	4169
902.26	4139
902.379	4318
902.498	4219
902.617	4234
902.735	4344
902.854	4443
902.973	4367
903.091	4196
903.21	4230
903.328	4310
903.446	4284
903.565	4268
903.683	4341
903.801	4287
903.919	4424
904.038	4402
904.156	4299
904.274	4428
904.392	4356
904.51	4443
904.627	4455
904.745	4607
904.863	4660
904.981	4341
905.098	4261
905.216	4383
905.334	4451
905.451	4440
905.569	4390
905.686	4523
905.803	4508
905.921	4390
906.038	4596
906.155	4447
906.272	4402
906.389	4432
906.506	4333
906.623	4402
906.74	4409
906.857	4325
906.974	4333
907.091	4573
907.208	4603
907.324	4573
907.441	4493
907.557	4360
907.674	4329
907.79	4329
907.907	4428
908.023	4474
908.139	4478
908.256	4470
908.372	4447
908.488	4474
908.604	4348
908.72	4367
908.836	4341
908.952	4291
909.068	4421
909.184	4516
909.3	4508
909.415	4558
909.531	4588
909.647	4356
909.762	4371
909.878	4348
909.993	4432
910.108	4466
910.224	4447
910.339	4500
910.454	4402
910.57	4344
910.685	4299
910.8	4675
910.915	4592
911.03	4527
911.145	4333
911.259	4348
911.374	4386
911.489	4295
911.604	4268
911.718	4169
911.833	4177
911.947	4051
912.062	4093
912.176	4223
912.291	4234
912.405	4223
912.519	4451
912.633	4531
912.748	4367
912.862	4322
912.976	4192
913.09	4101
913.204	4166
913.318	4238
913.431	4356
913.545	4325
913.659	4432
913.772	4405
913.886	4246
914	4242
914.113	4318
914.226	4417
914.34	4424
914.453	4215
914.566	4405
914.68	4318
914.793	4295
914.906	4139
915.019	4135
915.132	4036
915.245	4150
915.358	4158
915.47	4265
915.583	4234
915.696	4287
915.809	4383
915.921	4390
916.034	4272
916.146	4344
916.259	4188
916.371	4375
916.483	4352
916.595	4257
916.708	4261
916.82	4325
916.932	4360
917.044	4352
917.156	4333
917.268	4287
917.38	4253
917.491	4268
917.603	4352
917.715	4398
917.826	4428
917.938	4318
918.049	4257
918.161	4405
918.272	4519
918.384	4535
918.495	4470
918.606	4287
918.717	4272
918.828	4310
918.939	4356
919.05	4253
919.161	4238
919.272	4120
919.383	4249
919.494	4443
919.604	4653
919.715	4413
919.826	4306
919.936	4451
920.047	4497
920.157	4504
920.267	4691
920.378	4573
920.488	4417
920.598	4725
920.708	4820
920.818	4771
920.928	4748
921.038	4930
921.148	4930
921.258	4611
921.368	4519
921.477	4519
921.587	4417
921.697	4398
921.806	4561
921.916	4413
922.025	4234
922.134	4234
922.244	4265
922.353	4287
922.462	4147
922.571	4105
922.68	3998
922.789	3968
922.898	4029
923.007	4002
923.116	4082
923.224	4051
923.333	4063
923.442	4010
923.55	3941
923.659	4013
923.767	4071
923.876	4017
923.984	4109
924.092	3953
924.201	4048
924.309	4036
924.417	4124
924.525	4044
924.633	4093
924.741	5067
924.849	3884
924.956	4124
925.064	3949
925.172	3918
925.279	3937
925.387	4017
925.494	4036
925.602	4188
925.709	4223
925.816	4071
925.924	4166
926.031	4234
926.138	4169
926.245	4238
926.352	4097
926.459	4242
926.566	4295
926.673	4173
926.779	4082
926.886	4048
926.993	3960
927.099	3991
927.206	3941
927.312	3945
927.419	4036
927.525	4051
927.631	4078
927.737	3949
927.843	3915
927.95	3857
928.056	3956
928.162	3972
928.267	4063
928.373	4683
928.479	4135
928.585	3880
928.69	4025
928.796	4082
928.901	3949
929.007	3797
929.112	3972
929.218	3960
929.323	3941
929.428	3964
929.533	4135
929.638	3915
929.743	3937
929.848	4093
929.953	3979
930.058	3918
930.163	3762
930.267	3812
930.372	3975
930.477	3823
930.581	4071
930.685	3983
930.79	3838
930.894	3903
930.998	3812
931.103	4044
931.207	3751
931.311	3701
931.415	3663
931.519	3515
931.623	3538
