Data from test_V78500241_1731.txt Node
Date: Fri Mar 25 17:01:02 CST 2022
User: usil
Spectrometer: V785-0024
Trigger mode: 0
Integration Time (sec): 4.000000E-1
Scans to average: 1
Nonlinearity correction enabled: false
Boxcar width: 0
Storing dark spectrum: false
XAxis mode: Wavelengths
Number of Pixels in Spectrum: 1024
>>>>>Begin Spectral Data<<<<<
801.071	7997
801.214	7970
801.356	7822
801.499	7856
801.641	7845
801.783	7769
801.926	7951
802.068	7902
802.211	7917
802.353	7936
802.496	7761
802.638	7814
802.78	7879
802.923	7928
803.065	7868
803.208	7845
803.35	7982
803.492	8069
803.635	8081
803.777	8005
803.919	8092
804.061	8400
804.204	8145
804.346	8103
804.488	7989
804.63	8069
804.773	8058
804.915	8084
805.057	8271
805.199	8229
805.341	8172
805.483	8221
805.626	8138
805.768	8065
805.91	8221
806.052	8218
806.194	8161
806.336	8305
806.478	8111
806.62	8012
806.762	8115
806.904	8271
807.046	8476
807.188	8358
807.33	8290
807.472	8328
807.614	8180
807.756	8077
807.898	8035
808.04	7864
808.182	7909
808.324	7925
808.465	7875
808.607	8035
808.749	8077
808.891	8164
809.033	8282
809.174	8142
809.316	8012
809.458	8054
809.6	7978
809.741	8081
809.883	8035
810.025	8088
810.166	8016
810.308	7951
810.45	8016
810.591	7906
810.733	7693
810.875	7662
811.016	7544
811.158	7499
811.299	7556
811.441	7700
811.582	7658
811.724	7609
811.865	7578
812.007	7575
812.148	7563
812.29	7624
812.431	7746
812.573	7845
812.714	7967
812.855	8092
812.997	8161
813.138	8351
813.279	8195
813.421	8126
813.562	7925
813.703	7837
813.845	7696
813.986	7445
814.127	7232
814.268	7278
814.41	7202
814.551	7175
814.692	7263
814.833	7069
814.974	7099
815.115	7149
815.256	6939
815.397	6913
815.539	6981
815.68	6810
815.821	6764
815.962	6878
816.103	6821
816.244	6696
816.385	6658
816.526	6574
816.666	6471
816.807	6350
816.948	6399
817.089	6441
817.23	6467
817.371	6346
817.512	6304
817.653	6388
817.793	6410
817.934	6429
818.075	6452
818.216	6403
818.356	6433
818.497	6262
818.638	6087
818.778	6114
818.919	6102
819.06	6117
819.2	6410
819.341	6300
819.481	6338
819.622	6490
819.762	6738
819.903	6730
820.043	6616
820.184	6566
820.324	6566
820.465	6684
820.605	6673
820.746	6604
820.886	6448
821.026	6601
821.167	6673
821.307	6753
821.447	6791
821.588	6726
821.728	6490
821.868	6467
822.008	6289
822.149	6399
822.289	6353
822.429	6167
822.569	6095
822.709	6098
822.849	5885
822.99	5878
823.13	5904
823.27	5893
823.41	5741
823.55	5802
823.69	5783
823.83	5798
823.97	5688
824.11	5471
824.25	5501
824.389	5551
824.529	5558
824.669	5547
824.809	5566
824.949	5642
825.089	5627
825.228	5524
825.368	5387
825.508	5330
825.648	5334
825.787	5345
825.927	5391
826.067	5292
826.206	5246
826.346	5379
826.485	5387
826.625	5410
826.765	5573
826.904	5482
827.044	5273
827.183	5178
827.323	5132
827.462	5227
827.601	5136
827.741	5140
827.88	5193
828.02	5067
828.159	5239
828.298	5273
828.437	5288
828.577	5246
828.716	5501
828.855	5296
828.994	5140
829.134	5155
829.273	5212
829.412	5136
829.551	5128
829.69	5147
829.829	5220
829.968	5334
830.107	5235
830.246	5223
830.385	5174
830.524	5124
830.663	5033
830.802	4991
830.941	4908
831.08	4809
831.219	4968
831.357	4999
831.496	5174
831.635	4908
831.774	4850
831.913	4820
832.051	4706
832.19	4759
832.329	4801
832.467	4710
832.606	4656
832.744	4717
832.883	4679
833.022	4694
833.16	4736
833.299	4831
833.437	4793
833.576	4816
833.714	4820
833.852	4862
833.991	4835
834.129	4984
834.267	4930
834.406	4904
834.544	4957
834.682	4938
834.821	4934
834.959	5128
835.097	4984
835.235	5155
835.373	5060
835.511	5083
835.65	4968
835.788	4965
835.926	4843
836.064	4881
836.202	4934
836.34	5151
836.478	5231
836.615	5060
836.753	5231
836.891	5185
837.029	5204
837.167	5140
837.305	5136
837.443	5079
837.58	4995
837.718	5193
837.856	5197
837.993	5121
838.131	5242
838.269	5220
838.406	5170
838.544	5170
838.681	5029
838.819	5003
838.956	4877
839.094	4889
839.231	4968
839.369	5090
839.506	5417
839.643	5246
839.781	5048
839.918	4984
840.055	5056
840.193	5086
840.33	5083
840.467	5086
840.604	5162
840.742	5395
840.879	5090
841.016	5056
841.153	5147
841.29	5303
841.427	5292
841.564	5330
841.701	5322
841.838	5311
841.975	5170
842.112	5277
842.249	5064
842.385	5128
842.522	5273
842.659	5117
842.796	5102
842.933	5178
843.069	5132
843.206	5151
843.343	5273
843.479	5204
843.616	5227
843.752	5010
843.889	4987
844.025	5189
844.162	5029
844.298	5220
844.435	5109
844.571	5060
844.708	5181
844.844	5288
844.98	5315
845.117	5246
845.253	5147
845.389	5048
845.525	5136
845.661	5045
845.798	5022
845.934	5090
846.07	5010
846.206	5155
846.342	5254
846.478	5136
846.614	4999
846.75	4953
846.886	4949
847.022	5166
847.158	4999
847.294	5037
847.429	5064
847.565	5003
847.701	5303
847.837	4812
847.972	4843
848.108	4995
848.244	4957
848.379	4820
848.515	4767
848.65	4698
848.786	4771
848.921	4801
849.057	4881
849.192	4915
849.328	4843
849.463	4828
849.598	4755
849.734	4759
849.869	4729
850.004	4641
850.14	4691
850.275	4653
850.41	4558
850.545	4569
850.68	4664
850.815	4626
850.95	4679
851.085	4854
851.22	4763
851.355	4702
851.49	4656
851.625	4641
851.76	4675
851.895	4596
852.03	4554
852.165	4706
852.299	4763
852.434	4809
852.569	4752
852.703	4828
852.838	4858
852.973	5003
853.107	4904
853.242	4748
853.376	4710
853.511	4565
853.645	4664
853.78	4866
853.914	4717
854.048	4698
854.183	4691
854.317	4691
854.451	4885
854.585	4683
854.72	4679
854.854	4790
854.988	4668
855.122	4691
855.256	4569
855.39	4714
855.524	4816
855.658	4797
855.792	4733
855.926	4778
856.06	4778
856.194	4790
856.327	4721
856.461	4664
856.595	4683
856.729	4637
856.862	4797
856.996	4706
857.13	4797
857.263	4782
857.397	4835
857.53	4698
857.664	4797
857.797	4793
857.931	4835
858.064	4748
858.197	4763
858.331	4649
858.464	4679
858.597	4546
858.731	4637
858.864	4599
858.997	4630
859.13	4691
859.263	4660
859.396	4755
859.529	4615
859.662	4626
859.795	4573
859.928	4660
860.061	4797
860.194	4774
860.327	4653
860.46	4599
860.592	4771
860.725	4740
860.858	4748
860.99	4641
861.123	4561
861.256	4588
861.388	4656
861.521	5326
861.653	4531
861.786	4519
861.918	4508
862.05	4603
862.183	4584
862.315	4630
862.447	4733
862.58	4569
862.712	4440
862.844	4329
862.976	4519
863.108	4474
863.24	4927
863.372	4356
863.504	4497
863.636	4447
863.768	4565
863.9	4455
864.032	4402
864.164	4485
864.296	4497
864.428	4561
864.559	4599
864.691	4577
864.823	4565
864.954	4592
865.086	4508
865.217	4519
865.349	4440
865.48	4466
865.612	4531
865.743	4653
865.875	4523
866.006	4455
866.137	4474
866.269	4504
866.4	4462
866.531	4428
866.662	4428
866.793	4405
866.924	4474
867.055	4527
867.186	4523
867.317	4443
867.448	4363
867.579	4436
867.71	4428
867.841	4344
867.972	4478
868.103	4451
868.233	4451
868.364	4500
868.495	4580
868.625	4725
868.756	4752
868.886	4588
869.017	4645
869.147	4809
869.278	4790
869.408	4683
869.539	4653
869.669	4710
869.799	4691
869.929	4786
870.06	4774
870.19	4915
870.32	4946
870.45	4953
870.58	5033
870.71	5136
870.84	5117
870.97	5006
871.1	4938
871.23	5128
871.36	5132
871.489	5029
871.619	5128
871.749	5102
871.879	5185
872.008	5162
872.138	5079
872.267	5003
872.397	4847
872.526	4843
872.656	4755
872.785	4885
872.915	4991
873.044	5064
873.173	4957
873.303	5029
873.432	4980
873.561	4995
873.69	4877
873.819	4866
873.948	4961
874.077	4854
874.206	4771
874.335	4854
874.464	4923
874.593	5067
874.722	4968
874.851	5140
874.979	5048
875.108	5052
875.237	4904
875.365	4915
875.494	4923
875.623	4984
875.751	4843
875.88	4904
876.008	5037
876.136	5079
876.265	5201
876.393	5334
876.521	5364
876.65	5261
876.778	5220
876.906	5056
877.034	5029
877.162	5109
877.29	4987
877.418	5090
877.546	5029
877.674	5098
877.802	5033
877.93	5056
878.058	4942
878.185	4862
878.313	5037
878.441	4980
878.568	4759
878.696	4900
878.824	4949
878.951	5037
879.079	5151
879.206	5337
879.333	5128
879.461	4999
879.588	5052
879.715	5147
879.842	5250
879.97	5045
880.097	4854
880.224	4729
880.351	4828
880.478	4862
880.605	4835
880.732	4828
880.859	5090
880.986	4915
881.112	4919
881.239	4831
881.366	4694
881.493	4634
881.619	4618
881.746	4672
881.872	4641
881.999	4679
882.125	4793
882.252	4782
882.378	4870
882.505	5052
882.631	4805
882.757	4630
882.883	4725
883.01	4729
883.136	4702
883.262	4615
883.388	4607
883.514	4816
883.64	4900
883.766	4828
883.892	4702
884.018	4721
884.143	4946
884.269	5071
884.395	4744
884.52	4615
884.646	4653
884.772	4599
884.897	4588
885.023	4622
885.148	4812
885.274	4866
885.399	4801
885.524	4790
885.65	4683
885.775	4767
885.9	4767
886.025	4854
886.15	4839
886.275	4767
886.4	4702
886.525	4733
886.65	4683
886.775	4683
886.9	4942
887.025	5071
887.149	4790
887.274	4687
887.399	4637
887.523	4634
887.648	4577
887.773	4603
887.897	4805
888.021	4820
888.146	4691
888.27	4862
888.395	4923
888.519	4793
888.643	4862
888.767	4828
888.891	4687
889.015	4641
889.139	4691
889.263	4637
889.387	4793
889.511	4904
889.635	4854
889.759	4641
889.883	4683
890.006	4786
890.13	4854
890.254	4641
890.377	4702
890.501	4538
890.624	4493
890.748	4634
890.871	4565
890.995	4428
891.118	4363
891.241	4519
891.364	4523
891.488	4615
891.611	4516
891.734	4542
891.857	4637
891.98	4580
892.103	4675
892.226	4577
892.349	4569
892.471	4489
892.594	4592
892.717	4626
892.839	4596
892.962	4607
893.085	4637
893.207	4615
893.33	4443
893.452	4584
893.575	4672
893.697	4626
893.819	4866
893.941	4824
894.064	4774
894.186	4634
894.308	4565
894.43	4755
894.552	4816
894.674	4824
894.796	4580
894.918	4683
895.04	4577
895.161	4729
895.283	4653
895.405	4592
895.526	4649
895.648	4672
895.769	4694
895.891	4717
896.012	4778
896.134	4755
896.255	4698
896.376	4668
896.498	4653
896.619	4672
896.74	4611
896.861	4710
896.982	4892
897.103	5117
897.224	4820
897.345	4725
897.466	4691
897.587	4733
897.708	4885
897.828	4866
897.949	4660
898.07	4577
898.19	4668
898.311	4892
898.431	4672
898.552	4752
898.672	4820
898.792	4774
898.913	4752
899.033	4649
899.153	4542
899.273	4424
899.393	4516
899.513	4512
899.633	4550
899.753	4538
899.873	4542
899.993	4641
900.113	4550
900.232	4634
900.352	4550
900.472	4485
900.591	4417
900.711	4474
900.83	4474
900.95	4622
901.069	4656
901.189	4580
901.308	4409
901.427	4314
901.546	4356
901.665	4485
901.784	4542
901.904	4367
902.023	4299
902.141	4227
902.26	4227
902.379	4333
902.498	4242
902.617	4238
902.735	4363
902.854	4386
902.973	4333
903.091	4249
903.21	4268
903.328	4284
903.446	4341
903.565	4188
903.683	4360
903.801	4329
903.919	4417
904.038	4428
904.156	4333
904.274	4451
904.392	4421
904.51	4371
904.627	4443
904.745	4573
904.863	4611
904.981	4443
905.098	4333
905.216	4402
905.334	4462
905.451	4443
905.569	4447
905.686	4561
905.803	4592
905.921	4432
906.038	4538
906.155	4459
906.272	4432
906.389	4474
906.506	4375
906.623	4371
906.74	4405
906.857	4318
906.974	4394
907.091	4542
907.208	4649
907.324	4626
907.441	4485
907.557	4360
907.674	4337
907.79	4333
907.907	4432
908.023	4489
908.139	4508
908.256	4432
908.372	4451
908.488	4447
908.604	4356
908.72	4375
908.836	4417
908.952	4390
909.068	4390
909.184	4588
909.3	4455
909.415	4596
909.531	4546
909.647	4383
909.762	4352
909.878	4356
909.993	4478
910.108	4371
910.224	4455
910.339	4428
910.454	4424
910.57	4356
910.685	4291
910.8	4630
910.915	4580
911.03	4470
911.145	4352
911.259	4344
911.374	4352
911.489	4291
911.604	4314
911.718	4162
911.833	4204
911.947	4074
912.062	4063
912.176	4185
912.291	4295
912.405	4287
912.519	4508
912.633	4493
912.748	4344
912.862	4348
912.976	4196
913.09	4139
913.204	4204
913.318	4257
913.431	4383
913.545	4379
913.659	4417
913.772	4379
913.886	4276
914	4230
914.113	4379
914.226	4459
914.34	4375
914.453	4234
914.566	4459
914.68	4341
914.793	4333
914.906	4124
915.019	4154
915.132	4082
915.245	4169
915.358	4242
915.47	4249
915.583	4280
915.696	4291
915.809	4424
915.921	4451
916.034	4253
916.146	4265
916.259	4234
916.371	4421
916.483	4390
916.595	4246
916.708	4371
916.82	4344
916.932	4329
917.044	4310
917.156	4371
917.268	4284
917.38	4295
917.491	4284
917.603	4402
917.715	4443
917.826	4447
917.938	4333
918.049	4272
918.161	4428
918.272	4596
918.384	4538
918.495	4493
918.606	4329
918.717	4280
918.828	4405
918.939	4440
919.05	4314
919.161	4394
919.272	4211
919.383	4268
919.494	4504
919.604	4653
919.715	4489
919.826	4432
919.936	4440
920.047	4573
920.157	4535
920.267	4767
920.378	4596
920.488	4573
920.598	4683
920.708	4915
920.818	4786
920.928	4790
921.038	4995
921.148	4965
921.258	4649
921.368	4588
921.477	4554
921.587	4459
921.697	4432
921.806	4622
921.916	4516
922.025	4318
922.134	4314
922.244	4249
922.353	4356
922.462	4246
922.571	4105
922.68	4067
922.789	3998
922.898	4071
923.007	4044
923.116	4086
923.224	4124
923.333	4112
923.442	4025
923.55	4036
923.659	4067
923.767	4147
923.876	4002
923.984	4162
924.092	4029
924.201	4169
924.309	4173
924.417	4154
924.525	4143
924.633	4128
924.741	4930
924.849	4006
924.956	4185
925.064	3983
925.172	3968
925.279	4006
925.387	4086
925.494	4101
925.602	4230
925.709	4215
925.816	4128
925.924	4162
926.031	4276
926.138	4188
926.245	4234
926.352	4143
926.459	4303
926.566	4398
926.673	4181
926.779	4135
926.886	4078
926.993	4025
927.099	4013
927.206	3979
927.312	3987
927.419	4074
927.525	4055
927.631	4154
927.737	3987
927.843	3991
927.95	3873
928.056	4002
928.162	4013
928.267	4105
928.373	4714
928.479	4131
928.585	3968
928.69	4078
928.796	4112
928.901	4032
929.007	3876
929.112	4013
929.218	4006
929.323	4002
929.428	3953
929.533	4147
929.638	3972
929.743	3994
929.848	4063
929.953	4032
930.058	3994
930.163	3816
930.267	3873
930.372	3991
930.477	3846
930.581	4128
930.685	4017
930.79	3869
930.894	3892
930.998	3869
931.103	4036
931.207	3724
931.311	3686
931.415	3720
931.519	3572
931.623	3580
