Data from test_V78500241_2854.txt Node
Date: Fri Mar 25 17:08:50 CST 2022
User: usil
Spectrometer: V785-0024
Trigger mode: 0
Integration Time (sec): 4.000000E-1
Scans to average: 1
Nonlinearity correction enabled: false
Boxcar width: 0
Storing dark spectrum: false
XAxis mode: Wavelengths
Number of Pixels in Spectrum: 1024
>>>>>Begin Spectral Data<<<<<
801.071	8031
801.214	7967
801.356	7864
801.499	7951
801.641	7864
801.783	7898
801.926	7978
802.068	7955
802.211	7986
802.353	8008
802.496	7887
802.638	7913
802.78	7879
802.923	7925
803.065	7951
803.208	7792
803.35	7978
803.492	8054
803.635	8214
803.777	8050
803.919	8240
804.061	8423
804.204	8168
804.346	8062
804.488	7967
804.63	8126
804.773	8054
804.915	8096
805.057	8309
805.199	8191
805.341	8240
805.483	8271
805.626	8199
805.768	8145
805.91	8275
806.052	8202
806.194	8134
806.336	8362
806.478	8008
806.62	8073
806.762	8202
806.904	8210
807.046	8499
807.188	8393
807.33	8362
807.472	8317
807.614	8077
807.756	8187
807.898	8081
808.04	7849
808.182	7906
808.324	7860
808.465	7837
808.607	8031
808.749	8153
808.891	8286
809.033	8275
809.174	8126
809.316	8054
809.458	8050
809.6	7989
809.741	8039
809.883	8069
810.025	8172
810.166	8088
810.308	8005
810.45	7997
810.591	7887
810.733	7776
810.875	7601
811.016	7533
811.158	7514
811.299	7567
811.441	7715
811.582	7685
811.724	7578
811.865	7510
812.007	7624
812.148	7632
812.29	7616
812.431	7795
812.573	7814
812.714	8001
812.855	8149
812.997	8229
813.138	8248
813.279	8202
813.421	8206
813.562	8084
813.703	7879
813.845	7799
813.986	7472
814.127	7278
814.268	7202
814.41	7225
814.551	7198
814.692	7278
814.833	7107
814.974	7088
815.115	7114
815.256	6947
815.397	6954
815.539	6924
815.68	6837
815.821	6863
815.962	6894
816.103	6871
816.244	6719
816.385	6555
816.526	6578
816.666	6509
816.807	6361
816.948	6490
817.089	6525
817.23	6460
817.371	6403
817.512	6407
817.653	6365
817.793	6346
817.934	6407
818.075	6464
818.216	6471
818.356	6422
818.497	6277
818.638	6121
818.778	6194
818.919	6095
819.06	6140
819.2	6285
819.341	6331
819.481	6334
819.622	6544
819.762	6707
819.903	6692
820.043	6662
820.184	6566
820.324	6635
820.465	6688
820.605	6692
820.746	6642
820.886	6494
821.026	6658
821.167	6753
821.307	6757
821.447	6745
821.588	6654
821.728	6517
821.868	6437
822.008	6289
822.149	6384
822.289	6403
822.429	6125
822.569	6064
822.709	6102
822.849	5916
822.99	5927
823.13	5927
823.27	5904
823.41	5798
823.55	5760
823.69	5775
823.83	5851
823.97	5699
824.11	5539
824.25	5512
824.389	5604
824.529	5577
824.669	5482
824.809	5596
824.949	5695
825.089	5573
825.228	5573
825.368	5448
825.508	5372
825.648	5383
825.787	5379
825.927	5345
826.067	5288
826.206	5322
826.346	5406
826.485	5417
826.625	5376
826.765	5543
826.904	5474
827.044	5250
827.183	5170
827.323	5117
827.462	5242
827.601	5132
827.741	5136
827.88	5193
828.02	5124
828.159	5208
828.298	5261
828.437	5330
828.577	5322
828.716	5482
828.855	5334
828.994	5147
829.134	5086
829.273	5212
829.412	5136
829.551	5113
829.69	5151
829.829	5235
829.968	5395
830.107	5296
830.246	5269
830.385	5181
830.524	5166
830.663	5056
830.802	4946
830.941	4904
831.08	4866
831.219	4919
831.357	4953
831.496	5117
831.635	4942
831.774	4911
831.913	4854
832.051	4733
832.19	4752
832.329	4854
832.467	4668
832.606	4592
832.744	4698
832.883	4706
833.022	4702
833.16	4763
833.299	4870
833.437	4866
833.576	4862
833.714	4870
833.852	4854
833.991	4873
834.129	4927
834.267	4946
834.406	4915
834.544	4965
834.682	4965
834.821	4942
834.959	5143
835.097	5075
835.235	5132
835.373	5025
835.511	5132
835.65	5022
835.788	5025
835.926	4908
836.064	4786
836.202	4873
836.34	5212
836.478	5299
836.615	5102
836.753	5231
836.891	5303
837.029	5246
837.167	5174
837.305	5162
837.443	5159
837.58	5098
837.718	5239
837.856	5166
837.993	5132
838.131	5216
838.269	5201
838.406	5155
838.544	5166
838.681	5018
838.819	4984
838.956	4828
839.094	4881
839.231	4999
839.369	5018
839.506	5383
839.643	5250
839.781	5060
839.918	4987
840.055	5083
840.193	5052
840.33	5067
840.467	5155
840.604	5212
840.742	5452
840.879	5102
841.016	5075
841.153	5166
841.29	5360
841.427	5322
841.564	5345
841.701	5337
841.838	5292
841.975	5265
842.112	5261
842.249	5159
842.385	5109
842.522	5349
842.659	5185
842.796	5140
842.933	5208
843.069	5128
843.206	5159
843.343	5315
843.479	5189
843.616	5250
843.752	5003
843.889	5022
844.025	5166
844.162	5045
844.298	5216
844.435	5086
844.571	5086
844.708	5193
844.844	5280
844.98	5330
845.117	5315
845.253	5132
845.389	5090
845.525	5109
845.661	5136
845.798	5018
845.934	5109
846.07	5067
846.206	5174
846.342	5269
846.478	5174
846.614	5014
846.75	4961
846.886	4972
847.022	5098
847.158	5033
847.294	5067
847.429	5086
847.565	5067
847.701	5322
847.837	4862
847.972	4843
848.108	4904
848.244	4923
848.379	4755
848.515	4740
848.65	4668
848.786	4717
848.921	4771
849.057	4839
849.192	4900
849.328	4812
849.463	4812
849.598	4805
849.734	4763
849.869	4691
850.004	4634
850.14	4668
850.275	4573
850.41	4508
850.545	4588
850.68	4626
850.815	4649
850.95	4615
851.085	4839
851.22	4778
851.355	4668
851.49	4596
851.625	4618
851.76	4599
851.895	4497
852.03	4565
852.165	4634
852.299	4691
852.434	4801
852.569	4771
852.703	4782
852.838	4816
852.973	4904
853.107	4870
853.242	4729
853.376	4653
853.511	4577
853.645	4592
853.78	4828
853.914	4679
854.048	4668
854.183	4626
854.317	4668
854.451	4835
854.585	4679
854.72	4645
854.854	4759
854.988	4634
855.122	4630
855.256	4497
855.39	4637
855.524	4755
855.658	4717
855.792	4675
855.926	4774
856.06	4778
856.194	4763
856.327	4672
856.461	4588
856.595	4641
856.729	4660
856.862	4793
856.996	4672
857.13	4748
857.263	4755
857.397	4809
857.53	4645
857.664	4694
857.797	4748
857.931	4740
858.064	4702
858.197	4714
858.331	4702
858.464	4542
858.597	4554
858.731	4626
858.864	4645
858.997	4565
859.13	4660
859.263	4656
859.396	4683
859.529	4596
859.662	4554
859.795	4538
859.928	4630
860.061	4752
860.194	4759
860.327	4611
860.46	4599
860.592	4679
860.725	4698
860.858	4679
860.99	4618
861.123	4500
861.256	4500
861.388	4603
861.521	5391
861.653	4504
861.786	4459
861.918	4451
862.05	4546
862.183	4538
862.315	4584
862.447	4653
862.58	4565
862.712	4436
862.844	4303
862.976	4432
863.108	4481
863.24	4828
863.372	4352
863.504	4466
863.636	4402
863.768	4485
863.9	4417
864.032	4291
864.164	4421
864.296	4504
864.428	4538
864.559	4618
864.691	4519
864.823	4519
864.954	4493
865.086	4493
865.217	4447
865.349	4432
865.48	4451
865.612	4538
865.743	4599
865.875	4474
866.006	4443
866.137	4489
866.269	4436
866.4	4459
866.531	4443
866.662	4386
866.793	4424
866.924	4390
867.055	4523
867.186	4424
867.317	4409
867.448	4394
867.579	4390
867.71	4375
867.841	4398
867.972	4459
868.103	4432
868.233	4470
868.364	4413
868.495	4481
868.625	4656
868.756	4729
868.886	4550
869.017	4626
869.147	4736
869.278	4752
869.408	4641
869.539	4611
869.669	4675
869.799	4679
869.929	4748
870.06	4736
870.19	4942
870.32	4904
870.45	4927
870.58	4999
870.71	5102
870.84	5086
870.97	4927
871.1	4915
871.23	5155
871.36	5105
871.489	5022
871.619	5067
871.749	5071
871.879	5098
872.008	5178
872.138	4987
872.267	4957
872.397	4892
872.526	4816
872.656	4740
872.785	4793
872.915	4911
873.044	5006
873.173	4987
873.303	4976
873.432	5018
873.561	4927
873.69	4877
873.819	4885
873.948	4961
874.077	4778
874.206	4786
874.335	4793
874.464	4889
874.593	5056
874.722	4946
874.851	5105
874.979	5105
875.108	5041
875.237	4984
875.365	4850
875.494	4870
875.623	4957
875.751	4835
875.88	4843
876.008	4965
876.136	5060
876.265	5204
876.393	5318
876.521	5239
876.65	5265
876.778	5162
876.906	5098
877.034	5033
877.162	5067
877.29	4995
877.418	5037
877.546	5052
877.674	5075
877.802	5006
877.93	4991
878.058	4938
878.185	4885
878.313	4961
878.441	4999
878.568	4793
878.696	4896
878.824	4930
878.951	5029
879.079	5128
879.206	5254
879.333	5079
879.461	4999
879.588	4991
879.715	5128
879.842	5223
879.97	4976
880.097	4778
880.224	4774
880.351	4858
880.478	4854
880.605	4793
880.732	4759
880.859	5056
880.986	4896
881.112	4904
881.239	4828
881.366	4660
881.493	4611
881.619	4569
881.746	4630
881.872	4645
881.999	4630
882.125	4733
882.252	4790
882.378	4809
882.505	5003
882.631	4786
882.757	4698
882.883	4717
883.01	4771
883.136	4691
883.262	4588
883.388	4584
883.514	4786
883.64	4870
883.766	4759
883.892	4664
884.018	4710
884.143	4885
884.269	5018
884.395	4687
884.52	4599
884.646	4672
884.772	4554
884.897	4550
885.023	4687
885.148	4790
885.274	4870
885.399	4778
885.524	4679
885.65	4683
885.775	4778
885.9	4729
886.025	4847
886.15	4866
886.275	4740
886.4	4710
886.525	4710
886.65	4679
886.775	4664
886.9	4885
887.025	5045
887.149	4782
887.274	4664
887.399	4573
887.523	4599
887.648	4561
887.773	4584
887.897	4771
888.021	4767
888.146	4706
888.27	4805
888.395	4870
888.519	4790
888.643	4850
888.767	4831
888.891	4649
889.015	4569
889.139	4634
889.263	4542
889.387	4725
889.511	4904
889.635	4774
889.759	4634
889.883	4649
890.006	4759
890.13	4850
890.254	4599
890.377	4618
890.501	4508
890.624	4508
890.748	4603
890.871	4512
890.995	4443
891.118	4428
891.241	4508
891.364	4550
891.488	4653
891.611	4459
891.734	4485
891.857	4618
891.98	4588
892.103	4641
892.226	4554
892.349	4531
892.471	4428
892.594	4542
892.717	4611
892.839	4546
892.962	4592
893.085	4596
893.207	4577
893.33	4478
893.452	4535
893.575	4664
893.697	4535
893.819	4778
893.941	4824
894.064	4755
894.186	4603
894.308	4599
894.43	4736
894.552	4809
894.674	4736
894.796	4554
894.918	4577
895.04	4607
895.161	4675
895.283	4675
895.405	4527
895.526	4615
895.648	4698
895.769	4710
895.891	4702
896.012	4729
896.134	4733
896.255	4691
896.376	4668
896.498	4592
896.619	4668
896.74	4649
896.861	4649
896.982	4949
897.103	5048
897.224	4847
897.345	4714
897.466	4653
897.587	4702
897.708	4885
897.828	4809
897.949	4679
898.07	4519
898.19	4626
898.311	4824
898.431	4668
898.552	4729
898.672	4843
898.792	4835
898.913	4714
899.033	4641
899.153	4466
899.273	4428
899.393	4516
899.513	4481
899.633	4519
899.753	4538
899.873	4493
899.993	4637
900.113	4531
900.232	4611
900.352	4569
900.472	4519
900.591	4394
900.711	4504
900.83	4451
900.95	4637
901.069	4725
901.189	4497
901.308	4394
901.427	4261
901.546	4356
901.665	4447
901.784	4508
901.904	4440
902.023	4348
902.141	4204
902.26	4147
902.379	4329
902.498	4223
902.617	4261
902.735	4341
902.854	4424
902.973	4341
903.091	4204
903.21	4272
903.328	4344
903.446	4227
903.565	4261
903.683	4379
903.801	4272
903.919	4348
904.038	4455
904.156	4303
904.274	4470
904.392	4394
904.51	4447
904.627	4478
904.745	4531
904.863	4626
904.981	4383
905.098	4310
905.216	4390
905.334	4436
905.451	4451
905.569	4417
905.686	4599
905.803	4584
905.921	4383
906.038	4538
906.155	4478
906.272	4386
906.389	4447
906.506	4352
906.623	4367
906.74	4405
906.857	4341
906.974	4356
907.091	4565
907.208	4672
907.324	4565
907.441	4508
907.557	4306
907.674	4375
907.79	4337
907.907	4394
908.023	4535
908.139	4485
908.256	4402
908.372	4474
908.488	4489
908.604	4299
908.72	4329
908.836	4375
908.952	4367
909.068	4455
909.184	4634
909.3	4478
909.415	4588
909.531	4523
909.647	4383
909.762	4348
909.878	4352
909.993	4443
910.108	4451
910.224	4466
910.339	4466
910.454	4424
910.57	4352
910.685	4314
910.8	4672
910.915	4603
911.03	4478
911.145	4329
911.259	4352
911.374	4352
911.489	4280
911.604	4280
911.718	4188
911.833	4188
911.947	4078
912.062	4025
912.176	4207
912.291	4253
912.405	4280
912.519	4398
912.633	4516
912.748	4379
912.862	4310
912.976	4169
913.09	4131
913.204	4143
913.318	4265
913.431	4360
913.545	4405
913.659	4424
913.772	4352
913.886	4219
914	4219
914.113	4367
914.226	4432
914.34	4390
914.453	4242
914.566	4417
914.68	4344
914.793	4360
914.906	4139
915.019	4124
915.132	4112
915.245	4181
915.358	4215
915.47	4219
915.583	4272
915.696	4280
915.809	4383
915.921	4390
916.034	4261
916.146	4276
916.259	4227
916.371	4379
916.483	4356
916.595	4280
916.708	4348
916.82	4348
916.932	4367
917.044	4303
917.156	4325
917.268	4219
917.38	4265
917.491	4219
917.603	4337
917.715	4417
917.826	4432
917.938	4363
918.049	4249
918.161	4421
918.272	4577
918.384	4527
918.495	4470
918.606	4310
918.717	4261
918.828	4337
918.939	4352
919.05	4276
919.161	4337
919.272	4128
919.383	4261
919.494	4383
919.604	4656
919.715	4432
919.826	4367
919.936	4424
920.047	4561
920.157	4447
920.267	4698
920.378	4504
920.488	4481
920.598	4687
920.708	4862
920.818	4748
920.928	4748
921.038	4923
921.148	4942
921.258	4653
921.368	4508
921.477	4504
921.587	4436
921.697	4329
921.806	4577
921.916	4436
922.025	4192
922.134	4280
922.244	4207
922.353	4352
922.462	4211
922.571	4135
922.68	4021
922.789	3968
922.898	4071
923.007	3960
923.116	4139
923.224	4074
923.333	4109
923.442	3998
923.55	3991
923.659	3998
923.767	4074
923.876	4006
923.984	4128
924.092	4010
924.201	4040
924.309	4071
924.417	4086
924.525	4082
924.633	4101
924.741	4896
924.849	3937
924.956	4154
925.064	3915
925.172	3915
925.279	3956
925.387	4025
925.494	4059
925.602	4207
925.709	4166
925.816	4051
925.924	4139
926.031	4166
926.138	4147
926.245	4181
926.352	4059
926.459	4299
926.566	4276
926.673	4120
926.779	4063
926.886	4093
926.993	4002
927.099	3975
927.206	3983
927.312	3922
927.419	4036
927.525	4040
927.631	4090
927.737	4006
927.843	3907
927.95	3857
928.056	3968
928.162	3983
928.267	4032
928.373	4626
928.479	4101
928.585	3800
928.69	4013
928.796	4029
928.901	3983
929.007	3861
929.112	4002
929.218	3994
929.323	3941
929.428	3926
929.533	4078
929.638	3930
929.743	3975
929.848	4010
929.953	4006
930.058	3949
930.163	3785
930.267	3831
930.372	3975
930.477	3770
930.581	4097
930.685	3979
930.79	3873
930.894	3876
930.998	3816
931.103	4055
931.207	3694
931.311	3667
931.415	3701
931.519	3534
931.623	3587
