Data from test_V78500241_1327.txt Node
Date: Fri Mar 25 16:58:13 CST 2022
User: usil
Spectrometer: V785-0024
Trigger mode: 0
Integration Time (sec): 4.000000E-1
Scans to average: 1
Nonlinearity correction enabled: false
Boxcar width: 0
Storing dark spectrum: false
XAxis mode: Wavelengths
Number of Pixels in Spectrum: 1024
>>>>>Begin Spectral Data<<<<<
801.071	8050
801.214	7944
801.356	7894
801.499	7868
801.641	7784
801.783	7753
801.926	7890
802.068	7940
802.211	7951
802.353	7951
802.496	7826
802.638	7883
802.78	7951
802.923	7883
803.065	7871
803.208	7875
803.35	7940
803.492	8111
803.635	8119
803.777	8069
803.919	8119
804.061	8454
804.204	8138
804.346	8062
804.488	7944
804.63	8107
804.773	8035
804.915	8115
805.057	8279
805.199	8054
805.341	8233
805.483	8244
805.626	8157
805.768	8096
805.91	8172
806.052	8248
806.194	8145
806.336	8271
806.478	8054
806.62	8005
806.762	8164
806.904	8271
807.046	8503
807.188	8358
807.33	8320
807.472	8362
807.614	8100
807.756	8062
807.898	7967
808.04	7830
808.182	8008
808.324	7902
808.465	7963
808.607	8092
808.749	8142
808.891	8210
809.033	8313
809.174	8180
809.316	8115
809.458	8058
809.6	7989
809.741	8100
809.883	8054
810.025	8054
810.166	8020
810.308	8058
810.45	7978
810.591	7906
810.733	7693
810.875	7632
811.016	7510
811.158	7499
811.299	7605
811.441	7715
811.582	7727
811.724	7616
811.865	7525
812.007	7575
812.148	7582
812.29	7628
812.431	7765
812.573	7795
812.714	7997
812.855	8161
812.997	8214
813.138	8374
813.279	8157
813.421	8103
813.562	7967
813.703	7822
813.845	7708
813.986	7426
814.127	7244
814.268	7190
814.41	7202
814.551	7160
814.692	7168
814.833	7084
814.974	7034
815.115	7118
815.256	6966
815.397	6954
815.539	6909
815.68	6894
815.821	6795
815.962	6848
816.103	6818
816.244	6665
816.385	6635
816.526	6623
816.666	6448
816.807	6334
816.948	6437
817.089	6479
817.23	6429
817.371	6350
817.512	6407
817.653	6334
817.793	6384
817.934	6407
818.075	6429
818.216	6407
818.356	6429
818.497	6197
818.638	6091
818.778	6106
818.919	6095
819.06	6155
819.2	6311
819.341	6338
819.481	6391
819.622	6555
819.762	6688
819.903	6642
820.043	6551
820.184	6555
820.324	6601
820.465	6696
820.605	6665
820.746	6627
820.886	6486
821.026	6696
821.167	6730
821.307	6768
821.447	6722
821.588	6688
821.728	6574
821.868	6494
822.008	6270
822.149	6369
822.289	6342
822.429	6125
822.569	6076
822.709	6064
822.849	5927
822.99	5878
823.13	5920
823.27	5916
823.41	5722
823.55	5741
823.69	5741
823.83	5748
823.97	5634
824.11	5486
824.25	5440
824.389	5547
824.529	5581
824.669	5520
824.809	5623
824.949	5562
825.089	5627
825.228	5551
825.368	5398
825.508	5337
825.648	5330
825.787	5383
825.927	5360
826.067	5307
826.206	5292
826.346	5360
826.485	5330
826.625	5433
826.765	5566
826.904	5463
827.044	5223
827.183	5140
827.323	5102
827.462	5239
827.601	5147
827.741	5170
827.88	5216
828.02	5113
828.159	5273
828.298	5296
828.437	5318
828.577	5216
828.716	5406
828.855	5288
828.994	5109
829.134	5136
829.273	5147
829.412	5128
829.551	5136
829.69	5136
829.829	5212
829.968	5357
830.107	5273
830.246	5273
830.385	5151
830.524	5143
830.663	5048
830.802	4953
830.941	4908
831.08	4850
831.219	4980
831.357	5003
831.496	5102
831.635	4915
831.774	4782
831.913	4812
832.051	4714
832.19	4714
832.329	4816
832.467	4668
832.606	4656
832.744	4740
832.883	4740
833.022	4710
833.16	4778
833.299	4820
833.437	4835
833.576	4831
833.714	4870
833.852	4877
833.991	4839
834.129	4927
834.267	4885
834.406	4938
834.544	4984
834.682	5003
834.821	4965
834.959	5124
835.097	5010
835.235	5113
835.373	5056
835.511	5102
835.65	4953
835.788	5018
835.926	4850
836.064	4908
836.202	4904
836.34	5109
836.478	5155
836.615	5109
836.753	5201
836.891	5258
837.029	5235
837.167	5162
837.305	5132
837.443	5113
837.58	5052
837.718	5231
837.856	5124
837.993	5109
838.131	5185
838.269	5239
838.406	5235
838.544	5170
838.681	5029
838.819	4995
838.956	4908
839.094	4877
839.231	4968
839.369	5105
839.506	5436
839.643	5254
839.781	5037
839.918	4995
840.055	5064
840.193	5067
840.33	5117
840.467	5147
840.604	5166
840.742	5425
840.879	5094
841.016	5094
841.153	5155
841.29	5337
841.427	5315
841.564	5273
841.701	5379
841.838	5250
841.975	5181
842.112	5239
842.249	5132
842.385	5124
842.522	5330
842.659	5178
842.796	5083
842.933	5170
843.069	5147
843.206	5105
843.343	5273
843.479	5227
843.616	5216
843.752	5075
843.889	4949
844.025	5212
844.162	5022
844.298	5155
844.435	5117
844.571	5048
844.708	5185
844.844	5227
844.98	5341
845.117	5273
845.253	5147
845.389	5105
845.525	5143
845.661	5132
845.798	5003
845.934	5136
846.07	5003
846.206	5181
846.342	5261
846.478	5155
846.614	5006
846.75	4946
846.886	4927
847.022	5109
847.158	4999
847.294	5029
847.429	5075
847.565	5067
847.701	5311
847.837	4862
847.972	4767
848.108	5014
848.244	4915
848.379	4759
848.515	4691
848.65	4664
848.786	4778
848.921	4774
849.057	4793
849.192	4889
849.328	4786
849.463	4831
849.598	4786
849.734	4755
849.869	4694
850.004	4607
850.14	4691
850.275	4569
850.41	4481
850.545	4550
850.68	4596
850.815	4649
850.95	4573
851.085	4816
851.22	4752
851.355	4645
851.49	4596
851.625	4615
851.76	4679
851.895	4497
852.03	4523
852.165	4660
852.299	4710
852.434	4774
852.569	4744
852.703	4763
852.838	4809
852.973	4930
853.107	4919
853.242	4778
853.376	4679
853.511	4500
853.645	4622
853.78	4793
853.914	4641
854.048	4645
854.183	4660
854.317	4660
854.451	4839
854.585	4675
854.72	4603
854.854	4752
854.988	4596
855.122	4641
855.256	4561
855.39	4634
855.524	4744
855.658	4717
855.792	4668
855.926	4752
856.06	4694
856.194	4816
856.327	4672
856.461	4618
856.595	4607
856.729	4645
856.862	4710
856.996	4668
857.13	4725
857.263	4706
857.397	4790
857.53	4634
857.664	4752
857.797	4790
857.931	4744
858.064	4641
858.197	4714
858.331	4649
858.464	4569
858.597	4535
858.731	4618
858.864	4622
858.997	4592
859.13	4599
859.263	4607
859.396	4710
859.529	4580
859.662	4588
859.795	4523
859.928	4611
860.061	4782
860.194	4736
860.327	4656
860.46	4546
860.592	4706
860.725	4698
860.858	4725
860.99	4569
861.123	4497
861.256	4497
861.388	4615
861.521	5178
861.653	4489
861.786	4447
861.918	4417
862.05	4462
862.183	4508
862.315	4577
862.447	4637
862.58	4527
862.712	4386
862.844	4318
862.976	4459
863.108	4478
863.24	4896
863.372	4386
863.504	4356
863.636	4417
863.768	4421
863.9	4462
864.032	4341
864.164	4489
864.296	4447
864.428	4527
864.559	4542
864.691	4577
864.823	4542
864.954	4493
865.086	4455
865.217	4489
865.349	4443
865.48	4428
865.612	4504
865.743	4622
865.875	4440
866.006	4398
866.137	4440
866.269	4440
866.4	4398
866.531	4428
866.662	4356
866.793	4402
866.924	4432
867.055	4481
867.186	4481
867.317	4394
867.448	4371
867.579	4371
867.71	4375
867.841	4337
867.972	4451
868.103	4459
868.233	4447
868.364	4417
868.495	4466
868.625	4656
868.756	4714
868.886	4554
869.017	4565
869.147	4763
869.278	4778
869.408	4637
869.539	4637
869.669	4683
869.799	4649
869.929	4782
870.06	4710
870.19	4908
870.32	4923
870.45	4957
870.58	4968
870.71	5086
870.84	5037
870.97	4946
871.1	4881
871.23	5121
871.36	5132
871.489	4957
871.619	5071
871.749	5098
871.879	5117
872.008	5178
872.138	5029
872.267	4934
872.397	4858
872.526	4820
872.656	4710
872.785	4824
872.915	4934
873.044	5014
873.173	4911
873.303	4984
873.432	4911
873.561	4930
873.69	4812
873.819	4839
873.948	4854
874.077	4812
874.206	4816
874.335	4793
874.464	4908
874.593	5045
874.722	4911
874.851	5128
874.979	5075
875.108	5033
875.237	4919
875.365	4850
875.494	4809
875.623	4965
875.751	4812
875.88	4866
876.008	4972
876.136	5022
876.265	5220
876.393	5326
876.521	5269
876.65	5174
876.778	5147
876.906	5037
877.034	5006
877.162	4999
877.29	5037
877.418	5041
877.546	4995
877.674	5029
877.802	5048
877.93	5045
878.058	4911
878.185	4809
878.313	4946
878.441	4908
878.568	4782
878.696	4885
878.824	4968
878.951	4957
879.079	5136
879.206	5284
879.333	5041
879.461	5018
879.588	5056
879.715	5113
879.842	5166
879.97	4987
880.097	4752
880.224	4748
880.351	4801
880.478	4774
880.605	4736
880.732	4767
880.859	5052
880.986	4930
881.112	4942
881.239	4748
881.366	4687
881.493	4615
881.619	4569
881.746	4622
881.872	4675
881.999	4675
882.125	4668
882.252	4790
882.378	4778
882.505	4965
882.631	4782
882.757	4637
882.883	4714
883.01	4721
883.136	4641
883.262	4569
883.388	4565
883.514	4816
883.64	4873
883.766	4797
883.892	4702
884.018	4702
884.143	4892
884.269	5006
884.395	4653
884.52	4607
884.646	4664
884.772	4573
884.897	4565
885.023	4656
885.148	4786
885.274	4862
885.399	4782
885.524	4740
885.65	4714
885.775	4748
885.9	4702
886.025	4862
886.15	4778
886.275	4717
886.4	4622
886.525	4721
886.65	4679
886.775	4740
886.9	4873
887.025	5037
887.149	4812
887.274	4656
887.399	4603
887.523	4592
887.648	4558
887.773	4569
887.897	4717
888.021	4694
888.146	4656
888.27	4816
888.395	4904
888.519	4809
888.643	4797
888.767	4831
888.891	4679
889.015	4630
889.139	4645
889.263	4558
889.387	4744
889.511	4885
889.635	4801
889.759	4641
889.883	4626
890.006	4733
890.13	4824
890.254	4649
890.377	4710
890.501	4542
890.624	4569
890.748	4645
890.871	4497
890.995	4417
891.118	4360
891.241	4508
891.364	4478
891.488	4634
891.611	4474
891.734	4516
891.857	4603
891.98	4573
892.103	4622
892.226	4630
892.349	4512
892.471	4398
892.594	4535
892.717	4626
892.839	4550
892.962	4596
893.085	4649
893.207	4596
893.33	4455
893.452	4474
893.575	4653
893.697	4626
893.819	4812
893.941	4831
894.064	4714
894.186	4516
894.308	4481
894.43	4675
894.552	4820
894.674	4706
894.796	4523
894.918	4546
895.04	4615
895.161	4706
895.283	4660
895.405	4584
895.526	4645
895.648	4672
895.769	4664
895.891	4683
896.012	4759
896.134	4714
896.255	4664
896.376	4599
896.498	4668
896.619	4660
896.74	4580
896.861	4664
896.982	4919
897.103	5060
897.224	4824
897.345	4763
897.466	4687
897.587	4736
897.708	4843
897.828	4759
897.949	4656
898.07	4565
898.19	4634
898.311	4774
898.431	4702
898.552	4702
898.672	4820
898.792	4771
898.913	4702
899.033	4599
899.153	4523
899.273	4398
899.393	4504
899.513	4535
899.633	4523
899.753	4592
899.873	4500
899.993	4523
900.113	4523
900.232	4565
900.352	4565
900.472	4519
900.591	4417
900.711	4508
900.83	4478
900.95	4626
901.069	4634
901.189	4500
901.308	4352
901.427	4272
901.546	4390
901.665	4504
901.784	4470
901.904	4383
902.023	4375
902.141	4211
902.26	4131
902.379	4306
902.498	4230
902.617	4139
902.735	4318
902.854	4379
902.973	4352
903.091	4162
903.21	4234
903.328	4299
903.446	4261
903.565	4261
903.683	4367
903.801	4284
903.919	4394
904.038	4405
904.156	4314
904.274	4421
904.392	4367
904.51	4371
904.627	4462
904.745	4569
904.863	4634
904.981	4405
905.098	4268
905.216	4371
905.334	4443
905.451	4405
905.569	4443
905.686	4538
905.803	4554
905.921	4383
906.038	4565
906.155	4455
906.272	4424
906.389	4489
906.506	4322
906.623	4379
906.74	4356
906.857	4280
906.974	4405
907.091	4558
907.208	4656
907.324	4580
907.441	4516
907.557	4303
907.674	4314
907.79	4314
907.907	4375
908.023	4440
908.139	4451
908.256	4405
908.372	4428
908.488	4413
908.604	4341
908.72	4306
908.836	4413
908.952	4371
909.068	4417
909.184	4542
909.3	4478
909.415	4588
909.531	4512
909.647	4337
909.762	4325
909.878	4329
909.993	4417
910.108	4424
910.224	4390
910.339	4493
910.454	4390
910.57	4386
910.685	4310
910.8	4672
910.915	4622
911.03	4497
911.145	4348
911.259	4337
911.374	4367
911.489	4227
911.604	4268
911.718	4135
911.833	4242
911.947	4067
912.062	4048
912.176	4150
912.291	4253
912.405	4246
912.519	4508
912.633	4474
912.748	4398
912.862	4276
912.976	4192
913.09	4124
913.204	4188
913.318	4230
913.431	4371
913.545	4398
913.659	4440
913.772	4344
913.886	4249
914	4242
914.113	4386
914.226	4413
914.34	4352
914.453	4261
914.566	4436
914.68	4322
914.793	4333
914.906	4131
915.019	4116
915.132	4101
915.245	4185
915.358	4207
915.47	4200
915.583	4238
915.696	4333
915.809	4440
915.921	4428
916.034	4272
916.146	4242
916.259	4253
916.371	4352
916.483	4352
916.595	4299
916.708	4299
916.82	4303
916.932	4303
917.044	4329
917.156	4348
917.268	4207
917.38	4322
917.491	4280
917.603	4352
917.715	4451
917.826	4413
917.938	4314
918.049	4230
918.161	4405
918.272	4554
918.384	4558
918.495	4428
918.606	4291
918.717	4223
918.828	4371
918.939	4322
919.05	4249
919.161	4310
919.272	4116
919.383	4234
919.494	4402
919.604	4634
919.715	4402
919.826	4386
919.936	4356
920.047	4508
920.157	4493
920.267	4653
920.378	4542
920.488	4459
920.598	4706
920.708	4847
920.818	4733
920.928	4759
921.038	4938
921.148	4927
921.258	4577
921.368	4523
921.477	4478
921.587	4432
921.697	4379
921.806	4561
921.916	4394
922.025	4276
922.134	4284
922.244	4166
922.353	4379
922.462	4162
922.571	4131
922.68	3979
922.789	3979
922.898	4029
923.007	3953
923.116	4090
923.224	4059
923.333	4059
923.442	3991
923.55	3964
923.659	3972
923.767	4150
923.876	3994
923.984	4105
924.092	3960
924.201	4093
924.309	4101
924.417	4101
924.525	4036
924.633	4109
924.741	5037
924.849	3911
924.956	4078
925.064	3953
925.172	3918
925.279	3964
925.387	4051
925.494	4002
925.602	4223
925.709	4154
925.816	4032
925.924	4082
926.031	4253
926.138	4147
926.245	4200
926.352	4097
926.459	4223
926.566	4322
926.673	4128
926.779	4078
926.886	4093
926.993	3949
927.099	3972
927.206	3949
927.312	3956
927.419	4055
927.525	4002
927.631	4082
927.737	3979
927.843	3941
927.95	3846
928.056	3994
928.162	3945
928.267	4059
928.373	4691
928.479	4112
928.585	3865
928.69	4059
928.796	4048
928.901	3964
929.007	3857
929.112	3964
929.218	3953
929.323	3945
929.428	3945
929.533	4090
929.638	3888
929.743	3994
929.848	4010
929.953	3998
930.058	3926
930.163	3793
930.267	3804
930.372	3956
930.477	3762
930.581	4082
930.685	3899
930.79	3850
930.894	3850
930.998	3876
931.103	3998
931.207	3713
931.311	3663
931.415	3652
931.519	3500
931.623	3530
