Data from test_V78500241_2128.txt Node
Date: Fri Mar 25 17:03:47 CST 2022
User: usil
Spectrometer: V785-0024
Trigger mode: 0
Integration Time (sec): 4.000000E-1
Scans to average: 1
Nonlinearity correction enabled: false
Boxcar width: 0
Storing dark spectrum: false
XAxis mode: Wavelengths
Number of Pixels in Spectrum: 1024
>>>>>Begin Spectral Data<<<<<
801.071	8058
801.214	7963
801.356	7902
801.499	7852
801.641	7822
801.783	7788
801.926	7967
802.068	7925
802.211	7986
802.353	7951
802.496	7849
802.638	7833
802.78	7883
802.923	7974
803.065	7837
803.208	7925
803.35	7989
803.492	8088
803.635	8202
803.777	8027
803.919	8123
804.061	8442
804.204	8172
804.346	8043
804.488	7921
804.63	8065
804.773	7993
804.915	8130
805.057	8286
805.199	8191
805.341	8199
805.483	8233
805.626	8164
805.768	8195
805.91	8256
806.052	8233
806.194	8096
806.336	8286
806.478	8149
806.62	8031
806.762	8142
806.904	8275
807.046	8511
807.188	8358
807.33	8374
807.472	8347
807.614	8214
807.756	8134
807.898	8024
808.04	7852
808.182	7913
808.324	7887
808.465	7902
808.607	8084
808.749	8130
808.891	8210
809.033	8324
809.174	8214
809.316	8027
809.458	8092
809.6	8062
809.741	8069
809.883	8058
810.025	8115
810.166	8084
810.308	7967
810.45	8054
810.591	7902
810.733	7746
810.875	7696
811.016	7533
811.158	7499
811.299	7582
811.441	7696
811.582	7731
811.724	7605
811.865	7556
812.007	7594
812.148	7601
812.29	7685
812.431	7750
812.573	7917
812.714	7970
812.855	8138
812.997	8176
813.138	8305
813.279	8138
813.421	8046
813.562	7947
813.703	7841
813.845	7712
813.986	7365
814.127	7263
814.268	7194
814.41	7194
814.551	7164
814.692	7179
814.833	7050
814.974	7145
815.115	7095
815.256	7015
815.397	6909
815.539	7008
815.68	6821
815.821	6757
815.962	6863
816.103	6848
816.244	6669
816.385	6585
816.526	6578
816.666	6456
816.807	6350
816.948	6448
817.089	6494
817.23	6407
817.371	6395
817.512	6357
817.653	6350
817.793	6372
817.934	6410
818.075	6441
818.216	6441
818.356	6422
818.497	6266
818.638	6190
818.778	6129
818.919	6163
819.06	6216
819.2	6315
819.341	6334
819.481	6380
819.622	6528
819.762	6749
819.903	6597
820.043	6528
820.184	6574
820.324	6544
820.465	6696
820.605	6684
820.746	6608
820.886	6532
821.026	6642
821.167	6654
821.307	6802
821.447	6738
821.588	6642
821.728	6547
821.868	6498
822.008	6308
822.149	6319
822.289	6327
822.429	6144
822.569	6102
822.709	6167
822.849	5961
822.99	5901
823.13	5920
823.27	5870
823.41	5764
823.55	5802
823.69	5752
823.83	5779
823.97	5680
824.11	5543
824.25	5554
824.389	5589
824.529	5543
824.669	5516
824.809	5695
824.949	5680
825.089	5600
825.228	5577
825.368	5417
825.508	5353
825.648	5326
825.787	5360
825.927	5368
826.067	5318
826.206	5273
826.346	5429
826.485	5417
826.625	5444
826.765	5547
826.904	5482
827.044	5258
827.183	5204
827.323	5132
827.462	5299
827.601	5151
827.741	5181
827.88	5239
828.02	5086
828.159	5189
828.298	5269
828.437	5315
828.577	5269
828.716	5520
828.855	5311
828.994	5193
829.134	5147
829.273	5204
829.412	5143
829.551	5136
829.69	5178
829.829	5250
829.968	5398
830.107	5239
830.246	5261
830.385	5155
830.524	5162
830.663	5079
830.802	4984
830.941	4911
831.08	4904
831.219	4984
831.357	4949
831.496	5178
831.635	4942
831.774	4877
831.913	4854
832.051	4698
832.19	4763
832.329	4831
832.467	4675
832.606	4611
832.744	4752
832.883	4694
833.022	4744
833.16	4771
833.299	4816
833.437	4847
833.576	4854
833.714	4854
833.852	4835
833.991	4889
834.129	4980
834.267	4900
834.406	4866
834.544	4984
834.682	4980
834.821	4987
834.959	5193
835.097	4987
835.235	5109
835.373	5102
835.511	5121
835.65	5025
835.788	5083
835.926	4927
836.064	4854
836.202	4934
836.34	5166
836.478	5155
836.615	5105
836.753	5201
836.891	5311
837.029	5277
837.167	5235
837.305	5151
837.443	5174
837.58	5056
837.718	5235
837.856	5170
837.993	5159
838.131	5197
838.269	5185
838.406	5250
838.544	5181
838.681	4984
838.819	4987
838.956	4885
839.094	4934
839.231	4927
839.369	5056
839.506	5452
839.643	5280
839.781	5083
839.918	4949
840.055	5086
840.193	5067
840.33	5117
840.467	5151
840.604	5166
840.742	5440
840.879	5064
841.016	5079
841.153	5178
841.29	5372
841.427	5376
841.564	5288
841.701	5376
841.838	5318
841.975	5208
842.112	5311
842.249	5136
842.385	5132
842.522	5364
842.659	5136
842.796	5155
842.933	5166
843.069	5143
843.206	5162
843.343	5288
843.479	5254
843.616	5284
843.752	5064
843.889	5052
844.025	5193
844.162	5022
844.298	5216
844.435	5033
844.571	5071
844.708	5201
844.844	5311
844.98	5269
845.117	5315
845.253	5128
845.389	5056
845.525	5170
845.661	5128
845.798	5045
845.934	5124
846.07	5025
846.206	5181
846.342	5292
846.478	5121
846.614	5025
846.75	4991
846.886	4934
847.022	5140
847.158	5029
847.294	5041
847.429	5079
847.565	5045
847.701	5318
847.837	4877
847.972	4850
848.108	4972
848.244	4961
848.379	4816
848.515	4733
848.65	4729
848.786	4725
848.921	4790
849.057	4866
849.192	4850
849.328	4824
849.463	4850
849.598	4740
849.734	4759
849.869	4714
850.004	4603
850.14	4698
850.275	4596
850.41	4550
850.545	4561
850.68	4626
850.815	4649
850.95	4634
851.085	4790
851.22	4717
851.355	4664
851.49	4615
851.625	4607
851.76	4584
851.895	4607
852.03	4504
852.165	4622
852.299	4698
852.434	4759
852.569	4778
852.703	4793
852.838	4824
852.973	4938
853.107	4930
853.242	4687
853.376	4679
853.511	4535
853.645	4615
853.78	4843
853.914	4698
854.048	4672
854.183	4630
854.317	4698
854.451	4847
854.585	4706
854.72	4702
854.854	4793
854.988	4622
855.122	4649
855.256	4519
855.39	4675
855.524	4790
855.658	4691
855.792	4691
855.926	4744
856.06	4725
856.194	4782
856.327	4714
856.461	4584
856.595	4630
856.729	4599
856.862	4763
856.996	4687
857.13	4733
857.263	4733
857.397	4835
857.53	4694
857.664	4698
857.797	4782
857.931	4767
858.064	4717
858.197	4748
858.331	4630
858.464	4592
858.597	4504
858.731	4611
858.864	4615
858.997	4599
859.13	4683
859.263	4630
859.396	4706
859.529	4596
859.662	4558
859.795	4497
859.928	4649
860.061	4759
860.194	4748
860.327	4603
860.46	4592
860.592	4710
860.725	4675
860.858	4706
860.99	4561
861.123	4550
861.256	4550
861.388	4626
861.521	5376
861.653	4516
861.786	4428
861.918	4432
862.05	4459
862.183	4554
862.315	4580
862.447	4694
862.58	4577
862.712	4402
862.844	4329
862.976	4421
863.108	4424
863.24	4812
863.372	4341
863.504	4428
863.636	4390
863.768	4497
863.9	4432
864.032	4375
864.164	4375
864.296	4455
864.428	4558
864.559	4542
864.691	4546
864.823	4546
864.954	4519
865.086	4504
865.217	4474
865.349	4405
865.48	4493
865.612	4519
865.743	4603
865.875	4512
866.006	4462
866.137	4459
866.269	4436
866.4	4409
866.531	4413
866.662	4447
866.793	4386
866.924	4386
867.055	4493
867.186	4447
867.317	4409
867.448	4394
867.579	4398
867.71	4409
867.841	4367
867.972	4470
868.103	4436
868.233	4386
868.364	4436
868.495	4493
868.625	4660
868.756	4744
868.886	4584
869.017	4649
869.147	4763
869.278	4763
869.408	4679
869.539	4672
869.669	4706
869.799	4653
869.929	4752
870.06	4698
870.19	4957
870.32	4877
870.45	4927
870.58	4972
870.71	5113
870.84	5117
870.97	4930
871.1	4839
871.23	5174
871.36	5102
871.489	5071
871.619	5079
871.749	5128
871.879	5113
872.008	5204
872.138	5025
872.267	4991
872.397	4812
872.526	4774
872.656	4706
872.785	4866
872.915	5003
873.044	5006
873.173	4930
873.303	5006
873.432	4927
873.561	4942
873.69	4904
873.819	4835
873.948	4934
874.077	4835
874.206	4752
874.335	4782
874.464	4934
874.593	5075
874.722	4995
874.851	5060
874.979	5052
875.108	5025
875.237	4908
875.365	4881
875.494	4896
875.623	4949
875.751	4801
875.88	4949
876.008	4972
876.136	5037
876.265	5193
876.393	5296
876.521	5235
876.65	5208
876.778	5136
876.906	5083
877.034	5018
877.162	5045
877.29	4991
877.418	5048
877.546	5037
877.674	5071
877.802	5022
877.93	4968
878.058	4919
878.185	4889
878.313	4953
878.441	4942
878.568	4778
878.696	4908
878.824	4949
878.951	4980
879.079	5113
879.206	5265
879.333	5121
879.461	4987
879.588	4972
879.715	5136
879.842	5265
879.97	4984
880.097	4809
880.224	4748
880.351	4778
880.478	4793
880.605	4831
880.732	4816
880.859	5079
880.986	4904
881.112	4957
881.239	4759
881.366	4634
881.493	4588
881.619	4626
881.746	4637
881.872	4649
881.999	4630
882.125	4706
882.252	4759
882.378	4847
882.505	4930
882.631	4778
882.757	4683
882.883	4744
883.01	4767
883.136	4649
883.262	4599
883.388	4645
883.514	4816
883.64	4927
883.766	4809
883.892	4630
884.018	4736
884.143	4911
884.269	5010
884.395	4675
884.52	4656
884.646	4664
884.772	4615
884.897	4519
885.023	4668
885.148	4793
885.274	4877
885.399	4790
885.524	4729
885.65	4653
885.775	4778
885.9	4664
886.025	4847
886.15	4812
886.275	4687
886.4	4736
886.525	4763
886.65	4706
886.775	4687
886.9	4908
887.025	5041
887.149	4786
887.274	4668
887.399	4573
887.523	4558
887.648	4584
887.773	4611
887.897	4740
888.021	4786
888.146	4611
888.27	4835
888.395	4900
888.519	4752
888.643	4805
888.767	4873
888.891	4672
889.015	4599
889.139	4641
889.263	4626
889.387	4725
889.511	4885
889.635	4771
889.759	4615
889.883	4634
890.006	4740
890.13	4835
890.254	4577
890.377	4706
890.501	4504
890.624	4500
890.748	4607
890.871	4478
890.995	4436
891.118	4409
891.241	4504
891.364	4554
891.488	4596
891.611	4497
891.734	4561
891.857	4561
891.98	4535
892.103	4630
892.226	4527
892.349	4519
892.471	4421
892.594	4550
892.717	4599
892.839	4577
892.962	4573
893.085	4645
893.207	4596
893.33	4470
893.452	4523
893.575	4645
893.697	4599
893.819	4767
893.941	4824
894.064	4744
894.186	4561
894.308	4569
894.43	4729
894.552	4782
894.674	4755
894.796	4512
894.918	4596
895.04	4569
895.161	4725
895.283	4660
895.405	4584
895.526	4664
895.648	4672
895.769	4668
895.891	4736
896.012	4702
896.134	4714
896.255	4664
896.376	4675
896.498	4618
896.619	4672
896.74	4653
896.861	4634
896.982	4915
897.103	5083
897.224	4847
897.345	4778
897.466	4683
897.587	4694
897.708	4850
897.828	4793
897.949	4664
898.07	4542
898.19	4626
898.311	4862
898.431	4687
898.552	4721
898.672	4793
898.792	4805
898.913	4717
899.033	4618
899.153	4508
899.273	4386
899.393	4462
899.513	4527
899.633	4500
899.753	4516
899.873	4542
899.993	4531
900.113	4523
900.232	4584
900.352	4531
900.472	4508
900.591	4356
900.711	4489
900.83	4409
900.95	4599
901.069	4672
901.189	4561
901.308	4333
901.427	4287
901.546	4398
901.665	4485
901.784	4481
901.904	4447
902.023	4318
902.141	4204
902.26	4181
902.379	4337
902.498	4223
902.617	4227
902.735	4356
902.854	4375
902.973	4352
903.091	4211
903.21	4227
903.328	4299
903.446	4272
903.565	4242
903.683	4341
903.801	4234
903.919	4371
904.038	4413
904.156	4318
904.274	4421
904.392	4394
904.51	4428
904.627	4500
904.745	4580
904.863	4622
904.981	4375
905.098	4322
905.216	4337
905.334	4379
905.451	4413
905.569	4402
905.686	4592
905.803	4599
905.921	4409
906.038	4535
906.155	4417
906.272	4413
906.389	4481
906.506	4322
906.623	4394
906.74	4409
906.857	4291
906.974	4367
907.091	4527
907.208	4637
907.324	4569
907.441	4500
907.557	4363
907.674	4341
907.79	4329
907.907	4352
908.023	4447
908.139	4436
908.256	4390
908.372	4516
908.488	4466
908.604	4352
908.72	4325
908.836	4348
908.952	4379
909.068	4443
909.184	4592
909.3	4504
909.415	4618
909.531	4542
909.647	4352
909.762	4402
909.878	4348
909.993	4451
910.108	4379
910.224	4398
910.339	4493
910.454	4470
910.57	4360
910.685	4314
910.8	4668
910.915	4592
911.03	4489
911.145	4352
911.259	4348
911.374	4367
911.489	4314
911.604	4287
911.718	4192
911.833	4173
911.947	4082
912.062	4021
912.176	4211
912.291	4192
912.405	4295
912.519	4436
912.633	4497
912.748	4402
912.862	4344
912.976	4185
913.09	4101
913.204	4124
913.318	4227
913.431	4341
913.545	4360
913.659	4413
913.772	4348
913.886	4261
914	4227
914.113	4363
914.226	4447
914.34	4348
914.453	4253
914.566	4402
914.68	4295
914.793	4303
914.906	4185
915.019	4128
915.132	4101
915.245	4177
915.358	4227
915.47	4238
915.583	4246
915.696	4257
915.809	4424
915.921	4424
916.034	4253
916.146	4265
916.259	4185
916.371	4398
916.483	4371
916.595	4242
916.708	4306
916.82	4299
916.932	4333
917.044	4367
917.156	4280
917.268	4219
917.38	4265
917.491	4249
917.603	4348
917.715	4432
917.826	4447
917.938	4314
918.049	4219
918.161	4352
918.272	4516
918.384	4497
918.495	4447
918.606	4291
918.717	4204
918.828	4329
918.939	4348
919.05	4261
919.161	4322
919.272	4120
919.383	4211
919.494	4462
919.604	4603
919.715	4455
919.826	4352
919.936	4390
920.047	4531
920.157	4519
920.267	4702
920.378	4550
920.488	4493
920.598	4675
920.708	4877
920.818	4771
920.928	4740
921.038	4942
921.148	4919
921.258	4622
921.368	4523
921.477	4493
921.587	4470
921.697	4394
921.806	4550
921.916	4459
922.025	4276
922.134	4284
922.244	4249
922.353	4383
922.462	4177
922.571	4154
922.68	4010
922.789	3960
922.898	4078
923.007	3987
923.116	4078
923.224	4059
923.333	4071
923.442	3998
923.55	3991
923.659	4021
923.767	4090
923.876	3994
923.984	4109
924.092	3998
924.201	4025
924.309	4082
924.417	4120
924.525	4059
924.633	4109
924.741	5037
924.849	3937
924.956	4124
925.064	3922
925.172	3926
925.279	3945
925.387	4048
925.494	4048
925.602	4185
925.709	4120
925.816	4059
925.924	4135
926.031	4204
926.138	4116
926.245	4223
926.352	4124
926.459	4219
926.566	4276
926.673	4177
926.779	4082
926.886	4074
926.993	3994
927.099	3979
927.206	3949
927.312	3953
927.419	4051
927.525	4021
927.631	4112
927.737	3918
927.843	3937
927.95	3842
928.056	3964
928.162	3956
928.267	4048
928.373	4569
928.479	4101
928.585	3884
928.69	4013
928.796	4059
928.901	3975
929.007	3846
929.112	3972
929.218	3975
929.323	3899
929.428	3926
929.533	4097
929.638	3903
929.743	3964
929.848	4036
929.953	4010
930.058	3926
930.163	3785
930.267	3842
930.372	3949
930.477	3835
930.581	4074
930.685	3987
930.79	3804
930.894	3876
930.998	3804
931.103	4032
931.207	3690
931.311	3701
931.415	3686
931.519	3553
931.623	3534
