Data from test_V78500241_118.txt Node
Date: Fri Mar 25 16:49:49 CST 2022
User: usil
Spectrometer: V785-0024
Trigger mode: 0
Integration Time (sec): 4.000000E-1
Scans to average: 1
Nonlinearity correction enabled: false
Boxcar width: 0
Storing dark spectrum: false
XAxis mode: Wavelengths
Number of Pixels in Spectrum: 1024
>>>>>Begin Spectral Data<<<<<
801.071	8054
801.214	8008
801.356	7902
801.499	7947
801.641	7845
801.783	7921
801.926	8058
802.068	8001
802.211	7944
802.353	7936
802.496	7769
802.638	7909
802.78	7982
802.923	7909
803.065	7826
803.208	7822
803.35	7826
803.492	8046
803.635	8157
803.777	8031
803.919	7982
804.061	8438
804.204	8119
804.346	7906
804.488	7928
804.63	8081
804.773	7921
804.915	8126
805.057	8176
805.199	8096
805.341	8218
805.483	8267
805.626	8161
805.768	8035
805.91	8119
806.052	8233
806.194	8111
806.336	8362
806.478	8084
806.62	8084
806.762	8195
806.904	8279
807.046	8400
807.188	8366
807.33	8279
807.472	8339
807.614	8142
807.756	8130
807.898	8062
808.04	7894
808.182	7887
808.324	7921
808.465	7974
808.607	8008
808.749	8024
808.891	8263
809.033	8332
809.174	8145
809.316	8031
809.458	8088
809.6	8039
809.741	8012
809.883	8077
810.025	8149
810.166	8107
810.308	8081
810.45	8092
810.591	7928
810.733	7776
810.875	7674
811.016	7540
811.158	7518
811.299	7624
811.441	7765
811.582	7769
811.724	7708
811.865	7597
812.007	7605
812.148	7651
812.29	7689
812.431	7788
812.573	7936
812.714	8069
812.855	8252
812.997	8313
813.138	8355
813.279	8279
813.421	8142
813.562	8069
813.703	7890
813.845	7784
813.986	7502
814.127	7365
814.268	7244
814.41	7164
814.551	7202
814.692	7171
814.833	7156
814.974	7141
815.115	7152
815.256	7057
815.397	6989
815.539	6970
815.68	6848
815.821	6833
815.962	6878
816.103	6749
816.244	6730
816.385	6608
816.526	6642
816.666	6589
816.807	6353
816.948	6483
817.089	6464
817.23	6464
817.371	6414
817.512	6452
817.653	6395
817.793	6372
817.934	6388
818.075	6429
818.216	6452
818.356	6426
818.497	6258
818.638	6163
818.778	6194
818.919	6175
819.06	6194
819.2	6369
819.341	6331
819.481	6372
819.622	6601
819.762	6787
819.903	6810
820.043	6585
820.184	6585
820.324	6589
820.465	6753
820.605	6646
820.746	6688
820.886	6536
821.026	6677
821.167	6833
821.307	6852
821.447	6745
821.588	6677
821.728	6601
821.868	6536
822.008	6308
822.149	6418
822.289	6433
822.429	6235
822.569	6148
822.709	6087
822.849	5889
822.99	5984
823.13	5988
823.27	5912
823.41	5840
823.55	5783
823.69	5870
823.83	5794
823.97	5695
824.11	5600
824.25	5505
824.389	5566
824.529	5592
824.669	5532
824.809	5691
824.949	5684
825.089	5676
825.228	5573
825.368	5433
825.508	5364
825.648	5376
825.787	5379
825.927	5402
826.067	5341
826.206	5288
826.346	5357
826.485	5383
826.625	5436
826.765	5535
826.904	5493
827.044	5284
827.183	5220
827.323	5136
827.462	5246
827.601	5235
827.741	5208
827.88	5185
828.02	5113
828.159	5254
828.298	5284
828.437	5417
828.577	5296
828.716	5505
828.855	5330
828.994	5193
829.134	5197
829.273	5147
829.412	5155
829.551	5159
829.69	5189
829.829	5269
829.968	5376
830.107	5250
830.246	5303
830.385	5143
830.524	5132
830.663	5029
830.802	5003
830.941	4930
831.08	4839
831.219	5010
831.357	4999
831.496	5178
831.635	4949
831.774	4877
831.913	4866
832.051	4710
832.19	4755
832.329	4854
832.467	4702
832.606	4653
832.744	4774
832.883	4714
833.022	4736
833.16	4790
833.299	4820
833.437	4820
833.576	4835
833.714	4908
833.852	4885
833.991	4889
834.129	4984
834.267	4957
834.406	4930
834.544	4999
834.682	4968
834.821	4953
834.959	5162
835.097	5018
835.235	5197
835.373	5083
835.511	5181
835.65	5060
835.788	5052
835.926	4877
836.064	4892
836.202	4934
836.34	5208
836.478	5231
836.615	5143
836.753	5235
836.891	5318
837.029	5261
837.167	5239
837.305	5174
837.443	5155
837.58	5094
837.718	5258
837.856	5193
837.993	5223
838.131	5258
838.269	5235
838.406	5220
838.544	5242
838.681	5041
838.819	5056
838.956	4881
839.094	4927
839.231	4949
839.369	5113
839.506	5436
839.643	5273
839.781	5086
839.918	5041
840.055	5117
840.193	5075
840.33	5136
840.467	5128
840.604	5204
840.742	5444
840.879	5117
841.016	5113
841.153	5174
841.29	5425
841.427	5349
841.564	5337
841.701	5341
841.838	5318
841.975	5208
842.112	5250
842.249	5124
842.385	5136
842.522	5315
842.659	5193
842.796	5109
842.933	5178
843.069	5143
843.206	5121
843.343	5341
843.479	5322
843.616	5292
843.752	5010
843.889	5041
844.025	5212
844.162	5010
844.298	5208
844.435	5071
844.571	5014
844.708	5216
844.844	5292
844.98	5368
845.117	5337
845.253	5170
845.389	5098
845.525	5155
845.661	5174
845.798	5090
845.934	5181
846.07	5086
846.206	5178
846.342	5235
846.478	5197
846.614	4995
846.75	4984
846.886	4949
847.022	5155
847.158	5037
847.294	5060
847.429	5094
847.565	5064
847.701	5296
847.837	4866
847.972	4805
848.108	4991
848.244	4908
848.379	4790
848.515	4736
848.65	4717
848.786	4793
848.921	4786
849.057	4919
849.192	4908
849.328	4873
849.463	4835
849.598	4812
849.734	4759
849.869	4714
850.004	4672
850.14	4653
850.275	4660
850.41	4592
850.545	4611
850.68	4645
850.815	4656
850.95	4664
851.085	4824
851.22	4706
851.355	4649
851.49	4622
851.625	4645
851.76	4653
851.895	4580
852.03	4565
852.165	4683
852.299	4752
852.434	4854
852.569	4790
852.703	4782
852.838	4885
852.973	4930
853.107	4938
853.242	4774
853.376	4687
853.511	4558
853.645	4691
853.78	4786
853.914	4683
854.048	4706
854.183	4710
854.317	4736
854.451	4892
854.585	4706
854.72	4694
854.854	4771
854.988	4599
855.122	4668
855.256	4516
855.39	4694
855.524	4782
855.658	4736
855.792	4714
855.926	4736
856.06	4828
856.194	4771
856.327	4691
856.461	4603
856.595	4611
856.729	4683
856.862	4729
856.996	4714
857.13	4717
857.263	4786
857.397	4763
857.53	4660
857.664	4740
857.797	4786
857.931	4839
858.064	4702
858.197	4759
858.331	4687
858.464	4577
858.597	4538
858.731	4675
858.864	4546
858.997	4637
859.13	4706
859.263	4656
859.396	4672
859.529	4596
859.662	4565
859.795	4565
859.928	4656
860.061	4816
860.194	4793
860.327	4573
860.46	4588
860.592	4691
860.725	4755
860.858	4725
860.99	4573
861.123	4546
861.256	4542
861.388	4584
861.521	5383
861.653	4500
861.786	4462
861.918	4466
862.05	4535
862.183	4558
862.315	4599
862.447	4694
862.58	4615
862.712	4428
862.844	4363
862.976	4485
863.108	4462
863.24	4896
863.372	4390
863.504	4432
863.636	4470
863.768	4466
863.9	4432
864.032	4390
864.164	4462
864.296	4512
864.428	4535
864.559	4584
864.691	4531
864.823	4577
864.954	4504
865.086	4527
865.217	4489
865.349	4455
865.48	4459
865.612	4542
865.743	4668
865.875	4466
866.006	4417
866.137	4512
866.269	4466
866.4	4447
866.531	4417
866.662	4428
866.793	4413
866.924	4455
867.055	4504
867.186	4421
867.317	4489
867.448	4409
867.579	4443
867.71	4432
867.841	4360
867.972	4478
868.103	4485
868.233	4443
868.364	4474
868.495	4519
868.625	4641
868.756	4763
868.886	4584
869.017	4626
869.147	4759
869.278	4759
869.408	4668
869.539	4641
869.669	4687
869.799	4660
869.929	4763
870.06	4740
870.19	5003
870.32	4915
870.45	4953
870.58	5045
870.71	5113
870.84	5151
870.97	4965
871.1	4923
871.23	5155
871.36	5143
871.489	5071
871.619	5159
871.749	5086
871.879	5128
872.008	5143
872.138	5090
872.267	4991
872.397	4854
872.526	4839
872.656	4710
872.785	4820
872.915	4995
873.044	5124
873.173	4961
873.303	4980
873.432	4972
873.561	4953
873.69	4850
873.819	4847
873.948	4892
874.077	4854
874.206	4790
874.335	4812
874.464	4957
874.593	5018
874.722	4961
874.851	5117
874.979	5064
875.108	5083
875.237	4904
875.365	4889
875.494	4904
875.623	5025
875.751	4847
875.88	4900
876.008	4987
876.136	5064
876.265	5261
876.393	5330
876.521	5277
876.65	5250
876.778	5216
876.906	5090
877.034	4987
877.162	5071
877.29	5010
877.418	5052
877.546	5041
877.674	5075
877.802	5029
877.93	5018
878.058	4980
878.185	4904
878.313	4984
878.441	4957
878.568	4843
878.696	4885
878.824	4942
878.951	5018
879.079	5128
879.206	5315
879.333	5128
879.461	4968
879.588	4995
879.715	5181
879.842	5227
879.97	5022
880.097	4843
880.224	4805
880.351	4774
880.478	4843
880.605	4850
880.732	4797
880.859	5132
880.986	4881
881.112	4987
881.239	4778
881.366	4653
881.493	4660
881.619	4630
881.746	4687
881.872	4653
881.999	4706
882.125	4672
882.252	4801
882.378	4812
882.505	4987
882.631	4809
882.757	4675
882.883	4694
883.01	4748
883.136	4672
883.262	4634
883.388	4660
883.514	4831
883.64	4923
883.766	4816
883.892	4672
884.018	4744
884.143	4911
884.269	5109
884.395	4717
884.52	4660
884.646	4656
884.772	4618
884.897	4573
885.023	4637
885.148	4812
885.274	4839
885.399	4790
885.524	4755
885.65	4698
885.775	4820
885.9	4733
886.025	4881
886.15	4805
886.275	4725
886.4	4687
886.525	4725
886.65	4687
886.775	4672
886.9	4911
887.025	5018
887.149	4843
887.274	4656
887.399	4596
887.523	4615
887.648	4607
887.773	4592
887.897	4744
888.021	4820
888.146	4717
888.27	4858
888.395	4892
888.519	4786
888.643	4824
888.767	4866
888.891	4660
889.015	4592
889.139	4630
889.263	4577
889.387	4767
889.511	4885
889.635	4793
889.759	4653
889.883	4653
890.006	4748
890.13	4816
890.254	4683
890.377	4672
890.501	4554
890.624	4577
890.748	4645
890.871	4512
890.995	4405
891.118	4409
891.241	4542
891.364	4565
891.488	4615
891.611	4527
891.734	4561
891.857	4637
891.98	4535
892.103	4687
892.226	4607
892.349	4504
892.471	4405
892.594	4607
892.717	4641
892.839	4596
892.962	4580
893.085	4637
893.207	4584
893.33	4516
893.452	4569
893.575	4683
893.697	4622
893.819	4809
893.941	4801
894.064	4790
894.186	4622
894.308	4565
894.43	4736
894.552	4850
894.674	4740
894.796	4565
894.918	4622
895.04	4592
895.161	4725
895.283	4725
895.405	4611
895.526	4683
895.648	4721
895.769	4793
895.891	4729
896.012	4721
896.134	4763
896.255	4691
896.376	4736
896.498	4641
896.619	4740
896.74	4611
896.861	4653
896.982	4968
897.103	5105
897.224	4885
897.345	4797
897.466	4755
897.587	4801
897.708	4885
897.828	4831
897.949	4729
898.07	4596
898.19	4717
898.311	4877
898.431	4687
898.552	4759
898.672	4885
898.792	4896
898.913	4824
899.033	4675
899.153	4523
899.273	4478
899.393	4569
899.513	4561
899.633	4630
899.753	4622
899.873	4565
899.993	4634
900.113	4603
900.232	4668
900.352	4569
900.472	4569
900.591	4455
900.711	4546
900.83	4451
900.95	4675
901.069	4778
901.189	4630
901.308	4447
901.427	4344
901.546	4421
901.665	4523
901.784	4565
901.904	4470
902.023	4405
902.141	4211
902.26	4238
902.379	4367
902.498	4325
902.617	4303
902.735	4474
902.854	4516
902.973	4394
903.091	4272
903.21	4291
903.328	4375
903.446	4337
903.565	4360
903.683	4413
903.801	4306
903.919	4459
904.038	4500
904.156	4371
904.274	4500
904.392	4459
904.51	4459
904.627	4527
904.745	4634
904.863	4736
904.981	4447
905.098	4371
905.216	4402
905.334	4493
905.451	4485
905.569	4504
905.686	4592
905.803	4694
905.921	4466
906.038	4588
906.155	4538
906.272	4443
906.389	4550
906.506	4421
906.623	4428
906.74	4470
906.857	4375
906.974	4443
907.091	4584
907.208	4767
907.324	4645
907.441	4535
907.557	4325
907.674	4383
907.79	4367
907.907	4390
908.023	4527
908.139	4508
908.256	4497
908.372	4508
908.488	4478
908.604	4447
908.72	4386
908.836	4447
908.952	4375
909.068	4497
909.184	4607
909.3	4542
909.415	4653
909.531	4660
909.647	4390
909.762	4428
909.878	4398
909.993	4485
910.108	4417
910.224	4478
910.339	4500
910.454	4474
910.57	4402
910.685	4348
910.8	4687
910.915	4656
911.03	4561
911.145	4386
911.259	4360
911.374	4432
911.489	4348
911.604	4314
911.718	4265
911.833	4234
911.947	4086
912.062	4082
912.176	4249
912.291	4314
912.405	4265
912.519	4565
912.633	4577
912.748	4436
912.862	4383
912.976	4261
913.09	4185
913.204	4188
913.318	4318
913.431	4417
913.545	4390
913.659	4497
913.772	4443
913.886	4306
914	4257
914.113	4405
914.226	4500
914.34	4424
914.453	4287
914.566	4493
914.68	4367
914.793	4360
914.906	4227
915.019	4173
915.132	4143
915.245	4223
915.358	4223
915.47	4314
915.583	4314
915.696	4322
915.809	4451
915.921	4478
916.034	4287
916.146	4257
916.259	4303
916.371	4459
916.483	4447
916.595	4306
916.708	4360
916.82	4409
916.932	4344
917.044	4390
917.156	4394
917.268	4268
917.38	4325
917.491	4322
917.603	4402
917.715	4485
917.826	4470
917.938	4451
918.049	4303
918.161	4443
918.272	4622
918.384	4596
918.495	4485
918.606	4371
918.717	4322
918.828	4402
918.939	4405
919.05	4322
919.161	4394
919.272	4181
919.383	4310
919.494	4527
919.604	4729
919.715	4481
919.826	4421
919.936	4424
920.047	4577
920.157	4527
920.267	4793
920.378	4645
920.488	4554
920.598	4759
920.708	4900
920.818	4786
920.928	4793
921.038	5041
921.148	4965
921.258	4660
921.368	4599
921.477	4569
921.587	4573
921.697	4466
921.806	4634
921.916	4462
922.025	4341
922.134	4314
922.244	4257
922.353	4341
922.462	4246
922.571	4219
922.68	4093
922.789	4044
922.898	4112
923.007	4048
923.116	4158
923.224	4116
923.333	4109
923.442	4059
923.55	4036
923.659	4090
923.767	4150
923.876	4059
923.984	4169
924.092	4074
924.201	4143
924.309	4150
924.417	4181
924.525	4074
924.633	4143
924.741	4930
924.849	3987
924.956	4207
925.064	4021
925.172	3949
925.279	4040
925.387	4097
925.494	4128
925.602	4234
925.709	4280
925.816	4074
925.924	4162
926.031	4238
926.138	4268
926.245	4261
926.352	4135
926.459	4341
926.566	4394
926.673	4207
926.779	4120
926.886	4131
926.993	4059
927.099	4044
927.206	3949
927.312	3987
927.419	4128
927.525	4093
927.631	4105
927.737	4025
927.843	3998
927.95	3857
928.056	3991
928.162	4013
928.267	4124
928.373	4592
928.479	4188
928.585	3907
928.69	4044
928.796	4109
928.901	3987
929.007	3930
929.112	4048
929.218	4059
929.323	3975
929.428	3972
929.533	4169
929.638	3979
929.743	4010
929.848	4124
929.953	4059
930.058	3960
930.163	3846
930.267	3861
930.372	3998
930.477	3823
930.581	4147
930.685	4032
930.79	3918
930.894	3911
930.998	3907
931.103	4090
931.207	3781
931.311	3736
931.415	3732
931.519	3576
931.623	3576
