Data from test_V78500241_2153.txt Node
Date: Fri Mar 25 17:03:58 CST 2022
User: usil
Spectrometer: V785-0024
Trigger mode: 0
Integration Time (sec): 4.000000E-1
Scans to average: 1
Nonlinearity correction enabled: false
Boxcar width: 0
Storing dark spectrum: false
XAxis mode: Wavelengths
Number of Pixels in Spectrum: 1024
>>>>>Begin Spectral Data<<<<<
801.071	7989
801.214	7993
801.356	7852
801.499	7772
801.641	7784
801.783	7944
801.926	8024
802.068	7963
802.211	8001
802.353	8005
802.496	7887
802.638	7887
802.78	7955
802.923	7997
803.065	7868
803.208	7890
803.35	8054
803.492	8043
803.635	8130
803.777	8046
803.919	8065
804.061	8438
804.204	8206
804.346	8142
804.488	8020
804.63	8092
804.773	8065
804.915	8065
805.057	8298
805.199	8214
805.341	8153
805.483	8267
805.626	8153
805.768	8176
805.91	8199
806.052	8256
806.194	8134
806.336	8282
806.478	8092
806.62	8069
806.762	8218
806.904	8286
807.046	8446
807.188	8355
807.33	8343
807.472	8370
807.614	8187
807.756	8176
807.898	8005
808.04	7890
808.182	7909
808.324	7951
808.465	7951
808.607	8077
808.749	8187
808.891	8282
809.033	8233
809.174	8244
809.316	8024
809.458	8119
809.6	8092
809.741	8031
809.883	8073
810.025	8115
810.166	8130
810.308	8077
810.45	7970
810.591	7871
810.733	7700
810.875	7712
811.016	7472
811.158	7529
811.299	7601
811.441	7742
811.582	7696
811.724	7613
811.865	7582
812.007	7597
812.148	7601
812.29	7651
812.431	7803
812.573	7925
812.714	7974
812.855	8164
812.997	8218
813.138	8271
813.279	8172
813.421	8107
813.562	7993
813.703	7849
813.845	7738
813.986	7441
814.127	7278
814.268	7228
814.41	7152
814.551	7206
814.692	7206
814.833	7122
814.974	7152
815.115	7145
815.256	7012
815.397	6977
815.539	6951
815.68	6844
815.821	6859
815.962	6932
816.103	6852
816.244	6749
816.385	6604
816.526	6631
816.666	6502
816.807	6369
816.948	6475
817.089	6517
817.23	6494
817.371	6365
817.512	6426
817.653	6452
817.793	6403
817.934	6441
818.075	6532
818.216	6464
818.356	6460
818.497	6281
818.638	6178
818.778	6136
818.919	6182
819.06	6201
819.2	6308
819.341	6361
819.481	6338
819.622	6563
819.762	6707
819.903	6760
820.043	6563
820.184	6589
820.324	6589
820.465	6711
820.605	6764
820.746	6700
820.886	6544
821.026	6688
821.167	6703
821.307	6806
821.447	6753
821.588	6692
821.728	6604
821.868	6540
822.008	6372
822.149	6410
822.289	6414
822.429	6216
822.569	6140
822.709	6144
822.849	5935
822.99	5954
823.13	5954
823.27	5935
823.41	5832
823.55	5817
823.69	5855
823.83	5752
823.97	5649
824.11	5585
824.25	5512
824.389	5551
824.529	5672
824.669	5573
824.809	5623
824.949	5714
825.089	5638
825.228	5535
825.368	5452
825.508	5376
825.648	5395
825.787	5391
825.927	5391
826.067	5341
826.206	5326
826.346	5406
826.485	5425
826.625	5395
826.765	5562
826.904	5471
827.044	5280
827.183	5235
827.323	5155
827.462	5235
827.601	5193
827.741	5258
827.88	5273
828.02	5105
828.159	5269
828.298	5315
828.437	5402
828.577	5284
828.716	5459
828.855	5322
828.994	5147
829.134	5185
829.273	5250
829.412	5132
829.551	5147
829.69	5201
829.829	5280
829.968	5402
830.107	5235
830.246	5322
830.385	5204
830.524	5113
830.663	5094
830.802	4999
830.941	4885
831.08	4896
831.219	4987
831.357	4968
831.496	5227
831.635	4968
831.774	4843
831.913	4873
832.051	4786
832.19	4774
832.329	4896
832.467	4698
832.606	4641
832.744	4721
832.883	4710
833.022	4736
833.16	4805
833.299	4889
833.437	4862
833.576	4900
833.714	4885
833.852	4904
833.991	4892
834.129	4991
834.267	5010
834.406	4870
834.544	4991
834.682	5014
834.821	4946
834.959	5155
835.097	5056
835.235	5162
835.373	5166
835.511	5121
835.65	5041
835.788	5033
835.926	4873
836.064	4900
836.202	4961
836.34	5162
836.478	5227
836.615	5109
836.753	5239
836.891	5254
837.029	5254
837.167	5220
837.305	5204
837.443	5178
837.58	5090
837.718	5303
837.856	5250
837.993	5151
838.131	5220
838.269	5216
838.406	5246
838.544	5216
838.681	5018
838.819	5022
838.956	4870
839.094	4889
839.231	4965
839.369	5105
839.506	5448
839.643	5277
839.781	5067
839.918	4987
840.055	5132
840.193	5071
840.33	5143
840.467	5124
840.604	5250
840.742	5482
840.879	5143
841.016	5117
841.153	5193
841.29	5391
841.427	5341
841.564	5345
841.701	5360
841.838	5242
841.975	5265
842.112	5258
842.249	5197
842.385	5140
842.522	5376
842.659	5159
842.796	5178
842.933	5197
843.069	5113
843.206	5181
843.343	5318
843.479	5223
843.616	5280
843.752	5064
843.889	4984
844.025	5216
844.162	5018
844.298	5216
844.435	5136
844.571	5041
844.708	5208
844.844	5337
844.98	5311
845.117	5269
845.253	5143
845.389	5067
845.525	5170
845.661	5147
845.798	5052
845.934	5109
846.07	5018
846.206	5223
846.342	5273
846.478	5193
846.614	5018
846.75	4930
846.886	5006
847.022	5193
847.158	4995
847.294	5094
847.429	5086
847.565	5064
847.701	5322
847.837	4850
847.972	4839
848.108	4991
848.244	4972
848.379	4797
848.515	4717
848.65	4771
848.786	4752
848.921	4793
849.057	4904
849.192	4908
849.328	4824
849.463	4850
849.598	4812
849.734	4782
849.869	4675
850.004	4630
850.14	4725
850.275	4596
850.41	4538
850.545	4615
850.68	4599
850.815	4683
850.95	4637
851.085	4881
851.22	4771
851.355	4706
851.49	4592
851.625	4645
851.76	4634
851.895	4580
852.03	4565
852.165	4679
852.299	4721
852.434	4744
852.569	4759
852.703	4755
852.838	4877
852.973	4995
853.107	4896
853.242	4717
853.376	4698
853.511	4580
853.645	4634
853.78	4805
853.914	4683
854.048	4656
854.183	4653
854.317	4664
854.451	4889
854.585	4698
854.72	4618
854.854	4759
854.988	4577
855.122	4675
855.256	4531
855.39	4668
855.524	4831
855.658	4702
855.792	4649
855.926	4729
856.06	4771
856.194	4858
856.327	4714
856.461	4626
856.595	4660
856.729	4615
856.862	4729
856.996	4736
857.13	4752
857.263	4786
857.397	4774
857.53	4637
857.664	4721
857.797	4782
857.931	4820
858.064	4679
858.197	4748
858.331	4714
858.464	4645
858.597	4546
858.731	4634
858.864	4656
858.997	4588
859.13	4672
859.263	4626
859.396	4694
859.529	4618
859.662	4569
859.795	4550
859.928	4660
860.061	4782
860.194	4793
860.327	4580
860.46	4584
860.592	4736
860.725	4714
860.858	4763
860.99	4592
861.123	4516
861.256	4512
861.388	4599
861.521	5440
861.653	4455
861.786	4447
861.918	4436
862.05	4523
862.183	4538
862.315	4588
862.447	4668
862.58	4538
862.712	4398
862.844	4333
862.976	4481
863.108	4489
863.24	4782
863.372	4325
863.504	4417
863.636	4402
863.768	4493
863.9	4470
864.032	4363
864.164	4371
864.296	4481
864.428	4573
864.559	4569
864.691	4546
864.823	4500
864.954	4470
865.086	4493
865.217	4447
865.349	4405
865.48	4474
865.612	4474
865.743	4664
865.875	4542
866.006	4440
866.137	4485
866.269	4455
866.4	4440
866.531	4443
866.662	4413
866.793	4405
866.924	4459
867.055	4485
867.186	4451
867.317	4405
867.448	4360
867.579	4440
867.71	4451
867.841	4383
867.972	4462
868.103	4497
868.233	4470
868.364	4451
868.495	4527
868.625	4702
868.756	4729
868.886	4565
869.017	4603
869.147	4767
869.278	4752
869.408	4668
869.539	4691
869.669	4725
869.799	4679
869.929	4767
870.06	4725
870.19	4957
870.32	4949
870.45	4946
870.58	5022
870.71	5117
870.84	5121
870.97	4965
871.1	4942
871.23	5151
871.36	5132
871.489	4987
871.619	5105
871.749	5060
871.879	5121
872.008	5105
872.138	5086
872.267	5022
872.397	4900
872.526	4771
872.656	4714
872.785	4858
872.915	4976
873.044	5018
873.173	4957
873.303	4984
873.432	4896
873.561	4949
873.69	4843
873.819	4904
873.948	4900
874.077	4858
874.206	4831
874.335	4790
874.464	4961
874.593	5098
874.722	4972
874.851	5079
874.979	5086
875.108	5105
875.237	4930
875.365	4892
875.494	4892
875.623	4991
875.751	4835
875.88	4904
876.008	4968
876.136	5037
876.265	5242
876.393	5299
876.521	5197
876.65	5288
876.778	5170
876.906	5025
877.034	5037
877.162	5071
877.29	5018
877.418	5067
877.546	5037
877.674	5071
877.802	5041
877.93	5018
878.058	4949
878.185	4889
878.313	4976
878.441	4923
878.568	4797
878.696	4892
878.824	4980
878.951	5006
879.079	5109
879.206	5337
879.333	5162
879.461	4968
879.588	5052
879.715	5121
879.842	5197
879.97	4965
880.097	4725
880.224	4759
880.351	4797
880.478	4870
880.605	4778
880.732	4797
880.859	5109
880.986	4896
881.112	4877
881.239	4763
881.366	4668
881.493	4656
881.619	4577
881.746	4649
881.872	4649
881.999	4611
882.125	4672
882.252	4752
882.378	4790
882.505	4965
882.631	4782
882.757	4668
882.883	4710
883.01	4774
883.136	4641
883.262	4615
883.388	4622
883.514	4801
883.64	4873
883.766	4790
883.892	4660
884.018	4733
884.143	4900
884.269	4961
884.395	4645
884.52	4653
884.646	4626
884.772	4542
884.897	4523
885.023	4672
885.148	4831
885.274	4866
885.399	4862
885.524	4668
885.65	4721
885.775	4759
885.9	4755
886.025	4843
886.15	4805
886.275	4755
886.4	4683
886.525	4687
886.65	4702
886.775	4698
886.9	4923
887.025	5029
887.149	4778
887.274	4653
887.399	4577
887.523	4611
887.648	4580
887.773	4626
887.897	4771
888.021	4824
888.146	4736
888.27	4771
888.395	4881
888.519	4778
888.643	4816
888.767	4847
888.891	4710
889.015	4558
889.139	4656
889.263	4607
889.387	4801
889.511	4854
889.635	4824
889.759	4668
889.883	4649
890.006	4691
890.13	4847
890.254	4611
890.377	4714
890.501	4531
890.624	4500
890.748	4675
890.871	4478
890.995	4413
891.118	4409
891.241	4508
891.364	4523
891.488	4679
891.611	4516
891.734	4554
891.857	4611
891.98	4531
892.103	4645
892.226	4618
892.349	4550
892.471	4421
892.594	4542
892.717	4611
892.839	4550
892.962	4615
893.085	4649
893.207	4565
893.33	4508
893.452	4504
893.575	4656
893.697	4527
893.819	4835
893.941	4847
894.064	4790
894.186	4584
894.308	4558
894.43	4710
894.552	4801
894.674	4771
894.796	4538
894.918	4599
895.04	4580
895.161	4687
895.283	4675
895.405	4554
895.526	4618
895.648	4706
895.769	4656
895.891	4702
896.012	4714
896.134	4721
896.255	4664
896.376	4615
896.498	4607
896.619	4668
896.74	4660
896.861	4637
896.982	4938
897.103	5060
897.224	4847
897.345	4752
897.466	4653
897.587	4691
897.708	4896
897.828	4790
897.949	4706
898.07	4542
898.19	4641
898.311	4790
898.431	4698
898.552	4702
898.672	4782
898.792	4793
898.913	4736
899.033	4656
899.153	4462
899.273	4398
899.393	4474
899.513	4504
899.633	4512
899.753	4550
899.873	4481
899.993	4584
900.113	4519
900.232	4599
900.352	4558
900.472	4523
900.591	4371
900.711	4519
900.83	4417
900.95	4603
901.069	4672
901.189	4546
901.308	4348
901.427	4337
901.546	4386
901.665	4436
901.784	4516
901.904	4417
902.023	4299
902.141	4181
902.26	4154
902.379	4280
902.498	4276
902.617	4246
902.735	4352
902.854	4405
902.973	4367
903.091	4204
903.21	4242
903.328	4287
903.446	4295
903.565	4223
903.683	4367
903.801	4261
903.919	4405
904.038	4405
904.156	4276
904.274	4417
904.392	4424
904.51	4402
904.627	4470
904.745	4558
904.863	4637
904.981	4394
905.098	4329
905.216	4329
905.334	4455
905.451	4421
905.569	4447
905.686	4535
905.803	4527
905.921	4409
906.038	4546
906.155	4493
906.272	4367
906.389	4474
906.506	4405
906.623	4306
906.74	4363
906.857	4287
906.974	4409
907.091	4558
907.208	4748
907.324	4611
907.441	4500
907.557	4314
907.674	4341
907.79	4299
907.907	4337
908.023	4481
908.139	4470
908.256	4417
908.372	4512
908.488	4432
908.604	4360
908.72	4344
908.836	4360
908.952	4371
909.068	4436
909.184	4535
909.3	4451
909.415	4558
909.531	4504
909.647	4348
909.762	4360
909.878	4341
909.993	4451
910.108	4413
910.224	4421
910.339	4493
910.454	4375
910.57	4337
910.685	4272
910.8	4660
910.915	4558
911.03	4451
911.145	4322
911.259	4363
911.374	4405
911.489	4306
911.604	4337
911.718	4185
911.833	4215
911.947	4101
912.062	4036
912.176	4227
912.291	4227
912.405	4230
912.519	4447
912.633	4489
912.748	4360
912.862	4306
912.976	4249
913.09	4105
913.204	4173
913.318	4204
913.431	4428
913.545	4352
913.659	4390
913.772	4348
913.886	4227
914	4204
914.113	4405
914.226	4440
914.34	4371
914.453	4265
914.566	4455
914.68	4287
914.793	4306
914.906	4139
915.019	4112
915.132	4040
915.245	4169
915.358	4242
915.47	4219
915.583	4249
915.696	4303
915.809	4432
915.921	4440
916.034	4276
916.146	4276
916.259	4204
916.371	4390
916.483	4394
916.595	4299
916.708	4306
916.82	4325
916.932	4291
917.044	4333
917.156	4333
917.268	4215
917.38	4295
917.491	4268
917.603	4344
917.715	4344
917.826	4443
917.938	4367
918.049	4238
918.161	4409
918.272	4558
918.384	4561
918.495	4462
918.606	4299
918.717	4234
918.828	4325
918.939	4303
919.05	4299
919.161	4367
919.272	4169
919.383	4192
919.494	4440
919.604	4656
919.715	4436
919.826	4341
919.936	4379
920.047	4516
920.157	4531
920.267	4664
920.378	4550
920.488	4478
920.598	4729
920.708	4885
920.818	4717
920.928	4767
921.038	4908
921.148	4919
921.258	4599
921.368	4538
921.477	4489
921.587	4417
921.697	4375
921.806	4542
921.916	4474
922.025	4219
922.134	4234
922.244	4188
922.353	4303
922.462	4166
922.571	4131
922.68	3956
922.789	3972
922.898	4021
923.007	3968
923.116	4093
923.224	4021
923.333	4059
923.442	3994
923.55	3968
923.659	4002
923.767	4044
923.876	3949
923.984	4120
924.092	3975
924.201	4044
924.309	4086
924.417	4093
924.525	4002
924.633	4120
924.741	5060
924.849	3911
924.956	4154
925.064	3998
925.172	3911
925.279	3945
925.387	4032
925.494	4059
925.602	4246
925.709	4173
925.816	4067
925.924	4139
926.031	4246
926.138	4154
926.245	4234
926.352	4109
926.459	4261
926.566	4325
926.673	4177
926.779	4090
926.886	4078
926.993	3987
927.099	3960
927.206	3880
927.312	3907
927.419	4071
927.525	4044
927.631	4078
927.737	3991
927.843	3956
927.95	3827
928.056	3956
928.162	3994
928.267	4040
928.373	4675
928.479	4071
928.585	3884
928.69	4036
928.796	4017
928.901	3934
929.007	3861
929.112	3994
929.218	3994
929.323	3953
929.428	3972
929.533	4097
929.638	3876
929.743	3964
929.848	4036
929.953	3991
930.058	3941
930.163	3819
930.267	3816
930.372	3953
930.477	3816
930.581	4086
930.685	3964
930.79	3831
930.894	3873
930.998	3857
931.103	4021
931.207	3690
931.311	3671
931.415	3625
931.519	3526
931.623	3549
