Data from test_V78500241_1585.txt Node
Date: Fri Mar 25 17:00:01 CST 2022
User: usil
Spectrometer: V785-0024
Trigger mode: 0
Integration Time (sec): 4.000000E-1
Scans to average: 1
Nonlinearity correction enabled: false
Boxcar width: 0
Storing dark spectrum: false
XAxis mode: Wavelengths
Number of Pixels in Spectrum: 1024
>>>>>Begin Spectral Data<<<<<
801.071	7989
801.214	7978
801.356	7879
801.499	7860
801.641	7746
801.783	7792
801.926	7940
802.068	7986
802.211	7947
802.353	7993
802.496	7776
802.638	7856
802.78	7936
802.923	7890
803.065	7822
803.208	7852
803.35	7944
803.492	8077
803.635	8119
803.777	8016
803.919	8065
804.061	8454
804.204	8134
804.346	8005
804.488	7944
804.63	8073
804.773	8008
804.915	8077
805.057	8313
805.199	8180
805.341	8199
805.483	8275
805.626	8153
805.768	8119
805.91	8164
806.052	8206
806.194	8103
806.336	8279
806.478	8088
806.62	8062
806.762	8157
806.904	8252
807.046	8514
807.188	8347
807.33	8252
807.472	8328
807.614	8180
807.756	8157
807.898	7921
808.04	7883
808.182	7906
808.324	7807
808.465	7871
808.607	8081
808.749	8115
808.891	8172
809.033	8279
809.174	8183
809.316	8100
809.458	8081
809.6	8001
809.741	8005
809.883	8084
810.025	8081
810.166	8039
810.308	8005
810.45	7928
810.591	7890
810.733	7658
810.875	7632
811.016	7521
811.158	7514
811.299	7571
811.441	7658
811.582	7681
811.724	7597
811.865	7518
812.007	7525
812.148	7552
812.29	7559
812.431	7693
812.573	7837
812.714	7921
812.855	7993
812.997	8134
813.138	8339
813.279	8225
813.421	8123
813.562	7974
813.703	7822
813.845	7715
813.986	7422
814.127	7190
814.268	7221
814.41	7198
814.551	7160
814.692	7206
814.833	7084
814.974	7095
815.115	7069
815.256	6985
815.397	6909
815.539	7023
815.68	6802
815.821	6787
815.962	6802
816.103	6783
816.244	6696
816.385	6536
816.526	6585
816.666	6479
816.807	6304
816.948	6407
817.089	6475
817.23	6376
817.371	6331
817.512	6391
817.653	6399
817.793	6365
817.934	6376
818.075	6372
818.216	6376
818.356	6365
818.497	6239
818.638	6121
818.778	6163
818.919	6095
819.06	6140
819.2	6319
819.341	6315
819.481	6327
819.622	6517
819.762	6700
819.903	6696
820.043	6589
820.184	6566
820.324	6597
820.465	6798
820.605	6715
820.746	6650
820.886	6532
821.026	6635
821.167	6669
821.307	6833
821.447	6840
821.588	6662
821.728	6635
821.868	6467
822.008	6289
822.149	6391
822.289	6372
822.429	6140
822.569	6106
822.709	6171
822.849	5912
822.99	5923
823.13	5950
823.27	5965
823.41	5840
823.55	5771
823.69	5760
823.83	5775
823.97	5668
824.11	5532
824.25	5592
824.389	5562
824.529	5646
824.669	5539
824.809	5623
824.949	5703
825.089	5634
825.228	5547
825.368	5425
825.508	5341
825.648	5379
825.787	5383
825.927	5376
826.067	5395
826.206	5299
826.346	5433
826.485	5448
826.625	5455
826.765	5573
826.904	5482
827.044	5280
827.183	5280
827.323	5174
827.462	5288
827.601	5227
827.741	5231
827.88	5296
828.02	5170
828.159	5269
828.298	5391
828.437	5406
828.577	5364
828.716	5570
828.855	5322
828.994	5174
829.134	5166
829.273	5250
829.412	5178
829.551	5204
829.69	5258
829.829	5299
829.968	5391
830.107	5273
830.246	5277
830.385	5178
830.524	5197
830.663	5109
830.802	5025
830.941	4915
831.08	4915
831.219	5018
831.357	4995
831.496	5212
831.635	4987
831.774	4877
831.913	4873
832.051	4759
832.19	4767
832.329	4866
832.467	4759
832.606	4694
832.744	4691
832.883	4763
833.022	4744
833.16	4812
833.299	4870
833.437	4866
833.576	4850
833.714	4900
833.852	4927
833.991	4911
834.129	4968
834.267	4953
834.406	4904
834.544	5006
834.682	4987
834.821	4957
834.959	5197
835.097	5025
835.235	5204
835.373	5086
835.511	5159
835.65	4968
835.788	5079
835.926	4904
836.064	4927
836.202	4961
836.34	5201
836.478	5265
836.615	5189
836.753	5239
836.891	5353
837.029	5261
837.167	5277
837.305	5193
837.443	5174
837.58	5128
837.718	5258
837.856	5208
837.993	5197
838.131	5277
838.269	5239
838.406	5242
838.544	5208
838.681	5060
838.819	5052
838.956	4930
839.094	4896
839.231	5048
839.369	5132
839.506	5444
839.643	5299
839.781	5071
839.918	5113
840.055	5128
840.193	5136
840.33	5143
840.467	5197
840.604	5220
840.742	5482
840.879	5109
841.016	5109
841.153	5166
841.29	5406
841.427	5387
841.564	5326
841.701	5379
841.838	5273
841.975	5273
842.112	5258
842.249	5136
842.385	5102
842.522	5318
842.659	5235
842.796	5170
842.933	5208
843.069	5197
843.206	5178
843.343	5307
843.479	5246
843.616	5330
843.752	5033
843.889	5029
844.025	5208
844.162	5052
844.298	5223
844.435	5098
844.571	5090
844.708	5242
844.844	5307
844.98	5357
845.117	5322
845.253	5162
845.389	5075
845.525	5201
845.661	5193
845.798	5029
845.934	5117
846.07	5071
846.206	5181
846.342	5349
846.478	5189
846.614	5052
846.75	4949
846.886	4957
847.022	5193
847.158	5056
847.294	5022
847.429	5105
847.565	5071
847.701	5330
847.837	4904
847.972	4809
848.108	4999
848.244	4938
848.379	4774
848.515	4752
848.65	4740
848.786	4759
848.921	4752
849.057	4881
849.192	4930
849.328	4812
849.463	4866
849.598	4793
849.734	4805
849.869	4729
850.004	4668
850.14	4672
850.275	4672
850.41	4565
850.545	4603
850.68	4653
850.815	4656
850.95	4664
851.085	4854
851.22	4805
851.355	4702
851.49	4603
851.625	4706
851.76	4679
851.895	4538
852.03	4580
852.165	4694
852.299	4736
852.434	4839
852.569	4790
852.703	4801
852.838	4828
852.973	4953
853.107	4881
853.242	4767
853.376	4664
853.511	4584
853.645	4664
853.78	4812
853.914	4729
854.048	4694
854.183	4653
854.317	4694
854.451	4873
854.585	4694
854.72	4683
854.854	4793
854.988	4645
855.122	4615
855.256	4561
855.39	4675
855.524	4771
855.658	4790
855.792	4721
855.926	4702
856.06	4812
856.194	4809
856.327	4721
856.461	4637
856.595	4645
856.729	4611
856.862	4778
856.996	4714
857.13	4729
857.263	4736
857.397	4812
857.53	4679
857.664	4778
857.797	4797
857.931	4763
858.064	4725
858.197	4774
858.331	4634
858.464	4637
858.597	4535
858.731	4645
858.864	4656
858.997	4664
859.13	4733
859.263	4691
859.396	4702
859.529	4611
859.662	4615
859.795	4584
859.928	4634
860.061	4778
860.194	4771
860.327	4626
860.46	4565
860.592	4691
860.725	4714
860.858	4744
860.99	4645
861.123	4542
861.256	4531
861.388	4637
861.521	5231
861.653	4459
861.786	4440
861.918	4443
862.05	4542
862.183	4588
862.315	4596
862.447	4672
862.58	4565
862.712	4436
862.844	4322
862.976	4497
863.108	4455
863.24	4771
863.372	4383
863.504	4417
863.636	4413
863.768	4489
863.9	4493
864.032	4436
864.164	4470
864.296	4485
864.428	4580
864.559	4592
864.691	4592
864.823	4512
864.954	4489
865.086	4519
865.217	4485
865.349	4440
865.48	4500
865.612	4516
865.743	4664
865.875	4478
866.006	4489
866.137	4485
866.269	4424
866.4	4462
866.531	4398
866.662	4402
866.793	4432
866.924	4436
867.055	4504
867.186	4478
867.317	4421
867.448	4371
867.579	4363
867.71	4424
867.841	4371
867.972	4508
868.103	4462
868.233	4489
868.364	4470
868.495	4493
868.625	4702
868.756	4790
868.886	4580
869.017	4641
869.147	4774
869.278	4733
869.408	4656
869.539	4660
869.669	4702
869.799	4664
869.929	4767
870.06	4774
870.19	4961
870.32	4953
870.45	4949
870.58	5037
870.71	5121
870.84	5060
870.97	4965
871.1	4961
871.23	5155
871.36	5151
871.489	4980
871.619	5079
871.749	5136
871.879	5117
872.008	5174
872.138	5098
872.267	5025
872.397	4828
872.526	4824
872.656	4733
872.785	4839
872.915	4942
873.044	5056
873.173	4938
873.303	4949
873.432	4923
873.561	5022
873.69	4900
873.819	4889
873.948	4934
874.077	4850
874.206	4793
874.335	4828
874.464	4877
874.593	5102
874.722	4980
874.851	5117
874.979	5094
875.108	4991
875.237	4923
875.365	4885
875.494	4877
875.623	4980
875.751	4847
875.88	4911
876.008	4995
876.136	4999
876.265	5197
876.393	5326
876.521	5201
876.65	5246
876.778	5189
876.906	5075
877.034	4968
877.162	5045
877.29	4972
877.418	5083
877.546	5094
877.674	5041
877.802	4984
877.93	5029
878.058	4953
878.185	4934
878.313	4961
878.441	4942
878.568	4774
878.696	4881
878.824	4957
878.951	4999
879.079	5223
879.206	5322
879.333	5147
879.461	4976
879.588	4976
879.715	5124
879.842	5223
879.97	4991
880.097	4805
880.224	4748
880.351	4797
880.478	4866
880.605	4801
880.732	4782
880.859	5075
880.986	4919
881.112	4885
881.239	4828
881.366	4668
881.493	4611
881.619	4618
881.746	4664
881.872	4710
881.999	4710
882.125	4717
882.252	4847
882.378	4782
882.505	4957
882.631	4812
882.757	4725
882.883	4702
883.01	4767
883.136	4668
883.262	4637
883.388	4599
883.514	4835
883.64	4889
883.766	4839
883.892	4679
884.018	4725
884.143	4919
884.269	5052
884.395	4691
884.52	4656
884.646	4649
884.772	4599
884.897	4561
885.023	4668
885.148	4843
885.274	4850
885.399	4763
885.524	4736
885.65	4675
885.775	4786
885.9	4740
886.025	4885
886.15	4786
886.275	4679
886.4	4660
886.525	4702
886.65	4698
886.775	4702
886.9	4961
887.025	5067
887.149	4786
887.274	4645
887.399	4607
887.523	4622
887.648	4565
887.773	4611
887.897	4759
888.021	4835
888.146	4637
888.27	4816
888.395	4908
888.519	4805
888.643	4805
888.767	4854
888.891	4714
889.015	4603
889.139	4645
889.263	4660
889.387	4752
889.511	4900
889.635	4797
889.759	4649
889.883	4668
890.006	4771
890.13	4771
890.254	4580
890.377	4687
890.501	4558
890.624	4580
890.748	4656
890.871	4474
890.995	4432
891.118	4402
891.241	4554
891.364	4550
891.488	4675
891.611	4523
891.734	4561
891.857	4584
891.98	4554
892.103	4622
892.226	4580
892.349	4546
892.471	4413
892.594	4561
892.717	4615
892.839	4569
892.962	4622
893.085	4634
893.207	4577
893.33	4481
893.452	4535
893.575	4683
893.697	4588
893.819	4755
893.941	4797
894.064	4782
894.186	4588
894.308	4558
894.43	4733
894.552	4809
894.674	4831
894.796	4584
894.918	4607
895.04	4584
895.161	4687
895.283	4664
895.405	4603
895.526	4622
895.648	4683
895.769	4733
895.891	4736
896.012	4702
896.134	4740
896.255	4675
896.376	4645
896.498	4603
896.619	4706
896.74	4611
896.861	4687
896.982	4908
897.103	5045
897.224	4828
897.345	4763
897.466	4691
897.587	4744
897.708	4904
897.828	4790
897.949	4683
898.07	4512
898.19	4626
898.311	4778
898.431	4736
898.552	4786
898.672	4793
898.792	4805
898.913	4755
899.033	4630
899.153	4512
899.273	4455
899.393	4504
899.513	4481
899.633	4546
899.753	4542
899.873	4542
899.993	4558
900.113	4523
900.232	4618
900.352	4573
900.472	4523
900.591	4375
900.711	4519
900.83	4451
900.95	4603
901.069	4675
901.189	4577
901.308	4386
901.427	4310
901.546	4379
901.665	4459
901.784	4489
901.904	4363
902.023	4322
902.141	4173
902.26	4196
902.379	4329
902.498	4234
902.617	4246
902.735	4367
902.854	4405
902.973	4386
903.091	4207
903.21	4223
903.328	4284
903.446	4265
903.565	4257
903.683	4344
903.801	4318
903.919	4367
904.038	4436
904.156	4318
904.274	4409
904.392	4409
904.51	4443
904.627	4451
904.745	4596
904.863	4656
904.981	4440
905.098	4303
905.216	4379
905.334	4447
905.451	4459
905.569	4432
905.686	4519
905.803	4573
905.921	4398
906.038	4573
906.155	4523
906.272	4390
906.389	4462
906.506	4367
906.623	4356
906.74	4413
906.857	4325
906.974	4424
907.091	4603
907.208	4679
907.324	4607
907.441	4516
907.557	4333
907.674	4322
907.79	4322
907.907	4413
908.023	4478
908.139	4478
908.256	4428
908.372	4497
908.488	4436
908.604	4363
908.72	4310
908.836	4356
908.952	4383
909.068	4440
909.184	4626
909.3	4497
909.415	4588
909.531	4577
909.647	4390
909.762	4405
909.878	4337
909.993	4455
910.108	4390
910.224	4428
910.339	4474
910.454	4417
910.57	4428
910.685	4291
910.8	4637
910.915	4637
911.03	4447
911.145	4341
911.259	4363
911.374	4386
911.489	4242
911.604	4299
911.718	4192
911.833	4207
911.947	4093
912.062	4040
912.176	4219
912.291	4253
912.405	4257
912.519	4447
912.633	4481
912.748	4344
912.862	4303
912.976	4211
913.09	4105
913.204	4135
913.318	4261
913.431	4375
913.545	4356
913.659	4405
913.772	4379
913.886	4261
914	4265
914.113	4383
914.226	4447
914.34	4352
914.453	4261
914.566	4466
914.68	4276
914.793	4295
914.906	4177
915.019	4135
915.132	4086
915.245	4177
915.358	4173
915.47	4219
915.583	4272
915.696	4306
915.809	4421
915.921	4379
916.034	4238
916.146	4249
916.259	4272
916.371	4352
916.483	4329
916.595	4276
916.708	4348
916.82	4344
916.932	4325
917.044	4306
917.156	4284
917.268	4185
917.38	4268
917.491	4268
917.603	4337
917.715	4390
917.826	4421
917.938	4360
918.049	4265
918.161	4402
918.272	4550
918.384	4573
918.495	4432
918.606	4299
918.717	4230
918.828	4379
918.939	4344
919.05	4230
919.161	4295
919.272	4116
919.383	4234
919.494	4447
919.604	4618
919.715	4417
919.826	4371
919.936	4421
920.047	4523
920.157	4481
920.267	4744
920.378	4569
920.488	4481
920.598	4683
920.708	4904
920.818	4752
920.928	4744
921.038	4965
921.148	4908
921.258	4656
921.368	4561
921.477	4481
921.587	4459
921.697	4363
921.806	4512
921.916	4432
922.025	4291
922.134	4253
922.244	4272
922.353	4322
922.462	4196
922.571	4112
922.68	4017
922.789	3937
922.898	4044
923.007	3956
923.116	4112
923.224	4071
923.333	4021
923.442	3972
923.55	3979
923.659	4025
923.767	4135
923.876	4010
923.984	4120
924.092	4006
924.201	4078
924.309	4112
924.417	4124
924.525	4059
924.633	4101
924.741	4866
924.849	3937
924.956	4131
925.064	3960
925.172	3941
925.279	4010
925.387	4093
925.494	4067
925.602	4276
925.709	4211
925.816	4067
925.924	4112
926.031	4265
926.138	4169
926.245	4207
926.352	4082
926.459	4261
926.566	4325
926.673	4162
926.779	4063
926.886	4051
926.993	3972
927.099	3956
927.206	3926
927.312	3964
927.419	4025
927.525	4025
927.631	4063
927.737	3991
927.843	3960
927.95	3838
928.056	3953
928.162	3987
928.267	4017
928.373	4592
928.479	4112
928.585	3880
928.69	4010
928.796	4082
928.901	3937
929.007	3865
929.112	3998
929.218	3975
929.323	3896
929.428	3918
929.533	4090
929.638	3884
929.743	3972
929.848	4048
929.953	4010
930.058	3964
930.163	3800
930.267	3827
930.372	3994
930.477	3842
930.581	4086
930.685	3934
930.79	3854
930.894	3865
930.998	3793
931.103	4021
931.207	3713
931.311	3690
931.415	3675
931.519	3545
931.623	3564
