Data from test_V78500241_2130.txt Node
Date: Fri Mar 25 17:03:48 CST 2022
User: usil
Spectrometer: V785-0024
Trigger mode: 0
Integration Time (sec): 4.000000E-1
Scans to average: 1
Nonlinearity correction enabled: false
Boxcar width: 0
Storing dark spectrum: false
XAxis mode: Wavelengths
Number of Pixels in Spectrum: 1024
>>>>>Begin Spectral Data<<<<<
801.071	7940
801.214	8012
801.356	7799
801.499	7799
801.641	7803
801.783	7826
801.926	7947
802.068	7864
802.211	7928
802.353	7978
802.496	7822
802.638	7814
802.78	7868
802.923	7928
803.065	7852
803.208	7822
803.35	7955
803.492	8138
803.635	8195
803.777	7986
803.919	8092
804.061	8473
804.204	8164
804.346	8035
804.488	7967
804.63	8035
804.773	8039
804.915	8111
805.057	8305
805.199	8103
805.341	8145
805.483	8233
805.626	8233
805.768	8096
805.91	8206
806.052	8191
806.194	8130
806.336	8282
806.478	8096
806.62	8088
806.762	8142
806.904	8259
807.046	8480
807.188	8381
807.33	8279
807.472	8305
807.614	8229
807.756	8103
807.898	8016
808.04	7841
808.182	7879
808.324	7940
808.465	7894
808.607	8073
808.749	8130
808.891	8221
809.033	8286
809.174	8164
809.316	8073
809.458	8043
809.6	8050
809.741	8062
809.883	8027
810.025	8073
810.166	8062
810.308	7963
810.45	8039
810.591	7879
810.733	7689
810.875	7655
811.016	7521
811.158	7453
811.299	7540
811.441	7708
811.582	7712
811.724	7556
811.865	7533
812.007	7590
812.148	7575
812.29	7636
812.431	7723
812.573	7909
812.714	8031
812.855	8123
812.997	8259
813.138	8263
813.279	8176
813.421	8054
813.562	7898
813.703	7860
813.845	7753
813.986	7430
814.127	7244
814.268	7232
814.41	7209
814.551	7133
814.692	7221
814.833	7072
814.974	7137
815.115	7160
815.256	6962
815.397	6901
815.539	6863
815.68	6829
815.821	6779
815.962	6863
816.103	6779
816.244	6730
816.385	6635
816.526	6635
816.666	6456
816.807	6346
816.948	6448
817.089	6502
817.23	6410
817.371	6311
817.512	6338
817.653	6372
817.793	6346
817.934	6437
818.075	6437
818.216	6445
818.356	6407
818.497	6251
818.638	6106
818.778	6121
818.919	6163
819.06	6175
819.2	6327
819.341	6350
819.481	6361
819.622	6528
819.762	6764
819.903	6692
820.043	6517
820.184	6525
820.324	6582
820.465	6677
820.605	6669
820.746	6662
820.886	6513
821.026	6696
821.167	6722
821.307	6821
821.447	6753
821.588	6692
821.728	6574
821.868	6506
822.008	6342
822.149	6353
822.289	6361
822.429	6148
822.569	6144
822.709	6114
822.849	5897
822.99	5893
823.13	5935
823.27	5942
823.41	5760
823.55	5764
823.69	5733
823.83	5741
823.97	5726
824.11	5543
824.25	5467
824.389	5604
824.529	5577
824.669	5520
824.809	5596
824.949	5627
825.089	5615
825.228	5505
825.368	5357
825.508	5334
825.648	5357
825.787	5345
825.927	5353
826.067	5273
826.206	5265
826.346	5353
826.485	5421
826.625	5383
826.765	5497
826.904	5505
827.044	5201
827.183	5223
827.323	5105
827.462	5254
827.601	5147
827.741	5140
827.88	5220
828.02	5060
828.159	5147
828.298	5299
828.437	5436
828.577	5318
828.716	5417
828.855	5311
828.994	5147
829.134	5166
829.273	5174
829.412	5140
829.551	5109
829.69	5151
829.829	5273
829.968	5391
830.107	5204
830.246	5284
830.385	5155
830.524	5147
830.663	5022
830.802	4999
830.941	4881
831.08	4896
831.219	4991
831.357	4972
831.496	5166
831.635	4934
831.774	4835
831.913	4831
832.051	4736
832.19	4755
832.329	4866
832.467	4672
832.606	4649
832.744	4721
832.883	4755
833.022	4778
833.16	4763
833.299	4797
833.437	4828
833.576	4824
833.714	4873
833.852	4866
833.991	4908
834.129	4927
834.267	4942
834.406	4881
834.544	4987
834.682	4968
834.821	4961
834.959	5204
835.097	4938
835.235	5098
835.373	5075
835.511	5109
835.65	5045
835.788	4976
835.926	4904
836.064	4858
836.202	4927
836.34	5140
836.478	5204
836.615	5147
836.753	5189
836.891	5315
837.029	5250
837.167	5223
837.305	5147
837.443	5166
837.58	5090
837.718	5201
837.856	5105
837.993	5155
838.131	5265
838.269	5204
838.406	5235
838.544	5197
838.681	4987
838.819	4987
838.956	4877
839.094	4866
839.231	4949
839.369	5052
839.506	5448
839.643	5216
839.781	5045
839.918	4980
840.055	5109
840.193	5086
840.33	5094
840.467	5132
840.604	5174
840.742	5433
840.879	5124
841.016	5121
841.153	5102
841.29	5417
841.427	5303
841.564	5265
841.701	5372
841.838	5231
841.975	5242
842.112	5189
842.249	5166
842.385	5033
842.522	5288
842.659	5170
842.796	5155
842.933	5212
843.069	5136
843.206	5162
843.343	5280
843.479	5208
843.616	5269
843.752	5048
843.889	5060
844.025	5231
844.162	5022
844.298	5193
844.435	5155
844.571	5102
844.708	5193
844.844	5364
844.98	5307
845.117	5280
845.253	5143
845.389	5041
845.525	5181
845.661	5159
845.798	5048
845.934	5056
846.07	5060
846.206	5197
846.342	5258
846.478	5147
846.614	5022
846.75	4968
846.886	4942
847.022	5052
847.158	5025
847.294	5090
847.429	5064
847.565	5014
847.701	5326
847.837	4870
847.972	4843
848.108	4911
848.244	4885
848.379	4748
848.515	4706
848.65	4706
848.786	4698
848.921	4782
849.057	4866
849.192	4896
849.328	4816
849.463	4862
849.598	4809
849.734	4763
849.869	4675
850.004	4630
850.14	4672
850.275	4630
850.41	4512
850.545	4573
850.68	4592
850.815	4611
850.95	4550
851.085	4870
851.22	4714
851.355	4641
851.49	4611
851.625	4649
851.76	4626
851.895	4546
852.03	4546
852.165	4637
852.299	4733
852.434	4786
852.569	4733
852.703	4801
852.838	4816
852.973	4873
853.107	4870
853.242	4759
853.376	4645
853.511	4588
853.645	4641
853.78	4774
853.914	4694
854.048	4618
854.183	4668
854.317	4664
854.451	4858
854.585	4641
854.72	4653
854.854	4736
854.988	4596
855.122	4637
855.256	4535
855.39	4683
855.524	4729
855.658	4702
855.792	4653
855.926	4675
856.06	4721
856.194	4797
856.327	4691
856.461	4596
856.595	4573
856.729	4599
856.862	4736
856.996	4710
857.13	4752
857.263	4793
857.397	4763
857.53	4637
857.664	4710
857.797	4782
857.931	4812
858.064	4694
858.197	4763
858.331	4675
858.464	4603
858.597	4546
858.731	4634
858.864	4656
858.997	4577
859.13	4672
859.263	4641
859.396	4694
859.529	4607
859.662	4531
859.795	4489
859.928	4634
860.061	4752
860.194	4793
860.327	4569
860.46	4538
860.592	4740
860.725	4717
860.858	4694
860.99	4584
861.123	4550
861.256	4516
861.388	4584
861.521	5372
861.653	4500
861.786	4413
861.918	4500
862.05	4535
862.183	4481
862.315	4645
862.447	4645
862.58	4580
862.712	4386
862.844	4310
862.976	4478
863.108	4447
863.24	4801
863.372	4318
863.504	4436
863.636	4363
863.768	4508
863.9	4432
864.032	4371
864.164	4424
864.296	4538
864.428	4516
864.559	4596
864.691	4500
864.823	4481
864.954	4466
865.086	4542
865.217	4459
865.349	4379
865.48	4466
865.612	4470
865.743	4607
865.875	4497
866.006	4451
866.137	4447
866.269	4455
866.4	4405
866.531	4470
866.662	4405
866.793	4402
866.924	4447
867.055	4516
867.186	4451
867.317	4383
867.448	4375
867.579	4386
867.71	4352
867.841	4352
867.972	4489
868.103	4455
868.233	4474
868.364	4402
868.495	4489
868.625	4664
868.756	4797
868.886	4588
869.017	4580
869.147	4778
869.278	4748
869.408	4679
869.539	4599
869.669	4691
869.799	4668
869.929	4733
870.06	4710
870.19	4915
870.32	4881
870.45	4915
870.58	5010
870.71	5060
870.84	5098
870.97	4942
871.1	4877
871.23	5098
871.36	5079
871.489	5048
871.619	5094
871.749	5071
871.879	5121
872.008	5162
872.138	5064
872.267	4987
872.397	4828
872.526	4790
872.656	4668
872.785	4835
872.915	4976
873.044	5029
873.173	4915
873.303	4961
873.432	4980
873.561	4980
873.69	4862
873.819	4831
873.948	4892
874.077	4847
874.206	4778
874.335	4797
874.464	4961
874.593	5010
874.722	4934
874.851	5052
874.979	5041
875.108	5045
875.237	4915
875.365	4847
875.494	4881
875.623	4999
875.751	4816
875.88	4885
876.008	5003
876.136	5010
876.265	5151
876.393	5341
876.521	5239
876.65	5201
876.778	5128
876.906	5052
877.034	5018
877.162	5014
877.29	4980
877.418	5045
877.546	5029
877.674	5079
877.802	5075
877.93	5048
878.058	4889
878.185	4889
878.313	4972
878.441	5010
878.568	4805
878.696	4862
878.824	4961
878.951	4972
879.079	5155
879.206	5273
879.333	5143
879.461	5022
879.588	5029
879.715	5079
879.842	5189
879.97	4980
880.097	4812
880.224	4733
880.351	4763
880.478	4797
880.605	4771
880.732	4759
880.859	5094
880.986	4896
881.112	4930
881.239	4797
881.366	4653
881.493	4596
881.619	4626
881.746	4607
881.872	4626
881.999	4641
882.125	4664
882.252	4801
882.378	4809
882.505	4919
882.631	4824
882.757	4675
882.883	4691
883.01	4687
883.136	4649
883.262	4596
883.388	4584
883.514	4812
883.64	4812
883.766	4782
883.892	4679
884.018	4725
884.143	4877
884.269	5029
884.395	4691
884.52	4645
884.646	4725
884.772	4607
884.897	4523
885.023	4637
885.148	4774
885.274	4858
885.399	4816
885.524	4717
885.65	4622
885.775	4694
885.9	4683
886.025	4873
886.15	4771
886.275	4679
886.4	4641
886.525	4736
886.65	4656
886.775	4702
886.9	4870
887.025	5029
887.149	4801
887.274	4611
887.399	4622
887.523	4558
887.648	4592
887.773	4561
887.897	4717
888.021	4793
888.146	4660
888.27	4816
888.395	4900
888.519	4801
888.643	4816
888.767	4809
888.891	4706
889.015	4592
889.139	4645
889.263	4580
889.387	4744
889.511	4793
889.635	4767
889.759	4649
889.883	4660
890.006	4702
890.13	4797
890.254	4618
890.377	4653
890.501	4596
890.624	4504
890.748	4626
890.871	4527
890.995	4470
891.118	4409
891.241	4519
891.364	4512
891.488	4599
891.611	4413
891.734	4577
891.857	4569
891.98	4527
892.103	4641
892.226	4584
892.349	4527
892.471	4436
892.594	4569
892.717	4580
892.839	4527
892.962	4569
893.085	4668
893.207	4607
893.33	4481
893.452	4489
893.575	4675
893.697	4554
893.819	4824
893.941	4831
894.064	4748
894.186	4554
894.308	4565
894.43	4721
894.552	4835
894.674	4740
894.796	4542
894.918	4630
895.04	4596
895.161	4714
895.283	4634
895.405	4588
895.526	4622
895.648	4649
895.769	4679
895.891	4698
896.012	4748
896.134	4748
896.255	4698
896.376	4618
896.498	4622
896.619	4679
896.74	4660
896.861	4660
896.982	4930
897.103	5098
897.224	4850
897.345	4744
897.466	4714
897.587	4694
897.708	4847
897.828	4793
897.949	4645
898.07	4554
898.19	4630
898.311	4782
898.431	4698
898.552	4736
898.672	4782
898.792	4759
898.913	4706
899.033	4615
899.153	4497
899.273	4428
899.393	4478
899.513	4489
899.633	4527
899.753	4546
899.873	4554
899.993	4630
900.113	4542
900.232	4546
900.352	4500
900.472	4550
900.591	4398
900.711	4527
900.83	4421
900.95	4577
901.069	4672
901.189	4561
901.308	4386
901.427	4272
901.546	4352
901.665	4462
901.784	4504
901.904	4413
902.023	4333
902.141	4204
902.26	4169
902.379	4333
902.498	4257
902.617	4211
902.735	4375
902.854	4424
902.973	4341
903.091	4234
903.21	4230
903.328	4325
903.446	4287
903.565	4291
903.683	4360
903.801	4227
903.919	4360
904.038	4417
904.156	4322
904.274	4409
904.392	4348
904.51	4417
904.627	4497
904.745	4558
904.863	4577
904.981	4394
905.098	4333
905.216	4325
905.334	4424
905.451	4417
905.569	4421
905.686	4538
905.803	4584
905.921	4394
906.038	4512
906.155	4466
906.272	4436
906.389	4436
906.506	4383
906.623	4371
906.74	4409
906.857	4337
906.974	4371
907.091	4580
907.208	4702
907.324	4580
907.441	4470
907.557	4398
907.674	4348
907.79	4318
907.907	4386
908.023	4481
908.139	4455
908.256	4447
908.372	4443
908.488	4424
908.604	4363
908.72	4356
908.836	4341
908.952	4341
909.068	4413
909.184	4569
909.3	4451
909.415	4615
909.531	4607
909.647	4333
909.762	4390
909.878	4356
909.993	4424
910.108	4409
910.224	4394
910.339	4523
910.454	4375
910.57	4367
910.685	4287
910.8	4649
910.915	4565
911.03	4466
911.145	4299
911.259	4394
911.374	4375
911.489	4242
911.604	4268
911.718	4154
911.833	4207
911.947	4105
912.062	4021
912.176	4223
912.291	4230
912.405	4268
912.519	4436
912.633	4512
912.748	4383
912.862	4318
912.976	4215
913.09	4059
913.204	4177
913.318	4227
913.431	4348
913.545	4352
913.659	4462
913.772	4405
913.886	4188
914	4223
914.113	4375
914.226	4481
914.34	4344
914.453	4215
914.566	4417
914.68	4306
914.793	4284
914.906	4124
915.019	4093
915.132	4101
915.245	4215
915.358	4196
915.47	4238
915.583	4287
915.696	4280
915.809	4421
915.921	4367
916.034	4249
916.146	4185
916.259	4207
916.371	4371
916.483	4394
916.595	4261
916.708	4280
916.82	4310
916.932	4299
917.044	4299
917.156	4348
917.268	4207
917.38	4257
917.491	4310
917.603	4341
917.715	4405
917.826	4398
917.938	4371
918.049	4227
918.161	4413
918.272	4508
918.384	4542
918.495	4443
918.606	4322
918.717	4204
918.828	4310
918.939	4348
919.05	4211
919.161	4318
919.272	4139
919.383	4223
919.494	4478
919.604	4626
919.715	4459
919.826	4379
919.936	4367
920.047	4504
920.157	4493
920.267	4706
920.378	4508
920.488	4455
920.598	4679
920.708	4885
920.818	4774
920.928	4759
921.038	4904
921.148	4889
921.258	4656
921.368	4550
921.477	4474
921.587	4474
921.697	4383
921.806	4588
921.916	4440
922.025	4299
922.134	4265
922.244	4238
922.353	4322
922.462	4169
922.571	4120
922.68	4032
922.789	3994
922.898	4017
923.007	3956
923.116	4090
923.224	4055
923.333	4078
923.442	3964
923.55	3960
923.659	4048
923.767	4074
923.876	3994
923.984	4181
924.092	3968
924.201	4036
924.309	4105
924.417	4112
924.525	4059
924.633	4036
924.741	5090
924.849	3945
924.956	4211
925.064	3975
925.172	3930
925.279	3949
925.387	4013
925.494	4090
925.602	4181
925.709	4177
925.816	4048
925.924	4128
926.031	4242
926.138	4131
926.245	4207
926.352	4101
926.459	4261
926.566	4268
926.673	4131
926.779	4067
926.886	4090
926.993	3994
927.099	3934
927.206	3937
927.312	3888
927.419	4051
927.525	4048
927.631	4074
927.737	3987
927.843	3930
927.95	3831
928.056	3975
928.162	3968
928.267	4006
928.373	4580
928.479	4109
928.585	3854
928.69	3964
928.796	4067
928.901	3975
929.007	3831
929.112	4006
929.218	3953
929.323	3937
929.428	3956
929.533	4120
929.638	3941
929.743	3949
929.848	4017
929.953	3975
930.058	3922
930.163	3781
930.267	3846
930.372	3964
930.477	3835
930.581	4097
930.685	3918
930.79	3816
930.894	3861
930.998	3876
931.103	3987
931.207	3694
931.311	3682
931.415	3667
931.519	3515
931.623	3511
