Data from test_V78500241_2243.txt Node
Date: Fri Mar 25 17:04:35 CST 2022
User: usil
Spectrometer: V785-0024
Trigger mode: 0
Integration Time (sec): 4.000000E-1
Scans to average: 1
Nonlinearity correction enabled: false
Boxcar width: 0
Storing dark spectrum: false
XAxis mode: Wavelengths
Number of Pixels in Spectrum: 1024
>>>>>Begin Spectral Data<<<<<
801.071	7944
801.214	8008
801.356	7947
801.499	7837
801.641	7807
801.783	7871
801.926	8005
802.068	7917
802.211	8001
802.353	8031
802.496	7963
802.638	7868
802.78	7955
802.923	7951
803.065	7909
803.208	7852
803.35	8005
803.492	8176
803.635	8138
803.777	7982
803.919	8187
804.061	8484
804.204	8149
804.346	8065
804.488	7970
804.63	8153
804.773	7997
804.915	8065
805.057	8267
805.199	8202
805.341	8206
805.483	8252
805.626	8195
805.768	8062
805.91	8221
806.052	8244
806.194	8138
806.336	8263
806.478	8119
806.62	8119
806.762	8142
806.904	8267
807.046	8480
807.188	8393
807.33	8301
807.472	8301
807.614	8180
807.756	8237
807.898	8020
808.04	7902
808.182	7917
808.324	7814
808.465	7864
808.607	8016
808.749	8065
808.891	8210
809.033	8343
809.174	8142
809.316	8092
809.458	8115
809.6	8065
809.741	8039
809.883	8008
810.025	8088
810.166	8111
810.308	8054
810.45	7921
810.591	7883
810.733	7674
810.875	7681
811.016	7521
811.158	7476
811.299	7594
811.441	7715
811.582	7715
811.724	7590
811.865	7563
812.007	7616
812.148	7578
812.29	7597
812.431	7757
812.573	7830
812.714	7989
812.855	8142
812.997	8210
813.138	8328
813.279	8172
813.421	8024
813.562	7925
813.703	7833
813.845	7704
813.986	7407
814.127	7308
814.268	7232
814.41	7187
814.551	7209
814.692	7274
814.833	7198
814.974	7137
815.115	7145
815.256	7023
815.397	6966
815.539	7015
815.68	6798
815.821	6802
815.962	6798
816.103	6867
816.244	6753
816.385	6635
816.526	6673
816.666	6448
816.807	6296
816.948	6429
817.089	6433
817.23	6483
817.371	6414
817.512	6395
817.653	6376
817.793	6353
817.934	6426
818.075	6441
818.216	6384
818.356	6422
818.497	6319
818.638	6197
818.778	6155
818.919	6220
819.06	6167
819.2	6315
819.341	6357
819.481	6361
819.622	6563
819.762	6715
819.903	6711
820.043	6540
820.184	6551
820.324	6646
820.465	6665
820.605	6719
820.746	6681
820.886	6551
821.026	6662
821.167	6719
821.307	6802
821.447	6730
821.588	6688
821.728	6623
821.868	6525
822.008	6342
822.149	6350
822.289	6418
822.429	6136
822.569	6087
822.709	6121
822.849	5946
822.99	5912
823.13	5942
823.27	5882
823.41	5817
823.55	5790
823.69	5741
823.83	5794
823.97	5680
824.11	5577
824.25	5570
824.389	5558
824.529	5634
824.669	5577
824.809	5638
824.949	5638
825.089	5596
825.228	5547
825.368	5395
825.508	5360
825.648	5406
825.787	5383
825.927	5398
826.067	5303
826.206	5307
826.346	5395
826.485	5414
826.625	5414
826.765	5562
826.904	5505
827.044	5277
827.183	5273
827.323	5132
827.462	5254
827.601	5181
827.741	5212
827.88	5239
828.02	5094
828.159	5250
828.298	5326
828.437	5402
828.577	5311
828.716	5505
828.855	5345
828.994	5185
829.134	5155
829.273	5162
829.412	5121
829.551	5121
829.69	5140
829.829	5277
829.968	5398
830.107	5265
830.246	5307
830.385	5201
830.524	5121
830.663	5064
830.802	4995
830.941	4915
831.08	4843
831.219	4946
831.357	4953
831.496	5185
831.635	4881
831.774	4892
831.913	4847
832.051	4714
832.19	4736
832.329	4877
832.467	4683
832.606	4660
832.744	4702
832.883	4752
833.022	4683
833.16	4771
833.299	4881
833.437	4774
833.576	4858
833.714	4820
833.852	4816
833.991	4885
834.129	4946
834.267	4976
834.406	4904
834.544	5003
834.682	4976
834.821	4938
834.959	5197
835.097	4999
835.235	5166
835.373	5090
835.511	5117
835.65	4972
835.788	5029
835.926	4911
836.064	4854
836.202	4892
836.34	5143
836.478	5204
836.615	5174
836.753	5181
836.891	5288
837.029	5231
837.167	5159
837.305	5193
837.443	5113
837.58	5083
837.718	5254
837.856	5201
837.993	5132
838.131	5254
838.269	5197
838.406	5204
838.544	5170
838.681	5041
838.819	4965
838.956	4877
839.094	4942
839.231	4991
839.369	5064
839.506	5410
839.643	5265
839.781	5094
839.918	4995
840.055	5075
840.193	5052
840.33	5128
840.467	5151
840.604	5166
840.742	5463
840.879	5094
841.016	5037
841.153	5143
841.29	5410
841.427	5315
841.564	5299
841.701	5364
841.838	5227
841.975	5277
842.112	5265
842.249	5140
842.385	5105
842.522	5315
842.659	5170
842.796	5128
842.933	5239
843.069	5174
843.206	5132
843.343	5299
843.479	5261
843.616	5265
843.752	5025
843.889	4976
844.025	5212
844.162	5010
844.298	5242
844.435	5102
844.571	5048
844.708	5162
844.844	5277
844.98	5334
845.117	5318
845.253	5151
845.389	5109
845.525	5197
845.661	5159
845.798	5022
845.934	5098
846.07	5033
846.206	5155
846.342	5307
846.478	5140
846.614	5075
846.75	4961
846.886	4965
847.022	5121
847.158	4987
847.294	5010
847.429	5048
847.565	5048
847.701	5360
847.837	4881
847.972	4820
848.108	4923
848.244	4957
848.379	4774
848.515	4721
848.65	4733
848.786	4721
848.921	4812
849.057	4862
849.192	4892
849.328	4816
849.463	4835
849.598	4778
849.734	4786
849.869	4698
850.004	4626
850.14	4767
850.275	4656
850.41	4546
850.545	4603
850.68	4603
850.815	4618
850.95	4622
851.085	4816
851.22	4717
851.355	4649
851.49	4599
851.625	4634
851.76	4615
851.895	4584
852.03	4546
852.165	4653
852.299	4698
852.434	4767
852.569	4694
852.703	4733
852.838	4835
852.973	4900
853.107	4896
853.242	4736
853.376	4683
853.511	4550
853.645	4592
853.78	4748
853.914	4660
854.048	4634
854.183	4664
854.317	4691
854.451	4831
854.585	4679
854.72	4683
854.854	4767
854.988	4653
855.122	4615
855.256	4523
855.39	4679
855.524	4771
855.658	4694
855.792	4694
855.926	4721
856.06	4763
856.194	4744
856.327	4683
856.461	4573
856.595	4618
856.729	4645
856.862	4717
856.996	4668
857.13	4725
857.263	4752
857.397	4786
857.53	4618
857.664	4721
857.797	4748
857.931	4759
858.064	4691
858.197	4729
858.331	4645
858.464	4554
858.597	4527
858.731	4634
858.864	4641
858.997	4611
859.13	4630
859.263	4672
859.396	4668
859.529	4592
859.662	4519
859.795	4546
859.928	4611
860.061	4767
860.194	4744
860.327	4603
860.46	4546
860.592	4710
860.725	4702
860.858	4714
860.99	4569
861.123	4516
861.256	4508
861.388	4611
861.521	5303
861.653	4455
861.786	4474
861.918	4455
862.05	4516
862.183	4550
862.315	4630
862.447	4672
862.58	4546
862.712	4375
862.844	4344
862.976	4504
863.108	4493
863.24	4900
863.372	4333
863.504	4421
863.636	4402
863.768	4451
863.9	4417
864.032	4383
864.164	4413
864.296	4478
864.428	4565
864.559	4569
864.691	4512
864.823	4523
864.954	4508
865.086	4474
865.217	4493
865.349	4424
865.48	4440
865.612	4508
865.743	4611
865.875	4481
866.006	4398
866.137	4462
866.269	4402
866.4	4417
866.531	4474
866.662	4443
866.793	4398
866.924	4432
867.055	4519
867.186	4481
867.317	4436
867.448	4375
867.579	4409
867.71	4367
867.841	4291
867.972	4432
868.103	4481
868.233	4417
868.364	4440
868.495	4474
868.625	4634
868.756	4736
868.886	4546
869.017	4603
869.147	4725
869.278	4786
869.408	4634
869.539	4626
869.669	4755
869.799	4637
869.929	4752
870.06	4710
870.19	4946
870.32	4965
870.45	4911
870.58	4972
870.71	5098
870.84	5105
870.97	4930
871.1	4816
871.23	5117
871.36	5159
871.489	5056
871.619	5075
871.749	5067
871.879	5136
872.008	5159
872.138	5067
872.267	4957
872.397	4847
872.526	4797
872.656	4714
872.785	4736
872.915	5010
873.044	5014
873.173	4949
873.303	4961
873.432	4942
873.561	4961
873.69	4870
873.819	4835
873.948	4896
874.077	4812
874.206	4706
874.335	4850
874.464	4927
874.593	5041
874.722	4987
874.851	5090
874.979	5079
875.108	5067
875.237	4870
875.365	4866
875.494	4896
875.623	4991
875.751	4831
875.88	4877
876.008	4972
876.136	5048
876.265	5220
876.393	5288
876.521	5273
876.65	5265
876.778	5117
876.906	5041
877.034	5033
877.162	5060
877.29	5014
877.418	5052
877.546	5010
877.674	5079
877.802	5052
877.93	4999
878.058	4919
878.185	4889
878.313	4995
878.441	4911
878.568	4854
878.696	4847
878.824	4980
878.951	5003
879.079	5079
879.206	5254
879.333	5136
879.461	4976
879.588	4980
879.715	5056
879.842	5261
879.97	4976
880.097	4831
880.224	4778
880.351	4748
880.478	4847
880.605	4805
880.732	4767
880.859	5109
880.986	4927
881.112	4889
881.239	4759
881.366	4687
881.493	4596
881.619	4588
881.746	4607
881.872	4588
881.999	4649
882.125	4679
882.252	4740
882.378	4801
882.505	4987
882.631	4816
882.757	4660
882.883	4748
883.01	4740
883.136	4664
883.262	4577
883.388	4611
883.514	4858
883.64	4885
883.766	4797
883.892	4694
884.018	4729
884.143	4904
884.269	5003
884.395	4694
884.52	4596
884.646	4596
884.772	4592
884.897	4558
885.023	4592
885.148	4744
885.274	4862
885.399	4752
885.524	4710
885.65	4653
885.775	4714
885.9	4706
886.025	4850
886.15	4778
886.275	4729
886.4	4649
886.525	4702
886.65	4660
886.775	4687
886.9	4870
887.025	5083
887.149	4812
887.274	4664
887.399	4561
887.523	4592
887.648	4599
887.773	4584
887.897	4771
888.021	4744
888.146	4683
888.27	4843
888.395	4896
888.519	4828
888.643	4809
888.767	4782
888.891	4618
889.015	4561
889.139	4630
889.263	4596
889.387	4752
889.511	4839
889.635	4767
889.759	4637
889.883	4694
890.006	4714
890.13	4839
890.254	4596
890.377	4698
890.501	4573
890.624	4497
890.748	4664
890.871	4489
890.995	4459
891.118	4405
891.241	4497
891.364	4504
891.488	4653
891.611	4531
891.734	4577
891.857	4592
891.98	4554
892.103	4577
892.226	4565
892.349	4542
892.471	4413
892.594	4535
892.717	4584
892.839	4596
892.962	4607
893.085	4660
893.207	4584
893.33	4493
893.452	4497
893.575	4630
893.697	4580
893.819	4771
893.941	4786
894.064	4759
894.186	4603
894.308	4577
894.43	4733
894.552	4782
894.674	4752
894.796	4558
894.918	4637
895.04	4546
895.161	4672
895.283	4641
895.405	4550
895.526	4615
895.648	4687
895.769	4675
895.891	4714
896.012	4698
896.134	4759
896.255	4694
896.376	4653
896.498	4618
896.619	4645
896.74	4637
896.861	4603
896.982	4900
897.103	5083
897.224	4793
897.345	4797
897.466	4668
897.587	4706
897.708	4778
897.828	4782
897.949	4649
898.07	4588
898.19	4653
898.311	4824
898.431	4717
898.552	4710
898.672	4828
898.792	4828
898.913	4733
899.033	4622
899.153	4455
899.273	4424
899.393	4462
899.513	4558
899.633	4561
899.753	4504
899.873	4512
899.993	4561
900.113	4470
900.232	4565
900.352	4535
900.472	4519
900.591	4413
900.711	4462
900.83	4462
900.95	4615
901.069	4653
901.189	4542
901.308	4371
901.427	4314
901.546	4371
901.665	4459
901.784	4531
901.904	4402
902.023	4303
902.141	4196
902.26	4131
902.379	4322
902.498	4249
902.617	4192
902.735	4394
902.854	4386
902.973	4344
903.091	4253
903.21	4238
903.328	4314
903.446	4249
903.565	4284
903.683	4318
903.801	4306
903.919	4348
904.038	4432
904.156	4363
904.274	4386
904.392	4390
904.51	4455
904.627	4451
904.745	4535
904.863	4573
904.981	4390
905.098	4299
905.216	4383
905.334	4402
905.451	4390
905.569	4398
905.686	4542
905.803	4603
905.921	4390
906.038	4542
906.155	4466
906.272	4398
906.389	4432
906.506	4337
906.623	4363
906.74	4371
906.857	4291
906.974	4329
907.091	4561
907.208	4672
907.324	4573
907.441	4500
907.557	4322
907.674	4337
907.79	4299
907.907	4360
908.023	4558
908.139	4489
908.256	4428
908.372	4455
908.488	4432
908.604	4352
908.72	4337
908.836	4360
908.952	4363
909.068	4428
909.184	4527
909.3	4455
909.415	4561
909.531	4512
909.647	4322
909.762	4379
909.878	4413
909.993	4428
910.108	4459
910.224	4432
910.339	4447
910.454	4390
910.57	4379
910.685	4322
910.8	4630
910.915	4584
911.03	4535
911.145	4314
911.259	4299
911.374	4356
911.489	4291
911.604	4249
911.718	4166
911.833	4219
911.947	4082
912.062	4013
912.176	4185
912.291	4234
912.405	4246
912.519	4493
912.633	4493
912.748	4363
912.862	4280
912.976	4211
913.09	4090
913.204	4158
913.318	4246
913.431	4352
913.545	4341
913.659	4394
913.772	4375
913.886	4227
914	4200
914.113	4379
914.226	4421
914.34	4356
914.453	4219
914.566	4417
914.68	4306
914.793	4329
914.906	4177
915.019	4093
915.132	4105
915.245	4188
915.358	4192
915.47	4249
915.583	4253
915.696	4303
915.809	4383
915.921	4390
916.034	4246
916.146	4246
916.259	4207
916.371	4383
916.483	4341
916.595	4238
916.708	4314
916.82	4318
916.932	4299
917.044	4337
917.156	4356
917.268	4253
917.38	4295
917.491	4272
917.603	4318
917.715	4413
917.826	4440
917.938	4337
918.049	4257
918.161	4375
918.272	4580
918.384	4527
918.495	4455
918.606	4272
918.717	4268
918.828	4314
918.939	4344
919.05	4238
919.161	4367
919.272	4090
919.383	4265
919.494	4421
919.604	4607
919.715	4409
919.826	4333
919.936	4405
920.047	4489
920.157	4508
920.267	4691
920.378	4497
920.488	4527
920.598	4702
920.708	4866
920.818	4778
920.928	4763
921.038	4946
921.148	4889
921.258	4660
921.368	4550
921.477	4516
921.587	4474
921.697	4363
921.806	4550
921.916	4417
922.025	4257
922.134	4284
922.244	4265
922.353	4325
922.462	4169
922.571	4147
922.68	4051
922.789	3949
922.898	4025
923.007	3979
923.116	4074
923.224	4044
923.333	4055
923.442	3983
923.55	3960
923.659	4032
923.767	4074
923.876	4017
923.984	4128
924.092	3968
924.201	4093
924.309	4082
924.417	4101
924.525	4063
924.633	4090
924.741	4991
924.849	3873
924.956	4105
925.064	3949
925.172	3896
925.279	3964
925.387	4067
925.494	4059
925.602	4162
925.709	4173
925.816	4032
925.924	4154
926.031	4204
926.138	4147
926.245	4215
926.352	4093
926.459	4276
926.566	4329
926.673	4147
926.779	4082
926.886	4051
926.993	3964
927.099	3926
927.206	3975
927.312	3968
927.419	4048
927.525	4059
927.631	4105
927.737	3964
927.843	3934
927.95	3800
928.056	3964
928.162	3979
928.267	4051
928.373	4653
928.479	4139
928.585	3823
928.69	4017
928.796	4082
928.901	3968
929.007	3857
929.112	3994
929.218	3972
929.323	3953
929.428	3949
929.533	4067
929.638	3922
929.743	3975
929.848	4082
929.953	4029
930.058	3918
930.163	3797
930.267	3850
930.372	3956
930.477	3823
930.581	4101
930.685	3949
930.79	3846
930.894	3880
930.998	3850
931.103	4044
931.207	3694
931.311	3736
931.415	3713
931.519	3523
931.623	3572
