Data from test_V78500241_159.txt Node
Date: Fri Mar 25 16:50:06 CST 2022
User: usil
Spectrometer: V785-0024
Trigger mode: 0
Integration Time (sec): 4.000000E-1
Scans to average: 1
Nonlinearity correction enabled: false
Boxcar width: 0
Storing dark spectrum: false
XAxis mode: Wavelengths
Number of Pixels in Spectrum: 1024
>>>>>Begin Spectral Data<<<<<
801.071	8065
801.214	8005
801.356	7818
801.499	7879
801.641	7811
801.783	7818
801.926	8046
802.068	7993
802.211	8073
802.353	8008
802.496	7849
802.638	7928
802.78	7997
802.923	7959
803.065	7845
803.208	7822
803.35	7887
803.492	8073
803.635	8164
803.777	7993
803.919	8039
804.061	8396
804.204	8115
804.346	7982
804.488	7951
804.63	8115
804.773	7940
804.915	8153
805.057	8206
805.199	8084
805.341	8240
805.483	8298
805.626	8218
805.768	8073
805.91	8191
806.052	8191
806.194	8111
806.336	8301
806.478	8058
806.62	8043
806.762	8142
806.904	8279
807.046	8427
807.188	8320
807.33	8320
807.472	8332
807.614	8153
807.756	8195
807.898	8031
808.04	7890
808.182	7906
808.324	7898
808.465	7959
808.607	8077
808.749	8134
808.891	8214
809.033	8309
809.174	8183
809.316	7970
809.458	8134
809.6	7944
809.741	8027
809.883	7982
810.025	8077
810.166	8088
810.308	8031
810.45	8008
810.591	7989
810.733	7856
810.875	7670
811.016	7616
811.158	7491
811.299	7613
811.441	7761
811.582	7757
811.724	7609
811.865	7582
812.007	7613
812.148	7651
812.29	7662
812.431	7833
812.573	7974
812.714	8027
812.855	8259
812.997	8377
813.138	8343
813.279	8244
813.421	8073
813.562	8012
813.703	7856
813.845	7833
813.986	7483
814.127	7251
814.268	7251
814.41	7251
814.551	7179
814.692	7263
814.833	7080
814.974	7244
815.115	7175
815.256	6989
815.397	6977
815.539	7031
815.68	6859
815.821	6833
815.962	6886
816.103	6779
816.244	6730
816.385	6631
816.526	6681
816.666	6612
816.807	6361
816.948	6490
817.089	6464
817.23	6551
817.371	6429
817.512	6407
817.653	6414
817.793	6315
817.934	6380
818.075	6506
818.216	6467
818.356	6384
818.497	6243
818.638	6087
818.778	6102
818.919	6171
819.06	6140
819.2	6342
819.341	6327
819.481	6361
819.622	6479
819.762	6684
819.903	6669
820.043	6612
820.184	6585
820.324	6604
820.465	6696
820.605	6673
820.746	6662
820.886	6506
821.026	6703
821.167	6734
821.307	6760
821.447	6779
821.588	6677
821.728	6601
821.868	6506
822.008	6391
822.149	6380
822.289	6380
822.429	6133
822.569	6057
822.709	6095
822.849	5878
822.99	5878
823.13	5912
823.27	5893
823.41	5794
823.55	5863
823.69	5790
823.83	5824
823.97	5661
824.11	5596
824.25	5566
824.389	5627
824.529	5577
824.669	5558
824.809	5703
824.949	5661
825.089	5684
825.228	5520
825.368	5467
825.508	5391
825.648	5376
825.787	5391
825.927	5421
826.067	5307
826.206	5353
826.346	5372
826.485	5444
826.625	5440
826.765	5585
826.904	5440
827.044	5288
827.183	5204
827.323	5155
827.462	5292
827.601	5174
827.741	5189
827.88	5258
828.02	5181
828.159	5239
828.298	5330
828.437	5391
828.577	5280
828.716	5425
828.855	5315
828.994	5143
829.134	5140
829.273	5201
829.412	5174
829.551	5159
829.69	5189
829.829	5311
829.968	5406
830.107	5273
830.246	5292
830.385	5178
830.524	5140
830.663	5041
830.802	4968
830.941	4961
831.08	4885
831.219	4984
831.357	4980
831.496	5109
831.635	4915
831.774	4923
831.913	4873
832.051	4706
832.19	4733
832.329	4854
832.467	4759
832.606	4668
832.744	4748
832.883	4702
833.022	4717
833.16	4835
833.299	4790
833.437	4828
833.576	4866
833.714	4881
833.852	4873
833.991	4892
834.129	4953
834.267	4896
834.406	4915
834.544	4965
834.682	5014
834.821	4911
834.959	5143
835.097	5006
835.235	5132
835.373	5090
835.511	5113
835.65	5056
835.788	5022
835.926	4885
836.064	4835
836.202	4908
836.34	5159
836.478	5178
836.615	5143
836.753	5208
836.891	5280
837.029	5280
837.167	5216
837.305	5216
837.443	5174
837.58	5136
837.718	5246
837.856	5227
837.993	5155
838.131	5303
838.269	5201
838.406	5147
838.544	5204
838.681	5048
838.819	5033
838.956	4938
839.094	4980
839.231	4968
839.369	5056
839.506	5474
839.643	5311
839.781	5086
839.918	4980
840.055	5079
840.193	5071
840.33	5071
840.467	5151
840.604	5189
840.742	5482
840.879	5071
841.016	5109
841.153	5174
841.29	5364
841.427	5307
841.564	5311
841.701	5387
841.838	5258
841.975	5273
842.112	5265
842.249	5166
842.385	5117
842.522	5395
842.659	5227
842.796	5185
842.933	5246
843.069	5181
843.206	5189
843.343	5280
843.479	5250
843.616	5261
843.752	5090
843.889	5033
844.025	5212
844.162	5025
844.298	5185
844.435	5067
844.571	5052
844.708	5124
844.844	5326
844.98	5353
845.117	5273
845.253	5140
845.389	5102
845.525	5166
845.661	5121
845.798	5083
845.934	5132
846.07	5075
846.206	5258
846.342	5307
846.478	5223
846.614	5029
846.75	4987
846.886	4965
847.022	5136
847.158	5033
847.294	5029
847.429	5143
847.565	5109
847.701	5368
847.837	4843
847.972	4809
848.108	4927
848.244	4938
848.379	4763
848.515	4714
848.65	4740
848.786	4721
848.921	4786
849.057	4892
849.192	4919
849.328	4847
849.463	4843
849.598	4812
849.734	4793
849.869	4683
850.004	4603
850.14	4672
850.275	4626
850.41	4527
850.545	4607
850.68	4645
850.815	4675
850.95	4656
851.085	4809
851.22	4793
851.355	4615
851.49	4599
851.625	4649
851.76	4664
851.895	4577
852.03	4550
852.165	4649
852.299	4721
852.434	4850
852.569	4721
852.703	4763
852.838	4854
852.973	4957
853.107	4911
853.242	4752
853.376	4675
853.511	4527
853.645	4622
853.78	4812
853.914	4702
854.048	4672
854.183	4634
854.317	4698
854.451	4847
854.585	4672
854.72	4641
854.854	4759
854.988	4630
855.122	4618
855.256	4546
855.39	4675
855.524	4767
855.658	4759
855.792	4656
855.926	4736
856.06	4740
856.194	4850
856.327	4691
856.461	4618
856.595	4641
856.729	4660
856.862	4767
856.996	4706
857.13	4748
857.263	4786
857.397	4786
857.53	4649
857.664	4793
857.797	4755
857.931	4733
858.064	4702
858.197	4767
858.331	4721
858.464	4626
858.597	4611
858.731	4702
858.864	4660
858.997	4634
859.13	4691
859.263	4656
859.396	4706
859.529	4599
859.662	4588
859.795	4542
859.928	4626
860.061	4774
860.194	4824
860.327	4637
860.46	4580
860.592	4763
860.725	4733
860.858	4740
860.99	4611
861.123	4497
861.256	4535
861.388	4637
861.521	5395
861.653	4508
861.786	4424
861.918	4481
862.05	4538
862.183	4569
862.315	4599
862.447	4672
862.58	4580
862.712	4367
862.844	4348
862.976	4478
863.108	4485
863.24	4870
863.372	4348
863.504	4443
863.636	4428
863.768	4459
863.9	4440
864.032	4375
864.164	4436
864.296	4527
864.428	4558
864.559	4558
864.691	4504
864.823	4565
864.954	4512
865.086	4546
865.217	4470
865.349	4474
865.48	4462
865.612	4500
865.743	4641
865.875	4459
866.006	4363
866.137	4462
866.269	4428
866.4	4489
866.531	4421
866.662	4371
866.793	4421
866.924	4443
867.055	4531
867.186	4466
867.317	4459
867.448	4413
867.579	4409
867.71	4390
867.841	4390
867.972	4485
868.103	4462
868.233	4436
868.364	4424
868.495	4500
868.625	4687
868.756	4748
868.886	4618
869.017	4630
869.147	4782
869.278	4790
869.408	4679
869.539	4649
869.669	4744
869.799	4721
869.929	4767
870.06	4733
870.19	4927
870.32	4927
870.45	4957
870.58	5041
870.71	5121
870.84	5075
870.97	4927
871.1	4923
871.23	5113
871.36	5162
871.489	5056
871.619	5113
871.749	5136
871.879	5136
872.008	5159
872.138	5041
872.267	5014
872.397	4862
872.526	4820
872.656	4706
872.785	4774
872.915	4900
873.044	5025
873.173	4965
873.303	4949
873.432	4953
873.561	4946
873.69	4858
873.819	4835
873.948	4885
874.077	4793
874.206	4763
874.335	4839
874.464	4866
874.593	5052
874.722	4976
874.851	5124
874.979	5048
875.108	5006
875.237	4923
875.365	4908
875.494	4843
875.623	4934
875.751	4847
875.88	4873
876.008	4995
876.136	5086
876.265	5208
876.393	5337
876.521	5258
876.65	5296
876.778	5155
876.906	5060
877.034	5045
877.162	5033
877.29	5018
877.418	5083
877.546	5010
877.674	5056
877.802	5025
877.93	5003
878.058	4934
878.185	4828
878.313	5014
878.441	4991
878.568	4854
878.696	4816
878.824	5006
878.951	4995
879.079	5124
879.206	5345
879.333	5109
879.461	5010
879.588	4968
879.715	5094
879.842	5208
879.97	5048
880.097	4759
880.224	4736
880.351	4812
880.478	4816
880.605	4812
880.732	4805
880.859	5155
880.986	4915
881.112	4938
881.239	4767
881.366	4649
881.493	4668
881.619	4626
881.746	4596
881.872	4664
881.999	4691
882.125	4725
882.252	4835
882.378	4801
882.505	4968
882.631	4809
882.757	4683
882.883	4691
883.01	4740
883.136	4672
883.262	4622
883.388	4607
883.514	4828
883.64	4862
883.766	4786
883.892	4630
884.018	4675
884.143	4858
884.269	5006
884.395	4683
884.52	4630
884.646	4664
884.772	4596
884.897	4596
885.023	4683
885.148	4820
885.274	4892
885.399	4820
885.524	4786
885.65	4710
885.775	4790
885.9	4744
886.025	4824
886.15	4793
886.275	4740
886.4	4649
886.525	4679
886.65	4714
886.775	4767
886.9	4934
887.025	5083
887.149	4767
887.274	4637
887.399	4577
887.523	4596
887.648	4584
887.773	4588
887.897	4771
888.021	4752
888.146	4649
888.27	4816
888.395	4946
888.519	4797
888.643	4873
888.767	4824
888.891	4679
889.015	4611
889.139	4660
889.263	4607
889.387	4767
889.511	4892
889.635	4831
889.759	4634
889.883	4637
890.006	4767
890.13	4828
890.254	4645
890.377	4721
890.501	4603
890.624	4500
890.748	4637
890.871	4542
890.995	4447
891.118	4455
891.241	4485
891.364	4554
891.488	4668
891.611	4504
891.734	4554
891.857	4641
891.98	4577
892.103	4729
892.226	4622
892.349	4500
892.471	4428
892.594	4538
892.717	4630
892.839	4626
892.962	4626
893.085	4744
893.207	4603
893.33	4405
893.452	4546
893.575	4710
893.697	4584
893.819	4744
893.941	4847
894.064	4812
894.186	4580
894.308	4580
894.43	4710
894.552	4782
894.674	4793
894.796	4554
894.918	4630
895.04	4554
895.161	4694
895.283	4698
895.405	4622
895.526	4691
895.648	4717
895.769	4675
895.891	4774
896.012	4733
896.134	4740
896.255	4694
896.376	4653
896.498	4607
896.619	4710
896.74	4615
896.861	4656
896.982	4908
897.103	5067
897.224	4824
897.345	4725
897.466	4710
897.587	4778
897.708	4873
897.828	4816
897.949	4660
898.07	4615
898.19	4626
898.311	4847
898.431	4664
898.552	4755
898.672	4824
898.792	4797
898.913	4793
899.033	4637
899.153	4485
899.273	4455
899.393	4542
899.513	4493
899.633	4554
899.753	4531
899.873	4550
899.993	4607
900.113	4550
900.232	4596
900.352	4538
900.472	4497
900.591	4440
900.711	4497
900.83	4497
900.95	4649
901.069	4733
901.189	4580
901.308	4398
901.427	4352
901.546	4379
901.665	4485
901.784	4500
901.904	4417
902.023	4337
902.141	4215
902.26	4196
902.379	4352
902.498	4242
902.617	4261
902.735	4318
902.854	4413
902.973	4409
903.091	4249
903.21	4219
903.328	4322
903.446	4265
903.565	4268
903.683	4379
903.801	4291
903.919	4367
904.038	4478
904.156	4310
904.274	4470
904.392	4409
904.51	4432
904.627	4474
904.745	4596
904.863	4645
904.981	4402
905.098	4341
905.216	4367
905.334	4478
905.451	4428
905.569	4451
905.686	4584
905.803	4569
905.921	4398
906.038	4550
906.155	4512
906.272	4462
906.389	4485
906.506	4341
906.623	4424
906.74	4356
906.857	4303
906.974	4360
907.091	4599
907.208	4706
907.324	4618
907.441	4519
907.557	4352
907.674	4363
907.79	4333
907.907	4485
908.023	4519
908.139	4485
908.256	4478
908.372	4432
908.488	4466
908.604	4375
908.72	4329
908.836	4394
908.952	4371
909.068	4428
909.184	4645
909.3	4447
909.415	4634
909.531	4592
909.647	4344
909.762	4443
909.878	4303
909.993	4470
910.108	4371
910.224	4440
910.339	4489
910.454	4405
910.57	4383
910.685	4276
910.8	4634
910.915	4607
911.03	4523
911.145	4325
911.259	4333
911.374	4405
911.489	4333
911.604	4272
911.718	4173
911.833	4234
911.947	4090
912.062	4044
912.176	4246
912.291	4207
912.405	4261
912.519	4504
912.633	4489
912.748	4394
912.862	4371
912.976	4207
913.09	4090
913.204	4181
913.318	4280
913.431	4394
913.545	4398
913.659	4474
913.772	4398
913.886	4249
914	4284
914.113	4405
914.226	4447
914.34	4466
914.453	4230
914.566	4459
914.68	4284
914.793	4329
914.906	4211
915.019	4143
915.132	4078
915.245	4223
915.358	4192
915.47	4246
915.583	4295
915.696	4344
915.809	4424
915.921	4462
916.034	4265
916.146	4268
916.259	4242
916.371	4459
916.483	4424
916.595	4242
916.708	4341
916.82	4333
916.932	4333
917.044	4322
917.156	4337
917.268	4249
917.38	4348
917.491	4280
917.603	4390
917.715	4489
917.826	4508
917.938	4428
918.049	4268
918.161	4405
918.272	4603
918.384	4554
918.495	4447
918.606	4329
918.717	4242
918.828	4390
918.939	4409
919.05	4261
919.161	4352
919.272	4162
919.383	4303
919.494	4413
919.604	4714
919.715	4451
919.826	4394
919.936	4459
920.047	4554
920.157	4481
920.267	4702
920.378	4588
920.488	4523
920.598	4721
920.708	4946
920.818	4809
920.928	4786
921.038	4957
921.148	4972
921.258	4645
921.368	4554
921.477	4542
921.587	4478
921.697	4409
921.806	4599
921.916	4402
922.025	4295
922.134	4276
922.244	4207
922.353	4367
922.462	4227
922.571	4173
922.68	4074
922.789	4021
922.898	4063
923.007	3968
923.116	4131
923.224	4063
923.333	4143
923.442	4036
923.55	4029
923.659	4040
923.767	4105
923.876	4006
923.984	4135
924.092	4025
924.201	4131
924.309	4082
924.417	4158
924.525	4082
924.633	4093
924.741	4915
924.849	3937
924.956	4143
925.064	4040
925.172	3903
925.279	3968
925.387	4131
925.494	4051
925.602	4204
925.709	4223
925.816	4063
925.924	4162
926.031	4257
926.138	4173
926.245	4238
926.352	4124
926.459	4238
926.566	4344
926.673	4223
926.779	4116
926.886	4093
926.993	3994
927.099	3949
927.206	3956
927.312	3934
927.419	4071
927.525	4090
927.631	4112
927.737	3987
927.843	3972
927.95	3846
928.056	3956
928.162	4032
928.267	4116
928.373	4687
928.479	4204
928.585	3884
928.69	4010
928.796	4082
928.901	4017
929.007	3873
929.112	4002
929.218	4006
929.323	3964
929.428	3945
929.533	4116
929.638	3907
929.743	3983
929.848	4071
929.953	4032
930.058	3930
930.163	3831
930.267	3816
930.372	3960
930.477	3808
930.581	4124
930.685	3930
930.79	3861
930.894	3934
930.998	3880
931.103	4074
931.207	3747
931.311	3705
931.415	3701
931.519	3534
931.623	3576
