Data from test_V78500241_2185.txt Node
Date: Fri Mar 25 17:04:11 CST 2022
User: usil
Spectrometer: V785-0024
Trigger mode: 0
Integration Time (sec): 4.000000E-1
Scans to average: 1
Nonlinearity correction enabled: false
Boxcar width: 0
Storing dark spectrum: false
XAxis mode: Wavelengths
Number of Pixels in Spectrum: 1024
>>>>>Begin Spectral Data<<<<<
801.071	7993
801.214	8024
801.356	7849
801.499	7868
801.641	7769
801.783	7883
801.926	7940
802.068	7890
802.211	7993
802.353	8016
802.496	7868
802.638	7875
802.78	7921
802.923	7894
803.065	7898
803.208	7887
803.35	8039
803.492	8107
803.635	8172
803.777	7982
803.919	8180
804.061	8457
804.204	8130
804.346	8180
804.488	7986
804.63	8054
804.773	8035
804.915	8062
805.057	8339
805.199	8138
805.341	8221
805.483	8256
805.626	8225
805.768	8225
805.91	8240
806.052	8218
806.194	8168
806.336	8301
806.478	8081
806.62	8027
806.762	8168
806.904	8286
807.046	8476
807.188	8385
807.33	8374
807.472	8343
807.614	8202
807.756	8088
807.898	7989
808.04	7978
808.182	7951
808.324	7913
808.465	7906
808.607	8031
808.749	8180
808.891	8149
809.033	8336
809.174	8195
809.316	8111
809.458	8050
809.6	8001
809.741	8065
809.883	8062
810.025	8130
810.166	8092
810.308	7967
810.45	7959
810.591	7837
810.733	7738
810.875	7738
811.016	7449
811.158	7468
811.299	7571
811.441	7738
811.582	7689
811.724	7571
811.865	7529
812.007	7643
812.148	7548
812.29	7605
812.431	7704
812.573	7860
812.714	8005
812.855	8119
812.997	8168
813.138	8298
813.279	8130
813.421	7982
813.562	7986
813.703	7841
813.845	7715
813.986	7499
814.127	7297
814.268	7217
814.41	7194
814.551	7152
814.692	7244
814.833	7076
814.974	7145
815.115	7156
815.256	6973
815.397	6943
815.539	6905
815.68	6867
815.821	6776
815.962	6913
816.103	6863
816.244	6738
816.385	6631
816.526	6616
816.666	6513
816.807	6334
816.948	6448
817.089	6486
817.23	6479
817.371	6399
817.512	6369
817.653	6452
817.793	6353
817.934	6384
818.075	6410
818.216	6441
818.356	6399
818.497	6239
818.638	6148
818.778	6220
818.919	6175
819.06	6171
819.2	6277
819.341	6319
819.481	6369
819.622	6532
819.762	6825
819.903	6654
820.043	6593
820.184	6585
820.324	6616
820.465	6745
820.605	6646
820.746	6696
820.886	6494
821.026	6681
821.167	6700
821.307	6806
821.447	6787
821.588	6635
821.728	6528
821.868	6498
822.008	6270
822.149	6426
822.289	6410
822.429	6167
822.569	6098
822.709	6155
822.849	5920
822.99	5950
823.13	5942
823.27	5961
823.41	5779
823.55	5767
823.69	5752
823.83	5741
823.97	5646
824.11	5596
824.25	5490
824.389	5573
824.529	5547
824.669	5467
824.809	5646
824.949	5653
825.089	5630
825.228	5627
825.368	5467
825.508	5425
825.648	5337
825.787	5395
825.927	5360
826.067	5288
826.206	5288
826.346	5410
826.485	5402
826.625	5417
826.765	5562
826.904	5474
827.044	5277
827.183	5178
827.323	5159
827.462	5299
827.601	5193
827.741	5212
827.88	5223
828.02	5143
828.159	5235
828.298	5330
828.437	5311
828.577	5261
828.716	5497
828.855	5315
828.994	5162
829.134	5136
829.273	5201
829.412	5124
829.551	5140
829.69	5124
829.829	5242
829.968	5353
830.107	5277
830.246	5284
830.385	5204
830.524	5147
830.663	5075
830.802	4968
830.941	4911
831.08	4866
831.219	4976
831.357	4984
831.496	5159
831.635	4957
831.774	4835
831.913	4873
832.051	4733
832.19	4778
832.329	4828
832.467	4733
832.606	4668
832.744	4714
832.883	4698
833.022	4698
833.16	4801
833.299	4793
833.437	4816
833.576	4843
833.714	4847
833.852	4900
833.991	4908
834.129	4965
834.267	4976
834.406	4908
834.544	4987
834.682	4999
834.821	4965
834.959	5178
835.097	4957
835.235	5166
835.373	5060
835.511	5090
835.65	5037
835.788	5067
835.926	4885
836.064	4892
836.202	4927
836.34	5170
836.478	5174
836.615	5147
836.753	5201
836.891	5261
837.029	5254
837.167	5216
837.305	5174
837.443	5174
837.58	5083
837.718	5261
837.856	5185
837.993	5155
838.131	5277
838.269	5216
838.406	5239
838.544	5201
838.681	5006
838.819	5041
838.956	4839
839.094	4927
839.231	5010
839.369	5083
839.506	5455
839.643	5307
839.781	5067
839.918	5098
840.055	5105
840.193	5109
840.33	5113
840.467	5102
840.604	5216
840.742	5478
840.879	5056
841.016	5067
841.153	5170
841.29	5345
841.427	5322
841.564	5357
841.701	5353
841.838	5284
841.975	5201
842.112	5250
842.249	5151
842.385	5113
842.522	5398
842.659	5189
842.796	5197
842.933	5136
843.069	5178
843.206	5174
843.343	5334
843.479	5273
843.616	5254
843.752	5029
843.889	4965
844.025	5242
844.162	5045
844.298	5170
844.435	5151
844.571	5067
844.708	5178
844.844	5273
844.98	5368
845.117	5292
845.253	5189
845.389	5094
845.525	5143
845.661	5159
845.798	5094
845.934	5155
846.07	5048
846.206	5212
846.342	5337
846.478	5166
846.614	5018
846.75	4934
846.886	4953
847.022	5132
847.158	5041
847.294	5075
847.429	5094
847.565	5052
847.701	5284
847.837	4866
847.972	4820
848.108	4957
848.244	4927
848.379	4767
848.515	4714
848.65	4706
848.786	4740
848.921	4733
849.057	4873
849.192	4828
849.328	4847
849.463	4847
849.598	4843
849.734	4752
849.869	4641
850.004	4626
850.14	4679
850.275	4637
850.41	4554
850.545	4546
850.68	4599
850.815	4622
850.95	4649
851.085	4858
851.22	4729
851.355	4694
851.49	4607
851.625	4596
851.76	4664
851.895	4603
852.03	4535
852.165	4698
852.299	4717
852.434	4759
852.569	4729
852.703	4778
852.838	4843
852.973	4919
853.107	4934
853.242	4748
853.376	4645
853.511	4565
853.645	4645
853.78	4820
853.914	4660
854.048	4683
854.183	4672
854.317	4706
854.451	4839
854.585	4725
854.72	4615
854.854	4725
854.988	4611
855.122	4649
855.256	4538
855.39	4630
855.524	4782
855.658	4736
855.792	4694
855.926	4748
856.06	4748
856.194	4801
856.327	4698
856.461	4672
856.595	4626
856.729	4653
856.862	4755
856.996	4729
857.13	4740
857.263	4767
857.397	4786
857.53	4672
857.664	4710
857.797	4736
857.931	4786
858.064	4653
858.197	4733
858.331	4649
858.464	4592
858.597	4523
858.731	4615
858.864	4645
858.997	4577
859.13	4645
859.263	4683
859.396	4706
859.529	4584
859.662	4542
859.795	4554
859.928	4634
860.061	4744
860.194	4729
860.327	4637
860.46	4569
860.592	4717
860.725	4714
860.858	4740
860.99	4558
861.123	4535
861.256	4592
861.388	4592
861.521	5433
861.653	4489
861.786	4459
861.918	4466
862.05	4459
862.183	4459
862.315	4637
862.447	4584
862.58	4584
862.712	4436
862.844	4333
862.976	4474
863.108	4474
863.24	4774
863.372	4348
863.504	4398
863.636	4443
863.768	4459
863.9	4428
864.032	4402
864.164	4417
864.296	4462
864.428	4565
864.559	4546
864.691	4512
864.823	4554
864.954	4466
865.086	4481
865.217	4432
865.349	4436
865.48	4440
865.612	4447
865.743	4630
865.875	4508
866.006	4443
866.137	4512
866.269	4462
866.4	4421
866.531	4443
866.662	4371
866.793	4421
866.924	4356
867.055	4527
867.186	4440
867.317	4417
867.448	4341
867.579	4398
867.71	4421
867.841	4394
867.972	4436
868.103	4447
868.233	4424
868.364	4462
868.495	4481
868.625	4664
868.756	4733
868.886	4561
869.017	4687
869.147	4752
869.278	4778
869.408	4664
869.539	4607
869.669	4691
869.799	4653
869.929	4733
870.06	4702
870.19	4961
870.32	4896
870.45	4923
870.58	5056
870.71	5052
870.84	5098
870.97	4980
871.1	4934
871.23	5128
871.36	5105
871.489	5022
871.619	5090
871.749	5113
871.879	5170
872.008	5178
872.138	5098
872.267	4957
872.397	4816
872.526	4790
872.656	4755
872.785	4786
872.915	4927
873.044	4999
873.173	4889
873.303	4972
873.432	4934
873.561	4919
873.69	4904
873.819	4843
873.948	4892
874.077	4866
874.206	4736
874.335	4793
874.464	4892
874.593	5033
874.722	4957
874.851	5109
874.979	5060
875.108	5052
875.237	4866
875.365	4919
875.494	4866
875.623	4968
875.751	4870
875.88	4870
876.008	4980
876.136	5064
876.265	5242
876.393	5326
876.521	5254
876.65	5197
876.778	5140
876.906	5090
877.034	5083
877.162	5048
877.29	5003
877.418	5067
877.546	5014
877.674	5064
877.802	5025
877.93	5025
878.058	4957
878.185	4839
878.313	4980
878.441	4968
878.568	4854
878.696	4824
878.824	4957
878.951	5003
879.079	5128
879.206	5299
879.333	5102
879.461	4908
879.588	4999
879.715	5022
879.842	5227
879.97	5025
880.097	4790
880.224	4744
880.351	4782
880.478	4881
880.605	4828
880.732	4782
880.859	5086
880.986	4877
881.112	4892
881.239	4744
881.366	4653
881.493	4565
881.619	4584
881.746	4660
881.872	4618
881.999	4630
882.125	4691
882.252	4755
882.378	4831
882.505	4953
882.631	4831
882.757	4691
882.883	4771
883.01	4714
883.136	4668
883.262	4607
883.388	4584
883.514	4782
883.64	4885
883.766	4755
883.892	4653
884.018	4714
884.143	4885
884.269	4987
884.395	4641
884.52	4691
884.646	4706
884.772	4542
884.897	4535
885.023	4649
885.148	4801
885.274	4870
885.399	4767
885.524	4702
885.65	4748
885.775	4782
885.9	4687
886.025	4843
886.15	4748
886.275	4664
886.4	4637
886.525	4714
886.65	4752
886.775	4706
886.9	4881
887.025	5075
887.149	4793
887.274	4622
887.399	4569
887.523	4607
887.648	4535
887.773	4599
887.897	4744
888.021	4793
888.146	4683
888.27	4812
888.395	4911
888.519	4782
888.643	4820
888.767	4763
888.891	4672
889.015	4592
889.139	4675
889.263	4599
889.387	4793
889.511	4885
889.635	4801
889.759	4668
889.883	4565
890.006	4729
890.13	4816
890.254	4592
890.377	4653
890.501	4603
890.624	4512
890.748	4603
890.871	4512
890.995	4409
891.118	4356
891.241	4474
891.364	4523
891.488	4630
891.611	4474
891.734	4569
891.857	4504
891.98	4554
892.103	4656
892.226	4584
892.349	4550
892.471	4424
892.594	4523
892.717	4596
892.839	4542
892.962	4561
893.085	4675
893.207	4573
893.33	4443
893.452	4519
893.575	4649
893.697	4580
893.819	4714
893.941	4858
894.064	4782
894.186	4611
894.308	4558
894.43	4774
894.552	4820
894.674	4733
894.796	4554
894.918	4577
895.04	4550
895.161	4721
895.283	4641
895.405	4550
895.526	4630
895.648	4668
895.769	4687
895.891	4675
896.012	4683
896.134	4725
896.255	4672
896.376	4622
896.498	4630
896.619	4675
896.74	4615
896.861	4672
896.982	4923
897.103	5094
897.224	4831
897.345	4702
897.466	4660
897.587	4714
897.708	4858
897.828	4748
897.949	4672
898.07	4596
898.19	4637
898.311	4812
898.431	4626
898.552	4729
898.672	4805
898.792	4771
898.913	4687
899.033	4596
899.153	4500
899.273	4390
899.393	4504
899.513	4554
899.633	4504
899.753	4516
899.873	4573
899.993	4603
900.113	4493
900.232	4573
900.352	4485
900.472	4481
900.591	4375
900.711	4493
900.83	4424
900.95	4622
901.069	4672
901.189	4542
901.308	4333
901.427	4325
901.546	4402
901.665	4398
901.784	4474
901.904	4356
902.023	4310
902.141	4169
902.26	4135
902.379	4306
902.498	4227
902.617	4211
902.735	4390
902.854	4367
902.973	4287
903.091	4181
903.21	4280
903.328	4322
903.446	4306
903.565	4238
903.683	4390
903.801	4287
903.919	4402
904.038	4421
904.156	4356
904.274	4447
904.392	4363
904.51	4405
904.627	4455
904.745	4611
904.863	4611
904.981	4394
905.098	4303
905.216	4383
905.334	4424
905.451	4447
905.569	4421
905.686	4546
905.803	4580
905.921	4390
906.038	4565
906.155	4474
906.272	4394
906.389	4440
906.506	4356
906.623	4333
906.74	4352
906.857	4291
906.974	4337
907.091	4550
907.208	4634
907.324	4584
907.441	4504
907.557	4314
907.674	4341
907.79	4299
907.907	4375
908.023	4497
908.139	4436
908.256	4421
908.372	4462
908.488	4428
908.604	4386
908.72	4341
908.836	4356
908.952	4402
909.068	4474
909.184	4550
909.3	4489
909.415	4596
909.531	4512
909.647	4371
909.762	4375
909.878	4314
909.993	4424
910.108	4462
910.224	4394
910.339	4508
910.454	4341
910.57	4379
910.685	4341
910.8	4634
910.915	4550
911.03	4497
911.145	4303
911.259	4352
911.374	4367
911.489	4329
911.604	4268
911.718	4143
911.833	4223
911.947	4090
912.062	4006
912.176	4227
912.291	4211
912.405	4230
912.519	4440
912.633	4516
912.748	4344
912.862	4348
912.976	4207
913.09	4109
913.204	4196
913.318	4181
913.431	4344
913.545	4405
913.659	4417
913.772	4409
913.886	4230
914	4215
914.113	4363
914.226	4386
914.34	4424
914.453	4238
914.566	4459
914.68	4299
914.793	4329
914.906	4204
915.019	4131
915.132	4063
915.245	4192
915.358	4227
915.47	4234
915.583	4303
915.696	4299
915.809	4386
915.921	4390
916.034	4272
916.146	4238
916.259	4227
916.371	4402
916.483	4409
916.595	4261
916.708	4299
916.82	4314
916.932	4249
917.044	4314
917.156	4337
917.268	4234
917.38	4314
917.491	4280
917.603	4360
917.715	4424
917.826	4402
917.938	4363
918.049	4287
918.161	4360
918.272	4500
918.384	4504
918.495	4459
918.606	4242
918.717	4230
918.828	4325
918.939	4352
919.05	4242
919.161	4314
919.272	4154
919.383	4192
919.494	4417
919.604	4641
919.715	4440
919.826	4360
919.936	4409
920.047	4554
920.157	4489
920.267	4660
920.378	4523
920.488	4531
920.598	4687
920.708	4892
920.818	4778
920.928	4721
921.038	4965
921.148	4870
921.258	4679
921.368	4584
921.477	4455
921.587	4478
921.697	4383
921.806	4565
921.916	4428
922.025	4246
922.134	4280
922.244	4204
922.353	4322
922.462	4188
922.571	4139
922.68	4048
922.789	3953
922.898	4040
923.007	3972
923.116	4071
923.224	4086
923.333	4074
923.442	4002
923.55	3960
923.659	4040
923.767	4116
923.876	4013
923.984	4105
924.092	3930
924.201	4048
924.309	4093
924.417	4093
924.525	4082
924.633	4109
924.741	5071
924.849	3918
924.956	4128
925.064	3949
925.172	3876
925.279	3975
925.387	4044
925.494	4063
925.602	4234
925.709	4154
925.816	4029
925.924	4116
926.031	4242
926.138	4154
926.245	4234
926.352	4116
926.459	4211
926.566	4261
926.673	4147
926.779	4048
926.886	4078
926.993	3922
927.099	3979
927.206	3937
927.312	3960
927.419	4044
927.525	4063
927.631	4097
927.737	3922
927.843	3972
927.95	3823
928.056	3941
928.162	4040
928.267	4063
928.373	4714
928.479	4078
928.585	3884
928.69	4002
928.796	4036
928.901	3915
929.007	3880
929.112	4017
929.218	3972
929.323	3918
929.428	3934
929.533	4097
929.638	3911
929.743	3979
929.848	4036
929.953	3998
930.058	3907
930.163	3797
930.267	3846
930.372	3949
930.477	3819
930.581	4063
930.685	3926
930.79	3827
930.894	3842
930.998	3880
931.103	4029
931.207	3705
931.311	3679
931.415	3682
931.519	3519
931.623	3568
