Data from test_V78500241_962.txt Node
Date: Fri Mar 25 16:55:41 CST 2022
User: usil
Spectrometer: V785-0024
Trigger mode: 0
Integration Time (sec): 4.000000E-1
Scans to average: 1
Nonlinearity correction enabled: false
Boxcar width: 0
Storing dark spectrum: false
XAxis mode: Wavelengths
Number of Pixels in Spectrum: 1024
>>>>>Begin Spectral Data<<<<<
801.071	8077
801.214	7986
801.356	7830
801.499	7856
801.641	7799
801.783	7849
801.926	8016
802.068	7913
802.211	7906
802.353	7974
802.496	7860
802.638	7841
802.78	7944
802.923	7921
803.065	7947
803.208	7955
803.35	8039
803.492	8065
803.635	8199
803.777	8012
803.919	8058
804.061	8427
804.204	8180
804.346	8092
804.488	7963
804.63	8115
804.773	7963
804.915	8096
805.057	8225
805.199	8248
805.341	8191
805.483	8180
805.626	8172
805.768	8153
805.91	8267
806.052	8210
806.194	8081
806.336	8233
806.478	8115
806.62	8069
806.762	8161
806.904	8263
807.046	8396
807.188	8290
807.33	8362
807.472	8294
807.614	8195
807.756	8142
807.898	7963
808.04	7902
808.182	7894
808.324	7890
808.465	7947
808.607	8126
808.749	8092
808.891	8290
809.033	8282
809.174	8183
809.316	8062
809.458	8050
809.6	7978
809.741	8039
809.883	7978
810.025	8065
810.166	8107
810.308	7982
810.45	8084
810.591	7959
810.733	7731
810.875	7666
811.016	7582
811.158	7472
811.299	7662
811.441	7734
811.582	7647
811.724	7609
811.865	7521
812.007	7540
812.148	7571
812.29	7643
812.431	7753
812.573	7898
812.714	8016
812.855	8138
812.997	8164
813.138	8286
813.279	8263
813.421	8142
813.562	7955
813.703	7940
813.845	7788
813.986	7441
814.127	7297
814.268	7320
814.41	7190
814.551	7129
814.692	7110
814.833	7088
814.974	7061
815.115	7110
815.256	6977
815.397	6962
815.539	6920
815.68	6829
815.821	6772
815.962	6905
816.103	6821
816.244	6726
816.385	6673
816.526	6677
816.666	6540
816.807	6251
816.948	6479
817.089	6467
817.23	6407
817.371	6426
817.512	6445
817.653	6353
817.793	6353
817.934	6410
818.075	6456
818.216	6369
818.356	6395
818.497	6216
818.638	6102
818.778	6163
818.919	6136
819.06	6205
819.2	6304
819.341	6296
819.481	6342
819.622	6525
819.762	6757
819.903	6673
820.043	6578
820.184	6559
820.324	6570
820.465	6738
820.605	6700
820.746	6646
820.886	6509
821.026	6669
821.167	6681
821.307	6867
821.447	6757
821.588	6665
821.728	6536
821.868	6528
822.008	6289
822.149	6407
822.289	6350
822.429	6098
822.569	6076
822.709	6079
822.849	5916
822.99	5882
823.13	5878
823.27	5901
823.41	5802
823.55	5767
823.69	5798
823.83	5756
823.97	5691
824.11	5497
824.25	5490
824.389	5566
824.529	5535
824.669	5509
824.809	5611
824.949	5619
825.089	5596
825.228	5551
825.368	5376
825.508	5299
825.648	5318
825.787	5315
825.927	5429
826.067	5334
826.206	5337
826.346	5383
826.485	5353
826.625	5448
826.765	5535
826.904	5486
827.044	5273
827.183	5220
827.323	5083
827.462	5273
827.601	5170
827.741	5208
827.88	5208
828.02	5162
828.159	5239
828.298	5307
828.437	5372
828.577	5254
828.716	5482
828.855	5349
828.994	5174
829.134	5151
829.273	5178
829.412	5113
829.551	5094
829.69	5178
829.829	5201
829.968	5368
830.107	5235
830.246	5254
830.385	5155
830.524	5094
830.663	5033
830.802	4953
830.941	4900
831.08	4862
831.219	4999
831.357	4968
831.496	5181
831.635	4938
831.774	4850
831.913	4839
832.051	4729
832.19	4729
832.329	4809
832.467	4668
832.606	4672
832.744	4694
832.883	4759
833.022	4736
833.16	4759
833.299	4843
833.437	4816
833.576	4812
833.714	4862
833.852	4885
833.991	4896
834.129	4995
834.267	4892
834.406	4949
834.544	4949
834.682	4968
834.821	4968
834.959	5151
835.097	5018
835.235	5109
835.373	5090
835.511	5117
835.65	4999
835.788	5056
835.926	4896
836.064	4870
836.202	4938
836.34	5185
836.478	5235
836.615	5124
836.753	5246
836.891	5299
837.029	5197
837.167	5212
837.305	5181
837.443	5166
837.58	5060
837.718	5277
837.856	5193
837.993	5136
838.131	5197
838.269	5212
838.406	5223
838.544	5181
838.681	5056
838.819	5033
838.956	4870
839.094	4911
839.231	4927
839.369	5064
839.506	5383
839.643	5246
839.781	5025
839.918	4976
840.055	5071
840.193	5098
840.33	5056
840.467	5105
840.604	5155
840.742	5410
840.879	5079
841.016	5086
841.153	5140
841.29	5387
841.427	5345
841.564	5330
841.701	5341
841.838	5280
841.975	5227
842.112	5265
842.249	5140
842.385	5067
842.522	5315
842.659	5140
842.796	5136
842.933	5216
843.069	5147
843.206	5170
843.343	5322
843.479	5220
843.616	5269
843.752	5086
843.889	5003
844.025	5181
844.162	5022
844.298	5174
844.435	5060
844.571	5022
844.708	5231
844.844	5307
844.98	5345
845.117	5292
845.253	5124
845.389	5090
845.525	5136
845.661	5143
845.798	5033
845.934	5159
846.07	5041
846.206	5197
846.342	5269
846.478	5170
846.614	4972
846.75	4965
846.886	4911
847.022	5174
847.158	5025
847.294	5045
847.429	5083
847.565	5010
847.701	5337
847.837	4843
847.972	4790
848.108	4980
848.244	4934
848.379	4767
848.515	4771
848.65	4721
848.786	4733
848.921	4771
849.057	4850
849.192	4862
849.328	4839
849.463	4858
849.598	4797
849.734	4763
849.869	4729
850.004	4618
850.14	4656
850.275	4592
850.41	4546
850.545	4550
850.68	4588
850.815	4577
850.95	4573
851.085	4847
851.22	4691
851.355	4683
851.49	4615
851.625	4603
851.76	4683
851.895	4550
852.03	4527
852.165	4675
852.299	4759
852.434	4782
852.569	4752
852.703	4763
852.838	4877
852.973	4942
853.107	4908
853.242	4725
853.376	4683
853.511	4519
853.645	4603
853.78	4755
853.914	4656
854.048	4637
854.183	4611
854.317	4687
854.451	4812
854.585	4664
854.72	4641
854.854	4710
854.988	4596
855.122	4634
855.256	4516
855.39	4660
855.524	4782
855.658	4706
855.792	4683
855.926	4721
856.06	4828
856.194	4797
856.327	4694
856.461	4596
856.595	4630
856.729	4603
856.862	4759
856.996	4672
857.13	4698
857.263	4733
857.397	4812
857.53	4653
857.664	4675
857.797	4755
857.931	4759
858.064	4641
858.197	4694
858.331	4641
858.464	4599
858.597	4538
858.731	4649
858.864	4645
858.997	4592
859.13	4649
859.263	4626
859.396	4691
859.529	4554
859.662	4550
859.795	4546
859.928	4649
860.061	4721
860.194	4748
860.327	4580
860.46	4565
860.592	4714
860.725	4740
860.858	4721
860.99	4569
861.123	4489
861.256	4527
861.388	4603
861.521	5246
861.653	4493
861.786	4421
861.918	4466
862.05	4489
862.183	4561
862.315	4637
862.447	4630
862.58	4577
862.712	4390
862.844	4268
862.976	4451
863.108	4424
863.24	4831
863.372	4306
863.504	4421
863.636	4405
863.768	4485
863.9	4462
864.032	4367
864.164	4428
864.296	4466
864.428	4516
864.559	4504
864.691	4561
864.823	4516
864.954	4508
865.086	4504
865.217	4474
865.349	4333
865.48	4447
865.612	4455
865.743	4611
865.875	4504
866.006	4440
866.137	4470
866.269	4417
866.4	4409
866.531	4421
866.662	4383
866.793	4413
866.924	4394
867.055	4451
867.186	4405
867.317	4356
867.448	4398
867.579	4333
867.71	4417
867.841	4436
867.972	4436
868.103	4417
868.233	4417
868.364	4424
868.495	4497
868.625	4649
868.756	4752
868.886	4554
869.017	4649
869.147	4729
869.278	4740
869.408	4641
869.539	4603
869.669	4683
869.799	4645
869.929	4721
870.06	4710
870.19	4946
870.32	4854
870.45	4968
870.58	5006
870.71	5117
870.84	5048
870.97	4896
871.1	4919
871.23	5174
871.36	5132
871.489	4942
871.619	5033
871.749	5109
871.879	5121
872.008	5178
872.138	5045
872.267	4961
872.397	4847
872.526	4790
872.656	4740
872.785	4793
872.915	4938
873.044	4980
873.173	4968
873.303	4934
873.432	4934
873.561	4927
873.69	4881
873.819	4919
873.948	4919
874.077	4771
874.206	4733
874.335	4778
874.464	4900
874.593	5025
874.722	4968
874.851	5086
874.979	5029
875.108	4995
875.237	4900
875.365	4900
875.494	4881
875.623	4938
875.751	4816
875.88	4843
876.008	4976
876.136	4972
876.265	5166
876.393	5341
876.521	5242
876.65	5178
876.778	5174
876.906	5102
877.034	5041
877.162	5006
877.29	4965
877.418	5056
877.546	4999
877.674	5014
877.802	5018
877.93	4949
878.058	4915
878.185	4850
878.313	4942
878.441	4938
878.568	4790
878.696	4843
878.824	4892
878.951	4949
879.079	5075
879.206	5250
879.333	5098
879.461	4995
879.588	4862
879.715	5113
879.842	5193
879.97	4965
880.097	4763
880.224	4793
880.351	4805
880.478	4790
880.605	4740
880.732	4782
880.859	5048
880.986	4866
881.112	4885
881.239	4797
881.366	4672
881.493	4607
881.619	4542
881.746	4668
881.872	4637
881.999	4630
882.125	4649
882.252	4797
882.378	4820
882.505	4923
882.631	4759
882.757	4641
882.883	4698
883.01	4744
883.136	4634
883.262	4615
883.388	4668
883.514	4752
883.64	4831
883.766	4759
883.892	4679
884.018	4721
884.143	4870
884.269	5029
884.395	4675
884.52	4599
884.646	4626
884.772	4599
884.897	4508
885.023	4649
885.148	4790
885.274	4854
885.399	4805
885.524	4698
885.65	4668
885.775	4725
885.9	4717
886.025	4835
886.15	4771
886.275	4687
886.4	4611
886.525	4759
886.65	4675
886.775	4672
886.9	4923
887.025	5003
887.149	4839
887.274	4664
887.399	4634
887.523	4588
887.648	4561
887.773	4546
887.897	4740
888.021	4759
888.146	4660
888.27	4828
888.395	4854
888.519	4801
888.643	4831
888.767	4805
888.891	4664
889.015	4622
889.139	4649
889.263	4634
889.387	4725
889.511	4820
889.635	4824
889.759	4634
889.883	4664
890.006	4698
890.13	4820
890.254	4592
890.377	4660
890.501	4573
890.624	4489
890.748	4584
890.871	4497
890.995	4459
891.118	4402
891.241	4516
891.364	4516
891.488	4634
891.611	4451
891.734	4500
891.857	4569
891.98	4573
892.103	4626
892.226	4615
892.349	4519
892.471	4417
892.594	4535
892.717	4622
892.839	4527
892.962	4596
893.085	4656
893.207	4607
893.33	4447
893.452	4535
893.575	4634
893.697	4573
893.819	4763
893.941	4809
894.064	4725
894.186	4622
894.308	4554
894.43	4748
894.552	4850
894.674	4759
894.796	4504
894.918	4584
895.04	4546
895.161	4656
895.283	4653
895.405	4565
895.526	4637
895.648	4679
895.769	4641
895.891	4664
896.012	4725
896.134	4702
896.255	4603
896.376	4573
896.498	4603
896.619	4687
896.74	4622
896.861	4668
896.982	4930
897.103	5071
897.224	4786
897.345	4744
897.466	4615
897.587	4733
897.708	4870
897.828	4778
897.949	4656
898.07	4554
898.19	4618
898.311	4763
898.431	4630
898.552	4729
898.672	4740
898.792	4797
898.913	4740
899.033	4645
899.153	4500
899.273	4436
899.393	4504
899.513	4500
899.633	4470
899.753	4542
899.873	4500
899.993	4573
900.113	4558
900.232	4550
900.352	4542
900.472	4512
900.591	4379
900.711	4455
900.83	4402
900.95	4649
901.069	4675
901.189	4538
901.308	4318
901.427	4299
901.546	4375
901.665	4436
901.784	4481
901.904	4352
902.023	4284
902.141	4215
902.26	4143
902.379	4272
902.498	4261
902.617	4223
902.735	4363
902.854	4348
902.973	4356
903.091	4166
903.21	4265
903.328	4249
903.446	4291
903.565	4211
903.683	4352
903.801	4253
903.919	4379
904.038	4421
904.156	4333
904.274	4386
904.392	4386
904.51	4405
904.627	4440
904.745	4592
904.863	4592
904.981	4383
905.098	4344
905.216	4352
905.334	4459
905.451	4459
905.569	4375
905.686	4561
905.803	4538
905.921	4424
906.038	4580
906.155	4462
906.272	4394
906.389	4485
906.506	4375
906.623	4379
906.74	4379
906.857	4322
906.974	4367
907.091	4596
907.208	4710
907.324	4592
907.441	4443
907.557	4352
907.674	4363
907.79	4291
907.907	4367
908.023	4478
908.139	4417
908.256	4455
908.372	4424
908.488	4440
908.604	4398
908.72	4314
908.836	4329
908.952	4337
909.068	4413
909.184	4558
909.3	4451
909.415	4596
909.531	4554
909.647	4375
909.762	4379
909.878	4367
909.993	4462
910.108	4390
910.224	4394
910.339	4462
910.454	4386
910.57	4356
910.685	4306
910.8	4649
910.915	4554
911.03	4512
911.145	4325
911.259	4287
911.374	4398
911.489	4325
911.604	4268
911.718	4166
911.833	4200
911.947	4044
912.062	3987
912.176	4249
912.291	4188
912.405	4219
912.519	4390
912.633	4485
912.748	4386
912.862	4363
912.976	4230
913.09	4074
913.204	4169
913.318	4253
913.431	4405
913.545	4360
913.659	4455
913.772	4352
913.886	4227
914	4257
914.113	4379
914.226	4447
914.34	4383
914.453	4249
914.566	4421
914.68	4284
914.793	4276
914.906	4181
915.019	4154
915.132	4067
915.245	4177
915.358	4204
915.47	4227
915.583	4265
915.696	4318
915.809	4409
915.921	4390
916.034	4261
916.146	4268
916.259	4204
916.371	4390
916.483	4329
916.595	4242
916.708	4303
916.82	4333
916.932	4295
917.044	4306
917.156	4356
917.268	4196
917.38	4265
917.491	4268
917.603	4306
917.715	4394
917.826	4470
917.938	4337
918.049	4257
918.161	4417
918.272	4535
918.384	4519
918.495	4428
918.606	4261
918.717	4268
918.828	4333
918.939	4363
919.05	4238
919.161	4314
919.272	4116
919.383	4284
919.494	4440
919.604	4626
919.715	4379
919.826	4310
919.936	4424
920.047	4516
920.157	4485
920.267	4721
920.378	4531
920.488	4527
920.598	4714
920.708	4843
920.818	4733
920.928	4744
921.038	4923
921.148	4911
921.258	4596
921.368	4550
921.477	4451
921.587	4466
921.697	4352
921.806	4592
921.916	4447
922.025	4249
922.134	4276
922.244	4227
922.353	4314
922.462	4162
922.571	4086
922.68	4006
922.789	3934
922.898	4032
923.007	4010
923.116	4090
923.224	4055
923.333	4063
923.442	3960
923.55	3979
923.659	4040
923.767	4109
923.876	3987
923.984	4128
924.092	4021
924.201	4071
924.309	4093
924.417	4090
924.525	4040
924.633	4055
924.741	5079
924.849	3911
924.956	4093
925.064	3956
925.172	3888
925.279	3953
925.387	4055
925.494	4044
925.602	4192
925.709	4154
925.816	4002
925.924	4147
926.031	4238
926.138	4162
926.245	4230
926.352	4101
926.459	4230
926.566	4295
926.673	4158
926.779	4090
926.886	4097
926.993	3960
927.099	3972
927.206	3937
927.312	3934
927.419	4120
927.525	3991
927.631	4112
927.737	3968
927.843	3930
927.95	3812
928.056	3941
928.162	3941
928.267	4063
928.373	4660
928.479	4116
928.585	3907
928.69	4067
928.796	4090
928.901	3968
929.007	3797
929.112	3998
929.218	3983
929.323	3934
929.428	3972
929.533	4101
929.638	3884
929.743	3960
929.848	4048
929.953	3960
930.058	3892
930.163	3740
930.267	3854
930.372	3949
930.477	3778
930.581	4059
930.685	3918
930.79	3785
930.894	3865
930.998	3838
931.103	4006
931.207	3694
931.311	3709
931.415	3660
931.519	3500
931.623	3549
