Data from test_V78500241_2137.txt Node
Date: Fri Mar 25 17:03:51 CST 2022
User: usil
Spectrometer: V785-0024
Trigger mode: 0
Integration Time (sec): 4.000000E-1
Scans to average: 1
Nonlinearity correction enabled: false
Boxcar width: 0
Storing dark spectrum: false
XAxis mode: Wavelengths
Number of Pixels in Spectrum: 1024
>>>>>Begin Spectral Data<<<<<
801.071	8058
801.214	8054
801.356	7909
801.499	7921
801.641	7894
801.783	7849
801.926	7970
802.068	7967
802.211	8012
802.353	8039
802.496	7902
802.638	7883
802.78	7890
802.923	7936
803.065	7860
803.208	7871
803.35	7986
803.492	8149
803.635	8187
803.777	8050
803.919	8134
804.061	8484
804.204	8199
804.346	8088
804.488	7993
804.63	8168
804.773	8043
804.915	8195
805.057	8351
805.199	8229
805.341	8248
805.483	8218
805.626	8221
805.768	8134
805.91	8199
806.052	8218
806.194	8214
806.336	8355
806.478	8096
806.62	8107
806.762	8237
806.904	8347
807.046	8545
807.188	8415
807.33	8377
807.472	8305
807.614	8123
807.756	8221
807.898	8020
808.04	7887
808.182	7894
808.324	7917
808.465	7902
808.607	8046
808.749	8157
808.891	8202
809.033	8336
809.174	8252
809.316	8103
809.458	8130
809.6	8096
809.741	8039
809.883	8073
810.025	8145
810.166	8103
810.308	8107
810.45	8039
810.591	7898
810.733	7795
810.875	7723
811.016	7510
811.158	7537
811.299	7601
811.441	7734
811.582	7662
811.724	7624
811.865	7533
812.007	7624
812.148	7670
812.29	7666
812.431	7841
812.573	7917
812.714	8001
812.855	8168
812.997	8161
813.138	8332
813.279	8195
813.421	8126
813.562	7986
813.703	7871
813.845	7700
813.986	7514
814.127	7301
814.268	7236
814.41	7217
814.551	7171
814.692	7301
814.833	7084
814.974	7164
815.115	7179
815.256	6977
815.397	6977
815.539	6943
815.68	6821
815.821	6783
815.962	6871
816.103	6833
816.244	6738
816.385	6589
816.526	6639
816.666	6551
816.807	6350
816.948	6445
817.089	6574
817.23	6467
817.371	6346
817.512	6395
817.653	6399
817.793	6407
817.934	6471
818.075	6407
818.216	6395
818.356	6429
818.497	6220
818.638	6159
818.778	6152
818.919	6148
819.06	6186
819.2	6311
819.341	6342
819.481	6334
819.622	6532
819.762	6768
819.903	6760
820.043	6631
820.184	6551
820.324	6566
820.465	6665
820.605	6715
820.746	6673
820.886	6528
821.026	6677
821.167	6711
821.307	6844
821.447	6795
821.588	6669
821.728	6589
821.868	6570
822.008	6331
822.149	6410
822.289	6338
822.429	6159
822.569	6106
822.709	6136
822.849	5927
822.99	5946
823.13	5969
823.27	5908
823.41	5847
823.55	5817
823.69	5760
823.83	5771
823.97	5684
824.11	5570
824.25	5528
824.389	5611
824.529	5604
824.669	5577
824.809	5642
824.949	5661
825.089	5630
825.228	5547
825.368	5425
825.508	5417
825.648	5349
825.787	5391
825.927	5425
826.067	5284
826.206	5277
826.346	5383
826.485	5421
826.625	5376
826.765	5535
826.904	5471
827.044	5303
827.183	5185
827.323	5155
827.462	5288
827.601	5216
827.741	5189
827.88	5204
828.02	5216
828.159	5223
828.298	5307
828.437	5360
828.577	5345
828.716	5467
828.855	5322
828.994	5155
829.134	5147
829.273	5181
829.412	5117
829.551	5155
829.69	5178
829.829	5299
829.968	5360
830.107	5296
830.246	5292
830.385	5201
830.524	5159
830.663	5067
830.802	4972
830.941	4923
831.08	4889
831.219	5003
831.357	4976
831.496	5140
831.635	4949
831.774	4828
831.913	4854
832.051	4736
832.19	4809
832.329	4839
832.467	4725
832.606	4607
832.744	4752
832.883	4744
833.022	4721
833.16	4828
833.299	4793
833.437	4870
833.576	4839
833.714	4885
833.852	4930
833.991	4923
834.129	4980
834.267	4999
834.406	4961
834.544	5003
834.682	5045
834.821	4984
834.959	5189
835.097	5029
835.235	5189
835.373	5086
835.511	5124
835.65	5056
835.788	5014
835.926	4904
836.064	4866
836.202	4968
836.34	5185
836.478	5193
836.615	5162
836.753	5231
836.891	5296
837.029	5246
837.167	5189
837.305	5181
837.443	5178
837.58	5090
837.718	5277
837.856	5159
837.993	5181
838.131	5246
838.269	5223
838.406	5220
838.544	5216
838.681	5067
838.819	5041
838.956	4908
839.094	4934
839.231	5006
839.369	5124
839.506	5410
839.643	5318
839.781	5033
839.918	5022
840.055	5094
840.193	5086
840.33	5121
840.467	5159
840.604	5181
840.742	5410
840.879	5086
841.016	5079
841.153	5185
841.29	5398
841.427	5360
841.564	5288
841.701	5425
841.838	5258
841.975	5254
842.112	5360
842.249	5185
842.385	5098
842.522	5349
842.659	5189
842.796	5136
842.933	5261
843.069	5147
843.206	5178
843.343	5334
843.479	5303
843.616	5223
843.752	5067
843.889	5056
844.025	5227
844.162	5052
844.298	5246
844.435	5113
844.571	5075
844.708	5235
844.844	5345
844.98	5376
845.117	5299
845.253	5117
845.389	5121
845.525	5128
845.661	5124
845.798	4984
845.934	5151
846.07	5128
846.206	5193
846.342	5341
846.478	5235
846.614	5003
846.75	5022
846.886	5010
847.022	5105
847.158	5018
847.294	5060
847.429	5140
847.565	5075
847.701	5318
847.837	4854
847.972	4843
848.108	5003
848.244	5006
848.379	4771
848.515	4767
848.65	4714
848.786	4824
848.921	4843
849.057	4904
849.192	4915
849.328	4831
849.463	4866
849.598	4778
849.734	4771
849.869	4622
850.004	4611
850.14	4649
850.275	4649
850.41	4558
850.545	4588
850.68	4588
850.815	4675
850.95	4714
851.085	4835
851.22	4740
851.355	4706
851.49	4611
851.625	4653
851.76	4634
851.895	4573
852.03	4569
852.165	4645
852.299	4725
852.434	4850
852.569	4778
852.703	4778
852.838	4870
852.973	4927
853.107	4923
853.242	4733
853.376	4694
853.511	4599
853.645	4607
853.78	4793
853.914	4679
854.048	4736
854.183	4649
854.317	4710
854.451	4862
854.585	4687
854.72	4679
854.854	4740
854.988	4596
855.122	4641
855.256	4535
855.39	4675
855.524	4824
855.658	4736
855.792	4660
855.926	4748
856.06	4714
856.194	4877
856.327	4717
856.461	4618
856.595	4607
856.729	4660
856.862	4778
856.996	4748
857.13	4752
857.263	4774
857.397	4793
857.53	4698
857.664	4752
857.797	4812
857.931	4778
858.064	4698
858.197	4736
858.331	4649
858.464	4603
858.597	4550
858.731	4683
858.864	4630
858.997	4603
859.13	4668
859.263	4653
859.396	4637
859.529	4626
859.662	4584
859.795	4542
859.928	4653
860.061	4755
860.194	4767
860.327	4653
860.46	4565
860.592	4698
860.725	4698
860.858	4710
860.99	4565
861.123	4523
861.256	4538
861.388	4596
861.521	5448
861.653	4512
861.786	4485
861.918	4508
862.05	4523
862.183	4565
862.315	4569
862.447	4603
862.58	4527
862.712	4386
862.844	4371
862.976	4504
863.108	4470
863.24	4767
863.372	4337
863.504	4443
863.636	4383
863.768	4516
863.9	4402
864.032	4337
864.164	4421
864.296	4500
864.428	4508
864.559	4580
864.691	4554
864.823	4561
864.954	4508
865.086	4523
865.217	4516
865.349	4405
865.48	4451
865.612	4478
865.743	4588
865.875	4478
866.006	4459
866.137	4462
866.269	4493
866.4	4443
866.531	4432
866.662	4383
866.793	4390
866.924	4421
867.055	4500
867.186	4512
867.317	4436
867.448	4360
867.579	4405
867.71	4375
867.841	4383
867.972	4489
868.103	4500
868.233	4459
868.364	4516
868.495	4512
868.625	4664
868.756	4752
868.886	4577
869.017	4584
869.147	4809
869.278	4778
869.408	4668
869.539	4660
869.669	4736
869.799	4702
869.929	4797
870.06	4774
870.19	4919
870.32	4934
870.45	4919
870.58	5064
870.71	5128
870.84	5094
870.97	4957
871.1	4923
871.23	5124
871.36	5098
871.489	5052
871.619	5090
871.749	5143
871.879	5136
872.008	5174
872.138	5067
872.267	4961
872.397	4847
872.526	4805
872.656	4736
872.785	4778
872.915	4938
873.044	5025
873.173	4987
873.303	4987
873.432	4957
873.561	4972
873.69	4866
873.819	4923
873.948	4915
874.077	4866
874.206	4687
874.335	4831
874.464	4965
874.593	5105
874.722	4976
874.851	5132
874.979	5071
875.108	5037
875.237	4919
875.365	4953
875.494	4866
875.623	4961
875.751	4820
875.88	4923
876.008	4938
876.136	5045
876.265	5227
876.393	5334
876.521	5265
876.65	5227
876.778	5159
876.906	5064
877.034	5022
877.162	5113
877.29	4972
877.418	5064
877.546	5075
877.674	5060
877.802	4995
877.93	4987
878.058	4972
878.185	4858
878.313	4961
878.441	4908
878.568	4839
878.696	4885
878.824	4972
878.951	4957
879.079	5132
879.206	5311
879.333	5086
879.461	4980
879.588	4984
879.715	5201
879.842	5250
879.97	4991
880.097	4824
880.224	4778
880.351	4866
880.478	4820
880.605	4805
880.732	4801
880.859	5121
880.986	4881
881.112	4892
881.239	4801
881.366	4675
881.493	4622
881.619	4611
881.746	4660
881.872	4672
881.999	4675
882.125	4698
882.252	4797
882.378	4809
882.505	4946
882.631	4858
882.757	4679
882.883	4752
883.01	4767
883.136	4664
883.262	4634
883.388	4637
883.514	4812
883.64	4854
883.766	4763
883.892	4687
884.018	4717
884.143	4911
884.269	5048
884.395	4694
884.52	4611
884.646	4687
884.772	4611
884.897	4573
885.023	4649
885.148	4797
885.274	4885
885.399	4839
885.524	4736
885.65	4725
885.775	4698
885.9	4752
886.025	4885
886.15	4778
886.275	4683
886.4	4622
886.525	4698
886.65	4702
886.775	4702
886.9	4885
887.025	5064
887.149	4809
887.274	4660
887.399	4607
887.523	4580
887.648	4592
887.773	4592
887.897	4790
888.021	4740
888.146	4679
888.27	4824
888.395	4915
888.519	4748
888.643	4854
888.767	4801
888.891	4714
889.015	4637
889.139	4615
889.263	4607
889.387	4733
889.511	4870
889.635	4793
889.759	4706
889.883	4649
890.006	4771
890.13	4812
890.254	4580
890.377	4679
890.501	4508
890.624	4508
890.748	4653
890.871	4470
890.995	4421
891.118	4356
891.241	4481
891.364	4531
891.488	4577
891.611	4485
891.734	4618
891.857	4599
891.98	4531
892.103	4698
892.226	4607
892.349	4531
892.471	4402
892.594	4538
892.717	4588
892.839	4561
892.962	4611
893.085	4694
893.207	4618
893.33	4474
893.452	4523
893.575	4637
893.697	4596
893.819	4786
893.941	4793
894.064	4740
894.186	4599
894.308	4531
894.43	4733
894.552	4793
894.674	4702
894.796	4500
894.918	4573
895.04	4542
895.161	4721
895.283	4668
895.405	4546
895.526	4645
895.648	4641
895.769	4710
895.891	4668
896.012	4733
896.134	4714
896.255	4679
896.376	4615
896.498	4672
896.619	4645
896.74	4630
896.861	4641
896.982	4927
897.103	5064
897.224	4786
897.345	4763
897.466	4637
897.587	4736
897.708	4850
897.828	4801
897.949	4660
898.07	4573
898.19	4675
898.311	4812
898.431	4691
898.552	4698
898.672	4820
898.792	4797
898.913	4736
899.033	4607
899.153	4519
899.273	4443
899.393	4462
899.513	4489
899.633	4478
899.753	4497
899.873	4546
899.993	4577
900.113	4611
900.232	4546
900.352	4577
900.472	4478
900.591	4436
900.711	4493
900.83	4470
900.95	4596
901.069	4736
901.189	4542
901.308	4341
901.427	4337
901.546	4413
901.665	4455
901.784	4538
901.904	4390
902.023	4310
902.141	4173
902.26	4166
902.379	4333
902.498	4265
902.617	4169
902.735	4398
902.854	4363
902.973	4348
903.091	4177
903.21	4253
903.328	4352
903.446	4261
903.565	4306
903.683	4322
903.801	4287
903.919	4455
904.038	4447
904.156	4276
904.274	4447
904.392	4398
904.51	4428
904.627	4466
904.745	4538
904.863	4603
904.981	4409
905.098	4268
905.216	4371
905.334	4424
905.451	4481
905.569	4390
905.686	4508
905.803	4512
905.921	4405
906.038	4561
906.155	4493
906.272	4383
906.389	4493
906.506	4348
906.623	4398
906.74	4356
906.857	4318
906.974	4383
907.091	4565
907.208	4653
907.324	4584
907.441	4474
907.557	4329
907.674	4344
907.79	4375
907.907	4344
908.023	4474
908.139	4493
908.256	4424
908.372	4478
908.488	4447
908.604	4344
908.72	4360
908.836	4348
908.952	4371
909.068	4466
909.184	4554
909.3	4455
909.415	4573
909.531	4558
909.647	4436
909.762	4379
909.878	4363
909.993	4432
910.108	4405
910.224	4417
910.339	4474
910.454	4398
910.57	4329
910.685	4287
910.8	4645
910.915	4603
911.03	4497
911.145	4287
911.259	4356
911.374	4356
911.489	4280
911.604	4306
911.718	4196
911.833	4223
911.947	4105
912.062	4044
912.176	4211
912.291	4276
912.405	4276
912.519	4455
912.633	4500
912.748	4371
912.862	4329
912.976	4204
913.09	4082
913.204	4219
913.318	4261
913.431	4371
913.545	4325
913.659	4436
913.772	4341
913.886	4223
914	4246
914.113	4333
914.226	4409
914.34	4383
914.453	4246
914.566	4417
914.68	4360
914.793	4325
914.906	4124
915.019	4116
915.132	4078
915.245	4169
915.358	4227
915.47	4230
915.583	4257
915.696	4314
915.809	4428
915.921	4421
916.034	4284
916.146	4268
916.259	4219
916.371	4375
916.483	4344
916.595	4242
916.708	4329
916.82	4295
916.932	4367
917.044	4337
917.156	4318
917.268	4219
917.38	4291
917.491	4272
917.603	4344
917.715	4402
917.826	4363
917.938	4356
918.049	4249
918.161	4383
918.272	4538
918.384	4519
918.495	4417
918.606	4268
918.717	4280
918.828	4337
918.939	4386
919.05	4265
919.161	4306
919.272	4093
919.383	4257
919.494	4462
919.604	4603
919.715	4421
919.826	4375
919.936	4379
920.047	4519
920.157	4440
920.267	4675
920.378	4546
920.488	4519
920.598	4763
920.708	4923
920.818	4752
920.928	4767
921.038	4915
921.148	4930
921.258	4649
921.368	4580
921.477	4500
921.587	4451
921.697	4371
921.806	4554
921.916	4447
922.025	4238
922.134	4261
922.244	4223
922.353	4291
922.462	4139
922.571	4131
922.68	4036
922.789	3953
922.898	3994
923.007	3975
923.116	4086
923.224	4032
923.333	4055
923.442	3979
923.55	3949
923.659	4032
923.767	4116
923.876	3945
923.984	4090
924.092	3979
924.201	4059
924.309	4120
924.417	4120
924.525	4048
924.633	4093
924.741	5025
924.849	3945
924.956	4093
925.064	3934
925.172	3903
925.279	3991
925.387	4048
925.494	4013
925.602	4211
925.709	4173
925.816	4013
925.924	4143
926.031	4200
926.138	4116
926.245	4169
926.352	4078
926.459	4249
926.566	4303
926.673	4139
926.779	4090
926.886	4017
926.993	3968
927.099	3953
927.206	3945
927.312	3964
927.419	4055
927.525	3991
927.631	4090
927.737	3987
927.843	3949
927.95	3846
928.056	3949
928.162	3987
928.267	4040
928.373	4508
928.479	4086
928.585	3846
928.69	4044
928.796	4093
928.901	3960
929.007	3835
929.112	3994
929.218	3907
929.323	3956
929.428	3926
929.533	4078
929.638	3896
929.743	3975
929.848	4067
929.953	4010
930.058	3945
930.163	3759
930.267	3812
930.372	4010
930.477	3819
930.581	4093
930.685	3964
930.79	3781
930.894	3880
930.998	3861
931.103	4055
931.207	3728
931.311	3709
931.415	3648
931.519	3492
931.623	3557
