Data from test_V78500241_1747.txt Node
Date: Fri Mar 25 17:01:08 CST 2022
User: usil
Spectrometer: V785-0024
Trigger mode: 0
Integration Time (sec): 4.000000E-1
Scans to average: 1
Nonlinearity correction enabled: false
Boxcar width: 0
Storing dark spectrum: false
XAxis mode: Wavelengths
Number of Pixels in Spectrum: 1024
>>>>>Begin Spectral Data<<<<<
801.071	8012
801.214	7940
801.356	7875
801.499	7875
801.641	7792
801.783	7856
801.926	7978
802.068	7951
802.211	8035
802.353	8069
802.496	7830
802.638	7906
802.78	7890
802.923	7856
803.065	7890
803.208	7864
803.35	7928
803.492	8054
803.635	8142
803.777	7967
803.919	8088
804.061	8355
804.204	8225
804.346	8012
804.488	8027
804.63	8100
804.773	8027
804.915	8092
805.057	8366
805.199	8202
805.341	8153
805.483	8256
805.626	8267
805.768	8062
805.91	8145
806.052	8176
806.194	8100
806.336	8317
806.478	8115
806.62	8012
806.762	8123
806.904	8271
807.046	8480
807.188	8377
807.33	8328
807.472	8305
807.614	8168
807.756	8039
807.898	7955
808.04	7875
808.182	7871
808.324	7947
808.465	7883
808.607	8096
808.749	8157
808.891	8214
809.033	8271
809.174	8183
809.316	8012
809.458	8050
809.6	8024
809.741	8073
809.883	8008
810.025	8088
810.166	8069
810.308	7967
810.45	7902
810.591	7868
810.733	7715
810.875	7689
811.016	7472
811.158	7403
811.299	7567
811.441	7666
811.582	7674
811.724	7620
811.865	7537
812.007	7529
812.148	7578
812.29	7636
812.431	7799
812.573	7970
812.714	7970
812.855	8168
812.997	8202
813.138	8294
813.279	8191
813.421	8069
813.562	7951
813.703	7811
813.845	7784
813.986	7403
814.127	7270
814.268	7213
814.41	7251
814.551	7164
814.692	7171
814.833	7145
814.974	7084
815.115	7141
815.256	6913
815.397	6958
815.539	6962
815.68	6783
815.821	6795
815.962	6821
816.103	6810
816.244	6715
816.385	6612
816.526	6646
816.666	6513
816.807	6331
816.948	6388
817.089	6479
817.23	6410
817.371	6350
817.512	6289
817.653	6361
817.793	6296
817.934	6445
818.075	6471
818.216	6475
818.356	6407
818.497	6262
818.638	6133
818.778	6148
818.919	6159
819.06	6136
819.2	6331
819.341	6327
819.481	6308
819.622	6544
819.762	6795
819.903	6703
820.043	6604
820.184	6612
820.324	6566
820.465	6681
820.605	6719
820.746	6646
820.886	6467
821.026	6681
821.167	6635
821.307	6837
821.447	6753
821.588	6692
821.728	6582
821.868	6498
822.008	6258
822.149	6350
822.289	6334
822.429	6197
822.569	5969
822.709	6102
822.849	5942
822.99	5855
823.13	5980
823.27	5901
823.41	5733
823.55	5745
823.69	5764
823.83	5771
823.97	5551
824.11	5493
824.25	5509
824.389	5562
824.529	5608
824.669	5516
824.809	5634
824.949	5684
825.089	5592
825.228	5516
825.368	5387
825.508	5318
825.648	5341
825.787	5376
825.927	5376
826.067	5357
826.206	5307
826.346	5406
826.485	5429
826.625	5440
826.765	5554
826.904	5520
827.044	5246
827.183	5246
827.323	5174
827.462	5273
827.601	5159
827.741	5216
827.88	5250
828.02	5151
828.159	5235
828.298	5330
828.437	5357
828.577	5318
828.716	5535
828.855	5364
828.994	5151
829.134	5121
829.273	5212
829.412	5185
829.551	5162
829.69	5223
829.829	5254
829.968	5337
830.107	5269
830.246	5353
830.385	5216
830.524	5147
830.663	5109
830.802	5006
830.941	4927
831.08	4946
831.219	4991
831.357	4991
831.496	5174
831.635	4953
831.774	4839
831.913	4904
832.051	4786
832.19	4782
832.329	4847
832.467	4752
832.606	4702
832.744	4778
832.883	4721
833.022	4717
833.16	4755
833.299	4870
833.437	4862
833.576	4847
833.714	4953
833.852	4862
833.991	4938
834.129	4976
834.267	4957
834.406	4991
834.544	4972
834.682	5048
834.821	5041
834.959	5220
835.097	5010
835.235	5212
835.373	5143
835.511	5147
835.65	5037
835.788	5022
835.926	4908
836.064	4934
836.202	4934
836.34	5170
836.478	5258
836.615	5166
836.753	5197
836.891	5284
837.029	5307
837.167	5246
837.305	5220
837.443	5166
837.58	5056
837.718	5277
837.856	5280
837.993	5174
838.131	5277
838.269	5292
838.406	5185
838.544	5204
838.681	5045
838.819	5037
838.956	4942
839.094	4896
839.231	4984
839.369	5079
839.506	5452
839.643	5273
839.781	5098
839.918	5037
840.055	5083
840.193	5079
840.33	5094
840.467	5143
840.604	5208
840.742	5493
840.879	5113
841.016	5071
841.153	5143
841.29	5353
841.427	5353
841.564	5307
841.701	5372
841.838	5318
841.975	5277
842.112	5261
842.249	5124
842.385	5083
842.522	5337
842.659	5151
842.796	5204
842.933	5189
843.069	5216
843.206	5124
843.343	5318
843.479	5265
843.616	5273
843.752	5025
843.889	5045
844.025	5269
844.162	5067
844.298	5242
844.435	5132
844.571	5067
844.708	5193
844.844	5288
844.98	5368
845.117	5330
845.253	5159
845.389	5102
845.525	5258
845.661	5147
845.798	5052
845.934	5197
846.07	5064
846.206	5261
846.342	5296
846.478	5151
846.614	5079
846.75	5022
846.886	4987
847.022	5132
847.158	5045
847.294	5098
847.429	5105
847.565	5094
847.701	5337
847.837	4915
847.972	4839
848.108	4972
848.244	4927
848.379	4812
848.515	4771
848.65	4740
848.786	4816
848.921	4854
849.057	4892
849.192	4949
849.328	4812
849.463	4862
849.598	4801
849.734	4820
849.869	4736
850.004	4698
850.14	4691
850.275	4637
850.41	4580
850.545	4649
850.68	4641
850.815	4618
850.95	4656
851.085	4892
851.22	4763
851.355	4721
851.49	4611
851.625	4675
851.76	4656
851.895	4531
852.03	4588
852.165	4706
852.299	4771
852.434	4828
852.569	4736
852.703	4774
852.838	4839
852.973	4953
853.107	4972
853.242	4771
853.376	4721
853.511	4546
853.645	4649
853.78	4809
853.914	4729
854.048	4714
854.183	4694
854.317	4733
854.451	4938
854.585	4725
854.72	4637
854.854	4805
854.988	4630
855.122	4675
855.256	4565
855.39	4668
855.524	4812
855.658	4740
855.792	4694
855.926	4755
856.06	4801
856.194	4805
856.327	4736
856.461	4660
856.595	4675
856.729	4660
856.862	4812
856.996	4740
857.13	4706
857.263	4816
857.397	4828
857.53	4675
857.664	4755
857.797	4786
857.931	4793
858.064	4694
858.197	4805
858.331	4702
858.464	4618
858.597	4516
858.731	4634
858.864	4645
858.997	4664
859.13	4702
859.263	4656
859.396	4736
859.529	4668
859.662	4596
859.795	4554
859.928	4656
860.061	4797
860.194	4793
860.327	4649
860.46	4607
860.592	4767
860.725	4736
860.858	4725
860.99	4588
861.123	4554
861.256	4531
861.388	4573
861.521	5330
861.653	4500
861.786	4466
861.918	4512
862.05	4550
862.183	4584
862.315	4653
862.447	4691
862.58	4573
862.712	4402
862.844	4341
862.976	4500
863.108	4504
863.24	4900
863.372	4303
863.504	4424
863.636	4421
863.768	4489
863.9	4497
864.032	4409
864.164	4398
864.296	4500
864.428	4565
864.559	4569
864.691	4527
864.823	4565
864.954	4504
865.086	4508
865.217	4459
865.349	4497
865.48	4481
865.612	4516
865.743	4660
865.875	4523
866.006	4455
866.137	4508
866.269	4432
866.4	4424
866.531	4443
866.662	4409
866.793	4432
866.924	4462
867.055	4538
867.186	4481
867.317	4436
867.448	4413
867.579	4402
867.71	4436
867.841	4447
867.972	4455
868.103	4443
868.233	4478
868.364	4508
868.495	4508
868.625	4675
868.756	4736
868.886	4611
869.017	4691
869.147	4767
869.278	4809
869.408	4649
869.539	4645
869.669	4771
869.799	4675
869.929	4774
870.06	4752
870.19	4991
870.32	4949
870.45	4976
870.58	5025
870.71	5090
870.84	5086
870.97	5003
871.1	4885
871.23	5067
871.36	5174
871.489	4987
871.619	5109
871.749	5083
871.879	5136
872.008	5185
872.138	5102
872.267	5003
872.397	4900
872.526	4774
872.656	4771
872.785	4805
872.915	4987
873.044	5090
873.173	5003
873.303	4976
873.432	4961
873.561	4976
873.69	4877
873.819	4911
873.948	4949
874.077	4850
874.206	4809
874.335	4801
874.464	4957
874.593	5083
874.722	4961
874.851	5151
874.979	5105
875.108	5067
875.237	4923
875.365	4881
875.494	4919
875.623	5003
875.751	4900
875.88	4889
876.008	4961
876.136	5003
876.265	5201
876.393	5322
876.521	5246
876.65	5246
876.778	5235
876.906	5105
877.034	5079
877.162	5029
877.29	5006
877.418	5102
877.546	5067
877.674	5048
877.802	5064
877.93	5006
878.058	4957
878.185	4919
878.313	4953
878.441	4946
878.568	4858
878.696	4896
878.824	4938
878.951	4972
879.079	5147
879.206	5337
879.333	5155
879.461	4980
879.588	4991
879.715	5136
879.842	5246
879.97	5010
880.097	4793
880.224	4782
880.351	4790
880.478	4877
880.605	4793
880.732	4809
880.859	5117
880.986	4915
881.112	4949
881.239	4790
881.366	4714
881.493	4615
881.619	4558
881.746	4668
881.872	4664
881.999	4615
882.125	4698
882.252	4782
882.378	4850
882.505	4930
882.631	4820
882.757	4710
882.883	4740
883.01	4733
883.136	4694
883.262	4618
883.388	4653
883.514	4824
883.64	4915
883.766	4812
883.892	4683
884.018	4755
884.143	4877
884.269	5018
884.395	4691
884.52	4615
884.646	4672
884.772	4626
884.897	4577
885.023	4653
885.148	4831
885.274	4858
885.399	4786
885.524	4778
885.65	4733
885.775	4790
885.9	4744
886.025	4839
886.15	4793
886.275	4774
886.4	4649
886.525	4714
886.65	4679
886.775	4672
886.9	4927
887.025	5025
887.149	4805
887.274	4729
887.399	4565
887.523	4569
887.648	4577
887.773	4603
887.897	4824
888.021	4835
888.146	4721
888.27	4843
888.395	4915
888.519	4831
888.643	4873
888.767	4870
888.891	4698
889.015	4618
889.139	4694
889.263	4660
889.387	4820
889.511	4873
889.635	4816
889.759	4615
889.883	4622
890.006	4714
890.13	4824
890.254	4645
890.377	4714
890.501	4588
890.624	4508
890.748	4626
890.871	4512
890.995	4443
891.118	4379
891.241	4500
891.364	4527
891.488	4599
891.611	4523
891.734	4588
891.857	4622
891.98	4580
892.103	4645
892.226	4615
892.349	4569
892.471	4455
892.594	4569
892.717	4599
892.839	4550
892.962	4603
893.085	4706
893.207	4577
893.33	4470
893.452	4493
893.575	4706
893.697	4588
893.819	4778
893.941	4812
894.064	4805
894.186	4596
894.308	4584
894.43	4759
894.552	4850
894.674	4767
894.796	4588
894.918	4599
895.04	4607
895.161	4672
895.283	4683
895.405	4622
895.526	4603
895.648	4721
895.769	4702
895.891	4717
896.012	4752
896.134	4748
896.255	4656
896.376	4664
896.498	4599
896.619	4706
896.74	4584
896.861	4637
896.982	4927
897.103	5105
897.224	4854
897.345	4752
897.466	4691
897.587	4744
897.708	4835
897.828	4771
897.949	4679
898.07	4558
898.19	4634
898.311	4847
898.431	4679
898.552	4767
898.672	4801
898.792	4812
898.913	4755
899.033	4649
899.153	4512
899.273	4455
899.393	4542
899.513	4519
899.633	4577
899.753	4531
899.873	4519
899.993	4637
900.113	4558
900.232	4592
900.352	4538
900.472	4432
900.591	4386
900.711	4481
900.83	4413
900.95	4622
901.069	4660
901.189	4599
901.308	4409
901.427	4371
901.546	4405
901.665	4512
901.784	4508
901.904	4436
902.023	4337
902.141	4200
902.26	4177
902.379	4333
902.498	4265
902.617	4276
902.735	4371
902.854	4356
902.973	4363
903.091	4238
903.21	4257
903.328	4272
903.446	4318
903.565	4291
903.683	4402
903.801	4299
903.919	4428
904.038	4459
904.156	4371
904.274	4440
904.392	4413
904.51	4455
904.627	4481
904.745	4622
904.863	4630
904.981	4402
905.098	4367
905.216	4443
905.334	4459
905.451	4462
905.569	4428
905.686	4577
905.803	4577
905.921	4413
906.038	4569
906.155	4485
906.272	4394
906.389	4527
906.506	4337
906.623	4390
906.74	4409
906.857	4352
906.974	4402
907.091	4558
907.208	4683
907.324	4584
907.441	4459
907.557	4337
907.674	4344
907.79	4344
907.907	4341
908.023	4516
908.139	4481
908.256	4417
908.372	4493
908.488	4481
908.604	4344
908.72	4314
908.836	4421
908.952	4341
909.068	4440
909.184	4573
909.3	4481
909.415	4645
909.531	4599
909.647	4375
909.762	4390
909.878	4299
909.993	4436
910.108	4409
910.224	4421
910.339	4504
910.454	4417
910.57	4398
910.685	4306
910.8	4649
910.915	4630
911.03	4489
911.145	4325
911.259	4306
911.374	4367
911.489	4322
911.604	4291
911.718	4185
911.833	4192
911.947	4044
912.062	4021
912.176	4188
912.291	4242
912.405	4257
912.519	4413
912.633	4508
912.748	4360
912.862	4310
912.976	4169
913.09	4120
913.204	4211
913.318	4268
913.431	4352
913.545	4363
913.659	4470
913.772	4383
913.886	4299
914	4219
914.113	4383
914.226	4440
914.34	4409
914.453	4257
914.566	4432
914.68	4333
914.793	4322
914.906	4207
915.019	4124
915.132	4059
915.245	4200
915.358	4188
915.47	4253
915.583	4234
915.696	4265
915.809	4363
915.921	4398
916.034	4249
916.146	4306
916.259	4204
916.371	4402
916.483	4352
916.595	4306
916.708	4325
916.82	4299
916.932	4337
917.044	4314
917.156	4337
917.268	4238
917.38	4265
917.491	4287
917.603	4329
917.715	4455
917.826	4432
917.938	4333
918.049	4272
918.161	4402
918.272	4538
918.384	4508
918.495	4462
918.606	4333
918.717	4261
918.828	4379
918.939	4360
919.05	4299
919.161	4314
919.272	4150
919.383	4284
919.494	4398
919.604	4664
919.715	4436
919.826	4375
919.936	4386
920.047	4481
920.157	4535
920.267	4672
920.378	4565
920.488	4512
920.598	4706
920.708	4858
920.818	4767
920.928	4759
921.038	4965
921.148	4904
921.258	4607
921.368	4588
921.477	4516
921.587	4451
921.697	4421
921.806	4558
921.916	4398
922.025	4223
922.134	4295
922.244	4230
922.353	4348
922.462	4188
922.571	4078
922.68	4017
922.789	3991
922.898	4032
923.007	4021
923.116	4109
923.224	4074
923.333	4067
923.442	3964
923.55	3930
923.659	4048
923.767	4097
923.876	3987
923.984	4082
924.092	3979
924.201	4063
924.309	4055
924.417	4112
924.525	4078
924.633	4082
924.741	4923
924.849	3899
924.956	4147
925.064	3934
925.172	3926
925.279	4002
925.387	4059
925.494	4074
925.602	4204
925.709	4177
925.816	4063
925.924	4124
926.031	4223
926.138	4173
926.245	4234
926.352	4086
926.459	4223
926.566	4280
926.673	4128
926.779	4074
926.886	4109
926.993	3953
927.099	3953
927.206	3896
927.312	3945
927.419	4025
927.525	4013
927.631	4109
927.737	3960
927.843	3953
927.95	3869
928.056	3975
928.162	3994
928.267	4071
928.373	4649
928.479	4143
928.585	3896
928.69	4025
928.796	4074
928.901	3975
929.007	3861
929.112	3987
929.218	3991
929.323	3983
929.428	3934
929.533	4135
929.638	3979
929.743	3994
929.848	4025
929.953	4025
930.058	3953
930.163	3759
930.267	3827
930.372	3979
930.477	3846
930.581	4109
930.685	3975
930.79	3846
930.894	3899
930.998	3873
931.103	4036
931.207	3698
931.311	3709
931.415	3675
931.519	3553
931.623	3580
