Data from test_V78500241_1613.txt Node
Date: Fri Mar 25 17:00:13 CST 2022
User: usil
Spectrometer: V785-0024
Trigger mode: 0
Integration Time (sec): 4.000000E-1
Scans to average: 1
Nonlinearity correction enabled: false
Boxcar width: 0
Storing dark spectrum: false
XAxis mode: Wavelengths
Number of Pixels in Spectrum: 1024
>>>>>Begin Spectral Data<<<<<
801.071	8001
801.214	8005
801.356	7906
801.499	7890
801.641	7769
801.783	7788
801.926	7997
802.068	7993
802.211	8001
802.353	7982
802.496	7803
802.638	7849
802.78	7822
802.923	7963
803.065	7909
803.208	7852
803.35	7959
803.492	8050
803.635	8107
803.777	8012
803.919	8153
804.061	8393
804.204	8123
804.346	8035
804.488	7944
804.63	7982
804.773	8012
804.915	8100
805.057	8290
805.199	8202
805.341	8115
805.483	8332
805.626	8206
805.768	8180
805.91	8164
806.052	8164
806.194	8077
806.336	8263
806.478	8024
806.62	8103
806.762	8176
806.904	8256
807.046	8465
807.188	8366
807.33	8275
807.472	8328
807.614	8187
807.756	8134
807.898	8008
808.04	7925
808.182	7894
808.324	7909
808.465	7883
808.607	8054
808.749	8065
808.891	8191
809.033	8313
809.174	8191
809.316	8008
809.458	8103
809.6	8012
809.741	7967
809.883	8012
810.025	8062
810.166	8062
810.308	8073
810.45	7940
810.591	7947
810.733	7788
810.875	7662
811.016	7575
811.158	7544
811.299	7643
811.441	7727
811.582	7708
811.724	7575
811.865	7472
812.007	7571
812.148	7540
812.29	7616
812.431	7765
812.573	7936
812.714	8005
812.855	8134
812.997	8180
813.138	8309
813.279	8119
813.421	8035
813.562	7940
813.703	7807
813.845	7689
813.986	7365
814.127	7240
814.268	7198
814.41	7183
814.551	7187
814.692	7190
814.833	7038
814.974	7118
815.115	7145
815.256	6989
815.397	6954
815.539	6875
815.68	6776
815.821	6730
815.962	6821
816.103	6798
816.244	6719
816.385	6589
816.526	6631
816.666	6486
816.807	6292
816.948	6399
817.089	6456
817.23	6414
817.371	6388
817.512	6403
817.653	6384
817.793	6353
817.934	6388
818.075	6467
818.216	6418
818.356	6372
818.497	6228
818.638	6095
818.778	6106
818.919	6064
819.06	6129
819.2	6323
819.341	6254
819.481	6357
819.622	6506
819.762	6749
819.903	6684
820.043	6593
820.184	6582
820.324	6555
820.465	6677
820.605	6696
820.746	6639
820.886	6483
821.026	6646
821.167	6665
821.307	6757
821.447	6764
821.588	6623
821.728	6627
821.868	6483
822.008	6308
822.149	6323
822.289	6350
822.429	6155
822.569	6129
822.709	6060
822.849	5939
822.99	5961
823.13	5946
823.27	5908
823.41	5805
823.55	5722
823.69	5813
823.83	5783
823.97	5665
824.11	5520
824.25	5516
824.389	5539
824.529	5562
824.669	5585
824.809	5726
824.949	5703
825.089	5668
825.228	5554
825.368	5410
825.508	5357
825.648	5357
825.787	5379
825.927	5383
826.067	5357
826.206	5318
826.346	5330
826.485	5429
826.625	5444
826.765	5570
826.904	5478
827.044	5303
827.183	5220
827.323	5174
827.462	5284
827.601	5227
827.741	5242
827.88	5254
828.02	5090
828.159	5277
828.298	5360
828.437	5398
828.577	5307
828.716	5486
828.855	5326
828.994	5212
829.134	5197
829.273	5189
829.412	5204
829.551	5193
829.69	5204
829.829	5292
829.968	5372
830.107	5322
830.246	5345
830.385	5212
830.524	5136
830.663	5162
830.802	4991
830.941	4911
831.08	4946
831.219	5006
831.357	5010
831.496	5162
831.635	5003
831.774	4934
831.913	4919
832.051	4729
832.19	4729
832.329	4877
832.467	4721
832.606	4668
832.744	4767
832.883	4763
833.022	4740
833.16	4831
833.299	4805
833.437	4866
833.576	4850
833.714	4835
833.852	4938
833.991	4938
834.129	4980
834.267	4980
834.406	4946
834.544	4987
834.682	5003
834.821	4987
834.959	5254
835.097	5006
835.235	5140
835.373	5109
835.511	5079
835.65	5056
835.788	5022
835.926	4961
836.064	4896
836.202	4904
836.34	5170
836.478	5227
836.615	5155
836.753	5265
836.891	5303
837.029	5216
837.167	5254
837.305	5223
837.443	5174
837.58	5113
837.718	5303
837.856	5174
837.993	5250
838.131	5227
838.269	5265
838.406	5220
838.544	5231
838.681	5124
838.819	4995
838.956	4915
839.094	4927
839.231	5014
839.369	5071
839.506	5482
839.643	5288
839.781	5086
839.918	5029
840.055	5117
840.193	5121
840.33	5121
840.467	5170
840.604	5227
840.742	5509
840.879	5102
841.016	5166
841.153	5155
841.29	5395
841.427	5353
841.564	5322
841.701	5364
841.838	5307
841.975	5261
842.112	5307
842.249	5212
842.385	5117
842.522	5315
842.659	5170
842.796	5155
842.933	5220
843.069	5155
843.206	5140
843.343	5345
843.479	5330
843.616	5246
843.752	5083
843.889	5079
844.025	5197
844.162	5064
844.298	5204
844.435	5159
844.571	5071
844.708	5277
844.844	5311
844.98	5379
845.117	5353
845.253	5155
845.389	5075
845.525	5174
845.661	5159
845.798	5071
845.934	5181
846.07	5132
846.206	5223
846.342	5288
846.478	5193
846.614	5010
846.75	4999
846.886	4968
847.022	5132
847.158	5041
847.294	5090
847.429	5170
847.565	5109
847.701	5372
847.837	4930
847.972	4839
848.108	4953
848.244	4980
848.379	4793
848.515	4778
848.65	4759
848.786	4759
848.921	4786
849.057	4927
849.192	4942
849.328	4828
849.463	4850
849.598	4824
849.734	4805
849.869	4714
850.004	4668
850.14	4664
850.275	4679
850.41	4538
850.545	4664
850.68	4645
850.815	4599
850.95	4599
851.085	4892
851.22	4774
851.355	4698
851.49	4672
851.625	4656
851.76	4626
851.895	4611
852.03	4546
852.165	4683
852.299	4744
852.434	4786
852.569	4774
852.703	4824
852.838	4854
852.973	4980
853.107	4889
853.242	4778
853.376	4668
853.511	4592
853.645	4656
853.78	4828
853.914	4675
854.048	4717
854.183	4698
854.317	4752
854.451	4889
854.585	4736
854.72	4683
854.854	4774
854.988	4649
855.122	4653
855.256	4516
855.39	4660
855.524	4809
855.658	4706
855.792	4748
855.926	4801
856.06	4820
856.194	4835
856.327	4782
856.461	4630
856.595	4611
856.729	4675
856.862	4774
856.996	4698
857.13	4786
857.263	4805
857.397	4801
857.53	4641
857.664	4763
857.797	4824
857.931	4816
858.064	4691
858.197	4782
858.331	4698
858.464	4626
858.597	4565
858.731	4664
858.864	4615
858.997	4653
859.13	4744
859.263	4641
859.396	4691
859.529	4603
859.662	4592
859.795	4538
859.928	4683
860.061	4824
860.194	4805
860.327	4649
860.46	4603
860.592	4694
860.725	4717
860.858	4706
860.99	4588
861.123	4554
861.256	4519
861.388	4580
861.521	5212
861.653	4542
861.786	4497
861.918	4497
862.05	4561
862.183	4611
862.315	4588
862.447	4679
862.58	4546
862.712	4402
862.844	4344
862.976	4489
863.108	4466
863.24	4835
863.372	4356
863.504	4424
863.636	4417
863.768	4485
863.9	4474
864.032	4390
864.164	4466
864.296	4489
864.428	4573
864.559	4584
864.691	4550
864.823	4565
864.954	4535
865.086	4478
865.217	4478
865.349	4432
865.48	4508
865.612	4519
865.743	4702
865.875	4504
866.006	4470
866.137	4500
866.269	4466
866.4	4443
866.531	4474
866.662	4417
866.793	4394
866.924	4436
867.055	4508
867.186	4470
867.317	4443
867.448	4386
867.579	4443
867.71	4417
867.841	4428
867.972	4455
868.103	4485
868.233	4459
868.364	4504
868.495	4500
868.625	4656
868.756	4774
868.886	4592
869.017	4653
869.147	4809
869.278	4752
869.408	4660
869.539	4645
869.669	4691
869.799	4675
869.929	4744
870.06	4828
870.19	4991
870.32	4927
870.45	4976
870.58	4999
870.71	5113
870.84	5140
870.97	4934
871.1	4908
871.23	5151
871.36	5136
871.489	5086
871.619	5056
871.749	5098
871.879	5128
872.008	5143
872.138	5071
872.267	4980
872.397	4843
872.526	4873
872.656	4793
872.785	4778
872.915	4980
873.044	5056
873.173	4949
873.303	5006
873.432	4965
873.561	4965
873.69	4908
873.819	4889
873.948	4976
874.077	4801
874.206	4774
874.335	4805
874.464	4915
874.593	5083
874.722	4965
874.851	5159
874.979	5056
875.108	5048
875.237	4930
875.365	4866
875.494	4900
875.623	4980
875.751	4824
875.88	4942
876.008	4930
876.136	5105
876.265	5170
876.393	5353
876.521	5307
876.65	5216
876.778	5174
876.906	5143
877.034	5041
877.162	5037
877.29	4995
877.418	5006
877.546	5018
877.674	5006
877.802	5060
877.93	5033
878.058	4976
878.185	4911
878.313	4980
878.441	4938
878.568	4877
878.696	4896
878.824	4972
878.951	5010
879.079	5162
879.206	5246
879.333	5086
879.461	4991
879.588	4999
879.715	5170
879.842	5258
879.97	5003
880.097	4801
880.224	4763
880.351	4828
880.478	4854
880.605	4797
880.732	4805
880.859	5098
880.986	4946
881.112	4900
881.239	4771
881.366	4687
881.493	4607
881.619	4588
881.746	4668
881.872	4687
881.999	4675
882.125	4717
882.252	4801
882.378	4797
882.505	4972
882.631	4797
882.757	4653
882.883	4733
883.01	4755
883.136	4702
883.262	4660
883.388	4603
883.514	4862
883.64	4881
883.766	4816
883.892	4672
884.018	4748
884.143	4866
884.269	4972
884.395	4649
884.52	4615
884.646	4679
884.772	4603
884.897	4554
885.023	4714
885.148	4782
885.274	4873
885.399	4839
885.524	4744
885.65	4675
885.775	4782
885.9	4740
886.025	4889
886.15	4843
886.275	4790
886.4	4672
886.525	4759
886.65	4714
886.775	4702
886.9	4927
887.025	4999
887.149	4786
887.274	4679
887.399	4615
887.523	4603
887.648	4615
887.773	4653
887.897	4801
888.021	4831
888.146	4660
888.27	4828
888.395	4908
888.519	4797
888.643	4843
888.767	4790
888.891	4679
889.015	4599
889.139	4653
889.263	4603
889.387	4725
889.511	4854
889.635	4820
889.759	4660
889.883	4653
890.006	4675
890.13	4850
890.254	4603
890.377	4672
890.501	4580
890.624	4558
890.748	4679
890.871	4481
890.995	4421
891.118	4383
891.241	4569
891.364	4550
891.488	4653
891.611	4497
891.734	4538
891.857	4626
891.98	4573
892.103	4717
892.226	4580
892.349	4527
892.471	4443
892.594	4542
892.717	4580
892.839	4584
892.962	4622
893.085	4664
893.207	4603
893.33	4424
893.452	4538
893.575	4679
893.697	4523
893.819	4847
893.941	4805
894.064	4771
894.186	4580
894.308	4592
894.43	4714
894.552	4850
894.674	4710
894.796	4611
894.918	4596
895.04	4588
895.161	4675
895.283	4664
895.405	4580
895.526	4668
895.648	4683
895.769	4714
895.891	4664
896.012	4767
896.134	4710
896.255	4729
896.376	4588
896.498	4637
896.619	4714
896.74	4649
896.861	4649
896.982	4923
897.103	5128
897.224	4835
897.345	4771
897.466	4668
897.587	4736
897.708	4824
897.828	4854
897.949	4656
898.07	4592
898.19	4634
898.311	4812
898.431	4702
898.552	4740
898.672	4854
898.792	4812
898.913	4706
899.033	4634
899.153	4504
899.273	4447
899.393	4474
899.513	4573
899.633	4538
899.753	4538
899.873	4497
899.993	4580
900.113	4527
900.232	4603
900.352	4531
900.472	4535
900.591	4383
900.711	4485
900.83	4440
900.95	4592
901.069	4675
901.189	4542
901.308	4413
901.427	4341
901.546	4394
901.665	4440
901.784	4561
901.904	4386
902.023	4386
902.141	4166
902.26	4158
902.379	4291
902.498	4249
902.617	4227
902.735	4314
902.854	4409
902.973	4363
903.091	4192
903.21	4246
903.328	4291
903.446	4253
903.565	4261
903.683	4356
903.801	4310
903.919	4424
904.038	4451
904.156	4363
904.274	4447
904.392	4405
904.51	4398
904.627	4447
904.745	4618
904.863	4607
904.981	4390
905.098	4261
905.216	4344
905.334	4405
905.451	4440
905.569	4440
905.686	4569
905.803	4554
905.921	4402
906.038	4565
906.155	4538
906.272	4383
906.389	4474
906.506	4356
906.623	4405
906.74	4409
906.857	4318
906.974	4379
907.091	4573
907.208	4611
907.324	4596
907.441	4519
907.557	4371
907.674	4348
907.79	4303
907.907	4405
908.023	4466
908.139	4466
908.256	4413
908.372	4466
908.488	4436
908.604	4322
908.72	4295
908.836	4398
908.952	4325
909.068	4470
909.184	4599
909.3	4512
909.415	4599
909.531	4561
909.647	4363
909.762	4371
909.878	4314
909.993	4447
910.108	4402
910.224	4402
910.339	4531
910.454	4424
910.57	4348
910.685	4344
910.8	4649
910.915	4634
911.03	4550
911.145	4333
911.259	4341
911.374	4409
911.489	4325
911.604	4287
911.718	4147
911.833	4166
911.947	4055
912.062	4051
912.176	4242
912.291	4230
912.405	4246
912.519	4497
912.633	4462
912.748	4383
912.862	4314
912.976	4196
913.09	4086
913.204	4166
913.318	4268
913.431	4344
913.545	4436
913.659	4462
913.772	4341
913.886	4265
914	4204
914.113	4390
914.226	4421
914.34	4428
914.453	4185
914.566	4394
914.68	4341
914.793	4299
914.906	4150
915.019	4120
915.132	4067
915.245	4177
915.358	4177
915.47	4246
915.583	4227
915.696	4261
915.809	4409
915.921	4413
916.034	4257
916.146	4284
916.259	4196
916.371	4409
916.483	4379
916.595	4284
916.708	4295
916.82	4329
916.932	4299
917.044	4295
917.156	4348
917.268	4242
917.38	4261
917.491	4242
917.603	4341
917.715	4432
917.826	4470
917.938	4363
918.049	4257
918.161	4417
918.272	4478
918.384	4493
918.495	4459
918.606	4329
918.717	4211
918.828	4322
918.939	4333
919.05	4238
919.161	4329
919.272	4135
919.383	4242
919.494	4443
919.604	4622
919.715	4424
919.826	4348
919.936	4436
920.047	4538
920.157	4470
920.267	4752
920.378	4599
920.488	4523
920.598	4698
920.708	4911
920.818	4763
920.928	4778
921.038	4930
921.148	4930
921.258	4645
921.368	4531
921.477	4519
921.587	4436
921.697	4394
921.806	4519
921.916	4440
922.025	4280
922.134	4287
922.244	4238
922.353	4310
922.462	4166
922.571	4166
922.68	3983
922.789	3998
922.898	4029
923.007	3994
923.116	4063
923.224	4090
923.333	4082
923.442	3983
923.55	4013
923.659	4063
923.767	4059
923.876	4010
923.984	4112
924.092	4006
924.201	4090
924.309	4105
924.417	4135
924.525	4097
924.633	4131
924.741	4900
924.849	3918
924.956	4093
925.064	3998
925.172	3896
925.279	3998
925.387	3987
925.494	4036
925.602	4200
925.709	4181
925.816	4051
925.924	4147
926.031	4223
926.138	4147
926.245	4188
926.352	4124
926.459	4238
926.566	4352
926.673	4173
926.779	4109
926.886	4078
926.993	3956
927.099	3945
927.206	3915
927.312	3945
927.419	4002
927.525	4032
927.631	4124
927.737	3945
927.843	3922
927.95	3899
928.056	3956
928.162	4025
928.267	4055
928.373	4588
928.479	4105
928.585	3857
928.69	3991
928.796	4036
928.901	3968
929.007	3873
929.112	3991
929.218	3987
929.323	3956
929.428	3922
929.533	4097
929.638	3857
929.743	3922
929.848	4040
929.953	4025
930.058	3884
930.163	3785
930.267	3865
930.372	3987
930.477	3835
930.581	4090
930.685	3934
930.79	3842
930.894	3888
930.998	3854
931.103	4055
931.207	3743
931.311	3701
931.415	3629
931.519	3557
931.623	3526
