Data from test_V78500241_653.txt Node
Date: Fri Mar 25 16:53:32 CST 2022
User: usil
Spectrometer: V785-0024
Trigger mode: 0
Integration Time (sec): 4.000000E-1
Scans to average: 1
Nonlinearity correction enabled: false
Boxcar width: 0
Storing dark spectrum: false
XAxis mode: Wavelengths
Number of Pixels in Spectrum: 1024
>>>>>Begin Spectral Data<<<<<
801.071	7978
801.214	7974
801.356	7868
801.499	7890
801.641	7769
801.783	7818
801.926	7932
802.068	7944
802.211	7902
802.353	7959
802.496	7841
802.638	7913
802.78	7913
802.923	7890
803.065	7814
803.208	7792
803.35	8005
803.492	8107
803.635	8130
803.777	8020
803.919	8157
804.061	8377
804.204	8001
804.346	8039
804.488	7936
804.63	7970
804.773	7963
804.915	8092
805.057	8240
805.199	8153
805.341	8202
805.483	8286
805.626	8210
805.768	8130
805.91	8168
806.052	8221
806.194	8077
806.336	8301
806.478	8123
806.62	8031
806.762	8119
806.904	8282
807.046	8434
807.188	8400
807.33	8290
807.472	8328
807.614	8202
807.756	8107
807.898	8001
808.04	7852
808.182	7864
808.324	7894
808.465	7856
808.607	8062
808.749	8073
808.891	8233
809.033	8290
809.174	8134
809.316	8039
809.458	8069
809.6	7986
809.741	8012
809.883	7986
810.025	8062
810.166	7978
810.308	8020
810.45	8058
810.591	7818
810.733	7769
810.875	7712
811.016	7525
811.158	7495
811.299	7559
811.441	7674
811.582	7670
811.724	7540
811.865	7491
812.007	7559
812.148	7548
812.29	7559
812.431	7685
812.573	7856
812.714	8008
812.855	8123
812.997	8176
813.138	8286
813.279	8206
813.421	8138
813.562	7959
813.703	7830
813.845	7788
813.986	7438
814.127	7297
814.268	7183
814.41	7164
814.551	7080
814.692	7160
814.833	7038
814.974	7137
815.115	7118
815.256	6954
815.397	6920
815.539	6962
815.68	6844
815.821	6779
815.962	6821
816.103	6863
816.244	6764
816.385	6631
816.526	6631
816.666	6479
816.807	6258
816.948	6376
817.089	6410
817.23	6399
817.371	6327
817.512	6331
817.653	6414
817.793	6391
817.934	6395
818.075	6498
818.216	6399
818.356	6369
818.497	6159
818.638	6125
818.778	6060
818.919	6129
819.06	6175
819.2	6315
819.341	6285
819.481	6361
819.622	6551
819.762	6703
819.903	6669
820.043	6574
820.184	6578
820.324	6464
820.465	6665
820.605	6642
820.746	6608
820.886	6441
821.026	6597
821.167	6639
821.307	6798
821.447	6669
821.588	6616
821.728	6555
821.868	6376
822.008	6285
822.149	6311
822.289	6331
822.429	6167
822.569	6030
822.709	6083
822.849	5912
822.99	5870
823.13	5878
823.27	5950
823.41	5798
823.55	5764
823.69	5771
823.83	5802
823.97	5684
824.11	5512
824.25	5520
824.389	5539
824.529	5615
824.669	5509
824.809	5604
824.949	5638
825.089	5581
825.228	5482
825.368	5414
825.508	5296
825.648	5357
825.787	5410
825.927	5383
826.067	5322
826.206	5315
826.346	5421
826.485	5417
826.625	5395
826.765	5585
826.904	5452
827.044	5216
827.183	5193
827.323	5181
827.462	5273
827.601	5208
827.741	5185
827.88	5246
828.02	5178
828.159	5235
828.298	5303
828.437	5387
828.577	5303
828.716	5516
828.855	5379
828.994	5223
829.134	5193
829.273	5197
829.412	5132
829.551	5181
829.69	5189
829.829	5258
829.968	5440
830.107	5273
830.246	5284
830.385	5227
830.524	5189
830.663	5102
830.802	5025
830.941	4873
831.08	4892
831.219	5025
831.357	5102
831.496	5227
831.635	4949
831.774	4911
831.913	4885
832.051	4752
832.19	4752
832.329	4873
832.467	4721
832.606	4694
832.744	4759
832.883	4733
833.022	4767
833.16	4824
833.299	4889
833.437	4854
833.576	4900
833.714	4919
833.852	4889
833.991	4968
834.129	5014
834.267	4976
834.406	4930
834.544	4957
834.682	5025
834.821	4953
834.959	5185
835.097	4984
835.235	5155
835.373	5094
835.511	5151
835.65	5056
835.788	5064
835.926	4965
836.064	4908
836.202	4976
836.34	5178
836.478	5239
836.615	5185
836.753	5242
836.891	5318
837.029	5265
837.167	5235
837.305	5197
837.443	5170
837.58	5143
837.718	5254
837.856	5204
837.993	5151
838.131	5288
838.269	5212
838.406	5174
838.544	5254
838.681	5056
838.819	5071
838.956	4896
839.094	4942
839.231	5010
839.369	5079
839.506	5467
839.643	5296
839.781	5109
839.918	5003
840.055	5178
840.193	5136
840.33	5155
840.467	5174
840.604	5254
840.742	5429
840.879	5102
841.016	5109
841.153	5178
841.29	5402
841.427	5387
841.564	5357
841.701	5364
841.838	5341
841.975	5250
842.112	5303
842.249	5159
842.385	5121
842.522	5334
842.659	5166
842.796	5204
842.933	5250
843.069	5193
843.206	5170
843.343	5349
843.479	5223
843.616	5273
843.752	5029
843.889	5056
844.025	5242
844.162	5045
844.298	5216
844.435	5060
844.571	5090
844.708	5208
844.844	5376
844.98	5379
845.117	5311
845.253	5178
845.389	5090
845.525	5143
845.661	5174
845.798	5041
845.934	5162
846.07	5064
846.206	5212
846.342	5334
846.478	5189
846.614	4980
846.75	4930
846.886	4980
847.022	5166
847.158	5041
847.294	5143
847.429	5117
847.565	5113
847.701	5360
847.837	4847
847.972	4866
848.108	4953
848.244	4938
848.379	4805
848.515	4755
848.65	4748
848.786	4767
848.921	4805
849.057	4938
849.192	4900
849.328	4847
849.463	4850
849.598	4847
849.734	4736
849.869	4706
850.004	4607
850.14	4710
850.275	4618
850.41	4580
850.545	4611
850.68	4622
850.815	4679
850.95	4656
851.085	4870
851.22	4740
851.355	4687
851.49	4618
851.625	4656
851.76	4679
851.895	4592
852.03	4538
852.165	4706
852.299	4767
852.434	4809
852.569	4782
852.703	4793
852.838	4892
852.973	4980
853.107	4980
853.242	4755
853.376	4637
853.511	4573
853.645	4596
853.78	4858
853.914	4668
854.048	4721
854.183	4664
854.317	4755
854.451	4816
854.585	4710
854.72	4660
854.854	4763
854.988	4618
855.122	4664
855.256	4531
855.39	4683
855.524	4858
855.658	4793
855.792	4710
855.926	4752
856.06	4835
856.194	4805
856.327	4759
856.461	4618
856.595	4664
856.729	4637
856.862	4782
856.996	4740
857.13	4725
857.263	4793
857.397	4797
857.53	4683
857.664	4744
857.797	4786
857.931	4782
858.064	4748
858.197	4733
858.331	4687
858.464	4668
858.597	4573
858.731	4649
858.864	4637
858.997	4641
859.13	4664
859.263	4687
859.396	4691
859.529	4596
859.662	4634
859.795	4599
859.928	4660
860.061	4763
860.194	4805
860.327	4626
860.46	4611
860.592	4698
860.725	4717
860.858	4752
860.99	4599
861.123	4546
861.256	4577
861.388	4618
861.521	5288
861.653	4497
861.786	4478
861.918	4478
862.05	4546
862.183	4626
862.315	4599
862.447	4668
862.58	4573
862.712	4375
862.844	4371
862.976	4519
863.108	4497
863.24	4885
863.372	4405
863.504	4485
863.636	4417
863.768	4497
863.9	4432
864.032	4402
864.164	4413
864.296	4489
864.428	4603
864.559	4588
864.691	4561
864.823	4519
864.954	4531
865.086	4527
865.217	4436
865.349	4417
865.48	4519
865.612	4538
865.743	4645
865.875	4500
866.006	4470
866.137	4516
866.269	4451
866.4	4478
866.531	4436
866.662	4428
866.793	4443
866.924	4432
867.055	4508
867.186	4443
867.317	4474
867.448	4421
867.579	4402
867.71	4352
867.841	4386
867.972	4447
868.103	4493
868.233	4489
868.364	4455
868.495	4508
868.625	4683
868.756	4786
868.886	4565
869.017	4653
869.147	4786
869.278	4812
869.408	4698
869.539	4626
869.669	4740
869.799	4691
869.929	4778
870.06	4725
870.19	4953
870.32	4873
870.45	4911
870.58	5083
870.71	5147
870.84	5090
870.97	4957
871.1	4892
871.23	5155
871.36	5174
871.489	5067
871.619	5117
871.749	5105
871.879	5121
872.008	5155
872.138	5109
872.267	5006
872.397	4843
872.526	4850
872.656	4733
872.785	4824
872.915	5014
873.044	5029
873.173	4927
873.303	4968
873.432	4965
873.561	4980
873.69	4915
873.819	4866
873.948	4862
874.077	4858
874.206	4793
874.335	4816
874.464	4957
874.593	5083
874.722	4968
874.851	5098
874.979	5083
875.108	5022
875.237	4949
875.365	4892
875.494	4900
875.623	5006
875.751	4809
875.88	4896
876.008	5014
876.136	5014
876.265	5223
876.393	5326
876.521	5299
876.65	5197
876.778	5140
876.906	5128
877.034	5079
877.162	5033
877.29	5006
877.418	5086
877.546	5033
877.674	5071
877.802	5041
877.93	5025
878.058	4965
878.185	4858
878.313	4991
878.441	4991
878.568	4820
878.696	4908
878.824	5029
878.951	5022
879.079	5174
879.206	5273
879.333	5105
879.461	5025
879.588	5010
879.715	5155
879.842	5269
879.97	5025
880.097	4797
880.224	4736
880.351	4870
880.478	4843
880.605	4831
880.732	4809
880.859	5109
880.986	4938
881.112	4900
881.239	4812
881.366	4694
881.493	4656
881.619	4558
881.746	4668
881.872	4634
881.999	4634
882.125	4725
882.252	4793
882.378	4858
882.505	4946
882.631	4809
882.757	4698
882.883	4759
883.01	4752
883.136	4736
883.262	4611
883.388	4607
883.514	4847
883.64	4873
883.766	4831
883.892	4637
884.018	4706
884.143	4911
884.269	4991
884.395	4702
884.52	4626
884.646	4634
884.772	4596
884.897	4561
885.023	4706
885.148	4812
885.274	4843
885.399	4793
885.524	4706
885.65	4740
885.775	4763
885.9	4710
886.025	4870
886.15	4774
886.275	4733
886.4	4691
886.525	4733
886.65	4698
886.775	4675
886.9	4896
887.025	5025
887.149	4828
887.274	4637
887.399	4607
887.523	4622
887.648	4637
887.773	4584
887.897	4771
888.021	4786
888.146	4656
888.27	4835
888.395	4877
888.519	4824
888.643	4797
888.767	4850
888.891	4672
889.015	4626
889.139	4626
889.263	4577
889.387	4778
889.511	4900
889.635	4797
889.759	4634
889.883	4656
890.006	4710
890.13	4831
890.254	4672
890.377	4687
890.501	4599
890.624	4538
890.748	4664
890.871	4584
890.995	4485
891.118	4417
891.241	4459
891.364	4558
891.488	4660
891.611	4519
891.734	4531
891.857	4561
891.98	4573
892.103	4645
892.226	4615
892.349	4577
892.471	4447
892.594	4561
892.717	4577
892.839	4550
892.962	4596
893.085	4687
893.207	4637
893.33	4470
893.452	4508
893.575	4683
893.697	4596
893.819	4767
893.941	4831
894.064	4816
894.186	4645
894.308	4569
894.43	4706
894.552	4850
894.674	4790
894.796	4512
894.918	4561
895.04	4573
895.161	4714
895.283	4630
895.405	4577
895.526	4622
895.648	4717
895.769	4691
895.891	4706
896.012	4721
896.134	4740
896.255	4706
896.376	4634
896.498	4641
896.619	4679
896.74	4615
896.861	4698
896.982	4919
897.103	5056
897.224	4820
897.345	4755
897.466	4668
897.587	4736
897.708	4858
897.828	4809
897.949	4691
898.07	4569
898.19	4641
898.311	4847
898.431	4717
898.552	4725
898.672	4801
898.792	4835
898.913	4767
899.033	4645
899.153	4538
899.273	4455
899.393	4516
899.513	4470
899.633	4497
899.753	4554
899.873	4523
899.993	4622
900.113	4577
900.232	4561
900.352	4554
900.472	4459
900.591	4367
900.711	4470
900.83	4424
900.95	4622
901.069	4664
901.189	4546
901.308	4394
901.427	4314
901.546	4367
901.665	4474
901.784	4542
901.904	4413
902.023	4352
902.141	4169
902.26	4196
902.379	4287
902.498	4284
902.617	4242
902.735	4409
902.854	4417
902.973	4383
903.091	4230
903.21	4322
903.328	4299
903.446	4265
903.565	4268
903.683	4344
903.801	4314
903.919	4432
904.038	4500
904.156	4360
904.274	4455
904.392	4405
904.51	4424
904.627	4470
904.745	4603
904.863	4660
904.981	4432
905.098	4322
905.216	4405
905.334	4440
905.451	4478
905.569	4485
905.686	4538
905.803	4618
905.921	4489
906.038	4592
906.155	4550
906.272	4432
906.389	4485
906.506	4375
906.623	4413
906.74	4440
906.857	4375
906.974	4402
907.091	4615
907.208	4664
907.324	4656
907.441	4500
907.557	4402
907.674	4383
907.79	4386
907.907	4375
908.023	4542
908.139	4523
908.256	4481
908.372	4519
908.488	4485
908.604	4409
908.72	4344
908.836	4421
908.952	4409
909.068	4462
909.184	4626
909.3	4500
909.415	4634
909.531	4626
909.647	4413
909.762	4398
909.878	4428
909.993	4527
910.108	4504
910.224	4470
910.339	4542
910.454	4478
910.57	4428
910.685	4310
910.8	4649
910.915	4645
911.03	4497
911.145	4375
911.259	4390
911.374	4432
911.489	4348
911.604	4329
911.718	4246
911.833	4268
911.947	4093
912.062	4086
912.176	4219
912.291	4322
912.405	4333
912.519	4489
912.633	4550
912.748	4428
912.862	4337
912.976	4284
913.09	4131
913.204	4238
913.318	4246
913.431	4394
913.545	4417
913.659	4440
913.772	4360
913.886	4310
914	4310
914.113	4398
914.226	4500
914.34	4466
914.453	4303
914.566	4466
914.68	4367
914.793	4344
914.906	4207
915.019	4143
915.132	4105
915.245	4246
915.358	4280
915.47	4253
915.583	4276
915.696	4341
915.809	4481
915.921	4485
916.034	4242
916.146	4314
916.259	4227
916.371	4402
916.483	4402
916.595	4341
916.708	4303
916.82	4360
916.932	4375
917.044	4394
917.156	4341
917.268	4295
917.38	4314
917.491	4318
917.603	4394
917.715	4455
917.826	4481
917.938	4413
918.049	4272
918.161	4447
918.272	4577
918.384	4573
918.495	4535
918.606	4375
918.717	4303
918.828	4356
918.939	4428
919.05	4310
919.161	4363
919.272	4219
919.383	4265
919.494	4481
919.604	4653
919.715	4478
919.826	4356
919.936	4424
920.047	4577
920.157	4523
920.267	4717
920.378	4550
920.488	4538
920.598	4748
920.708	4900
920.818	4744
920.928	4782
921.038	4965
921.148	4953
921.258	4634
921.368	4554
921.477	4558
921.587	4493
921.697	4440
921.806	4554
921.916	4519
922.025	4306
922.134	4303
922.244	4227
922.353	4356
922.462	4200
922.571	4173
922.68	4017
922.789	4013
922.898	4051
923.007	4063
923.116	4154
923.224	4063
923.333	4135
923.442	4036
923.55	4032
923.659	4071
923.767	4177
923.876	4071
923.984	4147
924.092	4006
924.201	4112
924.309	4135
924.417	4223
924.525	4116
924.633	4147
924.741	5079
924.849	3937
924.956	4150
925.064	3991
925.172	3953
925.279	3991
925.387	4101
925.494	4078
925.602	4227
925.709	4215
925.816	4109
925.924	4154
926.031	4284
926.138	4219
926.245	4230
926.352	4135
926.459	4303
926.566	4295
926.673	4185
926.779	4082
926.886	4154
926.993	4029
927.099	3979
927.206	4002
927.312	3956
927.419	4101
927.525	4021
927.631	4131
927.737	3964
927.843	3994
927.95	3876
928.056	3941
928.162	4029
928.267	4109
928.373	4702
928.479	4143
928.585	3953
928.69	4013
928.796	4105
928.901	3991
929.007	3915
929.112	4051
929.218	3983
929.323	3968
929.428	3945
929.533	4105
929.638	3975
929.743	3983
929.848	4048
929.953	4078
930.058	3956
930.163	3842
930.267	3884
930.372	4029
930.477	3869
930.581	4105
930.685	3956
930.79	3797
930.894	3907
930.998	3884
931.103	4013
931.207	3720
931.311	3686
931.415	3720
931.519	3504
931.623	3603
