Data from test_V78500241_656.txt Node
Date: Fri Mar 25 16:53:33 CST 2022
User: usil
Spectrometer: V785-0024
Trigger mode: 0
Integration Time (sec): 4.000000E-1
Scans to average: 1
Nonlinearity correction enabled: false
Boxcar width: 0
Storing dark spectrum: false
XAxis mode: Wavelengths
Number of Pixels in Spectrum: 1024
>>>>>Begin Spectral Data<<<<<
801.071	7974
801.214	7947
801.356	7887
801.499	7871
801.641	7738
801.783	7845
801.926	7955
802.068	7959
802.211	8027
802.353	7989
802.496	7932
802.638	7921
802.78	7875
802.923	7921
803.065	7803
803.208	7826
803.35	8001
803.492	8157
803.635	8111
803.777	7967
803.919	8084
804.061	8415
804.204	8123
804.346	8005
804.488	7993
804.63	8119
804.773	7982
804.915	8107
805.057	8282
805.199	8107
805.341	8256
805.483	8286
805.626	8214
805.768	8092
805.91	8149
806.052	8233
806.194	8107
806.336	8267
806.478	8107
806.62	8115
806.762	8096
806.904	8279
807.046	8522
807.188	8431
807.33	8271
807.472	8347
807.614	8183
807.756	8149
807.898	7986
808.04	7772
808.182	7902
808.324	7986
808.465	7989
808.607	7925
808.749	8115
808.891	8225
809.033	8294
809.174	8199
809.316	7978
809.458	8081
809.6	8012
809.741	7993
809.883	8027
810.025	8073
810.166	8088
810.308	8031
810.45	7997
810.591	7868
810.733	7696
810.875	7624
811.016	7533
811.158	7529
811.299	7529
811.441	7742
811.582	7636
811.724	7552
811.865	7483
812.007	7643
812.148	7544
812.29	7548
812.431	7715
812.573	7795
812.714	8020
812.855	8065
812.997	8206
813.138	8339
813.279	8237
813.421	8092
813.562	8035
813.703	7818
813.845	7734
813.986	7491
814.127	7346
814.268	7240
814.41	7206
814.551	7164
814.692	7160
814.833	7019
814.974	7038
815.115	7110
815.256	6981
815.397	6928
815.539	6939
815.68	6791
815.821	6829
815.962	6840
816.103	6798
816.244	6722
816.385	6616
816.526	6566
816.666	6464
816.807	6300
816.948	6437
817.089	6517
817.23	6429
817.371	6433
817.512	6391
817.653	6369
817.793	6384
817.934	6403
818.075	6445
818.216	6426
818.356	6395
818.497	6216
818.638	6133
818.778	6178
818.919	6102
819.06	6186
819.2	6342
819.341	6273
819.481	6369
819.622	6502
819.762	6692
819.903	6726
820.043	6566
820.184	6544
820.324	6540
820.465	6578
820.605	6669
820.746	6563
820.886	6502
821.026	6608
821.167	6707
821.307	6837
821.447	6768
821.588	6612
821.728	6551
821.868	6498
822.008	6247
822.149	6353
822.289	6323
822.429	6117
822.569	6083
822.709	6068
822.849	5885
822.99	5893
823.13	5939
823.27	5901
823.41	5817
823.55	5733
823.69	5748
823.83	5767
823.97	5703
824.11	5524
824.25	5528
824.389	5554
824.529	5581
824.669	5501
824.809	5604
824.949	5680
825.089	5653
825.228	5581
825.368	5345
825.508	5322
825.648	5345
825.787	5368
825.927	5368
826.067	5265
826.206	5292
826.346	5398
826.485	5376
826.625	5391
826.765	5554
826.904	5444
827.044	5227
827.183	5193
827.323	5121
827.462	5273
827.601	5174
827.741	5181
827.88	5220
828.02	5117
828.159	5254
828.298	5254
828.437	5315
828.577	5246
828.716	5429
828.855	5360
828.994	5185
829.134	5193
829.273	5174
829.412	5140
829.551	5136
829.69	5170
829.829	5189
829.968	5345
830.107	5216
830.246	5223
830.385	5189
830.524	5147
830.663	5041
830.802	4957
830.941	4892
831.08	4885
831.219	4942
831.357	4968
831.496	5117
831.635	4843
831.774	4858
831.913	4850
832.051	4717
832.19	4755
832.329	4820
832.467	4729
832.606	4622
832.744	4694
832.883	4740
833.022	4668
833.16	4809
833.299	4774
833.437	4782
833.576	4870
833.714	4858
833.852	4870
833.991	4915
834.129	4923
834.267	4904
834.406	4862
834.544	4949
834.682	4900
834.821	4957
834.959	5102
835.097	4968
835.235	5140
835.373	5075
835.511	5098
835.65	5014
835.788	5018
835.926	4915
836.064	4885
836.202	4934
836.34	5197
836.478	5201
836.615	5159
836.753	5212
836.891	5254
837.029	5231
837.167	5181
837.305	5147
837.443	5109
837.58	5048
837.718	5242
837.856	5151
837.993	5117
838.131	5273
838.269	5189
838.406	5216
838.544	5143
838.681	5025
838.819	4953
838.956	4881
839.094	4862
839.231	4999
839.369	5037
839.506	5425
839.643	5235
839.781	5041
839.918	4987
840.055	5102
840.193	5064
840.33	5117
840.467	5124
840.604	5208
840.742	5372
840.879	5060
841.016	5109
841.153	5109
841.29	5364
841.427	5322
841.564	5326
841.701	5337
841.838	5258
841.975	5208
842.112	5216
842.249	5117
842.385	5090
842.522	5372
842.659	5155
842.796	5181
842.933	5204
843.069	5128
843.206	5113
843.343	5231
843.479	5204
843.616	5288
843.752	5041
843.889	4995
844.025	5204
844.162	4991
844.298	5185
844.435	5033
844.571	5003
844.708	5174
844.844	5296
844.98	5334
845.117	5284
845.253	5159
845.389	5117
845.525	5132
845.661	5102
845.798	5052
845.934	5128
846.07	4999
846.206	5189
846.342	5265
846.478	5162
846.614	5029
846.75	4915
846.886	4923
847.022	5109
847.158	4984
847.294	5094
847.429	5025
847.565	5083
847.701	5280
847.837	4824
847.972	4786
848.108	4972
848.244	4938
848.379	4748
848.515	4725
848.65	4725
848.786	4714
848.921	4763
849.057	4870
849.192	4892
849.328	4809
849.463	4843
849.598	4759
849.734	4786
849.869	4717
850.004	4641
850.14	4634
850.275	4607
850.41	4508
850.545	4554
850.68	4592
850.815	4622
850.95	4546
851.085	4778
851.22	4778
851.355	4675
851.49	4637
851.625	4634
851.76	4694
851.895	4546
852.03	4512
852.165	4607
852.299	4702
852.434	4812
852.569	4755
852.703	4748
852.838	4850
852.973	4976
853.107	4812
853.242	4721
853.376	4649
853.511	4546
853.645	4607
853.78	4790
853.914	4687
854.048	4641
854.183	4694
854.317	4679
854.451	4835
854.585	4660
854.72	4645
854.854	4717
854.988	4565
855.122	4660
855.256	4527
855.39	4615
855.524	4744
855.658	4725
855.792	4668
855.926	4721
856.06	4702
856.194	4809
856.327	4710
856.461	4634
856.595	4584
856.729	4649
856.862	4721
856.996	4694
857.13	4725
857.263	4786
857.397	4778
857.53	4634
857.664	4748
857.797	4725
857.931	4774
858.064	4706
858.197	4748
858.331	4645
858.464	4596
858.597	4558
858.731	4577
858.864	4603
858.997	4573
859.13	4634
859.263	4664
859.396	4664
859.529	4580
859.662	4546
859.795	4508
859.928	4618
860.061	4736
860.194	4729
860.327	4580
860.46	4561
860.592	4660
860.725	4721
860.858	4733
860.99	4527
861.123	4554
861.256	4531
861.388	4588
861.521	5303
861.653	4447
861.786	4447
861.918	4451
862.05	4516
862.183	4546
862.315	4577
862.447	4660
862.58	4573
862.712	4405
862.844	4303
862.976	4489
863.108	4485
863.24	4870
863.372	4314
863.504	4421
863.636	4432
863.768	4516
863.9	4413
864.032	4329
864.164	4386
864.296	4455
864.428	4519
864.559	4565
864.691	4523
864.823	4485
864.954	4455
865.086	4493
865.217	4447
865.349	4383
865.48	4451
865.612	4451
865.743	4645
865.875	4436
866.006	4443
866.137	4466
866.269	4436
866.4	4428
866.531	4405
866.662	4394
866.793	4440
866.924	4432
867.055	4493
867.186	4493
867.317	4371
867.448	4409
867.579	4394
867.71	4371
867.841	4432
867.972	4459
868.103	4440
868.233	4436
868.364	4455
868.495	4440
868.625	4626
868.756	4729
868.886	4535
869.017	4603
869.147	4782
869.278	4755
869.408	4649
869.539	4694
869.669	4706
869.799	4630
869.929	4752
870.06	4729
870.19	4968
870.32	4847
870.45	4942
870.58	5003
870.71	5086
870.84	5071
870.97	4957
871.1	4896
871.23	5140
871.36	5090
871.489	5041
871.619	5079
871.749	5083
871.879	5128
872.008	5128
872.138	5064
872.267	4999
872.397	4828
872.526	4763
872.656	4721
872.785	4771
872.915	4900
873.044	4949
873.173	4915
873.303	4934
873.432	4965
873.561	4938
873.69	4858
873.819	4843
873.948	4930
874.077	4801
874.206	4752
874.335	4721
874.464	4896
874.593	5056
874.722	4953
874.851	5098
874.979	5052
875.108	5025
875.237	4904
875.365	4835
875.494	4877
875.623	4987
875.751	4797
875.88	4881
876.008	4976
876.136	4980
876.265	5155
876.393	5292
876.521	5288
876.65	5178
876.778	5143
876.906	5075
877.034	4999
877.162	5064
877.29	5010
877.418	5067
877.546	5048
877.674	5010
877.802	5014
877.93	4995
878.058	4938
878.185	4870
878.313	4938
878.441	4930
878.568	4782
878.696	4805
878.824	4949
878.951	5018
879.079	5121
879.206	5296
879.333	5117
879.461	4987
879.588	4946
879.715	5094
879.842	5189
879.97	5025
880.097	4771
880.224	4740
880.351	4801
880.478	4809
880.605	4782
880.732	4790
880.859	5098
880.986	4870
881.112	4866
881.239	4759
881.366	4687
881.493	4607
881.619	4565
881.746	4626
881.872	4672
881.999	4694
882.125	4687
882.252	4782
882.378	4824
882.505	4889
882.631	4774
882.757	4611
882.883	4679
883.01	4721
883.136	4679
883.262	4580
883.388	4592
883.514	4862
883.64	4870
883.766	4786
883.892	4691
884.018	4786
884.143	4927
884.269	5003
884.395	4729
884.52	4664
884.646	4687
884.772	4596
884.897	4592
885.023	4710
885.148	4786
885.274	4892
885.399	4847
885.524	4733
885.65	4683
885.775	4759
885.9	4721
886.025	4866
886.15	4805
886.275	4729
886.4	4706
886.525	4759
886.65	4668
886.775	4752
886.9	4991
887.025	5060
887.149	4820
887.274	4660
887.399	4630
887.523	4634
887.648	4634
887.773	4668
887.897	4793
888.021	4847
888.146	4664
888.27	4854
888.395	4957
888.519	4866
888.643	4847
888.767	4862
888.891	4702
889.015	4664
889.139	4698
889.263	4691
889.387	4790
889.511	4942
889.635	4809
889.759	4687
889.883	4630
890.006	4752
890.13	4862
890.254	4630
890.377	4733
890.501	4569
890.624	4565
890.748	4649
890.871	4508
890.995	4459
891.118	4398
891.241	4519
891.364	4554
891.488	4714
891.611	4561
891.734	4580
891.857	4660
891.98	4653
892.103	4698
892.226	4634
892.349	4504
892.471	4489
892.594	4622
892.717	4607
892.839	4634
892.962	4607
893.085	4710
893.207	4607
893.33	4481
893.452	4558
893.575	4714
893.697	4622
893.819	4850
893.941	4881
894.064	4824
894.186	4611
894.308	4577
894.43	4702
894.552	4862
894.674	4793
894.796	4615
894.918	4637
895.04	4607
895.161	4759
895.283	4744
895.405	4645
895.526	4672
895.648	4717
895.769	4698
895.891	4797
896.012	4748
896.134	4767
896.255	4679
896.376	4675
896.498	4702
896.619	4733
896.74	4634
896.861	4710
896.982	4957
897.103	5083
897.224	4816
897.345	4790
897.466	4786
897.587	4710
897.708	4889
897.828	4816
897.949	4687
898.07	4596
898.19	4660
898.311	4839
898.431	4672
898.552	4752
898.672	4881
898.792	4755
898.913	4774
899.033	4653
899.153	4508
899.273	4466
899.393	4504
899.513	4584
899.633	4519
899.753	4565
899.873	4558
899.993	4660
900.113	4599
900.232	4607
900.352	4634
900.472	4500
900.591	4432
900.711	4485
900.83	4440
900.95	4584
901.069	4679
901.189	4558
901.308	4413
901.427	4344
901.546	4432
901.665	4519
901.784	4519
901.904	4421
902.023	4341
902.141	4207
902.26	4265
902.379	4329
902.498	4249
902.617	4268
902.735	4402
902.854	4390
902.973	4363
903.091	4276
903.21	4287
903.328	4333
903.446	4306
903.565	4253
903.683	4371
903.801	4344
903.919	4432
904.038	4447
904.156	4341
904.274	4447
904.392	4379
904.51	4485
904.627	4462
904.745	4569
904.863	4710
904.981	4409
905.098	4341
905.216	4398
905.334	4481
905.451	4489
905.569	4478
905.686	4573
905.803	4599
905.921	4436
906.038	4596
906.155	4531
906.272	4459
906.389	4489
906.506	4379
906.623	4398
906.74	4424
906.857	4306
906.974	4409
907.091	4584
907.208	4714
907.324	4626
907.441	4504
907.557	4356
907.674	4325
907.79	4356
907.907	4405
908.023	4500
908.139	4527
908.256	4485
908.372	4481
908.488	4504
908.604	4379
908.72	4337
908.836	4405
908.952	4421
909.068	4424
909.184	4592
909.3	4470
909.415	4573
909.531	4577
909.647	4424
909.762	4424
909.878	4390
909.993	4485
910.108	4455
910.224	4481
910.339	4512
910.454	4485
910.57	4390
910.685	4352
910.8	4683
910.915	4592
911.03	4523
911.145	4363
911.259	4371
911.374	4402
911.489	4276
911.604	4272
911.718	4242
911.833	4249
911.947	4105
912.062	4086
912.176	4215
912.291	4367
912.405	4253
912.519	4538
912.633	4489
912.748	4402
912.862	4329
912.976	4200
913.09	4097
913.204	4219
913.318	4284
913.431	4402
913.545	4383
913.659	4500
913.772	4398
913.886	4249
914	4295
914.113	4363
914.226	4481
914.34	4405
914.453	4287
914.566	4428
914.68	4291
914.793	4367
914.906	4207
915.019	4109
915.132	4090
915.245	4166
915.358	4249
915.47	4272
915.583	4257
915.696	4333
915.809	4443
915.921	4413
916.034	4261
916.146	4306
916.259	4234
916.371	4394
916.483	4348
916.595	4265
916.708	4348
916.82	4333
916.932	4325
917.044	4367
917.156	4325
917.268	4291
917.38	4303
917.491	4299
917.603	4394
917.715	4462
917.826	4443
917.938	4375
918.049	4261
918.161	4485
918.272	4565
918.384	4577
918.495	4504
918.606	4314
918.717	4291
918.828	4337
918.939	4375
919.05	4329
919.161	4360
919.272	4169
919.383	4276
919.494	4432
919.604	4649
919.715	4504
919.826	4375
919.936	4428
920.047	4527
920.157	4542
920.267	4744
920.378	4558
920.488	4538
920.598	4763
920.708	4995
920.818	4774
920.928	4778
921.038	4972
921.148	4892
921.258	4634
921.368	4645
921.477	4462
921.587	4527
921.697	4363
921.806	4577
921.916	4470
922.025	4287
922.134	4352
922.244	4268
922.353	4379
922.462	4196
922.571	4166
922.68	4063
922.789	4032
922.898	4090
923.007	4002
923.116	4074
923.224	4097
923.333	4082
923.442	3991
923.55	3972
923.659	4051
923.767	4120
923.876	3987
923.984	4150
924.092	4002
924.201	4105
924.309	4116
924.417	4169
924.525	4097
924.633	4101
924.741	5098
924.849	3911
924.956	4101
925.064	3994
925.172	3964
925.279	3987
925.387	4105
925.494	4112
925.602	4211
925.709	4169
925.816	4044
925.924	4181
926.031	4246
926.138	4185
926.245	4272
926.352	4074
926.459	4268
926.566	4303
926.673	4173
926.779	4158
926.886	4124
926.993	4048
927.099	3987
927.206	3930
927.312	3956
927.419	4131
927.525	4063
927.631	4128
927.737	4010
927.843	3968
927.95	3854
928.056	3994
928.162	4010
928.267	4112
928.373	4706
928.479	4147
928.585	3945
928.69	4048
928.796	4120
928.901	3975
929.007	3838
929.112	3983
929.218	3972
929.323	4013
929.428	3953
929.533	4139
929.638	3934
929.743	4013
929.848	4067
929.953	4010
930.058	3937
930.163	3793
930.267	3873
930.372	4021
930.477	3842
930.581	4128
930.685	3915
930.79	3854
930.894	3915
930.998	3907
931.103	4074
931.207	3770
931.311	3705
931.415	3690
931.519	3534
931.623	3538
