Data from test_V78500241_1067.txt Node
Date: Fri Mar 25 16:56:25 CST 2022
User: usil
Spectrometer: V785-0024
Trigger mode: 0
Integration Time (sec): 4.000000E-1
Scans to average: 1
Nonlinearity correction enabled: false
Boxcar width: 0
Storing dark spectrum: false
XAxis mode: Wavelengths
Number of Pixels in Spectrum: 1024
>>>>>Begin Spectral Data<<<<<
801.071	8050
801.214	7993
801.356	7909
801.499	7807
801.641	7746
801.783	7799
801.926	7890
802.068	7944
802.211	7944
802.353	7936
802.496	7784
802.638	7841
802.78	7890
802.923	7963
803.065	7925
803.208	7890
803.35	7997
803.492	8100
803.635	8130
803.777	8054
803.919	8161
804.061	8450
804.204	8172
804.346	7997
804.488	8012
804.63	8145
804.773	8024
804.915	8077
805.057	8313
805.199	8138
805.341	8202
805.483	8248
805.626	8149
805.768	8153
805.91	8191
806.052	8164
806.194	8123
806.336	8263
806.478	8065
806.62	8012
806.762	8119
806.904	8195
807.046	8423
807.188	8298
807.33	8294
807.472	8381
807.614	8058
807.756	8111
807.898	7978
808.04	7887
808.182	7974
808.324	7947
808.465	7871
808.607	8069
808.749	8077
808.891	8199
809.033	8244
809.174	8191
809.316	8065
809.458	8031
809.6	7947
809.741	8027
809.883	7982
810.025	8092
810.166	8081
810.308	8039
810.45	8020
810.591	7856
810.733	7715
810.875	7708
811.016	7544
811.158	7441
811.299	7590
811.441	7712
811.582	7666
811.724	7533
811.865	7441
812.007	7601
812.148	7601
812.29	7582
812.431	7746
812.573	7879
812.714	8039
812.855	8081
812.997	8183
813.138	8328
813.279	8221
813.421	8111
813.562	7974
813.703	7868
813.845	7795
813.986	7510
814.127	7285
814.268	7232
814.41	7122
814.551	7080
814.692	7149
814.833	7133
814.974	7027
815.115	7050
815.256	6920
815.397	6901
815.539	6928
815.68	6806
815.821	6779
815.962	6882
816.103	6810
816.244	6753
816.385	6574
816.526	6593
816.666	6494
816.807	6273
816.948	6399
817.089	6502
817.23	6441
817.371	6319
817.512	6376
817.653	6380
817.793	6308
817.934	6403
818.075	6429
818.216	6418
818.356	6365
818.497	6209
818.638	6114
818.778	6136
818.919	6114
819.06	6167
819.2	6353
819.341	6353
819.481	6334
819.622	6517
819.762	6757
819.903	6700
820.043	6574
820.184	6551
820.324	6574
820.465	6662
820.605	6692
820.746	6642
820.886	6525
821.026	6631
821.167	6719
821.307	6787
821.447	6707
821.588	6662
821.728	6563
821.868	6525
822.008	6369
822.149	6395
822.289	6304
822.429	6182
822.569	6087
822.709	6091
822.849	5866
822.99	5935
823.13	5885
823.27	5961
823.41	5836
823.55	5840
823.69	5821
823.83	5771
823.97	5695
824.11	5535
824.25	5490
824.389	5604
824.529	5596
824.669	5554
824.809	5627
824.949	5661
825.089	5630
825.228	5554
825.368	5406
825.508	5421
825.648	5368
825.787	5368
825.927	5391
826.067	5387
826.206	5341
826.346	5417
826.485	5421
826.625	5448
826.765	5589
826.904	5482
827.044	5254
827.183	5201
827.323	5178
827.462	5288
827.601	5208
827.741	5231
827.88	5246
828.02	5155
828.159	5258
828.298	5387
828.437	5341
828.577	5265
828.716	5474
828.855	5353
828.994	5155
829.134	5166
829.273	5216
829.412	5170
829.551	5151
829.69	5170
829.829	5242
829.968	5387
830.107	5299
830.246	5292
830.385	5178
830.524	5105
830.663	5083
830.802	5003
830.941	4927
831.08	4828
831.219	5022
831.357	4946
831.496	5193
831.635	4957
831.774	4862
831.913	4927
832.051	4740
832.19	4778
832.329	4839
832.467	4763
832.606	4660
832.744	4752
832.883	4812
833.022	4725
833.16	4820
833.299	4812
833.437	4881
833.576	4904
833.714	4835
833.852	4927
833.991	4919
834.129	4946
834.267	4976
834.406	4904
834.544	4972
834.682	5025
834.821	4961
834.959	5201
835.097	4999
835.235	5185
835.373	5174
835.511	5117
835.65	5083
835.788	5029
835.926	4961
836.064	4927
836.202	4923
836.34	5162
836.478	5242
836.615	5159
836.753	5204
836.891	5299
837.029	5273
837.167	5220
837.305	5155
837.443	5162
837.58	5121
837.718	5227
837.856	5216
837.993	5113
838.131	5201
838.269	5185
838.406	5174
838.544	5166
838.681	5067
838.819	5045
838.956	4881
839.094	4930
839.231	5010
839.369	5109
839.506	5493
839.643	5269
839.781	5098
839.918	5064
840.055	5098
840.193	5109
840.33	5143
840.467	5197
840.604	5185
840.742	5490
840.879	5094
841.016	5136
841.153	5189
841.29	5436
841.427	5341
841.564	5376
841.701	5368
841.838	5280
841.975	5223
842.112	5315
842.249	5159
842.385	5117
842.522	5353
842.659	5178
842.796	5117
842.933	5216
843.069	5159
843.206	5162
843.343	5292
843.479	5254
843.616	5280
843.752	5048
843.889	5022
844.025	5208
844.162	5037
844.298	5185
844.435	5083
844.571	5056
844.708	5201
844.844	5345
844.98	5299
845.117	5254
845.253	5140
845.389	5090
845.525	5136
845.661	5242
845.798	5048
845.934	5140
846.07	5056
846.206	5227
846.342	5299
846.478	5181
846.614	5060
846.75	4999
846.886	4984
847.022	5109
847.158	5052
847.294	5067
847.429	5098
847.565	5052
847.701	5341
847.837	4892
847.972	4816
848.108	4987
848.244	4934
848.379	4771
848.515	4752
848.65	4744
848.786	4733
848.921	4786
849.057	4934
849.192	4961
849.328	4790
849.463	4831
849.598	4797
849.734	4744
849.869	4714
850.004	4626
850.14	4702
850.275	4675
850.41	4569
850.545	4618
850.68	4653
850.815	4672
850.95	4637
851.085	4812
851.22	4767
851.355	4637
851.49	4603
851.625	4618
851.76	4645
851.895	4588
852.03	4538
852.165	4687
852.299	4733
852.434	4843
852.569	4767
852.703	4824
852.838	4900
852.973	4961
853.107	4938
853.242	4793
853.376	4698
853.511	4592
853.645	4565
853.78	4778
853.914	4706
854.048	4672
854.183	4679
854.317	4740
854.451	4847
854.585	4675
854.72	4660
854.854	4763
854.988	4615
855.122	4622
855.256	4527
855.39	4717
855.524	4752
855.658	4740
855.792	4706
855.926	4721
856.06	4790
856.194	4812
856.327	4725
856.461	4630
856.595	4611
856.729	4649
856.862	4759
856.996	4641
857.13	4748
857.263	4824
857.397	4858
857.53	4660
857.664	4748
857.797	4755
857.931	4793
858.064	4694
858.197	4752
858.331	4660
858.464	4603
858.597	4573
858.731	4611
858.864	4694
858.997	4630
859.13	4672
859.263	4637
859.396	4725
859.529	4584
859.662	4546
859.795	4584
859.928	4622
860.061	4736
860.194	4797
860.327	4607
860.46	4580
860.592	4733
860.725	4721
860.858	4740
860.99	4577
861.123	4523
861.256	4512
861.388	4615
861.521	5341
861.653	4500
861.786	4440
861.918	4466
862.05	4523
862.183	4554
862.315	4596
862.447	4694
862.58	4531
862.712	4428
862.844	4363
862.976	4455
863.108	4451
863.24	4896
863.372	4394
863.504	4440
863.636	4432
863.768	4504
863.9	4466
864.032	4390
864.164	4417
864.296	4459
864.428	4512
864.559	4607
864.691	4580
864.823	4508
864.954	4512
865.086	4512
865.217	4489
865.349	4375
865.48	4500
865.612	4493
865.743	4637
865.875	4519
866.006	4402
866.137	4504
866.269	4470
866.4	4440
866.531	4390
866.662	4386
866.793	4417
866.924	4421
867.055	4478
867.186	4497
867.317	4402
867.448	4390
867.579	4367
867.71	4440
867.841	4371
867.972	4512
868.103	4462
868.233	4459
868.364	4459
868.495	4535
868.625	4664
868.756	4790
868.886	4592
869.017	4615
869.147	4771
869.278	4782
869.408	4702
869.539	4626
869.669	4698
869.799	4626
869.929	4797
870.06	4714
870.19	4934
870.32	4915
870.45	4957
870.58	5003
870.71	5067
870.84	5083
870.97	4930
871.1	4877
871.23	5143
871.36	5132
871.489	5037
871.619	5014
871.749	5102
871.879	5113
872.008	5147
872.138	5098
872.267	5033
872.397	4870
872.526	4843
872.656	4755
872.785	4805
872.915	4957
873.044	5052
873.173	4889
873.303	5003
873.432	4946
873.561	4968
873.69	4873
873.819	4873
873.948	4915
874.077	4782
874.206	4740
874.335	4847
874.464	4915
874.593	5117
874.722	4915
874.851	5143
874.979	5022
875.108	5033
875.237	4900
875.365	4900
875.494	4919
875.623	4987
875.751	4847
875.88	4873
876.008	4976
876.136	5033
876.265	5220
876.393	5360
876.521	5235
876.65	5201
876.778	5136
876.906	5071
877.034	4995
877.162	5041
877.29	5056
877.418	5014
877.546	5033
877.674	5052
877.802	4999
877.93	4999
878.058	4919
878.185	4854
878.313	5003
878.441	4919
878.568	4797
878.696	4862
878.824	4934
878.951	4968
879.079	5147
879.206	5315
879.333	5124
879.461	4995
879.588	5010
879.715	5166
879.842	5235
879.97	5037
880.097	4809
880.224	4698
880.351	4771
880.478	4839
880.605	4797
880.732	4809
880.859	5121
880.986	4908
881.112	4915
881.239	4771
881.366	4660
881.493	4603
881.619	4649
881.746	4691
881.872	4660
881.999	4653
882.125	4687
882.252	4736
882.378	4824
882.505	4961
882.631	4809
882.757	4710
882.883	4759
883.01	4714
883.136	4717
883.262	4615
883.388	4615
883.514	4782
883.64	4847
883.766	4793
883.892	4668
884.018	4683
884.143	4862
884.269	5025
884.395	4694
884.52	4615
884.646	4641
884.772	4538
884.897	4584
885.023	4694
885.148	4755
885.274	4919
885.399	4812
885.524	4694
885.65	4656
885.775	4759
885.9	4725
886.025	4866
886.15	4812
886.275	4679
886.4	4668
886.525	4702
886.65	4698
886.775	4740
886.9	4942
887.025	5010
887.149	4790
887.274	4630
887.399	4588
887.523	4584
887.648	4630
887.773	4596
887.897	4744
888.021	4824
888.146	4729
888.27	4801
888.395	4915
888.519	4782
888.643	4839
888.767	4820
888.891	4660
889.015	4660
889.139	4675
889.263	4622
889.387	4740
889.511	4828
889.635	4790
889.759	4634
889.883	4645
890.006	4736
890.13	4778
890.254	4618
890.377	4672
890.501	4527
890.624	4565
890.748	4634
890.871	4561
890.995	4413
891.118	4424
891.241	4527
891.364	4573
891.488	4592
891.611	4497
891.734	4580
891.857	4592
891.98	4580
892.103	4668
892.226	4538
892.349	4527
892.471	4421
892.594	4474
892.717	4637
892.839	4569
892.962	4558
893.085	4683
893.207	4565
893.33	4462
893.452	4542
893.575	4683
893.697	4611
893.819	4786
893.941	4816
894.064	4774
894.186	4577
894.308	4577
894.43	4717
894.552	4820
894.674	4721
894.796	4542
894.918	4596
895.04	4554
895.161	4725
895.283	4641
895.405	4569
895.526	4653
895.648	4725
895.769	4698
895.891	4755
896.012	4729
896.134	4782
896.255	4702
896.376	4634
896.498	4622
896.619	4622
896.74	4592
896.861	4694
896.982	4915
897.103	5090
897.224	4793
897.345	4786
897.466	4645
897.587	4725
897.708	4870
897.828	4763
897.949	4679
898.07	4603
898.19	4672
898.311	4793
898.431	4668
898.552	4725
898.672	4782
898.792	4812
898.913	4691
899.033	4615
899.153	4519
899.273	4402
899.393	4485
899.513	4546
899.633	4485
899.753	4535
899.873	4481
899.993	4565
900.113	4573
900.232	4577
900.352	4504
900.472	4485
900.591	4398
900.711	4504
900.83	4421
900.95	4599
901.069	4664
901.189	4504
901.308	4383
901.427	4329
901.546	4409
901.665	4447
901.784	4489
901.904	4436
902.023	4356
902.141	4200
902.26	4188
902.379	4299
902.498	4272
902.617	4238
902.735	4398
902.854	4424
902.973	4394
903.091	4223
903.21	4253
903.328	4276
903.446	4249
903.565	4246
903.683	4322
903.801	4238
903.919	4424
904.038	4470
904.156	4341
904.274	4428
904.392	4428
904.51	4440
904.627	4443
904.745	4542
904.863	4645
904.981	4432
905.098	4272
905.216	4379
905.334	4443
905.451	4470
905.569	4447
905.686	4542
905.803	4603
905.921	4402
906.038	4596
906.155	4500
906.272	4409
906.389	4405
906.506	4379
906.623	4413
906.74	4379
906.857	4284
906.974	4383
907.091	4569
907.208	4694
907.324	4565
907.441	4436
907.557	4318
907.674	4379
907.79	4352
907.907	4356
908.023	4413
908.139	4504
908.256	4443
908.372	4470
908.488	4402
908.604	4386
908.72	4306
908.836	4379
908.952	4367
909.068	4462
909.184	4550
909.3	4455
909.415	4626
909.531	4569
909.647	4333
909.762	4341
909.878	4329
909.993	4451
910.108	4398
910.224	4417
910.339	4485
910.454	4394
910.57	4398
910.685	4329
910.8	4656
910.915	4599
911.03	4504
911.145	4337
911.259	4325
911.374	4363
911.489	4303
911.604	4287
911.718	4196
911.833	4162
911.947	4097
912.062	3991
912.176	4219
912.291	4253
912.405	4257
912.519	4485
912.633	4466
912.748	4314
912.862	4329
912.976	4215
913.09	4093
913.204	4166
913.318	4257
913.431	4348
913.545	4329
913.659	4455
913.772	4356
913.886	4268
914	4234
914.113	4363
914.226	4451
914.34	4413
914.453	4253
914.566	4424
914.68	4360
914.793	4287
914.906	4207
915.019	4143
915.132	4055
915.245	4215
915.358	4215
915.47	4223
915.583	4253
915.696	4265
915.809	4428
915.921	4405
916.034	4234
916.146	4306
916.259	4181
916.371	4409
916.483	4337
916.595	4234
916.708	4360
916.82	4310
916.932	4325
917.044	4280
917.156	4318
917.268	4268
917.38	4299
917.491	4253
917.603	4337
917.715	4386
917.826	4386
917.938	4306
918.049	4234
918.161	4409
918.272	4489
918.384	4546
918.495	4440
918.606	4329
918.717	4246
918.828	4306
918.939	4363
919.05	4238
919.161	4344
919.272	4116
919.383	4223
919.494	4436
919.604	4615
919.715	4356
919.826	4310
919.936	4363
920.047	4493
920.157	4466
920.267	4679
920.378	4527
920.488	4485
920.598	4691
920.708	4900
920.818	4759
920.928	4717
921.038	4927
921.148	4953
921.258	4634
921.368	4558
921.477	4489
921.587	4451
921.697	4352
921.806	4527
921.916	4455
922.025	4272
922.134	4284
922.244	4249
922.353	4318
922.462	4169
922.571	4150
922.68	3960
922.789	3998
922.898	4036
923.007	3960
923.116	4071
923.224	4036
923.333	4086
923.442	3994
923.55	3968
923.659	3998
923.767	4097
923.876	4002
923.984	4112
924.092	4002
924.201	4059
924.309	4097
924.417	4109
924.525	4025
924.633	4093
924.741	5079
924.849	3903
924.956	4116
925.064	3968
925.172	3915
925.279	3968
925.387	4044
925.494	4044
925.602	4204
925.709	4124
925.816	4067
925.924	4120
926.031	4211
926.138	4101
926.245	4211
926.352	4063
926.459	4215
926.566	4291
926.673	4162
926.779	4143
926.886	4006
926.993	3964
927.099	3956
927.206	3930
927.312	3934
927.419	4086
927.525	4021
927.631	4055
927.737	3964
927.843	3937
927.95	3819
928.056	3975
928.162	4025
928.267	4044
928.373	4622
928.479	4116
928.585	3865
928.69	3968
928.796	4055
928.901	3956
929.007	3831
929.112	4036
929.218	3926
929.323	3926
929.428	3960
929.533	4097
929.638	3941
929.743	3998
929.848	4040
929.953	4051
930.058	3930
930.163	3759
930.267	3842
930.372	3983
930.477	3778
930.581	4105
930.685	3915
930.79	3793
930.894	3903
930.998	3816
931.103	4021
931.207	3705
931.311	3709
931.415	3660
931.519	3477
931.623	3515
