Data from test_V78500241_1534.txt Node
Date: Fri Mar 25 16:59:40 CST 2022
User: usil
Spectrometer: V785-0024
Trigger mode: 0
Integration Time (sec): 4.000000E-1
Scans to average: 1
Nonlinearity correction enabled: false
Boxcar width: 0
Storing dark spectrum: false
XAxis mode: Wavelengths
Number of Pixels in Spectrum: 1024
>>>>>Begin Spectral Data<<<<<
801.071	7963
801.214	7936
801.356	7944
801.499	7868
801.641	7769
801.783	7822
801.926	7944
802.068	7925
802.211	7928
802.353	8005
802.496	7849
802.638	7849
802.78	7879
802.923	7871
803.065	7822
803.208	7811
803.35	7967
803.492	8062
803.635	8149
803.777	7947
803.919	8111
804.061	8396
804.204	8126
804.346	7986
804.488	7986
804.63	8077
804.773	7982
804.915	8069
805.057	8259
805.199	8199
805.341	8256
805.483	8252
805.626	8123
805.768	8084
805.91	8168
806.052	8145
806.194	8145
806.336	8301
806.478	8065
806.62	8050
806.762	8153
806.904	8199
807.046	8476
807.188	8362
807.33	8317
807.472	8305
807.614	8077
807.756	8134
807.898	7963
808.04	7845
808.182	7909
808.324	7887
808.465	7940
808.607	8062
808.749	8134
808.891	8138
809.033	8309
809.174	8180
809.316	8115
809.458	8096
809.6	7989
809.741	8081
809.883	8058
810.025	8046
810.166	8039
810.308	8005
810.45	8027
810.591	7795
810.733	7662
810.875	7651
811.016	7499
811.158	7472
811.299	7514
811.441	7700
811.582	7658
811.724	7605
811.865	7499
812.007	7639
812.148	7548
812.29	7594
812.431	7693
812.573	7875
812.714	8020
812.855	8062
812.997	8183
813.138	8305
813.279	8183
813.421	8081
813.562	7970
813.703	7879
813.845	7715
813.986	7422
814.127	7247
814.268	7259
814.41	7217
814.551	7206
814.692	7145
814.833	7107
814.974	7065
815.115	7088
815.256	6954
815.397	6928
815.539	6935
815.68	6814
815.821	6749
815.962	6802
816.103	6837
816.244	6707
816.385	6589
816.526	6601
816.666	6441
816.807	6262
816.948	6426
817.089	6441
817.23	6429
817.371	6361
817.512	6331
817.653	6407
817.793	6308
817.934	6380
818.075	6479
818.216	6395
818.356	6448
818.497	6224
818.638	6079
818.778	6125
818.919	6140
819.06	6178
819.2	6300
819.341	6357
819.481	6365
819.622	6509
819.762	6669
819.903	6646
820.043	6639
820.184	6608
820.324	6547
820.465	6688
820.605	6604
820.746	6574
820.886	6452
821.026	6654
821.167	6741
821.307	6738
821.447	6711
821.588	6677
821.728	6570
821.868	6452
822.008	6308
822.149	6376
822.289	6350
822.429	6133
822.569	6034
822.709	6098
822.849	5912
822.99	5908
823.13	5874
823.27	5904
823.41	5813
823.55	5764
823.69	5722
823.83	5729
823.97	5615
824.11	5501
824.25	5482
824.389	5501
824.529	5573
824.669	5478
824.809	5657
824.949	5630
825.089	5573
825.228	5505
825.368	5318
825.508	5292
825.648	5307
825.787	5353
825.927	5391
826.067	5216
826.206	5307
826.346	5406
826.485	5353
826.625	5425
826.765	5509
826.904	5471
827.044	5208
827.183	5185
827.323	5151
827.462	5227
827.601	5155
827.741	5197
827.88	5223
828.02	5094
828.159	5208
828.298	5269
828.437	5330
828.577	5254
828.716	5478
828.855	5337
828.994	5174
829.134	5159
829.273	5193
829.412	5128
829.551	5117
829.69	5151
829.829	5216
829.968	5299
830.107	5204
830.246	5288
830.385	5124
830.524	5143
830.663	5037
830.802	4930
830.941	4862
831.08	4854
831.219	4934
831.357	4930
831.496	5098
831.635	4946
831.774	4847
831.913	4858
832.051	4683
832.19	4736
832.329	4843
832.467	4694
832.606	4649
832.744	4729
832.883	4717
833.022	4736
833.16	4755
833.299	4790
833.437	4809
833.576	4831
833.714	4896
833.852	4915
833.991	4850
834.129	4984
834.267	4915
834.406	4847
834.544	4980
834.682	4999
834.821	4889
834.959	5147
835.097	4972
835.235	5105
835.373	5094
835.511	5109
835.65	5018
835.788	4999
835.926	4835
836.064	4870
836.202	4900
836.34	5174
836.478	5261
836.615	5128
836.753	5242
836.891	5303
837.029	5265
837.167	5216
837.305	5159
837.443	5147
837.58	5045
837.718	5189
837.856	5174
837.993	5162
838.131	5273
838.269	5162
838.406	5201
838.544	5117
838.681	5014
838.819	4927
838.956	4911
839.094	4892
839.231	4980
839.369	5048
839.506	5471
839.643	5246
839.781	5037
839.918	4984
840.055	5086
840.193	5079
840.33	5083
840.467	5162
840.604	5170
840.742	5436
840.879	5056
841.016	5048
841.153	5162
841.29	5391
841.427	5292
841.564	5296
841.701	5345
841.838	5288
841.975	5178
842.112	5280
842.249	5178
842.385	5117
842.522	5368
842.659	5155
842.796	5140
842.933	5216
843.069	5140
843.206	5140
843.343	5284
843.479	5216
843.616	5292
843.752	5079
843.889	5010
844.025	5197
844.162	5010
844.298	5178
844.435	5048
844.571	5022
844.708	5204
844.844	5280
844.98	5376
845.117	5326
845.253	5121
845.389	5029
845.525	5181
845.661	5102
845.798	5018
845.934	5155
846.07	5033
846.206	5216
846.342	5299
846.478	5193
846.614	4980
846.75	4923
846.886	4934
847.022	5121
847.158	4984
847.294	5060
847.429	5071
847.565	5033
847.701	5315
847.837	4858
847.972	4782
848.108	4968
848.244	4953
848.379	4778
848.515	4683
848.65	4656
848.786	4774
848.921	4740
849.057	4858
849.192	4892
849.328	4767
849.463	4854
849.598	4835
849.734	4797
849.869	4687
850.004	4626
850.14	4683
850.275	4577
850.41	4519
850.545	4554
850.68	4565
850.815	4634
850.95	4611
851.085	4854
851.22	4748
851.355	4721
851.49	4615
851.625	4607
851.76	4603
851.895	4573
852.03	4508
852.165	4615
852.299	4706
852.434	4805
852.569	4729
852.703	4767
852.838	4805
852.973	4885
853.107	4919
853.242	4714
853.376	4672
853.511	4561
853.645	4580
853.78	4790
853.914	4653
854.048	4626
854.183	4664
854.317	4664
854.451	4824
854.585	4698
854.72	4615
854.854	4793
854.988	4546
855.122	4675
855.256	4523
855.39	4656
855.524	4740
855.658	4729
855.792	4698
855.926	4706
856.06	4744
856.194	4782
856.327	4656
856.461	4561
856.595	4554
856.729	4634
856.862	4710
856.996	4668
857.13	4664
857.263	4744
857.397	4812
857.53	4641
857.664	4740
857.797	4740
857.931	4801
858.064	4698
858.197	4733
858.331	4626
858.464	4611
858.597	4527
858.731	4622
858.864	4630
858.997	4622
859.13	4618
859.263	4634
859.396	4714
859.529	4546
859.662	4565
859.795	4523
859.928	4607
860.061	4778
860.194	4740
860.327	4599
860.46	4554
860.592	4698
860.725	4721
860.858	4672
860.99	4558
861.123	4504
861.256	4478
861.388	4622
861.521	5284
861.653	4489
861.786	4402
861.918	4455
862.05	4508
862.183	4561
862.315	4550
862.447	4622
862.58	4558
862.712	4352
862.844	4329
862.976	4451
863.108	4462
863.24	4771
863.372	4322
863.504	4421
863.636	4413
863.768	4531
863.9	4451
864.032	4352
864.164	4409
864.296	4485
864.428	4561
864.559	4569
864.691	4538
864.823	4489
864.954	4459
865.086	4535
865.217	4447
865.349	4394
865.48	4481
865.612	4481
865.743	4637
865.875	4462
866.006	4409
866.137	4455
866.269	4443
866.4	4443
866.531	4390
866.662	4386
866.793	4409
866.924	4424
867.055	4500
867.186	4436
867.317	4417
867.448	4360
867.579	4363
867.71	4402
867.841	4325
867.972	4398
868.103	4413
868.233	4432
868.364	4466
868.495	4432
868.625	4618
868.756	4759
868.886	4561
869.017	4607
869.147	4733
869.278	4755
869.408	4611
869.539	4664
869.669	4717
869.799	4660
869.929	4714
870.06	4744
870.19	4953
870.32	4946
870.45	4892
870.58	5022
870.71	5124
870.84	5060
870.97	4911
871.1	4892
871.23	5128
871.36	5090
871.489	4987
871.619	5079
871.749	5079
871.879	5090
872.008	5132
872.138	5045
872.267	4976
872.397	4862
872.526	4805
872.656	4755
872.785	4797
872.915	4911
873.044	4987
873.173	4942
873.303	4965
873.432	4965
873.561	4961
873.69	4889
873.819	4873
873.948	4862
874.077	4816
874.206	4759
874.335	4778
874.464	4881
874.593	5102
874.722	4919
874.851	5075
874.979	5113
875.108	5056
875.237	4908
875.365	4839
875.494	4843
875.623	4984
875.751	4797
875.88	4866
876.008	4934
876.136	5067
876.265	5208
876.393	5288
876.521	5227
876.65	5212
876.778	5151
876.906	5064
877.034	4980
877.162	4934
877.29	4972
877.418	5067
877.546	5033
877.674	5022
877.802	5025
877.93	4965
878.058	4877
878.185	4858
878.313	4934
878.441	4995
878.568	4805
878.696	4870
878.824	4957
878.951	4976
879.079	5132
879.206	5269
879.333	5037
879.461	4946
879.588	4976
879.715	5067
879.842	5208
879.97	5003
880.097	4786
880.224	4725
880.351	4812
880.478	4816
880.605	4778
880.732	4824
880.859	5052
880.986	4885
881.112	4930
881.239	4778
881.366	4645
881.493	4596
881.619	4554
881.746	4645
881.872	4664
881.999	4607
882.125	4694
882.252	4717
882.378	4831
882.505	4934
882.631	4797
882.757	4675
882.883	4691
883.01	4725
883.136	4626
883.262	4580
883.388	4607
883.514	4763
883.64	4862
883.766	4778
883.892	4698
884.018	4733
884.143	4847
884.269	4930
884.395	4634
884.52	4584
884.646	4641
884.772	4607
884.897	4538
885.023	4596
885.148	4740
885.274	4782
885.399	4759
885.524	4744
885.65	4675
885.775	4797
885.9	4698
886.025	4812
886.15	4702
886.275	4698
886.4	4611
886.525	4744
886.65	4672
886.775	4672
886.9	4843
887.025	4980
887.149	4790
887.274	4637
887.399	4580
887.523	4611
887.648	4542
887.773	4584
887.897	4721
888.021	4835
888.146	4622
888.27	4782
888.395	4866
888.519	4774
888.643	4809
888.767	4862
888.891	4702
889.015	4626
889.139	4607
889.263	4611
889.387	4729
889.511	4858
889.635	4774
889.759	4603
889.883	4634
890.006	4782
890.13	4778
890.254	4630
890.377	4664
890.501	4554
890.624	4542
890.748	4622
890.871	4531
890.995	4443
891.118	4459
891.241	4531
891.364	4554
891.488	4717
891.611	4542
891.734	4546
891.857	4626
891.98	4584
892.103	4702
892.226	4626
892.349	4550
892.471	4459
892.594	4580
892.717	4615
892.839	4603
892.962	4607
893.085	4660
893.207	4596
893.33	4489
893.452	4558
893.575	4679
893.697	4626
893.819	4774
893.941	4870
894.064	4805
894.186	4588
894.308	4565
894.43	4752
894.552	4831
894.674	4717
894.796	4634
894.918	4675
895.04	4634
895.161	4733
895.283	4687
895.405	4596
895.526	4679
895.648	4748
895.769	4725
895.891	4759
896.012	4820
896.134	4717
896.255	4710
896.376	4691
896.498	4599
896.619	4721
896.74	4672
896.861	4687
896.982	4904
897.103	5162
897.224	4870
897.345	4786
897.466	4725
897.587	4801
897.708	4877
897.828	4835
897.949	4744
898.07	4588
898.19	4755
898.311	4904
898.431	4710
898.552	4740
898.672	4805
898.792	4797
898.913	4771
899.033	4645
899.153	4592
899.273	4451
899.393	4519
899.513	4538
899.633	4569
899.753	4561
899.873	4615
899.993	4630
900.113	4531
900.232	4637
900.352	4580
900.472	4554
900.591	4455
900.711	4546
900.83	4436
900.95	4592
901.069	4691
901.189	4569
901.308	4386
901.427	4367
901.546	4459
901.665	4485
901.784	4493
901.904	4436
902.023	4337
902.141	4204
902.26	4227
902.379	4325
902.498	4268
902.617	4261
902.735	4375
902.854	4383
902.973	4367
903.091	4257
903.21	4265
903.328	4341
903.446	4314
903.565	4242
903.683	4367
903.801	4303
903.919	4466
904.038	4447
904.156	4341
904.274	4451
904.392	4432
904.51	4512
904.627	4485
904.745	4592
904.863	4694
904.981	4348
905.098	4322
905.216	4360
905.334	4466
905.451	4462
905.569	4489
905.686	4599
905.803	4630
905.921	4440
906.038	4535
906.155	4493
906.272	4424
906.389	4447
906.506	4375
906.623	4405
906.74	4432
906.857	4299
906.974	4428
907.091	4603
907.208	4672
907.324	4622
907.441	4523
907.557	4398
907.674	4352
907.79	4341
907.907	4367
908.023	4470
908.139	4542
908.256	4413
908.372	4436
908.488	4455
908.604	4333
908.72	4363
908.836	4394
908.952	4356
909.068	4500
909.184	4626
909.3	4504
909.415	4649
909.531	4565
909.647	4341
909.762	4402
909.878	4379
909.993	4455
910.108	4432
910.224	4474
910.339	4519
910.454	4421
910.57	4352
910.685	4341
910.8	4637
910.915	4645
911.03	4485
911.145	4352
911.259	4367
911.374	4424
911.489	4341
911.604	4325
911.718	4238
911.833	4234
911.947	4093
912.062	4071
912.176	4268
912.291	4268
912.405	4249
912.519	4447
912.633	4519
912.748	4424
912.862	4310
912.976	4261
913.09	4135
913.204	4173
913.318	4295
913.431	4417
913.545	4409
913.659	4443
913.772	4390
913.886	4295
914	4272
914.113	4367
914.226	4440
914.34	4413
914.453	4242
914.566	4443
914.68	4341
914.793	4337
914.906	4188
915.019	4135
915.132	4074
915.245	4196
915.358	4238
915.47	4268
915.583	4268
915.696	4322
915.809	4428
915.921	4443
916.034	4318
916.146	4276
916.259	4234
916.371	4443
916.483	4371
916.595	4329
916.708	4375
916.82	4344
916.932	4352
917.044	4333
917.156	4356
917.268	4253
917.38	4310
917.491	4287
917.603	4295
917.715	4436
917.826	4462
917.938	4394
918.049	4257
918.161	4440
918.272	4550
918.384	4577
918.495	4512
918.606	4333
918.717	4253
918.828	4386
918.939	4432
919.05	4249
919.161	4333
919.272	4139
919.383	4246
919.494	4443
919.604	4653
919.715	4478
919.826	4409
919.936	4424
920.047	4611
920.157	4504
920.267	4752
920.378	4611
920.488	4516
920.598	4763
920.708	4915
920.818	4759
920.928	4797
921.038	4957
921.148	4946
921.258	4622
921.368	4584
921.477	4516
921.587	4466
921.697	4428
921.806	4546
921.916	4466
922.025	4276
922.134	4303
922.244	4257
922.353	4360
922.462	4177
922.571	4135
922.68	4002
922.789	4029
922.898	4013
923.007	3991
923.116	4139
923.224	4074
923.333	4093
923.442	3987
923.55	3994
923.659	4055
923.767	4192
923.876	4006
923.984	4147
924.092	3956
924.201	4101
924.309	4112
924.417	4135
924.525	4082
924.633	4154
924.741	4904
924.849	3896
924.956	4158
925.064	3998
925.172	3930
925.279	3968
925.387	4067
925.494	4097
925.602	4265
925.709	4154
925.816	4101
925.924	4147
926.031	4223
926.138	4200
926.245	4158
926.352	4131
926.459	4246
926.566	4325
926.673	4181
926.779	4090
926.886	4120
926.993	4010
927.099	4021
927.206	3960
927.312	3987
927.419	4093
927.525	4048
927.631	4105
927.737	3964
927.843	3975
927.95	3884
928.056	3934
928.162	3972
928.267	4078
928.373	4634
928.479	4177
928.585	3899
928.69	4071
928.796	4078
928.901	3987
929.007	3869
929.112	4025
929.218	3998
929.323	3934
929.428	3937
929.533	4139
929.638	3918
929.743	4006
929.848	4055
929.953	4006
930.058	3960
930.163	3793
930.267	3850
930.372	3975
930.477	3812
930.581	4112
930.685	4002
930.79	3842
930.894	3899
930.998	3861
931.103	4010
931.207	3724
931.311	3755
931.415	3686
931.519	3523
931.623	3549
