Data from test_V78500241_1510.txt Node
Date: Fri Mar 25 16:59:30 CST 2022
User: usil
Spectrometer: V785-0024
Trigger mode: 0
Integration Time (sec): 4.000000E-1
Scans to average: 1
Nonlinearity correction enabled: false
Boxcar width: 0
Storing dark spectrum: false
XAxis mode: Wavelengths
Number of Pixels in Spectrum: 1024
>>>>>Begin Spectral Data<<<<<
801.071	7982
801.214	7978
801.356	7841
801.499	7761
801.641	7746
801.783	7795
801.926	7944
802.068	7989
802.211	7936
802.353	7989
802.496	7826
802.638	7849
802.78	7887
802.923	7906
803.065	7879
803.208	7852
803.35	7936
803.492	8100
803.635	8134
803.777	7974
803.919	8130
804.061	8431
804.204	8115
804.346	8016
804.488	7940
804.63	8107
804.773	7955
804.915	8107
805.057	8256
805.199	8157
805.341	8130
805.483	8221
805.626	8115
805.768	8058
805.91	8206
806.052	8225
806.194	8077
806.336	8252
806.478	7986
806.62	8043
806.762	8096
806.904	8176
807.046	8476
807.188	8343
807.33	8324
807.472	8221
807.614	8145
807.756	8077
807.898	7894
808.04	7913
808.182	7925
808.324	7803
808.465	7959
808.607	7982
808.749	8081
808.891	8168
809.033	8313
809.174	8237
809.316	8073
809.458	8058
809.6	7951
809.741	7997
809.883	8043
810.025	8050
810.166	8100
810.308	8024
810.45	7928
810.591	7860
810.733	7734
810.875	7624
811.016	7499
811.158	7460
811.299	7586
811.441	7670
811.582	7681
811.724	7590
811.865	7468
812.007	7575
812.148	7559
812.29	7586
812.431	7643
812.573	7845
812.714	7970
812.855	8081
812.997	8103
813.138	8279
813.279	8195
813.421	8054
813.562	7982
813.703	7765
813.845	7746
813.986	7441
814.127	7232
814.268	7228
814.41	7152
814.551	7168
814.692	7247
814.833	7042
814.974	7122
815.115	7069
815.256	6951
815.397	6882
815.539	6932
815.68	6833
815.821	6738
815.962	6806
816.103	6764
816.244	6684
816.385	6593
816.526	6608
816.666	6460
816.807	6334
816.948	6437
817.089	6483
817.23	6414
817.371	6350
817.512	6357
817.653	6346
817.793	6342
817.934	6418
818.075	6426
818.216	6418
818.356	6361
818.497	6243
818.638	6106
818.778	6129
818.919	6140
819.06	6148
819.2	6369
819.341	6311
819.481	6323
819.622	6475
819.762	6700
819.903	6669
820.043	6608
820.184	6547
820.324	6490
820.465	6681
820.605	6669
820.746	6646
820.886	6544
821.026	6601
821.167	6673
821.307	6840
821.447	6787
821.588	6601
821.728	6597
821.868	6460
822.008	6342
822.149	6334
822.289	6365
822.429	6182
822.569	6117
822.709	6057
822.849	5912
822.99	5901
823.13	5965
823.27	5836
823.41	5756
823.55	5767
823.69	5741
823.83	5737
823.97	5714
824.11	5528
824.25	5512
824.389	5570
824.529	5524
824.669	5497
824.809	5577
824.949	5589
825.089	5562
825.228	5478
825.368	5345
825.508	5299
825.648	5322
825.787	5395
825.927	5391
826.067	5288
826.206	5296
826.346	5398
826.485	5406
826.625	5406
826.765	5528
826.904	5471
827.044	5220
827.183	5185
827.323	5094
827.462	5246
827.601	5223
827.741	5162
827.88	5239
828.02	5117
828.159	5246
828.298	5311
828.437	5330
828.577	5269
828.716	5448
828.855	5258
828.994	5132
829.134	5174
829.273	5208
829.412	5113
829.551	5147
829.69	5143
829.829	5250
829.968	5353
830.107	5204
830.246	5296
830.385	5124
830.524	5124
830.663	5067
830.802	4987
830.941	4870
831.08	4892
831.219	4968
831.357	4942
831.496	5132
831.635	4892
831.774	4793
831.913	4812
832.051	4710
832.19	4736
832.329	4828
832.467	4660
832.606	4618
832.744	4687
832.883	4679
833.022	4691
833.16	4755
833.299	4748
833.437	4843
833.576	4782
833.714	4839
833.852	4816
833.991	4892
834.129	4930
834.267	4919
834.406	4892
834.544	4987
834.682	4968
834.821	4961
834.959	5128
835.097	4961
835.235	5159
835.373	5105
835.511	5075
835.65	5041
835.788	5010
835.926	4862
836.064	4847
836.202	4889
836.34	5086
836.478	5147
836.615	5098
836.753	5181
836.891	5254
837.029	5254
837.167	5162
837.305	5155
837.443	5117
837.58	5075
837.718	5212
837.856	5109
837.993	5147
838.131	5223
838.269	5212
838.406	5197
838.544	5181
838.681	5029
838.819	4957
838.956	4900
839.094	4915
839.231	4968
839.369	5056
839.506	5398
839.643	5246
839.781	5067
839.918	5006
840.055	5102
840.193	5113
840.33	5132
840.467	5056
840.604	5181
840.742	5383
840.879	5113
841.016	5083
841.153	5124
841.29	5391
841.427	5337
841.564	5277
841.701	5322
841.838	5216
841.975	5162
842.112	5227
842.249	5113
842.385	5075
842.522	5280
842.659	5121
842.796	5109
842.933	5193
843.069	5140
843.206	5124
843.343	5277
843.479	5197
843.616	5250
843.752	5056
843.889	4984
844.025	5159
844.162	5010
844.298	5208
844.435	5037
844.571	5041
844.708	5162
844.844	5242
844.98	5364
845.117	5227
845.253	5121
845.389	5045
845.525	5109
845.661	5117
845.798	5041
845.934	5121
846.07	5052
846.206	5181
846.342	5299
846.478	5166
846.614	4991
846.75	4968
846.886	4961
847.022	5083
847.158	5033
847.294	5098
847.429	5109
847.565	5022
847.701	5334
847.837	4828
847.972	4771
848.108	4915
848.244	4900
848.379	4786
848.515	4714
848.65	4672
848.786	4733
848.921	4752
849.057	4812
849.192	4900
849.328	4797
849.463	4877
849.598	4797
849.734	4771
849.869	4717
850.004	4592
850.14	4698
850.275	4660
850.41	4508
850.545	4561
850.68	4592
850.815	4626
850.95	4611
851.085	4858
851.22	4733
851.355	4664
851.49	4653
851.625	4637
851.76	4645
851.895	4561
852.03	4538
852.165	4626
852.299	4721
852.434	4824
852.569	4763
852.703	4793
852.838	4881
852.973	4915
853.107	4900
853.242	4740
853.376	4725
853.511	4588
853.645	4649
853.78	4812
853.914	4691
854.048	4653
854.183	4706
854.317	4736
854.451	4881
854.585	4706
854.72	4649
854.854	4767
854.988	4626
855.122	4748
855.256	4523
855.39	4664
855.524	4835
855.658	4752
855.792	4729
855.926	4820
856.06	4824
856.194	4870
856.327	4702
856.461	4664
856.595	4641
856.729	4645
856.862	4790
856.996	4729
857.13	4763
857.263	4774
857.397	4805
857.53	4664
857.664	4759
857.797	4786
857.931	4809
858.064	4752
858.197	4771
858.331	4656
858.464	4622
858.597	4542
858.731	4679
858.864	4679
858.997	4607
859.13	4641
859.263	4710
859.396	4740
859.529	4599
859.662	4618
859.795	4569
859.928	4660
860.061	4805
860.194	4843
860.327	4668
860.46	4630
860.592	4771
860.725	4721
860.858	4717
860.99	4596
861.123	4558
861.256	4535
861.388	4622
861.521	5353
861.653	4497
861.786	4478
861.918	4459
862.05	4527
862.183	4550
862.315	4645
862.447	4672
862.58	4580
862.712	4424
862.844	4318
862.976	4485
863.108	4455
863.24	4748
863.372	4325
863.504	4436
863.636	4451
863.768	4542
863.9	4481
864.032	4405
864.164	4390
864.296	4531
864.428	4569
864.559	4599
864.691	4550
864.823	4561
864.954	4481
865.086	4519
865.217	4447
865.349	4481
865.48	4493
865.612	4478
865.743	4641
865.875	4462
866.006	4485
866.137	4493
866.269	4443
866.4	4527
866.531	4455
866.662	4398
866.793	4447
866.924	4497
867.055	4561
867.186	4462
867.317	4390
867.448	4451
867.579	4421
867.71	4432
867.841	4394
867.972	4470
868.103	4455
868.233	4447
868.364	4478
868.495	4478
868.625	4706
868.756	4782
868.886	4626
869.017	4649
869.147	4771
869.278	4816
869.408	4645
869.539	4687
869.669	4706
869.799	4687
869.929	4786
870.06	4736
870.19	4965
870.32	4938
870.45	4995
870.58	5018
870.71	5067
870.84	5090
870.97	4991
871.1	4919
871.23	5140
871.36	5151
871.489	5067
871.619	5041
871.749	5166
871.879	5105
872.008	5174
872.138	5136
872.267	4972
872.397	4854
872.526	4828
872.656	4771
872.785	4828
872.915	4953
873.044	5048
873.173	4980
873.303	5022
873.432	4961
873.561	4938
873.69	4930
873.819	4892
873.948	4923
874.077	4839
874.206	4763
874.335	4843
874.464	4915
874.593	5048
874.722	5029
874.851	5090
874.979	5071
875.108	5056
875.237	4927
875.365	4919
875.494	4919
875.623	5003
875.751	4854
875.88	4900
876.008	4987
876.136	5117
876.265	5254
876.393	5322
876.521	5277
876.65	5242
876.778	5208
876.906	5124
877.034	5014
877.162	5064
877.29	5033
877.418	5014
877.546	5079
877.674	5041
877.802	5025
877.93	5037
878.058	4946
878.185	4930
878.313	4968
878.441	4930
878.568	4873
878.696	4961
878.824	4984
878.951	4961
879.079	5136
879.206	5269
879.333	5140
879.461	5010
879.588	4984
879.715	5155
879.842	5204
879.97	5048
880.097	4809
880.224	4740
880.351	4809
880.478	4843
880.605	4790
880.732	4835
880.859	5102
880.986	4915
881.112	4911
881.239	4801
881.366	4702
881.493	4618
881.619	4618
881.746	4675
881.872	4687
881.999	4626
882.125	4710
882.252	4782
882.378	4801
882.505	5025
882.631	4870
882.757	4733
882.883	4729
883.01	4759
883.136	4725
883.262	4626
883.388	4615
883.514	4816
883.64	4873
883.766	4778
883.892	4687
884.018	4748
884.143	4923
884.269	5025
884.395	4752
884.52	4641
884.646	4691
884.772	4622
884.897	4584
885.023	4660
885.148	4801
885.274	4927
885.399	4812
885.524	4748
885.65	4744
885.775	4744
885.9	4702
886.025	4877
886.15	4816
886.275	4691
886.4	4748
886.525	4702
886.65	4729
886.775	4725
886.9	4927
887.025	5037
887.149	4820
887.274	4679
887.399	4653
887.523	4580
887.648	4561
887.773	4573
887.897	4793
888.021	4843
888.146	4679
888.27	4854
888.395	4923
888.519	4862
888.643	4828
888.767	4801
888.891	4698
889.015	4592
889.139	4649
889.263	4656
889.387	4767
889.511	4866
889.635	4801
889.759	4641
889.883	4649
890.006	4721
890.13	4873
890.254	4634
890.377	4634
890.501	4561
890.624	4531
890.748	4622
890.871	4531
890.995	4481
891.118	4386
891.241	4523
891.364	4535
891.488	4675
891.611	4531
891.734	4512
891.857	4630
891.98	4615
892.103	4702
892.226	4603
892.349	4519
892.471	4451
892.594	4523
892.717	4577
892.839	4573
892.962	4603
893.085	4714
893.207	4626
893.33	4497
893.452	4558
893.575	4664
893.697	4592
893.819	4752
893.941	4873
894.064	4805
894.186	4588
894.308	4599
894.43	4778
894.552	4820
894.674	4797
894.796	4546
894.918	4618
895.04	4592
895.161	4725
895.283	4706
895.405	4573
895.526	4630
895.648	4714
895.769	4706
895.891	4733
896.012	4721
896.134	4668
896.255	4694
896.376	4675
896.498	4637
896.619	4786
896.74	4645
896.861	4691
896.982	4995
897.103	5079
897.224	4870
897.345	4714
897.466	4641
897.587	4744
897.708	4930
897.828	4752
897.949	4637
898.07	4656
898.19	4634
898.311	4839
898.431	4706
898.552	4740
898.672	4831
898.792	4839
898.913	4767
899.033	4599
899.153	4561
899.273	4474
899.393	4523
899.513	4531
899.633	4523
899.753	4535
899.873	4554
899.993	4580
900.113	4519
900.232	4577
900.352	4531
900.472	4489
900.591	4413
900.711	4459
900.83	4402
900.95	4603
901.069	4717
901.189	4546
901.308	4348
901.427	4314
901.546	4386
901.665	4508
901.784	4523
901.904	4383
902.023	4322
902.141	4162
902.26	4200
902.379	4329
902.498	4246
902.617	4249
902.735	4383
902.854	4379
902.973	4363
903.091	4253
903.21	4219
903.328	4322
903.446	4287
903.565	4249
903.683	4405
903.801	4303
903.919	4466
904.038	4466
904.156	4371
904.274	4428
904.392	4402
904.51	4428
904.627	4538
904.745	4607
904.863	4660
904.981	4421
905.098	4303
905.216	4348
905.334	4409
905.451	4432
905.569	4443
905.686	4531
905.803	4592
905.921	4436
906.038	4542
906.155	4523
906.272	4409
906.389	4443
906.506	4386
906.623	4409
906.74	4352
906.857	4341
906.974	4367
907.091	4607
907.208	4664
907.324	4672
907.441	4527
907.557	4329
907.674	4360
907.79	4341
907.907	4440
908.023	4497
908.139	4516
908.256	4402
908.372	4447
908.488	4451
908.604	4344
908.72	4356
908.836	4383
908.952	4337
909.068	4428
909.184	4592
909.3	4523
909.415	4577
909.531	4558
909.647	4360
909.762	4333
909.878	4344
909.993	4440
910.108	4451
910.224	4367
910.339	4478
910.454	4428
910.57	4398
910.685	4348
910.8	4615
910.915	4656
911.03	4500
911.145	4348
911.259	4295
911.374	4405
911.489	4303
911.604	4257
911.718	4185
911.833	4219
911.947	4128
912.062	4036
912.176	4242
912.291	4204
912.405	4238
912.519	4470
912.633	4478
912.748	4367
912.862	4303
912.976	4246
913.09	4143
913.204	4177
913.318	4265
913.431	4356
913.545	4348
913.659	4428
913.772	4360
913.886	4234
914	4227
914.113	4409
914.226	4489
914.34	4451
914.453	4223
914.566	4402
914.68	4246
914.793	4329
914.906	4185
915.019	4093
915.132	4120
915.245	4211
915.358	4238
915.47	4204
915.583	4287
915.696	4318
915.809	4424
915.921	4409
916.034	4322
916.146	4223
916.259	4238
916.371	4363
916.483	4363
916.595	4265
916.708	4314
916.82	4299
916.932	4314
917.044	4325
917.156	4344
917.268	4276
917.38	4272
917.491	4268
917.603	4356
917.715	4447
917.826	4481
917.938	4360
918.049	4280
918.161	4413
918.272	4558
918.384	4573
918.495	4474
918.606	4314
918.717	4268
918.828	4337
918.939	4409
919.05	4303
919.161	4341
919.272	4162
919.383	4249
919.494	4485
919.604	4672
919.715	4462
919.826	4421
919.936	4409
920.047	4542
920.157	4531
920.267	4740
920.378	4603
920.488	4565
920.598	4790
920.708	4873
920.818	4782
920.928	4824
921.038	4976
921.148	4976
921.258	4668
921.368	4592
921.477	4519
921.587	4485
921.697	4417
921.806	4592
921.916	4470
922.025	4310
922.134	4287
922.244	4246
922.353	4306
922.462	4223
922.571	4173
922.68	4025
922.789	4021
922.898	4044
923.007	4048
923.116	4173
923.224	4131
923.333	4166
923.442	4051
923.55	4002
923.659	4067
923.767	4181
923.876	4082
923.984	4147
924.092	4032
924.201	4090
924.309	4116
924.417	4166
924.525	4093
924.633	4143
924.741	4919
924.849	3941
924.956	4196
925.064	4017
925.172	3964
925.279	4013
925.387	4116
925.494	4055
925.602	4253
925.709	4211
925.816	4025
925.924	4181
926.031	4325
926.138	4215
926.245	4253
926.352	4139
926.459	4314
926.566	4287
926.673	4185
926.779	4074
926.886	4097
926.993	4048
927.099	3987
927.206	4006
927.312	3953
927.419	4086
927.525	4116
927.631	4177
927.737	4010
927.843	3960
927.95	3876
928.056	3975
928.162	4013
928.267	4131
928.373	4626
928.479	4147
928.585	3903
928.69	4036
928.796	4120
928.901	4017
929.007	3884
929.112	4002
929.218	4002
929.323	3983
929.428	3945
929.533	4147
929.638	3972
929.743	4025
929.848	4093
929.953	4055
930.058	3972
930.163	3827
930.267	3857
930.372	4010
930.477	3915
930.581	4128
930.685	4029
930.79	3854
930.894	3899
930.998	3869
931.103	4082
931.207	3778
931.311	3728
931.415	3671
931.519	3584
931.623	3591
