Data from test_V78500241_737.txt Node
Date: Fri Mar 25 16:54:07 CST 2022
User: usil
Spectrometer: V785-0024
Trigger mode: 0
Integration Time (sec): 4.000000E-1
Scans to average: 1
Nonlinearity correction enabled: false
Boxcar width: 0
Storing dark spectrum: false
XAxis mode: Wavelengths
Number of Pixels in Spectrum: 1024
>>>>>Begin Spectral Data<<<<<
801.071	7947
801.214	7982
801.356	7879
801.499	7803
801.641	7795
801.783	7879
801.926	7932
802.068	7970
802.211	7986
802.353	7978
802.496	7906
802.638	7913
802.78	7925
802.923	7951
803.065	7890
803.208	7841
803.35	7993
803.492	8107
803.635	8176
803.777	8005
803.919	8115
804.061	8377
804.204	8130
804.346	8115
804.488	8069
804.63	8092
804.773	7970
804.915	8218
805.057	8313
805.199	8145
805.341	8259
805.483	8271
805.626	8195
805.768	8206
805.91	8161
806.052	8298
806.194	8168
806.336	8290
806.478	8092
806.62	8062
806.762	8092
806.904	8279
807.046	8476
807.188	8400
807.33	8309
807.472	8358
807.614	8157
807.756	8157
807.898	7974
808.04	7909
808.182	7852
808.324	7932
808.465	7906
808.607	8054
808.749	8035
808.891	8172
809.033	8355
809.174	8244
809.316	8103
809.458	8134
809.6	8024
809.741	8054
809.883	8005
810.025	8088
810.166	8073
810.308	8027
810.45	8100
810.591	7887
810.733	7769
810.875	7674
811.016	7529
811.158	7518
811.299	7605
811.441	7746
811.582	7696
811.724	7601
811.865	7540
812.007	7575
812.148	7518
812.29	7586
812.431	7719
812.573	7830
812.714	7947
812.855	8107
812.997	8256
813.138	8381
813.279	8161
813.421	8199
813.562	7986
813.703	7856
813.845	7833
813.986	7445
814.127	7282
814.268	7278
814.41	7270
814.551	7149
814.692	7118
814.833	7034
814.974	7080
815.115	7103
815.256	7050
815.397	6943
815.539	6977
815.68	6859
815.821	6795
815.962	6897
816.103	6844
816.244	6703
816.385	6627
816.526	6658
816.666	6502
816.807	6300
816.948	6475
817.089	6445
817.23	6525
817.371	6380
817.512	6361
817.653	6372
817.793	6410
817.934	6410
818.075	6460
818.216	6464
818.356	6376
818.497	6213
818.638	6121
818.778	6171
818.919	6125
819.06	6213
819.2	6357
819.341	6357
819.481	6429
819.622	6528
819.762	6787
819.903	6787
820.043	6570
820.184	6604
820.324	6540
820.465	6673
820.605	6715
820.746	6620
820.886	6551
821.026	6658
821.167	6650
821.307	6829
821.447	6814
821.588	6703
821.728	6502
821.868	6528
822.008	6304
822.149	6403
822.289	6327
822.429	6190
822.569	6083
822.709	6163
822.849	5901
822.99	5904
823.13	5939
823.27	5912
823.41	5809
823.55	5767
823.69	5710
823.83	5882
823.97	5737
824.11	5577
824.25	5577
824.389	5554
824.529	5554
824.669	5566
824.809	5611
824.949	5680
825.089	5634
825.228	5615
825.368	5414
825.508	5360
825.648	5368
825.787	5376
825.927	5360
826.067	5341
826.206	5337
826.346	5440
826.485	5440
826.625	5414
826.765	5581
826.904	5520
827.044	5284
827.183	5216
827.323	5162
827.462	5284
827.601	5178
827.741	5212
827.88	5250
828.02	5155
828.159	5246
828.298	5288
828.437	5360
828.577	5254
828.716	5455
828.855	5376
828.994	5216
829.134	5147
829.273	5159
829.412	5151
829.551	5170
829.69	5189
829.829	5265
829.968	5376
830.107	5299
830.246	5318
830.385	5162
830.524	5083
830.663	5094
830.802	5018
830.941	4881
831.08	4885
831.219	5014
831.357	5006
831.496	5155
831.635	4938
831.774	4885
831.913	4854
832.051	4759
832.19	4774
832.329	4908
832.467	4736
832.606	4630
832.744	4733
832.883	4763
833.022	4736
833.16	4850
833.299	4866
833.437	4824
833.576	4885
833.714	4877
833.852	4870
833.991	4896
834.129	4923
834.267	4984
834.406	4972
834.544	4991
834.682	4995
834.821	4949
834.959	5208
835.097	5025
835.235	5181
835.373	5079
835.511	5113
835.65	5056
835.788	5075
835.926	4938
836.064	4904
836.202	4934
836.34	5197
836.478	5239
836.615	5132
836.753	5223
836.891	5284
837.029	5280
837.167	5242
837.305	5174
837.443	5193
837.58	5098
837.718	5258
837.856	5235
837.993	5132
838.131	5269
838.269	5212
838.406	5185
838.544	5212
838.681	5045
838.819	5067
838.956	4946
839.094	4965
839.231	4976
839.369	5071
839.506	5421
839.643	5258
839.781	5113
839.918	5037
840.055	5086
840.193	5102
840.33	5094
840.467	5136
840.604	5208
840.742	5459
840.879	5121
841.016	5098
841.153	5178
841.29	5455
841.427	5360
841.564	5337
841.701	5387
841.838	5258
841.975	5254
842.112	5258
842.249	5201
842.385	5124
842.522	5307
842.659	5189
842.796	5185
842.933	5239
843.069	5201
843.206	5151
843.343	5303
843.479	5231
843.616	5227
843.752	5022
843.889	4965
844.025	5235
844.162	5041
844.298	5235
844.435	5102
844.571	5094
844.708	5197
844.844	5315
844.98	5360
845.117	5337
845.253	5159
845.389	5090
845.525	5178
845.661	5140
845.798	5056
845.934	5155
846.07	5041
846.206	5201
846.342	5322
846.478	5178
846.614	5014
846.75	5025
846.886	4911
847.022	5170
847.158	5037
847.294	5045
847.429	5113
847.565	5048
847.701	5341
847.837	4911
847.972	4843
848.108	4968
848.244	4904
848.379	4801
848.515	4706
848.65	4710
848.786	4736
848.921	4786
849.057	4854
849.192	4938
849.328	4843
849.463	4870
849.598	4839
849.734	4759
849.869	4687
850.004	4649
850.14	4664
850.275	4630
850.41	4504
850.545	4596
850.68	4592
850.815	4630
850.95	4645
851.085	4877
851.22	4812
851.355	4702
851.49	4618
851.625	4637
851.76	4653
851.895	4561
852.03	4565
852.165	4634
852.299	4729
852.434	4774
852.569	4725
852.703	4759
852.838	4812
852.973	4984
853.107	4934
853.242	4759
853.376	4717
853.511	4615
853.645	4611
853.78	4816
853.914	4668
854.048	4675
854.183	4744
854.317	4698
854.451	4904
854.585	4656
854.72	4687
854.854	4744
854.988	4649
855.122	4668
855.256	4558
855.39	4698
855.524	4790
855.658	4748
855.792	4691
855.926	4733
856.06	4778
856.194	4816
856.327	4698
856.461	4637
856.595	4653
856.729	4603
856.862	4759
856.996	4694
857.13	4714
857.263	4740
857.397	4782
857.53	4714
857.664	4702
857.797	4797
857.931	4763
858.064	4679
858.197	4778
858.331	4672
858.464	4656
858.597	4580
858.731	4649
858.864	4660
858.997	4584
859.13	4653
859.263	4664
859.396	4672
859.529	4588
859.662	4561
859.795	4512
859.928	4679
860.061	4774
860.194	4755
860.327	4649
860.46	4573
860.592	4721
860.725	4763
860.858	4755
860.99	4546
861.123	4500
861.256	4523
861.388	4637
861.521	5459
861.653	4466
861.786	4508
861.918	4428
862.05	4535
862.183	4565
862.315	4649
862.447	4683
862.58	4508
862.712	4405
862.844	4363
862.976	4462
863.108	4478
863.24	4923
863.372	4348
863.504	4459
863.636	4409
863.768	4470
863.9	4440
864.032	4390
864.164	4432
864.296	4470
864.428	4592
864.559	4531
864.691	4527
864.823	4577
864.954	4508
865.086	4485
865.217	4474
865.349	4447
865.48	4424
865.612	4497
865.743	4603
865.875	4508
866.006	4413
866.137	4443
866.269	4466
866.4	4489
866.531	4455
866.662	4443
866.793	4421
866.924	4447
867.055	4523
867.186	4459
867.317	4459
867.448	4413
867.579	4375
867.71	4398
867.841	4375
867.972	4459
868.103	4455
868.233	4440
868.364	4447
868.495	4500
868.625	4668
868.756	4774
868.886	4531
869.017	4634
869.147	4816
869.278	4725
869.408	4634
869.539	4645
869.669	4725
869.799	4656
869.929	4793
870.06	4767
870.19	4942
870.32	4953
870.45	4934
870.58	5022
870.71	5102
870.84	5113
870.97	4923
871.1	4908
871.23	5140
871.36	5124
871.489	5018
871.619	5041
871.749	5124
871.879	5143
872.008	5189
872.138	5113
872.267	5003
872.397	4824
872.526	4809
872.656	4710
872.785	4824
872.915	4965
873.044	5048
873.173	4953
873.303	4877
873.432	4991
873.561	4938
873.69	4885
873.819	4873
873.948	4923
874.077	4797
874.206	4774
874.335	4793
874.464	4942
874.593	5037
874.722	4965
874.851	5102
874.979	5018
875.108	5041
875.237	4870
875.365	4968
875.494	4847
875.623	4953
875.751	4862
875.88	4904
876.008	4923
876.136	5014
876.265	5212
876.393	5364
876.521	5284
876.65	5220
876.778	5147
876.906	5025
877.034	5003
877.162	5060
877.29	5014
877.418	5086
877.546	4991
877.674	5064
877.802	5018
877.93	5041
878.058	4930
878.185	4938
878.313	4953
878.441	4942
878.568	4801
878.696	4877
878.824	4972
878.951	4991
879.079	5117
879.206	5265
879.333	5109
879.461	4972
879.588	5033
879.715	5136
879.842	5204
879.97	5022
880.097	4774
880.224	4771
880.351	4828
880.478	4839
880.605	4786
880.732	4835
880.859	5067
880.986	4892
881.112	4870
881.239	4839
881.366	4679
881.493	4626
881.619	4626
881.746	4660
881.872	4607
881.999	4618
882.125	4710
882.252	4782
882.378	4790
882.505	4953
882.631	4763
882.757	4668
882.883	4752
883.01	4694
883.136	4649
883.262	4641
883.388	4653
883.514	4812
883.64	4839
883.766	4816
883.892	4721
884.018	4744
884.143	4896
884.269	5014
884.395	4656
884.52	4588
884.646	4656
884.772	4611
884.897	4527
885.023	4664
885.148	4755
885.274	4877
885.399	4816
885.524	4744
885.65	4672
885.775	4763
885.9	4691
886.025	4843
886.15	4782
886.275	4736
886.4	4679
886.525	4687
886.65	4683
886.775	4672
886.9	4896
887.025	5037
887.149	4774
887.274	4634
887.399	4615
887.523	4569
887.648	4554
887.773	4622
887.897	4767
888.021	4755
888.146	4740
888.27	4755
888.395	4908
888.519	4801
888.643	4778
888.767	4793
888.891	4656
889.015	4618
889.139	4626
889.263	4618
889.387	4687
889.511	4877
889.635	4782
889.759	4611
889.883	4607
890.006	4714
890.13	4820
890.254	4615
890.377	4634
890.501	4546
890.624	4478
890.748	4672
890.871	4519
890.995	4459
891.118	4394
891.241	4500
891.364	4603
891.488	4615
891.611	4485
891.734	4493
891.857	4637
891.98	4603
892.103	4702
892.226	4611
892.349	4550
892.471	4421
892.594	4497
892.717	4615
892.839	4531
892.962	4611
893.085	4656
893.207	4596
893.33	4436
893.452	4478
893.575	4675
893.697	4588
893.819	4820
893.941	4843
894.064	4767
894.186	4554
894.308	4565
894.43	4706
894.552	4866
894.674	4744
894.796	4489
894.918	4550
895.04	4546
895.161	4714
895.283	4698
895.405	4550
895.526	4615
895.648	4733
895.769	4687
895.891	4702
896.012	4763
896.134	4706
896.255	4694
896.376	4603
896.498	4615
896.619	4694
896.74	4630
896.861	4664
896.982	4885
897.103	5064
897.224	4850
897.345	4744
897.466	4656
897.587	4691
897.708	4820
897.828	4733
897.949	4641
898.07	4607
898.19	4706
898.311	4873
898.431	4675
898.552	4763
898.672	4839
898.792	4793
898.913	4744
899.033	4584
899.153	4531
899.273	4451
899.393	4493
899.513	4497
899.633	4531
899.753	4478
899.873	4493
899.993	4577
900.113	4542
900.232	4538
900.352	4565
900.472	4478
900.591	4394
900.711	4519
900.83	4421
900.95	4615
901.069	4675
901.189	4516
901.308	4363
901.427	4314
901.546	4329
901.665	4455
901.784	4516
901.904	4390
902.023	4360
902.141	4211
902.26	4166
902.379	4306
902.498	4238
902.617	4196
902.735	4360
902.854	4371
902.973	4363
903.091	4207
903.21	4215
903.328	4303
903.446	4253
903.565	4287
903.683	4333
903.801	4295
903.919	4421
904.038	4421
904.156	4318
904.274	4398
904.392	4356
904.51	4424
904.627	4523
904.745	4611
904.863	4603
904.981	4413
905.098	4329
905.216	4367
905.334	4402
905.451	4436
905.569	4466
905.686	4561
905.803	4527
905.921	4455
906.038	4546
906.155	4462
906.272	4413
906.389	4485
906.506	4322
906.623	4386
906.74	4379
906.857	4337
906.974	4402
907.091	4538
907.208	4683
907.324	4577
907.441	4531
907.557	4394
907.674	4306
907.79	4306
907.907	4344
908.023	4478
908.139	4440
908.256	4405
908.372	4478
908.488	4398
908.604	4291
908.72	4303
908.836	4375
908.952	4322
909.068	4459
909.184	4561
909.3	4493
909.415	4611
909.531	4538
909.647	4246
909.762	4390
909.878	4318
909.993	4443
910.108	4371
910.224	4386
910.339	4504
910.454	4379
910.57	4356
910.685	4295
910.8	4656
910.915	4599
911.03	4508
911.145	4352
911.259	4337
911.374	4363
911.489	4257
911.604	4265
911.718	4147
911.833	4219
911.947	4086
912.062	4006
912.176	4173
912.291	4253
912.405	4211
912.519	4470
912.633	4478
912.748	4352
912.862	4299
912.976	4207
913.09	4082
913.204	4234
913.318	4238
913.431	4379
913.545	4360
913.659	4375
913.772	4352
913.886	4276
914	4200
914.113	4344
914.226	4428
914.34	4344
914.453	4242
914.566	4440
914.68	4287
914.793	4268
914.906	4173
915.019	4116
915.132	4101
915.245	4154
915.358	4215
915.47	4242
915.583	4265
915.696	4348
915.809	4428
915.921	4409
916.034	4215
916.146	4257
916.259	4219
916.371	4405
916.483	4379
916.595	4295
916.708	4356
916.82	4344
916.932	4303
917.044	4276
917.156	4280
917.268	4246
917.38	4265
917.491	4238
917.603	4352
917.715	4462
917.826	4394
917.938	4367
918.049	4242
918.161	4424
918.272	4588
918.384	4508
918.495	4428
918.606	4257
918.717	4265
918.828	4291
918.939	4356
919.05	4257
919.161	4322
919.272	4128
919.383	4188
919.494	4451
919.604	4618
919.715	4436
919.826	4386
919.936	4402
920.047	4493
920.157	4466
920.267	4660
920.378	4550
920.488	4500
920.598	4706
920.708	4885
920.818	4748
920.928	4744
921.038	4904
921.148	4927
921.258	4615
921.368	4538
921.477	4497
921.587	4466
921.697	4413
921.806	4535
921.916	4440
922.025	4291
922.134	4268
922.244	4219
922.353	4352
922.462	4181
922.571	4143
922.68	4029
922.789	3903
922.898	4048
923.007	3994
923.116	4078
923.224	4067
923.333	4082
923.442	3983
923.55	3983
923.659	4036
923.767	4105
923.876	4021
923.984	4131
924.092	3983
924.201	4059
924.309	4124
924.417	4139
924.525	4093
924.633	4124
924.741	4896
924.849	3915
924.956	4185
925.064	3896
925.172	3892
925.279	3922
925.387	4044
925.494	4071
925.602	4249
925.709	4166
925.816	3994
925.924	4116
926.031	4234
926.138	4169
926.245	4166
926.352	4074
926.459	4230
926.566	4303
926.673	4135
926.779	4051
926.886	4055
926.993	3983
927.099	3918
927.206	3937
927.312	3956
927.419	4025
927.525	4017
927.631	4074
927.737	3937
927.843	3987
927.95	3850
928.056	3968
928.162	3994
928.267	4071
928.373	4615
928.479	4158
928.585	3842
928.69	3987
928.796	4036
928.901	3968
929.007	3842
929.112	4021
929.218	3956
929.323	3899
929.428	3960
929.533	4105
929.638	3907
929.743	3964
929.848	4040
929.953	4021
930.058	3937
930.163	3770
930.267	3831
930.372	3994
930.477	3793
930.581	4082
930.685	3896
930.79	3842
930.894	3876
930.998	3819
931.103	4021
931.207	3675
931.311	3675
931.415	3637
931.519	3534
931.623	3538
