Data from test_V78500241_1800.txt Node
Date: Fri Mar 25 17:01:31 CST 2022
User: usil
Spectrometer: V785-0024
Trigger mode: 0
Integration Time (sec): 4.000000E-1
Scans to average: 1
Nonlinearity correction enabled: false
Boxcar width: 0
Storing dark spectrum: false
XAxis mode: Wavelengths
Number of Pixels in Spectrum: 1024
>>>>>Begin Spectral Data<<<<<
801.071	8024
801.214	7989
801.356	7814
801.499	7906
801.641	7856
801.783	7845
801.926	8016
802.068	7959
802.211	7982
802.353	7978
802.496	7879
802.638	7830
802.78	7883
802.923	7936
803.065	7894
803.208	7852
803.35	8027
803.492	8035
803.635	8115
803.777	7951
803.919	8092
804.061	8469
804.204	8161
804.346	8058
804.488	7936
804.63	8111
804.773	8039
804.915	8100
805.057	8237
805.199	8172
805.341	8191
805.483	8240
805.626	8176
805.768	8115
805.91	8183
806.052	8229
806.194	8111
806.336	8332
806.478	8111
806.62	8123
806.762	8073
806.904	8252
807.046	8450
807.188	8336
807.33	8301
807.472	8362
807.614	8214
807.756	8149
807.898	8016
808.04	7928
808.182	7879
808.324	7894
808.465	7803
808.607	8077
808.749	8153
808.891	8092
809.033	8332
809.174	8252
809.316	8039
809.458	8027
809.6	8035
809.741	8054
809.883	8031
810.025	8062
810.166	8065
810.308	8050
810.45	7986
810.591	7852
810.733	7795
810.875	7639
811.016	7537
811.158	7472
811.299	7575
811.441	7704
811.582	7689
811.724	7613
811.865	7571
812.007	7601
812.148	7620
812.29	7594
812.431	7746
812.573	7925
812.714	7955
812.855	8123
812.997	8164
813.138	8267
813.279	8233
813.421	8157
813.562	7947
813.703	7811
813.845	7750
813.986	7438
814.127	7228
814.268	7236
814.41	7179
814.551	7206
814.692	7247
814.833	7069
814.974	7088
815.115	7095
815.256	6962
815.397	6943
815.539	6947
815.68	6818
815.821	6776
815.962	6844
816.103	6852
816.244	6753
816.385	6627
816.526	6642
816.666	6479
816.807	6418
816.948	6395
817.089	6452
817.23	6433
817.371	6323
817.512	6315
817.653	6357
817.793	6308
817.934	6376
818.075	6467
818.216	6369
818.356	6388
818.497	6300
818.638	6087
818.778	6117
818.919	6144
819.06	6159
819.2	6296
819.341	6323
819.481	6380
819.622	6517
819.762	6730
819.903	6730
820.043	6578
820.184	6620
820.324	6677
820.465	6715
820.605	6719
820.746	6623
820.886	6528
821.026	6669
821.167	6734
821.307	6776
821.447	6776
821.588	6730
821.728	6555
821.868	6540
822.008	6331
822.149	6384
822.289	6395
822.429	6148
822.569	6106
822.709	6110
822.849	5866
822.99	5958
823.13	5920
823.27	5912
823.41	5821
823.55	5767
823.69	5786
823.83	5764
823.97	5665
824.11	5558
824.25	5478
824.389	5608
824.529	5611
824.669	5627
824.809	5627
824.949	5707
825.089	5615
825.228	5592
825.368	5509
825.508	5372
825.648	5395
825.787	5406
825.927	5376
826.067	5349
826.206	5391
826.346	5379
826.485	5421
826.625	5414
826.765	5638
826.904	5535
827.044	5337
827.183	5242
827.323	5189
827.462	5292
827.601	5174
827.741	5284
827.88	5185
828.02	5147
828.159	5280
828.298	5349
828.437	5402
828.577	5349
828.716	5566
828.855	5364
828.994	5201
829.134	5166
829.273	5204
829.412	5189
829.551	5189
829.69	5178
829.829	5231
829.968	5391
830.107	5288
830.246	5277
830.385	5239
830.524	5193
830.663	5071
830.802	4980
830.941	4942
831.08	4927
831.219	5083
831.357	4965
831.496	5193
831.635	4976
831.774	4881
831.913	4946
832.051	4805
832.19	4790
832.329	4847
832.467	4793
832.606	4653
832.744	4725
832.883	4755
833.022	4744
833.16	4778
833.299	4862
833.437	4862
833.576	4873
833.714	4904
833.852	4915
833.991	4904
834.129	5018
834.267	4927
834.406	4908
834.544	5022
834.682	5014
834.821	4968
834.959	5220
835.097	4999
835.235	5174
835.373	5098
835.511	5132
835.65	5094
835.788	5056
835.926	4930
836.064	4896
836.202	4927
836.34	5170
836.478	5265
836.615	5124
836.753	5254
836.891	5303
837.029	5250
837.167	5220
837.305	5201
837.443	5140
837.58	5128
837.718	5250
837.856	5223
837.993	5197
838.131	5227
838.269	5216
838.406	5204
838.544	5201
838.681	5086
838.819	5067
838.956	4919
839.094	4915
839.231	4991
839.369	5124
839.506	5433
839.643	5258
839.781	5071
839.918	5006
840.055	5113
840.193	5117
840.33	5117
840.467	5170
840.604	5178
840.742	5387
840.879	5178
841.016	5075
841.153	5155
841.29	5364
841.427	5326
841.564	5280
841.701	5368
841.838	5250
841.975	5258
842.112	5265
842.249	5159
842.385	5105
842.522	5402
842.659	5201
842.796	5212
842.933	5254
843.069	5212
843.206	5231
843.343	5349
843.479	5269
843.616	5250
843.752	5067
843.889	5048
844.025	5269
844.162	5075
844.298	5254
844.435	5105
844.571	5025
844.708	5220
844.844	5326
844.98	5383
845.117	5296
845.253	5159
845.389	5151
845.525	5212
845.661	5166
845.798	5041
845.934	5197
846.07	5060
846.206	5242
846.342	5345
846.478	5212
846.614	5048
846.75	4976
846.886	5006
847.022	5174
847.158	5060
847.294	5083
847.429	5102
847.565	5067
847.701	5353
847.837	4885
847.972	4858
848.108	4991
848.244	4984
848.379	4805
848.515	4721
848.65	4740
848.786	4736
848.921	4809
849.057	4896
849.192	4934
849.328	4858
849.463	4889
849.598	4858
849.734	4790
849.869	4721
850.004	4660
850.14	4691
850.275	4664
850.41	4558
850.545	4607
850.68	4588
850.815	4641
850.95	4656
851.085	4858
851.22	4824
851.355	4710
851.49	4622
851.625	4653
851.76	4691
851.895	4588
852.03	4565
852.165	4675
852.299	4702
852.434	4870
852.569	4710
852.703	4820
852.838	4839
852.973	4930
853.107	4908
853.242	4763
853.376	4668
853.511	4622
853.645	4618
853.78	4885
853.914	4725
854.048	4736
854.183	4679
854.317	4759
854.451	4816
854.585	4691
854.72	4649
854.854	4763
854.988	4618
855.122	4672
855.256	4584
855.39	4687
855.524	4790
855.658	4721
855.792	4702
855.926	4736
856.06	4793
856.194	4866
856.327	4710
856.461	4596
856.595	4634
856.729	4656
856.862	4835
856.996	4748
857.13	4767
857.263	4809
857.397	4877
857.53	4691
857.664	4771
857.797	4790
857.931	4816
858.064	4714
858.197	4774
858.331	4630
858.464	4626
858.597	4523
858.731	4653
858.864	4664
858.997	4622
859.13	4630
859.263	4683
859.396	4725
859.529	4607
859.662	4622
859.795	4603
859.928	4645
860.061	4816
860.194	4793
860.327	4683
860.46	4577
860.592	4755
860.725	4710
860.858	4763
860.99	4634
861.123	4542
861.256	4561
861.388	4630
861.521	5345
861.653	4462
861.786	4417
861.918	4504
862.05	4523
862.183	4550
862.315	4580
862.447	4641
862.58	4565
862.712	4443
862.844	4379
862.976	4500
863.108	4481
863.24	4919
863.372	4371
863.504	4417
863.636	4402
863.768	4478
863.9	4470
864.032	4360
864.164	4390
864.296	4497
864.428	4577
864.559	4561
864.691	4561
864.823	4546
864.954	4481
865.086	4550
865.217	4455
865.349	4462
865.48	4516
865.612	4497
865.743	4694
865.875	4466
866.006	4462
866.137	4478
866.269	4478
866.4	4424
866.531	4436
866.662	4470
866.793	4436
866.924	4428
867.055	4531
867.186	4455
867.317	4417
867.448	4409
867.579	4413
867.71	4360
867.841	4379
867.972	4474
868.103	4500
868.233	4455
868.364	4493
868.495	4550
868.625	4660
868.756	4771
868.886	4603
869.017	4630
869.147	4771
869.278	4778
869.408	4683
869.539	4634
869.669	4744
869.799	4694
869.929	4782
870.06	4725
870.19	4972
870.32	4923
870.45	4934
870.58	5014
870.71	5128
870.84	5086
870.97	4900
871.1	4889
871.23	5121
871.36	5094
871.489	5033
871.619	5075
871.749	5117
871.879	5147
872.008	5174
872.138	5018
872.267	4987
872.397	4889
872.526	4812
872.656	4725
872.785	4835
872.915	4934
873.044	5090
873.173	4980
873.303	4965
873.432	4968
873.561	4999
873.69	4923
873.819	4892
873.948	4968
874.077	4786
874.206	4771
874.335	4828
874.464	4946
874.593	5056
874.722	4995
874.851	5105
874.979	5083
875.108	5048
875.237	4953
875.365	4919
875.494	4870
875.623	4984
875.751	4862
875.88	4911
876.008	4999
876.136	5006
876.265	5258
876.393	5391
876.521	5299
876.65	5269
876.778	5227
876.906	5060
877.034	5037
877.162	5079
877.29	4972
877.418	5075
877.546	5098
877.674	5029
877.802	5037
877.93	4968
878.058	4938
878.185	4892
878.313	5014
878.441	4919
878.568	4801
878.696	4892
878.824	4972
878.951	5033
879.079	5136
879.206	5296
879.333	5105
879.461	4972
879.588	5033
879.715	5216
879.842	5246
879.97	5067
880.097	4786
880.224	4786
880.351	4801
880.478	4824
880.605	4835
880.732	4835
880.859	5124
880.986	4915
881.112	4915
881.239	4812
881.366	4736
881.493	4599
881.619	4592
881.746	4668
881.872	4645
881.999	4679
882.125	4706
882.252	4812
882.378	4824
882.505	4984
882.631	4797
882.757	4725
882.883	4748
883.01	4710
883.136	4675
883.262	4634
883.388	4622
883.514	4790
883.64	4881
883.766	4809
883.892	4687
884.018	4706
884.143	4934
884.269	4995
884.395	4714
884.52	4611
884.646	4679
884.772	4573
884.897	4596
885.023	4660
885.148	4797
885.274	4854
885.399	4889
885.524	4793
885.65	4755
885.775	4759
885.9	4679
886.025	4870
886.15	4771
886.275	4675
886.4	4698
886.525	4763
886.65	4698
886.775	4668
886.9	4889
887.025	5067
887.149	4835
887.274	4710
887.399	4630
887.523	4584
887.648	4588
887.773	4580
887.897	4763
888.021	4748
888.146	4721
888.27	4801
888.395	4900
888.519	4820
888.643	4854
888.767	4900
888.891	4683
889.015	4618
889.139	4656
889.263	4599
889.387	4839
889.511	4843
889.635	4805
889.759	4653
889.883	4611
890.006	4759
890.13	4862
890.254	4645
890.377	4714
890.501	4550
890.624	4558
890.748	4645
890.871	4527
890.995	4440
891.118	4398
891.241	4565
891.364	4512
891.488	4679
891.611	4523
891.734	4531
891.857	4626
891.98	4615
892.103	4626
892.226	4622
892.349	4527
892.471	4436
892.594	4550
892.717	4641
892.839	4584
892.962	4618
893.085	4626
893.207	4637
893.33	4481
893.452	4538
893.575	4641
893.697	4664
893.819	4812
893.941	4850
894.064	4782
894.186	4615
894.308	4607
894.43	4721
894.552	4835
894.674	4755
894.796	4588
894.918	4637
895.04	4622
895.161	4706
895.283	4694
895.405	4599
895.526	4702
895.648	4706
895.769	4691
895.891	4740
896.012	4725
896.134	4744
896.255	4649
896.376	4660
896.498	4584
896.619	4664
896.74	4615
896.861	4698
896.982	4957
897.103	5060
897.224	4771
897.345	4767
897.466	4706
897.587	4748
897.708	4881
897.828	4717
897.949	4714
898.07	4538
898.19	4637
898.311	4850
898.431	4656
898.552	4736
898.672	4805
898.792	4831
898.913	4771
899.033	4653
899.153	4523
899.273	4497
899.393	4504
899.513	4531
899.633	4554
899.753	4523
899.873	4493
899.993	4573
900.113	4577
900.232	4599
900.352	4516
900.472	4516
900.591	4428
900.711	4466
900.83	4459
900.95	4664
901.069	4679
901.189	4569
901.308	4356
901.427	4322
901.546	4402
901.665	4489
901.784	4527
901.904	4356
902.023	4379
902.141	4200
902.26	4158
902.379	4299
902.498	4257
902.617	4261
902.735	4379
902.854	4443
902.973	4352
903.091	4234
903.21	4246
903.328	4318
903.446	4295
903.565	4257
903.683	4314
903.801	4287
903.919	4386
904.038	4409
904.156	4314
904.274	4470
904.392	4402
904.51	4447
904.627	4519
904.745	4577
904.863	4641
904.981	4424
905.098	4303
905.216	4402
905.334	4443
905.451	4428
905.569	4421
905.686	4558
905.803	4577
905.921	4413
906.038	4554
906.155	4462
906.272	4417
906.389	4485
906.506	4367
906.623	4344
906.74	4402
906.857	4306
906.974	4352
907.091	4592
907.208	4645
907.324	4561
907.441	4451
907.557	4383
907.674	4352
907.79	4341
907.907	4413
908.023	4489
908.139	4538
908.256	4455
908.372	4462
908.488	4466
908.604	4360
908.72	4341
908.836	4360
908.952	4405
909.068	4413
909.184	4531
909.3	4470
909.415	4599
909.531	4519
909.647	4386
909.762	4386
909.878	4322
909.993	4428
910.108	4413
910.224	4424
910.339	4538
910.454	4405
910.57	4371
910.685	4325
910.8	4691
910.915	4607
911.03	4516
911.145	4344
911.259	4314
911.374	4424
911.489	4348
911.604	4268
911.718	4173
911.833	4196
911.947	4109
912.062	4040
912.176	4242
912.291	4227
912.405	4253
912.519	4478
912.633	4535
912.748	4405
912.862	4310
912.976	4215
913.09	4109
913.204	4166
913.318	4219
913.431	4405
913.545	4337
913.659	4436
913.772	4371
913.886	4227
914	4246
914.113	4379
914.226	4417
914.34	4379
914.453	4227
914.566	4451
914.68	4329
914.793	4318
914.906	4116
915.019	4120
915.132	4074
915.245	4242
915.358	4230
915.47	4238
915.583	4303
915.696	4314
915.809	4394
915.921	4462
916.034	4253
916.146	4238
916.259	4219
916.371	4383
916.483	4299
916.595	4253
916.708	4367
916.82	4306
916.932	4329
917.044	4379
917.156	4333
917.268	4185
917.38	4253
917.491	4287
917.603	4329
917.715	4424
917.826	4466
917.938	4390
918.049	4246
918.161	4360
918.272	4531
918.384	4580
918.495	4478
918.606	4280
918.717	4223
918.828	4322
918.939	4424
919.05	4291
919.161	4314
919.272	4139
919.383	4230
919.494	4428
919.604	4634
919.715	4440
919.826	4352
919.936	4405
920.047	4538
920.157	4474
920.267	4702
920.378	4527
920.488	4538
920.598	4687
920.708	4885
920.818	4774
920.928	4691
921.038	4927
921.148	4972
921.258	4634
921.368	4493
921.477	4497
921.587	4485
921.697	4417
921.806	4523
921.916	4424
922.025	4295
922.134	4306
922.244	4242
922.353	4325
922.462	4154
922.571	4112
922.68	4002
922.789	3991
922.898	4040
923.007	4017
923.116	4109
923.224	4093
923.333	4078
923.442	3994
923.55	3937
923.659	4036
923.767	4105
923.876	4006
923.984	4112
924.092	3968
924.201	4082
924.309	4120
924.417	4131
924.525	4055
924.633	4116
924.741	5056
924.849	3915
924.956	4131
925.064	3991
925.172	3873
925.279	3979
925.387	4074
925.494	4044
925.602	4257
925.709	4150
925.816	4013
925.924	4112
926.031	4234
926.138	4181
926.245	4173
926.352	4105
926.459	4276
926.566	4318
926.673	4162
926.779	4090
926.886	4078
926.993	3941
927.099	3934
927.206	3953
927.312	3934
927.419	4074
927.525	4059
927.631	4120
927.737	3972
927.843	3949
927.95	3876
928.056	3991
928.162	3991
928.267	4040
928.373	4626
928.479	4120
928.585	3850
928.69	4021
928.796	4067
928.901	3983
929.007	3838
929.112	3937
929.218	3987
929.323	3975
929.428	3930
929.533	4150
929.638	3911
929.743	3941
929.848	4063
929.953	3979
930.058	3918
930.163	3808
930.267	3819
930.372	3960
930.477	3797
930.581	4074
930.685	3956
930.79	3819
930.894	3869
930.998	3888
931.103	3991
931.207	3720
931.311	3740
931.415	3690
931.519	3500
931.623	3576
