Data from test_V78500241_1733.txt Node
Date: Fri Mar 25 17:01:03 CST 2022
User: usil
Spectrometer: V785-0024
Trigger mode: 0
Integration Time (sec): 4.000000E-1
Scans to average: 1
Nonlinearity correction enabled: false
Boxcar width: 0
Storing dark spectrum: false
XAxis mode: Wavelengths
Number of Pixels in Spectrum: 1024
>>>>>Begin Spectral Data<<<<<
801.071	7982
801.214	7936
801.356	7982
801.499	7902
801.641	7795
801.783	7883
801.926	7909
802.068	7970
802.211	8046
802.353	7989
802.496	7807
802.638	7917
802.78	7860
802.923	7928
803.065	7887
803.208	7898
803.35	7997
803.492	8084
803.635	8180
803.777	8069
803.919	8073
804.061	8511
804.204	8077
804.346	8069
804.488	7959
804.63	8035
804.773	8008
804.915	8126
805.057	8301
805.199	8187
805.341	8172
805.483	8202
805.626	8221
805.768	8157
805.91	8191
806.052	8225
806.194	8046
806.336	8328
806.478	8119
806.62	8054
806.762	8115
806.904	8225
807.046	8461
807.188	8419
807.33	8267
807.472	8339
807.614	8214
807.756	8157
807.898	8027
808.04	7864
808.182	7864
808.324	7849
808.465	7947
808.607	8058
808.749	8069
808.891	8176
809.033	8324
809.174	8164
809.316	8073
809.458	8046
809.6	8062
809.741	8050
809.883	8008
810.025	8073
810.166	8073
810.308	8043
810.45	7970
810.591	7784
810.733	7731
810.875	7586
811.016	7460
811.158	7480
811.299	7525
811.441	7772
811.582	7643
811.724	7628
811.865	7518
812.007	7571
812.148	7601
812.29	7689
812.431	7746
812.573	7887
812.714	7921
812.855	8123
812.997	8240
813.138	8294
813.279	8210
813.421	8199
813.562	7989
813.703	7841
813.845	7700
813.986	7445
814.127	7190
814.268	7202
814.41	7183
814.551	7206
814.692	7247
814.833	7152
814.974	6989
815.115	7103
815.256	6958
815.397	6909
815.539	6993
815.68	6829
815.821	6810
815.962	6924
816.103	6768
816.244	6715
816.385	6585
816.526	6616
816.666	6544
816.807	6285
816.948	6464
817.089	6452
817.23	6437
817.371	6353
817.512	6441
817.653	6414
817.793	6350
817.934	6426
818.075	6475
818.216	6445
818.356	6372
818.497	6201
818.638	6155
818.778	6136
818.919	6148
819.06	6182
819.2	6296
819.341	6315
819.481	6388
819.622	6570
819.762	6764
819.903	6711
820.043	6536
820.184	6604
820.324	6608
820.465	6677
820.605	6703
820.746	6658
820.886	6525
821.026	6688
821.167	6726
821.307	6825
821.447	6806
821.588	6700
821.728	6612
821.868	6483
822.008	6281
822.149	6353
822.289	6304
822.429	6098
822.569	6057
822.709	6076
822.849	5912
822.99	5893
823.13	5874
823.27	5882
823.41	5767
823.55	5756
823.69	5767
823.83	5783
823.97	5684
824.11	5509
824.25	5463
824.389	5554
824.529	5558
824.669	5467
824.809	5661
824.949	5729
825.089	5596
825.228	5554
825.368	5334
825.508	5372
825.648	5353
825.787	5357
825.927	5421
826.067	5284
826.206	5288
826.346	5391
826.485	5368
826.625	5383
826.765	5585
826.904	5448
827.044	5273
827.183	5185
827.323	5124
827.462	5239
827.601	5102
827.741	5166
827.88	5239
828.02	5079
828.159	5189
828.298	5284
828.437	5318
828.577	5242
828.716	5459
828.855	5341
828.994	5159
829.134	5136
829.273	5174
829.412	5143
829.551	5113
829.69	5124
829.829	5242
829.968	5330
830.107	5303
830.246	5242
830.385	5128
830.524	5124
830.663	5105
830.802	4961
830.941	4942
831.08	4877
831.219	4938
831.357	4972
831.496	5128
831.635	4942
831.774	4816
831.913	4850
832.051	4691
832.19	4736
832.329	4824
832.467	4691
832.606	4630
832.744	4755
832.883	4706
833.022	4687
833.16	4801
833.299	4850
833.437	4850
833.576	4812
833.714	4831
833.852	4892
833.991	4881
834.129	4995
834.267	4934
834.406	4908
834.544	4942
834.682	5003
834.821	4911
834.959	5128
835.097	5022
835.235	5128
835.373	5037
835.511	5132
835.65	5052
835.788	4999
835.926	4904
836.064	4866
836.202	4858
836.34	5181
836.478	5258
836.615	5117
836.753	5189
836.891	5337
837.029	5235
837.167	5185
837.305	5162
837.443	5178
837.58	5064
837.718	5235
837.856	5201
837.993	5166
838.131	5265
838.269	5197
838.406	5239
838.544	5166
838.681	5025
838.819	4991
838.956	4881
839.094	4942
839.231	5003
839.369	5067
839.506	5421
839.643	5258
839.781	5067
839.918	5006
840.055	5124
840.193	5045
840.33	5105
840.467	5136
840.604	5208
840.742	5444
840.879	5067
841.016	5064
841.153	5197
841.29	5330
841.427	5280
841.564	5288
841.701	5360
841.838	5227
841.975	5265
842.112	5261
842.249	5178
842.385	5094
842.522	5296
842.659	5155
842.796	5178
842.933	5220
843.069	5132
843.206	5193
843.343	5296
843.479	5220
843.616	5284
843.752	5060
843.889	4976
844.025	5216
844.162	5060
844.298	5227
844.435	5086
844.571	5056
844.708	5223
844.844	5326
844.98	5379
845.117	5296
845.253	5166
845.389	5113
845.525	5155
845.661	5189
845.798	5029
845.934	5083
846.07	5022
846.206	5181
846.342	5239
846.478	5151
846.614	5014
846.75	4946
846.886	4972
847.022	5147
847.158	4995
847.294	5037
847.429	5132
847.565	5067
847.701	5299
847.837	4835
847.972	4847
848.108	4965
848.244	4904
848.379	4774
848.515	4740
848.65	4721
848.786	4721
848.921	4752
849.057	4831
849.192	4870
849.328	4831
849.463	4809
849.598	4771
849.734	4767
849.869	4653
850.004	4656
850.14	4672
850.275	4603
850.41	4523
850.545	4554
850.68	4599
850.815	4615
850.95	4653
851.085	4790
851.22	4767
851.355	4714
851.49	4653
851.625	4626
851.76	4675
851.895	4558
852.03	4550
852.165	4675
852.299	4706
852.434	4744
852.569	4714
852.703	4774
852.838	4828
852.973	4934
853.107	4927
853.242	4694
853.376	4687
853.511	4558
853.645	4656
853.78	4824
853.914	4649
854.048	4656
854.183	4634
854.317	4687
854.451	4858
854.585	4664
854.72	4615
854.854	4752
854.988	4596
855.122	4618
855.256	4504
855.39	4664
855.524	4797
855.658	4748
855.792	4687
855.926	4672
856.06	4733
856.194	4790
856.327	4683
856.461	4565
856.595	4630
856.729	4637
856.862	4752
856.996	4714
857.13	4698
857.263	4790
857.397	4790
857.53	4717
857.664	4694
857.797	4797
857.931	4793
858.064	4675
858.197	4721
858.331	4641
858.464	4637
858.597	4535
858.731	4622
858.864	4672
858.997	4599
859.13	4687
859.263	4649
859.396	4649
859.529	4626
859.662	4538
859.795	4481
859.928	4618
860.061	4797
860.194	4717
860.327	4649
860.46	4546
860.592	4721
860.725	4706
860.858	4710
860.99	4603
861.123	4504
861.256	4535
861.388	4607
861.521	5360
861.653	4474
861.786	4451
861.918	4497
862.05	4470
862.183	4569
862.315	4596
862.447	4615
862.58	4584
862.712	4413
862.844	4341
862.976	4489
863.108	4481
863.24	4866
863.372	4333
863.504	4432
863.636	4428
863.768	4462
863.9	4459
864.032	4360
864.164	4402
864.296	4512
864.428	4497
864.559	4554
864.691	4554
864.823	4497
864.954	4500
865.086	4478
865.217	4447
865.349	4405
865.48	4459
865.612	4440
865.743	4603
865.875	4481
866.006	4405
866.137	4421
866.269	4451
866.4	4478
866.531	4413
866.662	4363
866.793	4504
866.924	4443
867.055	4497
867.186	4451
867.317	4459
867.448	4371
867.579	4440
867.71	4383
867.841	4360
867.972	4459
868.103	4443
868.233	4470
868.364	4428
868.495	4466
868.625	4637
868.756	4721
868.886	4508
869.017	4626
869.147	4797
869.278	4767
869.408	4694
869.539	4634
869.669	4740
869.799	4641
869.929	4736
870.06	4710
870.19	4968
870.32	4923
870.45	4892
870.58	5025
870.71	5067
870.84	5105
870.97	4980
871.1	4896
871.23	5128
871.36	5170
871.489	5018
871.619	5083
871.749	5098
871.879	5143
872.008	5147
872.138	5025
872.267	4987
872.397	4820
872.526	4736
872.656	4748
872.785	4782
872.915	4968
873.044	5067
873.173	5006
873.303	4911
873.432	4942
873.561	4968
873.69	4873
873.819	4847
873.948	4934
874.077	4809
874.206	4740
874.335	4805
874.464	4919
874.593	5060
874.722	4934
874.851	5094
874.979	4995
875.108	5052
875.237	4911
875.365	4896
875.494	4911
875.623	4942
875.751	4793
875.88	4866
876.008	5003
876.136	4995
876.265	5193
876.393	5368
876.521	5296
876.65	5181
876.778	5216
876.906	5056
877.034	5029
877.162	5029
877.29	5014
877.418	5033
877.546	5064
877.674	5052
877.802	4968
877.93	5060
878.058	4949
878.185	4885
878.313	4919
878.441	4923
878.568	4755
878.696	4854
878.824	4927
878.951	4957
879.079	5140
879.206	5277
879.333	5140
879.461	5037
879.588	4999
879.715	5136
879.842	5197
879.97	5003
880.097	4809
880.224	4786
880.351	4740
880.478	4850
880.605	4828
880.732	4812
880.859	5060
880.986	4908
881.112	4953
881.239	4763
881.366	4634
881.493	4603
881.619	4577
881.746	4668
881.872	4664
881.999	4683
882.125	4767
882.252	4809
882.378	4820
882.505	4987
882.631	4748
882.757	4687
882.883	4710
883.01	4767
883.136	4702
883.262	4599
883.388	4573
883.514	4774
883.64	4862
883.766	4771
883.892	4698
884.018	4706
884.143	4862
884.269	4991
884.395	4675
884.52	4637
884.646	4664
884.772	4641
884.897	4611
885.023	4694
885.148	4812
885.274	4892
885.399	4812
885.524	4706
885.65	4691
885.775	4763
885.9	4725
886.025	4881
886.15	4820
886.275	4675
886.4	4679
886.525	4698
886.65	4702
886.775	4672
886.9	4854
887.025	4999
887.149	4774
887.274	4653
887.399	4580
887.523	4577
887.648	4580
887.773	4569
887.897	4744
888.021	4786
888.146	4630
888.27	4824
888.395	4900
888.519	4774
888.643	4847
888.767	4858
888.891	4694
889.015	4626
889.139	4641
889.263	4588
889.387	4782
889.511	4835
889.635	4763
889.759	4691
889.883	4630
890.006	4740
890.13	4877
890.254	4637
890.377	4660
890.501	4527
890.624	4531
890.748	4599
890.871	4500
890.995	4413
891.118	4375
891.241	4527
891.364	4542
891.488	4664
891.611	4516
891.734	4527
891.857	4634
891.98	4592
892.103	4675
892.226	4615
892.349	4527
892.471	4424
892.594	4558
892.717	4603
892.839	4611
892.962	4603
893.085	4679
893.207	4626
893.33	4470
893.452	4462
893.575	4607
893.697	4561
893.819	4752
893.941	4793
894.064	4790
894.186	4558
894.308	4596
894.43	4725
894.552	4839
894.674	4736
894.796	4546
894.918	4580
895.04	4546
895.161	4675
895.283	4603
895.405	4565
895.526	4660
895.648	4698
895.769	4672
895.891	4790
896.012	4729
896.134	4774
896.255	4649
896.376	4622
896.498	4637
896.619	4679
896.74	4607
896.861	4645
896.982	4919
897.103	5083
897.224	4847
897.345	4786
897.466	4645
897.587	4752
897.708	4873
897.828	4740
897.949	4641
898.07	4519
898.19	4626
898.311	4774
898.431	4687
898.552	4774
898.672	4774
898.792	4786
898.913	4755
899.033	4618
899.153	4542
899.273	4367
899.393	4508
899.513	4542
899.633	4531
899.753	4523
899.873	4512
899.993	4535
900.113	4531
900.232	4565
900.352	4550
900.472	4466
900.591	4443
900.711	4466
900.83	4466
900.95	4588
901.069	4691
901.189	4558
901.308	4386
901.427	4303
901.546	4356
901.665	4432
901.784	4527
901.904	4383
902.023	4333
902.141	4207
902.26	4173
902.379	4284
902.498	4246
902.617	4246
902.735	4352
902.854	4402
902.973	4333
903.091	4177
903.21	4227
903.328	4325
903.446	4306
903.565	4246
903.683	4310
903.801	4280
903.919	4383
904.038	4402
904.156	4314
904.274	4402
904.392	4394
904.51	4421
904.627	4485
904.745	4580
904.863	4653
904.981	4428
905.098	4310
905.216	4379
905.334	4447
905.451	4386
905.569	4451
905.686	4512
905.803	4592
905.921	4383
906.038	4527
906.155	4462
906.272	4375
906.389	4466
906.506	4386
906.623	4383
906.74	4390
906.857	4303
906.974	4394
907.091	4546
907.208	4702
907.324	4611
907.441	4459
907.557	4325
907.674	4363
907.79	4314
907.907	4360
908.023	4489
908.139	4443
908.256	4413
908.372	4432
908.488	4440
908.604	4333
908.72	4284
908.836	4363
908.952	4356
909.068	4424
909.184	4584
909.3	4462
909.415	4565
909.531	4519
909.647	4341
909.762	4306
909.878	4348
909.993	4379
910.108	4432
910.224	4398
910.339	4470
910.454	4413
910.57	4383
910.685	4291
910.8	4611
910.915	4641
911.03	4485
911.145	4329
911.259	4341
911.374	4394
911.489	4291
911.604	4318
911.718	4169
911.833	4166
911.947	4109
912.062	4067
912.176	4249
912.291	4268
912.405	4177
912.519	4504
912.633	4478
912.748	4333
912.862	4306
912.976	4204
913.09	4074
913.204	4188
913.318	4314
913.431	4386
913.545	4379
913.659	4440
913.772	4379
913.886	4238
914	4257
914.113	4375
914.226	4405
914.34	4398
914.453	4249
914.566	4413
914.68	4299
914.793	4306
914.906	4181
915.019	4109
915.132	4044
915.245	4200
915.358	4188
915.47	4227
915.583	4284
915.696	4284
915.809	4402
915.921	4447
916.034	4265
916.146	4223
916.259	4249
916.371	4375
916.483	4375
916.595	4257
916.708	4348
916.82	4306
916.932	4337
917.044	4322
917.156	4310
917.268	4238
917.38	4227
917.491	4276
917.603	4322
917.715	4436
917.826	4390
917.938	4337
918.049	4265
918.161	4390
918.272	4535
918.384	4519
918.495	4432
918.606	4276
918.717	4211
918.828	4344
918.939	4363
919.05	4219
919.161	4284
919.272	4116
919.383	4215
919.494	4459
919.604	4596
919.715	4428
919.826	4322
919.936	4424
920.047	4512
920.157	4485
920.267	4733
920.378	4580
920.488	4466
920.598	4702
920.708	4870
920.818	4748
920.928	4774
921.038	4949
921.148	4885
921.258	4607
921.368	4573
921.477	4481
921.587	4478
921.697	4363
921.806	4542
921.916	4455
922.025	4207
922.134	4253
922.244	4230
922.353	4344
922.462	4166
922.571	4128
922.68	3956
922.789	3979
922.898	4032
923.007	3972
923.116	4055
923.224	4032
923.333	4067
923.442	3964
923.55	3994
923.659	4048
923.767	4120
923.876	4021
923.984	4093
924.092	3998
924.201	4055
924.309	4067
924.417	4109
924.525	4036
924.633	4112
924.741	4862
924.849	3926
924.956	4101
925.064	3964
925.172	3896
925.279	4010
925.387	4055
925.494	4059
925.602	4215
925.709	4150
925.816	4002
925.924	4135
926.031	4185
926.138	4181
926.245	4143
926.352	4116
926.459	4280
926.566	4344
926.673	4116
926.779	4093
926.886	4116
926.993	3964
927.099	3949
927.206	3956
927.312	3911
927.419	4071
927.525	4025
927.631	4105
927.737	3911
927.843	3934
927.95	3857
928.056	3922
928.162	4017
928.267	4067
928.373	4710
928.479	4120
928.585	3838
928.69	4040
928.796	4074
928.901	4006
929.007	3827
929.112	4032
929.218	4013
929.323	3922
929.428	3953
929.533	4112
929.638	3884
929.743	3941
929.848	4051
929.953	3979
930.058	3956
930.163	3816
930.267	3842
930.372	3987
930.477	3827
930.581	4093
930.685	3964
930.79	3831
930.894	3857
930.998	3846
931.103	4017
931.207	3671
931.311	3713
931.415	3671
931.519	3542
931.623	3564
