Data from test_V78500241_1070.txt Node
Date: Fri Mar 25 16:56:26 CST 2022
User: usil
Spectrometer: V785-0024
Trigger mode: 0
Integration Time (sec): 4.000000E-1
Scans to average: 1
Nonlinearity correction enabled: false
Boxcar width: 0
Storing dark spectrum: false
XAxis mode: Wavelengths
Number of Pixels in Spectrum: 1024
>>>>>Begin Spectral Data<<<<<
801.071	8031
801.214	8054
801.356	7906
801.499	7887
801.641	7856
801.783	7814
801.926	7890
802.068	7894
802.211	7898
802.353	7959
802.496	7849
802.638	7868
802.78	7917
802.923	7925
803.065	7879
803.208	7860
803.35	7928
803.492	8054
803.635	8157
803.777	8039
803.919	8096
804.061	8442
804.204	8123
804.346	7989
804.488	7967
804.63	8088
804.773	7986
804.915	8119
805.057	8263
805.199	8153
805.341	8202
805.483	8263
805.626	8157
805.768	8164
805.91	8180
806.052	8195
806.194	8084
806.336	8202
806.478	8134
806.62	8073
806.762	8134
806.904	8210
807.046	8476
807.188	8294
807.33	8332
807.472	8332
807.614	8081
807.756	8119
807.898	8024
808.04	7883
808.182	7902
808.324	7909
808.465	7925
808.607	8088
808.749	8187
808.891	8157
809.033	8248
809.174	8138
809.316	7944
809.458	8024
809.6	7955
809.741	7986
809.883	8100
810.025	8084
810.166	8081
810.308	8005
810.45	8012
810.591	7818
810.733	7651
810.875	7666
811.016	7510
811.158	7502
811.299	7582
811.441	7658
811.582	7613
811.724	7571
811.865	7537
812.007	7540
812.148	7548
812.29	7590
812.431	7731
812.573	7837
812.714	7951
812.855	8134
812.997	8191
813.138	8263
813.279	8183
813.421	8145
813.562	7951
813.703	7944
813.845	7746
813.986	7441
814.127	7255
814.268	7175
814.41	7217
814.551	7099
814.692	7198
814.833	7061
814.974	7076
815.115	7076
815.256	6897
815.397	6901
815.539	6935
815.68	6818
815.821	6779
815.962	6852
816.103	6795
816.244	6741
816.385	6662
816.526	6646
816.666	6460
816.807	6292
816.948	6410
817.089	6525
817.23	6452
817.371	6346
817.512	6380
817.653	6365
817.793	6357
817.934	6395
818.075	6467
818.216	6452
818.356	6418
818.497	6216
818.638	6163
818.778	6167
818.919	6110
819.06	6087
819.2	6270
819.341	6262
819.481	6315
819.622	6525
819.762	6745
819.903	6650
820.043	6612
820.184	6563
820.324	6585
820.465	6719
820.605	6650
820.746	6620
820.886	6486
821.026	6589
821.167	6646
821.307	6730
821.447	6688
821.588	6677
821.728	6555
821.868	6467
822.008	6323
822.149	6319
822.289	6285
822.429	6091
822.569	6057
822.709	6079
822.849	5908
822.99	5931
823.13	5939
823.27	5904
823.41	5783
823.55	5832
823.69	5783
823.83	5748
823.97	5642
824.11	5535
824.25	5490
824.389	5532
824.529	5543
824.669	5490
824.809	5608
824.949	5684
825.089	5573
825.228	5562
825.368	5372
825.508	5330
825.648	5337
825.787	5315
825.927	5322
826.067	5322
826.206	5345
826.346	5311
826.485	5368
826.625	5421
826.765	5554
826.904	5467
827.044	5193
827.183	5155
827.323	5071
827.462	5223
827.601	5189
827.741	5181
827.88	5220
828.02	5105
828.159	5181
828.298	5296
828.437	5364
828.577	5261
828.716	5467
828.855	5330
828.994	5090
829.134	5124
829.273	5204
829.412	5109
829.551	5048
829.69	5090
829.829	5204
829.968	5368
830.107	5284
830.246	5250
830.385	5136
830.524	5109
830.663	5056
830.802	4934
830.941	4877
831.08	4824
831.219	4953
831.357	4942
831.496	5124
831.635	4904
831.774	4790
831.913	4839
832.051	4687
832.19	4694
832.329	4812
832.467	4660
832.606	4645
832.744	4714
832.883	4698
833.022	4706
833.16	4805
833.299	4824
833.437	4801
833.576	4771
833.714	4843
833.852	4877
833.991	4889
834.129	4968
834.267	4908
834.406	4946
834.544	4976
834.682	4946
834.821	4961
834.959	5185
835.097	4968
835.235	5136
835.373	5014
835.511	5102
835.65	4991
835.788	5025
835.926	4854
836.064	4896
836.202	4881
836.34	5124
836.478	5208
836.615	5132
836.753	5216
836.891	5261
837.029	5269
837.167	5197
837.305	5162
837.443	5174
837.58	5064
837.718	5239
837.856	5201
837.993	5094
838.131	5208
838.269	5166
838.406	5185
838.544	5098
838.681	5018
838.819	4984
838.956	4923
839.094	4904
839.231	4942
839.369	5094
839.506	5387
839.643	5231
839.781	5083
839.918	4999
840.055	5113
840.193	5102
840.33	5102
840.467	5136
840.604	5216
840.742	5429
840.879	5075
841.016	5075
841.153	5151
841.29	5341
841.427	5357
841.564	5296
841.701	5341
841.838	5280
841.975	5212
842.112	5220
842.249	5105
842.385	5075
842.522	5326
842.659	5193
842.796	5132
842.933	5235
843.069	5113
843.206	5132
843.343	5265
843.479	5208
843.616	5212
843.752	5003
843.889	4980
844.025	5181
844.162	5010
844.298	5189
844.435	5048
844.571	5052
844.708	5159
844.844	5284
844.98	5353
845.117	5277
845.253	5079
845.389	5067
845.525	5155
845.661	5132
845.798	5018
845.934	5147
846.07	5003
846.206	5166
846.342	5231
846.478	5204
846.614	5045
846.75	4934
846.886	4904
847.022	5094
847.158	4965
847.294	5045
847.429	5079
847.565	5029
847.701	5258
847.837	4816
847.972	4820
848.108	4968
848.244	4904
848.379	4763
848.515	4660
848.65	4698
848.786	4733
848.921	4740
849.057	4858
849.192	4889
849.328	4752
849.463	4854
849.598	4793
849.734	4752
849.869	4668
850.004	4607
850.14	4630
850.275	4603
850.41	4535
850.545	4573
850.68	4630
850.815	4607
850.95	4607
851.085	4828
851.22	4736
851.355	4649
851.49	4622
851.625	4584
851.76	4622
851.895	4592
852.03	4565
852.165	4634
852.299	4691
852.434	4767
852.569	4748
852.703	4660
852.838	4850
852.973	4904
853.107	4835
853.242	4740
853.376	4679
853.511	4596
853.645	4634
853.78	4733
853.914	4714
854.048	4683
854.183	4607
854.317	4645
854.451	4805
854.585	4660
854.72	4599
854.854	4714
854.988	4603
855.122	4641
855.256	4546
855.39	4618
855.524	4736
855.658	4710
855.792	4683
855.926	4706
856.06	4748
856.194	4729
856.327	4653
856.461	4611
856.595	4565
856.729	4649
856.862	4721
856.996	4626
857.13	4698
857.263	4725
857.397	4771
857.53	4664
857.664	4710
857.797	4771
857.931	4755
858.064	4637
858.197	4672
858.331	4660
858.464	4611
858.597	4485
858.731	4615
858.864	4603
858.997	4599
859.13	4618
859.263	4596
859.396	4706
859.529	4588
859.662	4512
859.795	4493
859.928	4584
860.061	4729
860.194	4763
860.327	4577
860.46	4523
860.592	4717
860.725	4702
860.858	4733
860.99	4531
861.123	4481
861.256	4516
861.388	4588
861.521	5318
861.653	4493
861.786	4413
861.918	4436
862.05	4481
862.183	4512
862.315	4577
862.447	4634
862.58	4519
862.712	4367
862.844	4318
862.976	4447
863.108	4466
863.24	4847
863.372	4314
863.504	4394
863.636	4348
863.768	4462
863.9	4352
864.032	4344
864.164	4428
864.296	4443
864.428	4527
864.559	4538
864.691	4497
864.823	4470
864.954	4538
865.086	4470
865.217	4417
865.349	4413
865.48	4485
865.612	4455
865.743	4569
865.875	4497
866.006	4405
866.137	4436
866.269	4440
866.4	4360
866.531	4428
866.662	4337
866.793	4356
866.924	4383
867.055	4493
867.186	4451
867.317	4421
867.448	4363
867.579	4356
867.71	4375
867.841	4299
867.972	4523
868.103	4489
868.233	4436
868.364	4424
868.495	4485
868.625	4599
868.756	4774
868.886	4550
869.017	4584
869.147	4721
869.278	4733
869.408	4675
869.539	4554
869.669	4702
869.799	4634
869.929	4717
870.06	4706
870.19	4934
870.32	4847
870.45	4904
870.58	4953
870.71	5045
870.84	5067
870.97	4938
871.1	4850
871.23	5060
871.36	5121
871.489	4968
871.619	5071
871.749	5128
871.879	5083
872.008	5136
872.138	4999
872.267	4991
872.397	4793
872.526	4748
872.656	4725
872.785	4793
872.915	4908
873.044	5022
873.173	4900
873.303	4949
873.432	4942
873.561	4934
873.69	4831
873.819	4839
873.948	4889
874.077	4759
874.206	4714
874.335	4824
874.464	4911
874.593	5064
874.722	4885
874.851	5041
874.979	5029
875.108	5056
875.237	4904
875.365	4870
875.494	4866
875.623	4968
875.751	4805
875.88	4809
876.008	4953
876.136	5025
876.265	5109
876.393	5315
876.521	5242
876.65	5178
876.778	5147
876.906	5052
877.034	4991
877.162	5045
877.29	4949
877.418	5060
877.546	5041
877.674	5006
877.802	4980
877.93	4976
878.058	4885
878.185	4870
878.313	4957
878.441	4938
878.568	4778
878.696	4801
878.824	4930
878.951	4991
879.079	5128
879.206	5288
879.333	5136
879.461	4968
879.588	5003
879.715	5079
879.842	5235
879.97	5010
880.097	4843
880.224	4755
880.351	4828
880.478	4862
880.605	4752
880.732	4831
880.859	5075
880.986	4877
881.112	4965
881.239	4793
881.366	4733
881.493	4580
881.619	4603
881.746	4653
881.872	4683
881.999	4675
882.125	4710
882.252	4790
882.378	4881
882.505	5037
882.631	4801
882.757	4691
882.883	4771
883.01	4721
883.136	4656
883.262	4641
883.388	4656
883.514	4896
883.64	4900
883.766	4812
883.892	4717
884.018	4744
884.143	4968
884.269	5033
884.395	4740
884.52	4653
884.646	4687
884.772	4615
884.897	4569
885.023	4717
885.148	4862
885.274	4923
885.399	4850
885.524	4774
885.65	4717
885.775	4786
885.9	4721
886.025	4870
886.15	4797
886.275	4702
886.4	4698
886.525	4706
886.65	4725
886.775	4706
886.9	4953
887.025	5075
887.149	4820
887.274	4683
887.399	4611
887.523	4634
887.648	4622
887.773	4603
887.897	4793
888.021	4824
888.146	4725
888.27	4801
888.395	4938
888.519	4843
888.643	4854
888.767	4835
888.891	4679
889.015	4645
889.139	4672
889.263	4611
889.387	4820
889.511	4877
889.635	4812
889.759	4675
889.883	4675
890.006	4759
890.13	4854
890.254	4637
890.377	4694
890.501	4558
890.624	4478
890.748	4710
890.871	4535
890.995	4436
891.118	4405
891.241	4542
891.364	4584
891.488	4645
891.611	4527
891.734	4561
891.857	4641
891.98	4592
892.103	4668
892.226	4630
892.349	4542
892.471	4447
892.594	4558
892.717	4649
892.839	4607
892.962	4653
893.085	4634
893.207	4630
893.33	4485
893.452	4523
893.575	4725
893.697	4577
893.819	4793
893.941	4820
894.064	4812
894.186	4584
894.308	4569
894.43	4759
894.552	4839
894.674	4755
894.796	4588
894.918	4645
895.04	4561
895.161	4748
895.283	4714
895.405	4577
895.526	4656
895.648	4679
895.769	4683
895.891	4759
896.012	4774
896.134	4706
896.255	4687
896.376	4668
896.498	4649
896.619	4721
896.74	4592
896.861	4664
896.982	4873
897.103	5067
897.224	4866
897.345	4790
897.466	4672
897.587	4774
897.708	4847
897.828	4767
897.949	4706
898.07	4622
898.19	4721
898.311	4835
898.431	4672
898.552	4714
898.672	4809
898.792	4797
898.913	4706
899.033	4687
899.153	4500
899.273	4508
899.393	4443
899.513	4546
899.633	4561
899.753	4542
899.873	4527
899.993	4649
900.113	4538
900.232	4569
900.352	4554
900.472	4500
900.591	4398
900.711	4535
900.83	4478
900.95	4634
901.069	4691
901.189	4588
901.308	4352
901.427	4363
901.546	4371
901.665	4485
901.784	4561
901.904	4367
902.023	4360
902.141	4200
902.26	4211
902.379	4344
902.498	4276
902.617	4284
902.735	4386
902.854	4390
902.973	4379
903.091	4303
903.21	4234
903.328	4348
903.446	4295
903.565	4257
903.683	4360
903.801	4348
903.919	4428
904.038	4466
904.156	4337
904.274	4474
904.392	4447
904.51	4424
904.627	4535
904.745	4588
904.863	4653
904.981	4379
905.098	4325
905.216	4402
905.334	4447
905.451	4421
905.569	4402
905.686	4603
905.803	4535
905.921	4413
906.038	4584
906.155	4535
906.272	4421
906.389	4481
906.506	4413
906.623	4344
906.74	4451
906.857	4333
906.974	4417
907.091	4588
907.208	4656
907.324	4603
907.441	4554
907.557	4322
907.674	4394
907.79	4322
907.907	4398
908.023	4478
908.139	4466
908.256	4474
908.372	4497
908.488	4474
908.604	4367
908.72	4318
908.836	4398
908.952	4405
909.068	4527
909.184	4592
909.3	4466
909.415	4603
909.531	4618
909.647	4383
909.762	4390
909.878	4367
909.993	4405
910.108	4421
910.224	4451
910.339	4478
910.454	4432
910.57	4352
910.685	4356
910.8	4668
910.915	4607
911.03	4542
911.145	4356
911.259	4337
911.374	4394
911.489	4322
911.604	4310
911.718	4227
911.833	4230
911.947	4074
912.062	4029
912.176	4215
912.291	4257
912.405	4303
912.519	4440
912.633	4519
912.748	4352
912.862	4371
912.976	4230
913.09	4139
913.204	4230
913.318	4249
913.431	4337
913.545	4375
913.659	4470
913.772	4398
913.886	4261
914	4219
914.113	4379
914.226	4451
914.34	4440
914.453	4238
914.566	4436
914.68	4306
914.793	4325
914.906	4181
915.019	4101
915.132	4078
915.245	4192
915.358	4219
915.47	4303
915.583	4238
915.696	4306
915.809	4371
915.921	4455
916.034	4299
916.146	4249
916.259	4219
916.371	4394
916.483	4318
916.595	4306
916.708	4325
916.82	4310
916.932	4295
917.044	4325
917.156	4333
917.268	4257
917.38	4284
917.491	4318
917.603	4390
917.715	4481
917.826	4481
917.938	4390
918.049	4207
918.161	4443
918.272	4470
918.384	4569
918.495	4451
918.606	4356
918.717	4253
918.828	4352
918.939	4390
919.05	4234
919.161	4371
919.272	4128
919.383	4230
919.494	4440
919.604	4656
919.715	4443
919.826	4341
919.936	4443
920.047	4561
920.157	4500
920.267	4717
920.378	4634
920.488	4546
920.598	4748
920.708	4911
920.818	4786
920.928	4786
921.038	4949
921.148	4900
921.258	4649
921.368	4550
921.477	4508
921.587	4519
921.697	4386
921.806	4531
921.916	4459
922.025	4272
922.134	4284
922.244	4280
922.353	4337
922.462	4249
922.571	4139
922.68	4036
922.789	3968
922.898	4036
923.007	4010
923.116	4105
923.224	4036
923.333	4097
923.442	4051
923.55	3979
923.659	4032
923.767	4147
923.876	4040
923.984	4124
924.092	4013
924.201	4101
924.309	4071
924.417	4173
924.525	4025
924.633	4139
924.741	5041
924.849	3876
924.956	4150
925.064	3960
925.172	3934
925.279	3926
925.387	4074
925.494	4067
925.602	4249
925.709	4207
925.816	4112
925.924	4162
926.031	4215
926.138	4169
926.245	4200
926.352	4101
926.459	4299
926.566	4322
926.673	4169
926.779	4109
926.886	4105
926.993	4010
927.099	3930
927.206	3964
927.312	3960
927.419	4048
927.525	4044
927.631	4147
927.737	3960
927.843	3922
927.95	3865
928.056	3972
928.162	3987
928.267	4063
928.373	4679
928.479	4135
928.585	3884
928.69	4040
928.796	4074
928.901	3934
929.007	3884
929.112	4013
929.218	3998
929.323	3945
929.428	3983
929.533	4093
929.638	3915
929.743	4013
929.848	4040
929.953	4017
930.058	3941
930.163	3804
930.267	3827
930.372	3994
930.477	3842
930.581	4093
930.685	3949
930.79	3846
930.894	3873
930.998	3865
931.103	4036
931.207	3747
931.311	3698
931.415	3701
931.519	3561
931.623	3568
