Data from test_V78500241_2260.txt Node
Date: Fri Mar 25 17:04:43 CST 2022
User: usil
Spectrometer: V785-0024
Trigger mode: 0
Integration Time (sec): 4.000000E-1
Scans to average: 1
Nonlinearity correction enabled: false
Boxcar width: 0
Storing dark spectrum: false
XAxis mode: Wavelengths
Number of Pixels in Spectrum: 1024
>>>>>Begin Spectral Data<<<<<
801.071	8027
801.214	7978
801.356	7932
801.499	7913
801.641	7830
801.783	7913
801.926	8001
802.068	7978
802.211	8054
802.353	8081
802.496	7902
802.638	7909
802.78	7925
802.923	7989
803.065	7849
803.208	7909
803.35	7967
803.492	8096
803.635	8199
803.777	8088
803.919	8126
804.061	8457
804.204	8221
804.346	8157
804.488	8073
804.63	8130
804.773	8069
804.915	8119
805.057	8271
805.199	8084
805.341	8282
805.483	8301
805.626	8244
805.768	8183
805.91	8221
806.052	8191
806.194	8123
806.336	8358
806.478	8142
806.62	8149
806.762	8199
806.904	8244
807.046	8457
807.188	8389
807.33	8309
807.472	8431
807.614	8191
807.756	8221
807.898	8035
808.04	7925
808.182	7852
808.324	8001
808.465	7898
808.607	8077
808.749	8157
808.891	8237
809.033	8298
809.174	8210
809.316	8103
809.458	8069
809.6	8043
809.741	8058
809.883	8001
810.025	8096
810.166	8103
810.308	8027
810.45	8050
810.591	7871
810.733	7746
810.875	7696
811.016	7514
811.158	7510
811.299	7620
811.441	7753
811.582	7719
811.724	7616
811.865	7529
812.007	7597
812.148	7647
812.29	7639
812.431	7742
812.573	7917
812.714	7989
812.855	8172
812.997	8202
813.138	8275
813.279	8164
813.421	8119
813.562	7928
813.703	7898
813.845	7765
813.986	7449
814.127	7282
814.268	7274
814.41	7263
814.551	7247
814.692	7198
814.833	7141
814.974	7114
815.115	7137
815.256	7019
815.397	6954
815.539	6939
815.68	6863
815.821	6745
815.962	6890
816.103	6875
816.244	6719
816.385	6662
816.526	6616
816.666	6483
816.807	6319
816.948	6498
817.089	6483
817.23	6380
817.371	6441
817.512	6441
817.653	6395
817.793	6388
817.934	6437
818.075	6475
818.216	6475
818.356	6448
818.497	6357
818.638	6148
818.778	6152
818.919	6136
819.06	6159
819.2	6361
819.341	6361
819.481	6350
819.622	6578
819.762	6821
819.903	6707
820.043	6620
820.184	6601
820.324	6612
820.465	6738
820.605	6707
820.746	6696
820.886	6559
821.026	6696
821.167	6749
821.307	6818
821.447	6779
821.588	6692
821.728	6623
821.868	6620
822.008	6361
822.149	6388
822.289	6327
822.429	6186
822.569	6117
822.709	6136
822.849	5927
822.99	5866
823.13	5996
823.27	5954
823.41	5821
823.55	5756
823.69	5802
823.83	5756
823.97	5726
824.11	5596
824.25	5547
824.389	5562
824.529	5661
824.669	5558
824.809	5672
824.949	5676
825.089	5661
825.228	5581
825.368	5383
825.508	5357
825.648	5391
825.787	5345
825.927	5391
826.067	5296
826.206	5280
826.346	5471
826.485	5474
826.625	5357
826.765	5558
826.904	5512
827.044	5284
827.183	5204
827.323	5147
827.462	5288
827.601	5204
827.741	5201
827.88	5235
828.02	5083
828.159	5269
828.298	5334
828.437	5349
828.577	5277
828.716	5501
828.855	5395
828.994	5216
829.134	5185
829.273	5208
829.412	5185
829.551	5143
829.69	5140
829.829	5220
829.968	5410
830.107	5280
830.246	5280
830.385	5239
830.524	5143
830.663	5109
830.802	5014
830.941	4911
831.08	4900
831.219	4987
831.357	4987
831.496	5220
831.635	4987
831.774	4858
831.913	4854
832.051	4744
832.19	4797
832.329	4877
832.467	4725
832.606	4710
832.744	4752
832.883	4740
833.022	4691
833.16	4786
833.299	4828
833.437	4858
833.576	4896
833.714	4908
833.852	4889
833.991	4919
834.129	4976
834.267	4949
834.406	4930
834.544	5060
834.682	4995
834.821	4980
834.959	5181
835.097	5037
835.235	5159
835.373	5174
835.511	5109
835.65	5018
835.788	5056
835.926	4896
836.064	4889
836.202	4957
836.34	5220
836.478	5242
836.615	5159
836.753	5239
836.891	5296
837.029	5258
837.167	5235
837.305	5185
837.443	5117
837.58	5136
837.718	5246
837.856	5185
837.993	5170
838.131	5258
838.269	5220
838.406	5227
838.544	5197
838.681	5075
838.819	5045
838.956	4896
839.094	4911
839.231	4972
839.369	5105
839.506	5501
839.643	5353
839.781	5067
839.918	5014
840.055	5113
840.193	5102
840.33	5136
840.467	5121
840.604	5155
840.742	5410
840.879	5121
841.016	5094
841.153	5143
841.29	5360
841.427	5357
841.564	5311
841.701	5395
841.838	5280
841.975	5258
842.112	5292
842.249	5174
842.385	5105
842.522	5303
842.659	5223
842.796	5136
842.933	5197
843.069	5170
843.206	5170
843.343	5307
843.479	5193
843.616	5246
843.752	5014
843.889	5006
844.025	5250
844.162	5025
844.298	5189
844.435	5117
844.571	5045
844.708	5208
844.844	5303
844.98	5372
845.117	5322
845.253	5090
845.389	5075
845.525	5216
845.661	5159
845.798	5102
845.934	5109
846.07	5075
846.206	5193
846.342	5269
846.478	5261
846.614	5033
846.75	4991
846.886	4896
847.022	5166
847.158	5048
847.294	5048
847.429	5102
847.565	5064
847.701	5334
847.837	4866
847.972	4828
848.108	4953
848.244	4927
848.379	4778
848.515	4767
848.65	4767
848.786	4782
848.921	4793
849.057	4900
849.192	4915
849.328	4797
849.463	4870
849.598	4820
849.734	4805
849.869	4691
850.004	4603
850.14	4664
850.275	4611
850.41	4512
850.545	4550
850.68	4618
850.815	4599
850.95	4641
851.085	4805
851.22	4752
851.355	4725
851.49	4626
851.625	4607
851.76	4626
851.895	4535
852.03	4607
852.165	4664
852.299	4710
852.434	4778
852.569	4740
852.703	4805
852.838	4828
852.973	4904
853.107	4911
853.242	4679
853.376	4653
853.511	4546
853.645	4675
853.78	4843
853.914	4660
854.048	4694
854.183	4672
854.317	4740
854.451	4881
854.585	4660
854.72	4615
854.854	4778
854.988	4577
855.122	4653
855.256	4588
855.39	4611
855.524	4759
855.658	4736
855.792	4706
855.926	4714
856.06	4733
856.194	4801
856.327	4736
856.461	4656
856.595	4675
856.729	4649
856.862	4774
856.996	4721
857.13	4721
857.263	4782
857.397	4824
857.53	4611
857.664	4752
857.797	4801
857.931	4824
858.064	4714
858.197	4740
858.331	4637
858.464	4634
858.597	4493
858.731	4637
858.864	4660
858.997	4626
859.13	4664
859.263	4717
859.396	4687
859.529	4607
859.662	4577
859.795	4527
859.928	4664
860.061	4782
860.194	4774
860.327	4637
860.46	4603
860.592	4752
860.725	4687
860.858	4740
860.99	4554
861.123	4550
861.256	4481
861.388	4603
861.521	5360
861.653	4466
861.786	4428
861.918	4470
862.05	4497
862.183	4538
862.315	4637
862.447	4649
862.58	4558
862.712	4402
862.844	4398
862.976	4512
863.108	4478
863.24	4885
863.372	4333
863.504	4383
863.636	4459
863.768	4485
863.9	4421
864.032	4348
864.164	4398
864.296	4508
864.428	4535
864.559	4558
864.691	4478
864.823	4519
864.954	4489
865.086	4535
865.217	4485
865.349	4447
865.48	4409
865.612	4493
865.743	4653
865.875	4424
866.006	4462
866.137	4500
866.269	4443
866.4	4455
866.531	4367
866.662	4417
866.793	4459
866.924	4440
867.055	4459
867.186	4443
867.317	4398
867.448	4375
867.579	4432
867.71	4363
867.841	4344
867.972	4421
868.103	4481
868.233	4440
868.364	4440
868.495	4474
868.625	4656
868.756	4774
868.886	4584
869.017	4599
869.147	4744
869.278	4782
869.408	4710
869.539	4558
869.669	4702
869.799	4691
869.929	4774
870.06	4748
870.19	4976
870.32	4919
870.45	4934
870.58	4980
870.71	5102
870.84	5094
870.97	4934
871.1	4915
871.23	5147
871.36	5132
871.489	5071
871.619	5079
871.749	5041
871.879	5113
872.008	5151
872.138	5064
872.267	4980
872.397	4881
872.526	4805
872.656	4752
872.785	4790
872.915	4957
873.044	5022
873.173	4930
873.303	4953
873.432	4957
873.561	4961
873.69	4873
873.819	4843
873.948	4866
874.077	4816
874.206	4797
874.335	4850
874.464	4923
874.593	5079
874.722	4934
874.851	5117
874.979	5048
875.108	5010
875.237	4911
875.365	4908
875.494	4870
875.623	4984
875.751	4858
875.88	4889
876.008	4965
876.136	4999
876.265	5220
876.393	5383
876.521	5288
876.65	5235
876.778	5109
876.906	5109
877.034	5033
877.162	5064
877.29	5018
877.418	5048
877.546	5086
877.674	5060
877.802	5025
877.93	5033
878.058	4976
878.185	4889
878.313	4961
878.441	4995
878.568	4797
878.696	4870
878.824	4999
878.951	5025
879.079	5151
879.206	5299
879.333	5079
879.461	4930
879.588	4980
879.715	5086
879.842	5151
879.97	4984
880.097	4793
880.224	4675
880.351	4801
880.478	4809
880.605	4809
880.732	4854
880.859	5064
880.986	4809
881.112	4881
881.239	4725
881.366	4744
881.493	4611
881.619	4573
881.746	4641
881.872	4641
881.999	4645
882.125	4706
882.252	4809
882.378	4843
882.505	4999
882.631	4824
882.757	4641
882.883	4733
883.01	4717
883.136	4702
883.262	4596
883.388	4637
883.514	4858
883.64	4873
883.766	4793
883.892	4637
884.018	4805
884.143	4877
884.269	5025
884.395	4679
884.52	4668
884.646	4611
884.772	4565
884.897	4599
885.023	4672
885.148	4759
885.274	4870
885.399	4805
885.524	4752
885.65	4664
885.775	4714
885.9	4740
886.025	4866
886.15	4778
886.275	4694
886.4	4599
886.525	4717
886.65	4668
886.775	4710
886.9	4889
887.025	5041
887.149	4778
887.274	4645
887.399	4573
887.523	4603
887.648	4542
887.773	4565
887.897	4752
888.021	4755
888.146	4691
888.27	4816
888.395	4953
888.519	4782
888.643	4843
888.767	4854
888.891	4694
889.015	4592
889.139	4660
889.263	4588
889.387	4790
889.511	4858
889.635	4763
889.759	4645
889.883	4607
890.006	4721
890.13	4812
890.254	4611
890.377	4679
890.501	4542
890.624	4516
890.748	4645
890.871	4550
890.995	4398
891.118	4379
891.241	4527
891.364	4569
891.488	4615
891.611	4474
891.734	4535
891.857	4611
891.98	4565
892.103	4710
892.226	4538
892.349	4516
892.471	4356
892.594	4500
892.717	4592
892.839	4558
892.962	4580
893.085	4660
893.207	4596
893.33	4481
893.452	4489
893.575	4679
893.697	4558
893.819	4797
893.941	4790
894.064	4786
894.186	4577
894.308	4592
894.43	4698
894.552	4790
894.674	4778
894.796	4569
894.918	4546
895.04	4580
895.161	4649
895.283	4672
895.405	4554
895.526	4653
895.648	4729
895.769	4702
895.891	4721
896.012	4725
896.134	4702
896.255	4630
896.376	4588
896.498	4615
896.619	4675
896.74	4569
896.861	4637
896.982	4877
897.103	5060
897.224	4828
897.345	4748
897.466	4691
897.587	4717
897.708	4805
897.828	4740
897.949	4675
898.07	4588
898.19	4618
898.311	4889
898.431	4736
898.552	4736
898.672	4820
898.792	4782
898.913	4714
899.033	4649
899.153	4485
899.273	4421
899.393	4489
899.513	4500
899.633	4504
899.753	4569
899.873	4466
899.993	4546
900.113	4531
900.232	4592
900.352	4580
900.472	4455
900.591	4398
900.711	4508
900.83	4443
900.95	4573
901.069	4710
901.189	4565
901.308	4363
901.427	4299
901.546	4390
901.665	4485
901.784	4519
901.904	4379
902.023	4325
902.141	4173
902.26	4185
902.379	4303
902.498	4204
902.617	4257
902.735	4356
902.854	4348
902.973	4386
903.091	4223
903.21	4204
903.328	4310
903.446	4242
903.565	4287
903.683	4356
903.801	4238
903.919	4367
904.038	4417
904.156	4318
904.274	4409
904.392	4398
904.51	4424
904.627	4436
904.745	4554
904.863	4596
904.981	4413
905.098	4284
905.216	4394
905.334	4386
905.451	4466
905.569	4417
905.686	4523
905.803	4565
905.921	4379
906.038	4542
906.155	4451
906.272	4379
906.389	4489
906.506	4348
906.623	4371
906.74	4371
906.857	4287
906.974	4390
907.091	4550
907.208	4664
907.324	4565
907.441	4436
907.557	4348
907.674	4299
907.79	4310
907.907	4363
908.023	4489
908.139	4447
908.256	4409
908.372	4466
908.488	4466
908.604	4360
908.72	4325
908.836	4371
908.952	4291
909.068	4432
909.184	4535
909.3	4459
909.415	4565
909.531	4550
909.647	4367
909.762	4367
909.878	4337
909.993	4440
910.108	4409
910.224	4386
910.339	4474
910.454	4402
910.57	4383
910.685	4276
910.8	4615
910.915	4618
911.03	4466
911.145	4352
911.259	4295
911.374	4398
911.489	4284
911.604	4284
911.718	4223
911.833	4150
911.947	4116
912.062	4010
912.176	4196
912.291	4265
912.405	4257
912.519	4474
912.633	4523
912.748	4363
912.862	4253
912.976	4173
913.09	4101
913.204	4124
913.318	4223
913.431	4383
913.545	4383
913.659	4451
913.772	4360
913.886	4253
914	4200
914.113	4371
914.226	4443
914.34	4413
914.453	4238
914.566	4424
914.68	4333
914.793	4314
914.906	4131
915.019	4150
915.132	4082
915.245	4139
915.358	4223
915.47	4215
915.583	4257
915.696	4310
915.809	4303
915.921	4409
916.034	4242
916.146	4238
916.259	4200
916.371	4390
916.483	4322
916.595	4284
916.708	4371
916.82	4318
916.932	4314
917.044	4329
917.156	4344
917.268	4291
917.38	4272
917.491	4287
917.603	4337
917.715	4432
917.826	4432
917.938	4299
918.049	4253
918.161	4398
918.272	4527
918.384	4512
918.495	4462
918.606	4261
918.717	4257
918.828	4367
918.939	4383
919.05	4242
919.161	4284
919.272	4169
919.383	4249
919.494	4421
919.604	4573
919.715	4436
919.826	4360
919.936	4421
920.047	4531
920.157	4470
920.267	4694
920.378	4546
920.488	4485
920.598	4710
920.708	4850
920.818	4740
920.928	4736
921.038	4957
921.148	4961
921.258	4634
921.368	4527
921.477	4527
921.587	4459
921.697	4344
921.806	4558
921.916	4459
922.025	4268
922.134	4249
922.244	4227
922.353	4306
922.462	4090
922.571	4169
922.68	4017
922.789	3991
922.898	4032
923.007	3983
923.116	4071
923.224	4036
923.333	4067
923.442	3979
923.55	3922
923.659	4036
923.767	4116
923.876	4013
923.984	4135
924.092	3964
924.201	4101
924.309	4051
924.417	4128
924.525	4040
924.633	4097
924.741	5052
924.849	3934
924.956	4109
925.064	4002
925.172	3892
925.279	3907
925.387	4059
925.494	4055
925.602	4204
925.709	4162
925.816	4040
925.924	4124
926.031	4227
926.138	4162
926.245	4188
926.352	4105
926.459	4227
926.566	4295
926.673	4154
926.779	4013
926.886	4032
926.993	3915
927.099	3949
927.206	3941
927.312	3949
927.419	4036
927.525	4044
927.631	4071
927.737	3968
927.843	3934
927.95	3857
928.056	3934
928.162	3983
928.267	4029
928.373	4672
928.479	4101
928.585	3884
928.69	4017
928.796	4078
928.901	3930
929.007	3827
929.112	3994
929.218	3964
929.323	3975
929.428	3964
929.533	4067
929.638	3922
929.743	3975
929.848	4044
929.953	3994
930.058	3956
930.163	3781
930.267	3838
930.372	3964
930.477	3789
930.581	4074
930.685	3934
930.79	3823
930.894	3903
930.998	3850
931.103	4063
931.207	3717
931.311	3675
931.415	3637
931.519	3496
931.623	3549
