Data from test_V78500241_2682.txt Node
Date: Fri Mar 25 17:07:39 CST 2022
User: usil
Spectrometer: V785-0024
Trigger mode: 0
Integration Time (sec): 4.000000E-1
Scans to average: 1
Nonlinearity correction enabled: false
Boxcar width: 0
Storing dark spectrum: false
XAxis mode: Wavelengths
Number of Pixels in Spectrum: 1024
>>>>>Begin Spectral Data<<<<<
801.071	8008
801.214	7978
801.356	7830
801.499	7860
801.641	7803
801.783	7765
801.926	7993
802.068	7917
802.211	7944
802.353	7913
802.496	7864
802.638	7902
802.78	7894
802.923	7928
803.065	7864
803.208	7868
803.35	7959
803.492	8123
803.635	8069
803.777	8046
803.919	8191
804.061	8442
804.204	8195
804.346	8012
804.488	7978
804.63	8115
804.773	7989
804.915	8092
805.057	8282
805.199	8100
805.341	8221
805.483	8240
805.626	8199
805.768	8183
805.91	8259
806.052	8282
806.194	8161
806.336	8339
806.478	8081
806.62	8050
806.762	8123
806.904	8149
807.046	8442
807.188	8305
807.33	8233
807.472	8328
807.614	8161
807.756	8157
807.898	8027
808.04	7830
808.182	7913
808.324	7849
808.465	7959
808.607	8103
808.749	8126
808.891	8210
809.033	8298
809.174	8206
809.316	8065
809.458	8088
809.6	8027
809.741	8039
809.883	8054
810.025	8062
810.166	8111
810.308	8050
810.45	8050
810.591	7852
810.733	7693
810.875	7643
811.016	7495
811.158	7426
811.299	7651
811.441	7712
811.582	7670
811.724	7624
811.865	7480
812.007	7636
812.148	7632
812.29	7693
812.431	7750
812.573	7887
812.714	8012
812.855	8126
812.997	8252
813.138	8313
813.279	8119
813.421	8130
813.562	7982
813.703	7902
813.845	7769
813.986	7457
814.127	7244
814.268	7240
814.41	7202
814.551	7099
814.692	7202
814.833	7103
814.974	7099
815.115	7095
815.256	6985
815.397	6996
815.539	6878
815.68	6852
815.821	6795
815.962	6890
816.103	6848
816.244	6684
816.385	6585
816.526	6665
816.666	6498
816.807	6277
816.948	6471
817.089	6540
817.23	6441
817.371	6361
817.512	6395
817.653	6350
817.793	6327
817.934	6456
818.075	6433
818.216	6433
818.356	6441
818.497	6243
818.638	6144
818.778	6197
818.919	6186
819.06	6129
819.2	6285
819.341	6323
819.481	6376
819.622	6506
819.762	6738
819.903	6745
820.043	6547
820.184	6566
820.324	6559
820.465	6662
820.605	6681
820.746	6650
820.886	6521
821.026	6719
821.167	6669
821.307	6757
821.447	6772
821.588	6665
821.728	6547
821.868	6410
822.008	6311
822.149	6376
822.289	6403
822.429	6148
822.569	6098
822.709	6079
822.849	5946
822.99	5878
823.13	5961
823.27	5908
823.41	5779
823.55	5775
823.69	5844
823.83	5771
823.97	5653
824.11	5516
824.25	5471
824.389	5535
824.529	5634
824.669	5486
824.809	5630
824.949	5665
825.089	5604
825.228	5532
825.368	5391
825.508	5368
825.648	5349
825.787	5406
825.927	5391
826.067	5227
826.206	5258
826.346	5391
826.485	5425
826.625	5406
826.765	5512
826.904	5474
827.044	5235
827.183	5242
827.323	5197
827.462	5265
827.601	5132
827.741	5201
827.88	5208
828.02	5083
828.159	5197
828.298	5277
828.437	5357
828.577	5303
828.716	5436
828.855	5265
828.994	5174
829.134	5143
829.273	5193
829.412	5117
829.551	5117
829.69	5189
829.829	5208
829.968	5303
830.107	5220
830.246	5242
830.385	5174
830.524	5162
830.663	5090
830.802	4953
830.941	4911
831.08	4892
831.219	5010
831.357	4953
831.496	5094
831.635	4896
831.774	4793
831.913	4812
832.051	4774
832.19	4759
832.329	4870
832.467	4672
832.606	4626
832.744	4714
832.883	4725
833.022	4714
833.16	4809
833.299	4797
833.437	4854
833.576	4847
833.714	4816
833.852	4843
833.991	4911
834.129	4896
834.267	4908
834.406	4843
834.544	4934
834.682	4980
834.821	4999
834.959	5143
835.097	4946
835.235	5143
835.373	5052
835.511	5121
835.65	4976
835.788	5060
835.926	4911
836.064	4900
836.202	4908
836.34	5170
836.478	5239
836.615	5109
836.753	5223
836.891	5288
837.029	5197
837.167	5159
837.305	5147
837.443	5128
837.58	5025
837.718	5155
837.856	5193
837.993	5147
838.131	5261
838.269	5212
838.406	5162
838.544	5113
838.681	5067
838.819	5003
838.956	4870
839.094	4885
839.231	4949
839.369	5029
839.506	5391
839.643	5231
839.781	5025
839.918	5037
840.055	5143
840.193	5086
840.33	5083
840.467	5132
840.604	5212
840.742	5387
840.879	5090
841.016	5037
841.153	5102
841.29	5357
841.427	5360
841.564	5235
841.701	5357
841.838	5269
841.975	5227
842.112	5246
842.249	5124
842.385	5060
842.522	5337
842.659	5162
842.796	5147
842.933	5220
843.069	5143
843.206	5136
843.343	5280
843.479	5254
843.616	5235
843.752	5010
843.889	4999
844.025	5208
844.162	5003
844.298	5216
844.435	5090
844.571	5006
844.708	5208
844.844	5280
844.98	5379
845.117	5341
845.253	5162
845.389	5083
845.525	5204
845.661	5159
845.798	5037
845.934	5143
846.07	5033
846.206	5239
846.342	5307
846.478	5193
846.614	5010
846.75	4980
846.886	5003
847.022	5174
847.158	5045
847.294	5071
847.429	5121
847.565	5094
847.701	5357
847.837	4919
847.972	4835
848.108	5029
848.244	4976
848.379	4824
848.515	4710
848.65	4744
848.786	4763
848.921	4755
849.057	4889
849.192	4965
849.328	4824
849.463	4911
849.598	4797
849.734	4816
849.869	4748
850.004	4687
850.14	4691
850.275	4599
850.41	4588
850.545	4607
850.68	4672
850.815	4687
850.95	4653
851.085	4854
851.22	4809
851.355	4759
851.49	4653
851.625	4641
851.76	4710
851.895	4615
852.03	4554
852.165	4691
852.299	4786
852.434	4847
852.569	4744
852.703	4843
852.838	4866
852.973	4927
853.107	4927
853.242	4763
853.376	4725
853.511	4603
853.645	4702
853.78	4797
853.914	4710
854.048	4733
854.183	4675
854.317	4774
854.451	4873
854.585	4702
854.72	4683
854.854	4767
854.988	4664
855.122	4664
855.256	4618
855.39	4740
855.524	4835
855.658	4793
855.792	4733
855.926	4740
856.06	4797
856.194	4831
856.327	4744
856.461	4637
856.595	4656
856.729	4626
856.862	4763
856.996	4721
857.13	4774
857.263	4793
857.397	4843
857.53	4630
857.664	4778
857.797	4782
857.931	4797
858.064	4733
858.197	4793
858.331	4675
858.464	4675
858.597	4546
858.731	4637
858.864	4683
858.997	4561
859.13	4710
859.263	4660
859.396	4721
859.529	4618
859.662	4660
859.795	4558
859.928	4649
860.061	4797
860.194	4801
860.327	4668
860.46	4580
860.592	4721
860.725	4793
860.858	4714
860.99	4569
861.123	4523
861.256	4531
861.388	4550
861.521	5368
861.653	4542
861.786	4489
861.918	4455
862.05	4584
862.183	4558
862.315	4645
862.447	4691
862.58	4580
862.712	4455
862.844	4322
862.976	4455
863.108	4500
863.24	4782
863.372	4356
863.504	4428
863.636	4424
863.768	4531
863.9	4459
864.032	4394
864.164	4436
864.296	4504
864.428	4546
864.559	4611
864.691	4542
864.823	4527
864.954	4489
865.086	4542
865.217	4531
865.349	4478
865.48	4474
865.612	4542
865.743	4649
865.875	4523
866.006	4432
866.137	4535
866.269	4470
866.4	4443
866.531	4413
866.662	4451
866.793	4489
866.924	4432
867.055	4546
867.186	4523
867.317	4470
867.448	4383
867.579	4417
867.71	4409
867.841	4417
867.972	4527
868.103	4546
868.233	4470
868.364	4519
868.495	4504
868.625	4729
868.756	4759
868.886	4558
869.017	4653
869.147	4812
869.278	4782
869.408	4672
869.539	4683
869.669	4702
869.799	4733
869.929	4812
870.06	4748
870.19	4987
870.32	4934
870.45	4980
870.58	5052
870.71	5056
870.84	5204
870.97	4953
871.1	4957
871.23	5185
871.36	5140
871.489	5025
871.619	5155
871.749	5155
871.879	5128
872.008	5166
872.138	5067
872.267	4999
872.397	4915
872.526	4812
872.656	4740
872.785	4862
872.915	4999
873.044	5067
873.173	5006
873.303	5029
873.432	4999
873.561	4953
873.69	4877
873.819	4904
873.948	4961
874.077	4885
874.206	4801
874.335	4828
874.464	4968
874.593	5075
874.722	4968
874.851	5136
874.979	5136
875.108	5052
875.237	4942
875.365	4915
875.494	4877
875.623	5014
875.751	4904
875.88	4885
876.008	5033
876.136	5079
876.265	5204
876.393	5345
876.521	5231
876.65	5235
876.778	5174
876.906	5132
877.034	5052
877.162	5113
877.29	5029
877.418	5113
877.546	5048
877.674	5128
877.802	5064
877.93	5025
878.058	4968
878.185	4949
878.313	4987
878.441	4965
878.568	4835
878.696	4957
878.824	4961
878.951	5041
879.079	5193
879.206	5246
879.333	5181
879.461	4984
879.588	5056
879.715	5181
879.842	5250
879.97	5052
880.097	4835
880.224	4790
880.351	4812
880.478	4824
880.605	4850
880.732	4839
880.859	5121
880.986	4923
881.112	4942
881.239	4778
881.366	4725
881.493	4622
881.619	4618
881.746	4634
881.872	4687
881.999	4691
882.125	4744
882.252	4835
882.378	4820
882.505	4953
882.631	4828
882.757	4687
882.883	4710
883.01	4786
883.136	4710
883.262	4618
883.388	4641
883.514	4805
883.64	4930
883.766	4862
883.892	4729
884.018	4694
884.143	4934
884.269	5064
884.395	4645
884.52	4675
884.646	4683
884.772	4622
884.897	4569
885.023	4641
885.148	4816
885.274	4881
885.399	4809
885.524	4755
885.65	4717
885.775	4824
885.9	4725
886.025	4873
886.15	4797
886.275	4748
886.4	4668
886.525	4778
886.65	4729
886.775	4725
886.9	4927
887.025	5033
887.149	4885
887.274	4656
887.399	4599
887.523	4637
887.648	4592
887.773	4641
887.897	4774
888.021	4793
888.146	4683
888.27	4809
888.395	4911
888.519	4812
888.643	4862
888.767	4824
888.891	4683
889.015	4641
889.139	4656
889.263	4637
889.387	4740
889.511	4946
889.635	4854
889.759	4645
889.883	4641
890.006	4748
890.13	4854
890.254	4618
890.377	4668
890.501	4577
890.624	4519
890.748	4645
890.871	4554
890.995	4462
891.118	4371
891.241	4542
891.364	4542
891.488	4645
891.611	4519
891.734	4569
891.857	4660
891.98	4565
892.103	4675
892.226	4630
892.349	4558
892.471	4451
892.594	4538
892.717	4641
892.839	4592
892.962	4584
893.085	4641
893.207	4626
893.33	4489
893.452	4527
893.575	4653
893.697	4626
893.819	4839
893.941	4881
894.064	4797
894.186	4554
894.308	4546
894.43	4744
894.552	4850
894.674	4786
894.796	4599
894.918	4558
895.04	4577
895.161	4744
895.283	4660
895.405	4580
895.526	4656
895.648	4717
895.769	4691
895.891	4710
896.012	4812
896.134	4733
896.255	4675
896.376	4675
896.498	4672
896.619	4752
896.74	4653
896.861	4660
896.982	4934
897.103	5094
897.224	4824
897.345	4793
897.466	4683
897.587	4778
897.708	4854
897.828	4831
897.949	4691
898.07	4569
898.19	4618
898.311	4843
898.431	4698
898.552	4759
898.672	4866
898.792	4824
898.913	4801
899.033	4630
899.153	4504
899.273	4432
899.393	4523
899.513	4493
899.633	4599
899.753	4527
899.873	4500
899.993	4596
900.113	4546
900.232	4550
900.352	4535
900.472	4512
900.591	4405
900.711	4558
900.83	4470
900.95	4649
901.069	4691
901.189	4550
901.308	4390
901.427	4329
901.546	4386
901.665	4462
901.784	4523
901.904	4405
902.023	4371
902.141	4234
902.26	4173
902.379	4322
902.498	4257
902.617	4219
902.735	4375
902.854	4443
902.973	4356
903.091	4230
903.21	4204
903.328	4306
903.446	4276
903.565	4272
903.683	4363
903.801	4284
903.919	4413
904.038	4466
904.156	4333
904.274	4500
904.392	4428
904.51	4459
904.627	4535
904.745	4558
904.863	4618
904.981	4398
905.098	4314
905.216	4367
905.334	4421
905.451	4459
905.569	4493
905.686	4512
905.803	4611
905.921	4424
906.038	4538
906.155	4508
906.272	4398
906.389	4500
906.506	4375
906.623	4383
906.74	4398
906.857	4280
906.974	4398
907.091	4580
907.208	4641
907.324	4615
907.441	4497
907.557	4367
907.674	4356
907.79	4352
907.907	4398
908.023	4478
908.139	4466
908.256	4451
908.372	4497
908.488	4504
908.604	4383
908.72	4325
908.836	4371
908.952	4386
909.068	4432
909.184	4584
909.3	4455
909.415	4588
909.531	4596
909.647	4386
909.762	4424
909.878	4421
909.993	4424
910.108	4363
910.224	4402
910.339	4497
910.454	4421
910.57	4371
910.685	4318
910.8	4698
910.915	4626
911.03	4493
911.145	4322
911.259	4318
911.374	4394
911.489	4276
911.604	4306
911.718	4188
911.833	4219
911.947	4059
912.062	4044
912.176	4196
912.291	4276
912.405	4276
912.519	4466
912.633	4500
912.748	4356
912.862	4322
912.976	4219
913.09	4124
913.204	4246
913.318	4303
913.431	4383
913.545	4375
913.659	4405
913.772	4398
913.886	4268
914	4242
914.113	4383
914.226	4432
914.34	4447
914.453	4284
914.566	4478
914.68	4325
914.793	4356
914.906	4166
915.019	4196
915.132	4116
915.245	4162
915.358	4249
915.47	4268
915.583	4272
915.696	4322
915.809	4440
915.921	4485
916.034	4310
916.146	4295
916.259	4238
916.371	4405
916.483	4390
916.595	4265
916.708	4363
916.82	4371
916.932	4379
917.044	4390
917.156	4367
917.268	4310
917.38	4341
917.491	4318
917.603	4398
917.715	4455
917.826	4466
917.938	4398
918.049	4295
918.161	4413
918.272	4596
918.384	4592
918.495	4538
918.606	4325
918.717	4261
918.828	4360
918.939	4386
919.05	4276
919.161	4329
919.272	4207
919.383	4306
919.494	4451
919.604	4725
919.715	4493
919.826	4409
919.936	4417
920.047	4554
920.157	4542
920.267	4752
920.378	4538
920.488	4516
920.598	4755
920.708	4949
920.818	4790
920.928	4778
921.038	5006
921.148	4927
921.258	4698
921.368	4618
921.477	4523
921.587	4527
921.697	4424
921.806	4618
921.916	4489
922.025	4333
922.134	4306
922.244	4242
922.353	4383
922.462	4227
922.571	4177
922.68	4078
922.789	3994
922.898	4128
923.007	4040
923.116	4082
923.224	4109
923.333	4128
923.442	4036
923.55	4017
923.659	4067
923.767	4128
923.876	4059
923.984	4124
924.092	4055
924.201	4143
924.309	4124
924.417	4185
924.525	4135
924.633	4135
924.741	5102
924.849	3945
924.956	4169
925.064	4021
925.172	3915
925.279	3972
925.387	4097
925.494	4112
925.602	4280
925.709	4227
925.816	4055
925.924	4162
926.031	4227
926.138	4238
926.245	4207
926.352	4116
926.459	4318
926.566	4337
926.673	4215
926.779	4128
926.886	4150
926.993	3972
927.099	3983
927.206	3899
927.312	3979
927.419	4059
927.525	4086
927.631	4147
927.737	4010
927.843	3945
927.95	3880
928.056	3998
928.162	4029
928.267	4071
928.373	4641
928.479	4162
928.585	3945
928.69	4032
928.796	4112
928.901	3994
929.007	3934
929.112	4044
929.218	4017
929.323	3979
929.428	3983
929.533	4131
929.638	3975
929.743	3987
929.848	4059
929.953	4017
930.058	3968
930.163	3797
930.267	3880
930.372	4013
930.477	3880
930.581	4131
930.685	4013
930.79	3835
930.894	3888
930.998	3934
931.103	4017
931.207	3766
931.311	3759
931.415	3709
931.519	3545
931.623	3584
