Data from test_V78500241_924.txt Node
Date: Fri Mar 25 16:55:25 CST 2022
User: usil
Spectrometer: V785-0024
Trigger mode: 0
Integration Time (sec): 4.000000E-1
Scans to average: 1
Nonlinearity correction enabled: false
Boxcar width: 0
Storing dark spectrum: false
XAxis mode: Wavelengths
Number of Pixels in Spectrum: 1024
>>>>>Begin Spectral Data<<<<<
801.071	8046
801.214	8050
801.356	7868
801.499	7913
801.641	7830
801.783	7837
801.926	8001
802.068	7955
802.211	7947
802.353	7967
802.496	7879
802.638	7830
802.78	7894
802.923	7925
803.065	7902
803.208	7906
803.35	8058
803.492	8123
803.635	8172
803.777	7978
803.919	8069
804.061	8317
804.204	8115
804.346	8054
804.488	7986
804.63	8111
804.773	8016
804.915	8058
805.057	8240
805.199	8134
805.341	8202
805.483	8240
805.626	8168
805.768	8103
805.91	8229
806.052	8221
806.194	8069
806.336	8263
806.478	8119
806.62	8046
806.762	8191
806.904	8267
807.046	8423
807.188	8347
807.33	8286
807.472	8275
807.614	8199
807.756	8081
807.898	7959
808.04	7959
808.182	7959
808.324	7860
808.465	7902
808.607	8050
808.749	8069
808.891	8153
809.033	8347
809.174	8153
809.316	8084
809.458	8027
809.6	7989
809.741	8050
809.883	8050
810.025	8107
810.166	8050
810.308	7959
810.45	8027
810.591	7890
810.733	7776
810.875	7674
811.016	7514
811.158	7514
811.299	7537
811.441	7799
811.582	7685
811.724	7594
811.865	7491
812.007	7567
812.148	7525
812.29	7571
812.431	7674
812.573	7837
812.714	7974
812.855	8111
812.997	8176
813.138	8343
813.279	8134
813.421	8142
813.562	8024
813.703	7936
813.845	7799
813.986	7483
814.127	7289
814.268	7183
814.41	7160
814.551	7126
814.692	7198
814.833	7015
814.974	7107
815.115	7084
815.256	6943
815.397	6909
815.539	7000
815.68	6779
815.821	6802
815.962	6814
816.103	6802
816.244	6688
816.385	6642
816.526	6642
816.666	6471
816.807	6308
816.948	6479
817.089	6445
817.23	6445
817.371	6395
817.512	6369
817.653	6361
817.793	6410
817.934	6346
818.075	6414
818.216	6391
818.356	6319
818.497	6262
818.638	6064
818.778	6114
818.919	6129
819.06	6148
819.2	6338
819.341	6346
819.481	6403
819.622	6506
819.762	6650
819.903	6684
820.043	6555
820.184	6559
820.324	6460
820.465	6631
820.605	6688
820.746	6673
820.886	6467
821.026	6688
821.167	6646
821.307	6787
821.447	6764
821.588	6681
821.728	6612
821.868	6490
822.008	6338
822.149	6380
822.289	6353
822.429	6194
822.569	6129
822.709	6129
822.849	5882
822.99	5977
823.13	5931
823.27	5931
823.41	5821
823.55	5817
823.69	5794
823.83	5794
823.97	5661
824.11	5585
824.25	5512
824.389	5554
824.529	5627
824.669	5570
824.809	5649
824.949	5668
825.089	5619
825.228	5596
825.368	5395
825.508	5345
825.648	5322
825.787	5376
825.927	5391
826.067	5277
826.206	5303
826.346	5463
826.485	5448
826.625	5425
826.765	5581
826.904	5539
827.044	5277
827.183	5208
827.323	5132
827.462	5318
827.601	5265
827.741	5235
827.88	5254
828.02	5162
828.159	5242
828.298	5337
828.437	5417
828.577	5330
828.716	5512
828.855	5402
828.994	5170
829.134	5208
829.273	5201
829.412	5155
829.551	5136
829.69	5178
829.829	5299
829.968	5368
830.107	5341
830.246	5322
830.385	5181
830.524	5170
830.663	5064
830.802	4995
830.941	4938
831.08	4953
831.219	5006
831.357	4949
831.496	5185
831.635	4957
831.774	4843
831.913	4911
832.051	4767
832.19	4812
832.329	4847
832.467	4744
832.606	4706
832.744	4752
832.883	4733
833.022	4725
833.16	4862
833.299	4809
833.437	4862
833.576	4862
833.714	4870
833.852	4904
833.991	4896
834.129	5003
834.267	4980
834.406	4915
834.544	5037
834.682	4953
834.821	5006
834.959	5181
835.097	4987
835.235	5147
835.373	5102
835.511	5113
835.65	5075
835.788	5060
835.926	4930
836.064	4889
836.202	4938
836.34	5220
836.478	5258
836.615	5155
836.753	5235
836.891	5246
837.029	5242
837.167	5284
837.305	5197
837.443	5124
837.58	5121
837.718	5299
837.856	5223
837.993	5162
838.131	5273
838.269	5220
838.406	5231
838.544	5216
838.681	5071
838.819	5056
838.956	4923
839.094	4911
839.231	5006
839.369	5121
839.506	5414
839.643	5307
839.781	5056
839.918	5033
840.055	5094
840.193	5140
840.33	5105
840.467	5174
840.604	5193
840.742	5433
840.879	5113
841.016	5083
841.153	5155
841.29	5383
841.427	5387
841.564	5387
841.701	5402
841.838	5273
841.975	5246
842.112	5284
842.249	5178
842.385	5113
842.522	5376
842.659	5208
842.796	5162
842.933	5178
843.069	5166
843.206	5147
843.343	5334
843.479	5277
843.616	5303
843.752	5052
843.889	5018
844.025	5216
844.162	4987
844.298	5204
844.435	5056
844.571	5060
844.708	5216
844.844	5326
844.98	5299
845.117	5341
845.253	5159
845.389	5113
845.525	5185
845.661	5143
845.798	5071
845.934	5124
846.07	5075
846.206	5193
846.342	5269
846.478	5212
846.614	5006
846.75	4957
846.886	4965
847.022	5159
847.158	4991
847.294	5048
847.429	5086
847.565	5090
847.701	5330
847.837	4835
847.972	4790
848.108	4961
848.244	4968
848.379	4824
848.515	4744
848.65	4721
848.786	4786
848.921	4797
849.057	4889
849.192	4915
849.328	4873
849.463	4942
849.598	4793
849.734	4786
849.869	4733
850.004	4664
850.14	4679
850.275	4615
850.41	4523
850.545	4618
850.68	4599
850.815	4656
850.95	4634
851.085	4831
851.22	4782
851.355	4687
851.49	4660
851.625	4653
851.76	4698
851.895	4596
852.03	4584
852.165	4668
852.299	4706
852.434	4771
852.569	4733
852.703	4820
852.838	4877
852.973	4953
853.107	4911
853.242	4740
853.376	4664
853.511	4546
853.645	4634
853.78	4797
853.914	4721
854.048	4710
854.183	4664
854.317	4752
854.451	4870
854.585	4691
854.72	4622
854.854	4752
854.988	4611
855.122	4622
855.256	4577
855.39	4691
855.524	4778
855.658	4733
855.792	4710
855.926	4729
856.06	4736
856.194	4831
856.327	4706
856.461	4649
856.595	4675
856.729	4622
856.862	4778
856.996	4694
857.13	4767
857.263	4748
857.397	4809
857.53	4649
857.664	4748
857.797	4767
857.931	4771
858.064	4725
858.197	4752
858.331	4645
858.464	4611
858.597	4573
858.731	4645
858.864	4656
858.997	4607
859.13	4675
859.263	4660
859.396	4733
859.529	4599
859.662	4622
859.795	4565
859.928	4622
860.061	4767
860.194	4763
860.327	4588
860.46	4588
860.592	4725
860.725	4729
860.858	4717
860.99	4618
861.123	4516
861.256	4558
861.388	4577
861.521	5220
861.653	4466
861.786	4493
861.918	4440
862.05	4500
862.183	4554
862.315	4626
862.447	4675
862.58	4542
862.712	4440
862.844	4333
862.976	4493
863.108	4485
863.24	4786
863.372	4356
863.504	4394
863.636	4424
863.768	4443
863.9	4462
864.032	4367
864.164	4398
864.296	4466
864.428	4535
864.559	4603
864.691	4535
864.823	4535
864.954	4554
865.086	4527
865.217	4424
865.349	4447
865.48	4493
865.612	4504
865.743	4622
865.875	4504
866.006	4405
866.137	4432
866.269	4493
866.4	4417
866.531	4504
866.662	4409
866.793	4451
866.924	4409
867.055	4481
867.186	4459
867.317	4409
867.448	4398
867.579	4394
867.71	4417
867.841	4375
867.972	4462
868.103	4493
868.233	4500
868.364	4459
868.495	4455
868.625	4687
868.756	4752
868.886	4599
869.017	4668
869.147	4835
869.278	4778
869.408	4660
869.539	4668
869.669	4710
869.799	4706
869.929	4805
870.06	4729
870.19	4942
870.32	4889
870.45	4991
870.58	4980
870.71	5067
870.84	5086
870.97	4972
871.1	4866
871.23	5124
871.36	5121
871.489	5018
871.619	5048
871.749	5094
871.879	5178
872.008	5174
872.138	5113
872.267	4991
872.397	4820
872.526	4801
872.656	4717
872.785	4850
872.915	4976
873.044	4987
873.173	4923
873.303	4999
873.432	4919
873.561	4961
873.69	4877
873.819	4847
873.948	4900
874.077	4805
874.206	4801
874.335	4778
874.464	4934
874.593	5048
874.722	5006
874.851	5113
874.979	5071
875.108	5086
875.237	4889
875.365	4831
875.494	4896
875.623	4968
875.751	4839
875.88	4900
876.008	4976
876.136	5010
876.265	5250
876.393	5299
876.521	5201
876.65	5250
876.778	5090
876.906	5041
877.034	5045
877.162	5109
877.29	5018
877.418	5121
877.546	5071
877.674	5018
877.802	5048
877.93	5025
878.058	4930
878.185	4885
878.313	4965
878.441	4930
878.568	4828
878.696	4870
878.824	4980
878.951	5045
879.079	5166
879.206	5288
879.333	5094
879.461	4995
879.588	5014
879.715	5162
879.842	5235
879.97	5022
880.097	4752
880.224	4778
880.351	4828
880.478	4847
880.605	4771
880.732	4786
880.859	5075
880.986	4870
881.112	4835
881.239	4740
881.366	4714
881.493	4630
881.619	4592
881.746	4637
881.872	4641
881.999	4679
882.125	4706
882.252	4790
882.378	4843
882.505	4946
882.631	4816
882.757	4710
882.883	4763
883.01	4736
883.136	4679
883.262	4577
883.388	4599
883.514	4873
883.64	4892
883.766	4774
883.892	4668
884.018	4702
884.143	4892
884.269	5025
884.395	4653
884.52	4607
884.646	4649
884.772	4634
884.897	4550
885.023	4653
885.148	4774
885.274	4835
885.399	4824
885.524	4733
885.65	4687
885.775	4729
885.9	4698
886.025	4858
886.15	4771
886.275	4725
886.4	4637
886.525	4714
886.65	4725
886.775	4683
886.9	4904
887.025	5048
887.149	4763
887.274	4649
887.399	4565
887.523	4569
887.648	4573
887.773	4599
887.897	4729
888.021	4771
888.146	4721
888.27	4805
888.395	4923
888.519	4790
888.643	4812
888.767	4831
888.891	4634
889.015	4649
889.139	4683
889.263	4660
889.387	4771
889.511	4854
889.635	4843
889.759	4615
889.883	4649
890.006	4725
890.13	4850
890.254	4603
890.377	4710
890.501	4558
890.624	4531
890.748	4637
890.871	4592
890.995	4398
891.118	4417
891.241	4519
891.364	4508
891.488	4653
891.611	4519
891.734	4535
891.857	4588
891.98	4550
892.103	4641
892.226	4603
892.349	4516
892.471	4424
892.594	4527
892.717	4599
892.839	4546
892.962	4596
893.085	4675
893.207	4588
893.33	4417
893.452	4500
893.575	4698
893.697	4565
893.819	4828
893.941	4828
894.064	4771
894.186	4573
894.308	4565
894.43	4744
894.552	4831
894.674	4782
894.796	4569
894.918	4592
895.04	4558
895.161	4656
895.283	4615
895.405	4618
895.526	4649
895.648	4698
895.769	4660
895.891	4733
896.012	4698
896.134	4694
896.255	4660
896.376	4588
896.498	4634
896.619	4660
896.74	4630
896.861	4630
896.982	4911
897.103	5048
897.224	4820
897.345	4710
897.466	4626
897.587	4748
897.708	4820
897.828	4805
897.949	4687
898.07	4565
898.19	4630
898.311	4793
898.431	4649
898.552	4729
898.672	4816
898.792	4778
898.913	4759
899.033	4622
899.153	4508
899.273	4443
899.393	4519
899.513	4459
899.633	4516
899.753	4470
899.873	4527
899.993	4596
900.113	4493
900.232	4611
900.352	4531
900.472	4478
900.591	4417
900.711	4504
900.83	4474
900.95	4607
901.069	4668
901.189	4508
901.308	4344
901.427	4322
901.546	4352
901.665	4470
901.784	4481
901.904	4390
902.023	4299
902.141	4204
902.26	4143
902.379	4322
902.498	4215
902.617	4219
902.735	4379
902.854	4333
902.973	4337
903.091	4188
903.21	4215
903.328	4314
903.446	4310
903.565	4253
903.683	4390
903.801	4280
903.919	4386
904.038	4417
904.156	4295
904.274	4436
904.392	4379
904.51	4428
904.627	4466
904.745	4615
904.863	4641
904.981	4398
905.098	4291
905.216	4432
905.334	4443
905.451	4417
905.569	4443
905.686	4550
905.803	4550
905.921	4443
906.038	4580
906.155	4493
906.272	4417
906.389	4432
906.506	4322
906.623	4405
906.74	4371
906.857	4287
906.974	4363
907.091	4554
907.208	4653
907.324	4592
907.441	4489
907.557	4360
907.674	4348
907.79	4284
907.907	4367
908.023	4489
908.139	4504
908.256	4428
908.372	4451
908.488	4459
908.604	4341
908.72	4325
908.836	4356
908.952	4375
909.068	4478
909.184	4558
909.3	4466
909.415	4569
909.531	4573
909.647	4352
909.762	4360
909.878	4383
909.993	4440
910.108	4447
910.224	4451
910.339	4470
910.454	4421
910.57	4322
910.685	4284
910.8	4706
910.915	4580
911.03	4497
911.145	4322
911.259	4310
911.374	4356
911.489	4299
911.604	4230
911.718	4162
911.833	4185
911.947	4086
912.062	4032
912.176	4181
912.291	4204
912.405	4211
912.519	4481
912.633	4485
912.748	4325
912.862	4299
912.976	4188
913.09	4116
913.204	4181
913.318	4265
913.431	4363
913.545	4318
913.659	4447
913.772	4398
913.886	4238
914	4238
914.113	4314
914.226	4432
914.34	4436
914.453	4268
914.566	4428
914.68	4295
914.793	4318
914.906	4181
915.019	4116
915.132	4078
915.245	4200
915.358	4162
915.47	4242
915.583	4268
915.696	4291
915.809	4383
915.921	4436
916.034	4284
916.146	4287
916.259	4207
916.371	4394
916.483	4303
916.595	4306
916.708	4318
916.82	4280
916.932	4337
917.044	4344
917.156	4325
917.268	4215
917.38	4287
917.491	4215
917.603	4325
917.715	4402
917.826	4402
917.938	4360
918.049	4253
918.161	4405
918.272	4519
918.384	4573
918.495	4447
918.606	4322
918.717	4223
918.828	4318
918.939	4386
919.05	4246
919.161	4299
919.272	4150
919.383	4238
919.494	4424
919.604	4592
919.715	4413
919.826	4333
919.936	4417
920.047	4474
920.157	4485
920.267	4710
920.378	4500
920.488	4459
920.598	4710
920.708	4892
920.818	4767
920.928	4774
921.038	4896
921.148	4889
921.258	4645
921.368	4550
921.477	4504
921.587	4455
921.697	4322
921.806	4535
921.916	4451
922.025	4238
922.134	4253
922.244	4196
922.353	4299
922.462	4196
922.571	4109
922.68	4021
922.789	3998
922.898	4051
923.007	4010
923.116	4093
923.224	4067
923.333	4036
923.442	3983
923.55	3937
923.659	4051
923.767	4093
923.876	3998
923.984	4147
924.092	3956
924.201	4078
924.309	4131
924.417	4128
924.525	4044
924.633	4086
924.741	4881
924.849	3865
924.956	4101
925.064	3930
925.172	3949
925.279	3937
925.387	4048
925.494	4021
925.602	4219
925.709	4185
925.816	4044
925.924	4177
926.031	4211
926.138	4154
926.245	4238
926.352	4051
926.459	4223
926.566	4291
926.673	4128
926.779	4055
926.886	4078
926.993	3983
927.099	3968
927.206	3930
927.312	3979
927.419	4067
927.525	4048
927.631	4032
927.737	3964
927.843	3930
927.95	3869
928.056	3926
928.162	3991
928.267	4048
928.373	4558
928.479	4124
928.585	3884
928.69	4029
928.796	4067
928.901	3945
929.007	3846
929.112	3991
929.218	3968
929.323	3937
929.428	3937
929.533	4093
929.638	3915
929.743	3975
929.848	4013
929.953	3994
930.058	3884
930.163	3770
930.267	3778
930.372	3975
930.477	3804
930.581	4086
930.685	3922
930.79	3808
930.894	3857
930.998	3861
931.103	4002
931.207	3690
931.311	3709
931.415	3648
931.519	3526
931.623	3545
