Data from test_V78500241_627.txt Node
Date: Fri Mar 25 16:53:21 CST 2022
User: usil
Spectrometer: V785-0024
Trigger mode: 0
Integration Time (sec): 4.000000E-1
Scans to average: 1
Nonlinearity correction enabled: false
Boxcar width: 0
Storing dark spectrum: false
XAxis mode: Wavelengths
Number of Pixels in Spectrum: 1024
>>>>>Begin Spectral Data<<<<<
801.071	7978
801.214	8046
801.356	7860
801.499	7837
801.641	7852
801.783	7841
801.926	7970
802.068	7970
802.211	8008
802.353	7986
802.496	7936
802.638	7909
802.78	7978
802.923	7883
803.065	7849
803.208	7788
803.35	7951
803.492	8081
803.635	8191
803.777	8001
803.919	8119
804.061	8412
804.204	8084
804.346	7970
804.488	7936
804.63	8115
804.773	8031
804.915	8123
805.057	8347
805.199	8142
805.341	8172
805.483	8305
805.626	8225
805.768	8142
805.91	8221
806.052	8263
806.194	8123
806.336	8248
806.478	8103
806.62	8031
806.762	8119
806.904	8286
807.046	8438
807.188	8362
807.33	8282
807.472	8305
807.614	8176
807.756	8145
807.898	7963
808.04	7871
808.182	7906
808.324	7940
808.465	7970
808.607	8024
808.749	8111
808.891	8218
809.033	8263
809.174	8149
809.316	8054
809.458	8084
809.6	7989
809.741	8001
809.883	7970
810.025	8058
810.166	8001
810.308	7986
810.45	8027
810.591	7917
810.733	7696
810.875	7677
811.016	7533
811.158	7537
811.299	7632
811.441	7746
811.582	7677
811.724	7540
811.865	7495
812.007	7544
812.148	7571
812.29	7666
812.431	7712
812.573	7852
812.714	7967
812.855	8115
812.997	8244
813.138	8381
813.279	8252
813.421	8164
813.562	8012
813.703	7921
813.845	7731
813.986	7533
814.127	7247
814.268	7278
814.41	7190
814.551	7122
814.692	7187
814.833	7046
814.974	7076
815.115	7133
815.256	6935
815.397	6924
815.539	6993
815.68	6814
815.821	6768
815.962	6844
816.103	6829
816.244	6715
816.385	6597
816.526	6612
816.666	6475
816.807	6281
816.948	6384
817.089	6467
817.23	6418
817.371	6327
817.512	6372
817.653	6357
817.793	6338
817.934	6422
818.075	6452
818.216	6448
818.356	6471
818.497	6228
818.638	6083
818.778	6117
818.919	6155
819.06	6148
819.2	6296
819.341	6338
819.481	6433
819.622	6521
819.762	6764
819.903	6654
820.043	6547
820.184	6570
820.324	6559
820.465	6631
820.605	6574
820.746	6658
820.886	6517
821.026	6608
821.167	6734
821.307	6802
821.447	6757
821.588	6642
821.728	6623
821.868	6467
822.008	6338
822.149	6331
822.289	6365
822.429	6197
822.569	6091
822.709	6057
822.849	5863
822.99	5904
823.13	5923
823.27	5904
823.41	5775
823.55	5752
823.69	5760
823.83	5798
823.97	5684
824.11	5535
824.25	5482
824.389	5570
824.529	5551
824.669	5516
824.809	5608
824.949	5638
825.089	5615
825.228	5581
825.368	5372
825.508	5299
825.648	5364
825.787	5364
825.927	5368
826.067	5231
826.206	5261
826.346	5372
826.485	5402
826.625	5379
826.765	5562
826.904	5482
827.044	5235
827.183	5223
827.323	5128
827.462	5185
827.601	5132
827.741	5155
827.88	5208
828.02	5105
828.159	5201
828.298	5261
828.437	5349
828.577	5250
828.716	5471
828.855	5292
828.994	5174
829.134	5159
829.273	5170
829.412	5056
829.551	5132
829.69	5166
829.829	5193
829.968	5326
830.107	5227
830.246	5288
830.385	5151
830.524	5140
830.663	5067
830.802	4999
830.941	4877
831.08	4900
831.219	4972
831.357	4968
831.496	5174
831.635	4934
831.774	4809
831.913	4797
832.051	4729
832.19	4744
832.329	4847
832.467	4653
832.606	4603
832.744	4725
832.883	4721
833.022	4755
833.16	4828
833.299	4790
833.437	4786
833.576	4835
833.714	4839
833.852	4850
833.991	4908
834.129	4957
834.267	4938
834.406	4881
834.544	4942
834.682	4980
834.821	5014
834.959	5121
835.097	4972
835.235	5121
835.373	5098
835.511	5075
835.65	5052
835.788	5033
835.926	4889
836.064	4862
836.202	4900
836.34	5132
836.478	5242
836.615	5147
836.753	5189
836.891	5250
837.029	5223
837.167	5220
837.305	5117
837.443	5105
837.58	5022
837.718	5242
837.856	5181
837.993	5113
838.131	5261
838.269	5254
838.406	5220
838.544	5151
838.681	4991
838.819	5003
838.956	4858
839.094	4885
839.231	4908
839.369	5102
839.506	5433
839.643	5239
839.781	5010
839.918	5064
840.055	5128
840.193	5083
840.33	5086
840.467	5143
840.604	5159
840.742	5459
840.879	5140
841.016	5075
841.153	5140
841.29	5360
841.427	5372
841.564	5349
841.701	5307
841.838	5292
841.975	5235
842.112	5231
842.249	5174
842.385	5094
842.522	5341
842.659	5143
842.796	5193
842.933	5162
843.069	5147
843.206	5124
843.343	5277
843.479	5269
843.616	5280
843.752	5025
843.889	5033
844.025	5208
844.162	5056
844.298	5193
844.435	5075
844.571	5025
844.708	5250
844.844	5299
844.98	5349
845.117	5269
845.253	5147
845.389	5098
845.525	5181
845.661	5128
845.798	5090
845.934	5147
846.07	5033
846.206	5170
846.342	5269
846.478	5204
846.614	4995
846.75	4984
846.886	4984
847.022	5136
847.158	5071
847.294	5052
847.429	5124
847.565	5014
847.701	5341
847.837	4828
847.972	4812
848.108	4995
848.244	4946
848.379	4820
848.515	4710
848.65	4698
848.786	4725
848.921	4771
849.057	4885
849.192	4835
849.328	4790
849.463	4820
849.598	4786
849.734	4809
849.869	4698
850.004	4622
850.14	4630
850.275	4607
850.41	4565
850.545	4504
850.68	4637
850.815	4607
850.95	4561
851.085	4828
851.22	4786
851.355	4649
851.49	4668
851.625	4622
851.76	4626
851.895	4577
852.03	4538
852.165	4615
852.299	4679
852.434	4767
852.569	4698
852.703	4763
852.838	4835
852.973	4900
853.107	4923
853.242	4714
853.376	4664
853.511	4546
853.645	4645
853.78	4801
853.914	4702
854.048	4660
854.183	4649
854.317	4729
854.451	4805
854.585	4660
854.72	4554
854.854	4763
854.988	4611
855.122	4615
855.256	4531
855.39	4668
855.524	4733
855.658	4752
855.792	4714
855.926	4672
856.06	4725
856.194	4786
856.327	4679
856.461	4653
856.595	4615
856.729	4634
856.862	4771
856.996	4664
857.13	4702
857.263	4782
857.397	4816
857.53	4603
857.664	4672
857.797	4721
857.931	4790
858.064	4702
858.197	4725
858.331	4645
858.464	4580
858.597	4512
858.731	4656
858.864	4630
858.997	4622
859.13	4675
859.263	4683
859.396	4694
859.529	4588
859.662	4500
859.795	4527
859.928	4615
860.061	4744
860.194	4767
860.327	4573
860.46	4580
860.592	4687
860.725	4698
860.858	4736
860.99	4527
861.123	4478
861.256	4508
861.388	4580
861.521	5330
861.653	4485
861.786	4398
861.918	4474
862.05	4542
862.183	4512
862.315	4626
862.447	4694
862.58	4569
862.712	4341
862.844	4295
862.976	4466
863.108	4470
863.24	4835
863.372	4371
863.504	4398
863.636	4390
863.768	4489
863.9	4428
864.032	4367
864.164	4356
864.296	4459
864.428	4550
864.559	4565
864.691	4535
864.823	4478
864.954	4470
865.086	4519
865.217	4493
865.349	4390
865.48	4519
865.612	4485
865.743	4588
865.875	4440
866.006	4432
866.137	4462
866.269	4462
866.4	4462
866.531	4474
866.662	4428
866.793	4363
866.924	4436
867.055	4516
867.186	4466
867.317	4409
867.448	4383
867.579	4402
867.71	4375
867.841	4413
867.972	4424
868.103	4500
868.233	4428
868.364	4402
868.495	4538
868.625	4683
868.756	4736
868.886	4584
869.017	4592
869.147	4774
869.278	4778
869.408	4645
869.539	4672
869.669	4672
869.799	4649
869.929	4759
870.06	4740
870.19	4957
870.32	4934
870.45	4923
870.58	5003
870.71	5094
870.84	5048
870.97	4904
871.1	4915
871.23	5147
871.36	5090
871.489	4976
871.619	5132
871.749	5071
871.879	5132
872.008	5155
872.138	5041
872.267	4972
872.397	4831
872.526	4850
872.656	4721
872.785	4828
872.915	4972
873.044	5014
873.173	4915
873.303	5003
873.432	4949
873.561	4949
873.69	4873
873.819	4812
873.948	4949
874.077	4801
874.206	4740
874.335	4771
874.464	4904
874.593	5060
874.722	4938
874.851	5117
874.979	5025
875.108	5041
875.237	4908
875.365	4904
875.494	4900
875.623	4968
875.751	4835
875.88	4866
876.008	4972
876.136	5033
876.265	5170
876.393	5315
876.521	5265
876.65	5227
876.778	5136
876.906	5022
877.034	5010
877.162	5037
877.29	4965
877.418	5075
877.546	5060
877.674	5025
877.802	5086
877.93	5025
878.058	4942
878.185	4862
878.313	4972
878.441	4980
878.568	4847
878.696	4938
878.824	4938
878.951	4987
879.079	5121
879.206	5246
879.333	5075
879.461	4980
879.588	5029
879.715	5083
879.842	5197
879.97	5006
880.097	4771
880.224	4733
880.351	4763
880.478	4793
880.605	4755
880.732	4744
880.859	5071
880.986	4870
881.112	4896
881.239	4782
881.366	4675
881.493	4626
881.619	4580
881.746	4618
881.872	4634
881.999	4641
882.125	4668
882.252	4759
882.378	4809
882.505	4976
882.631	4839
882.757	4637
882.883	4759
883.01	4740
883.136	4668
883.262	4561
883.388	4577
883.514	4835
883.64	4839
883.766	4755
883.892	4656
884.018	4744
884.143	4896
884.269	5025
884.395	4637
884.52	4660
884.646	4634
884.772	4569
884.897	4607
885.023	4656
885.148	4831
885.274	4881
885.399	4805
885.524	4714
885.65	4691
885.775	4725
885.9	4759
886.025	4843
886.15	4828
886.275	4656
886.4	4611
886.525	4729
886.65	4683
886.775	4660
886.9	4934
887.025	5029
887.149	4805
887.274	4622
887.399	4599
887.523	4580
887.648	4546
887.773	4596
887.897	4774
888.021	4797
888.146	4710
888.27	4828
888.395	4904
888.519	4831
888.643	4816
888.767	4801
888.891	4668
889.015	4588
889.139	4649
889.263	4596
889.387	4782
889.511	4839
889.635	4782
889.759	4637
889.883	4618
890.006	4714
890.13	4847
890.254	4618
890.377	4656
890.501	4561
890.624	4558
890.748	4645
890.871	4527
890.995	4390
891.118	4375
891.241	4493
891.364	4561
891.488	4599
891.611	4508
891.734	4565
891.857	4626
891.98	4516
892.103	4607
892.226	4618
892.349	4554
892.471	4432
892.594	4569
892.717	4546
892.839	4584
892.962	4588
893.085	4645
893.207	4569
893.33	4508
893.452	4485
893.575	4687
893.697	4588
893.819	4763
893.941	4850
894.064	4790
894.186	4599
894.308	4603
894.43	4733
894.552	4835
894.674	4714
894.796	4584
894.918	4573
895.04	4546
895.161	4687
895.283	4664
895.405	4569
895.526	4588
895.648	4702
895.769	4649
895.891	4714
896.012	4771
896.134	4721
896.255	4691
896.376	4603
896.498	4660
896.619	4679
896.74	4618
896.861	4637
896.982	4919
897.103	5098
897.224	4831
897.345	4733
897.466	4653
897.587	4729
897.708	4862
897.828	4759
897.949	4660
898.07	4561
898.19	4622
898.311	4854
898.431	4710
898.552	4729
898.672	4850
898.792	4824
898.913	4736
899.033	4592
899.153	4561
899.273	4447
899.393	4474
899.513	4481
899.633	4519
899.753	4561
899.873	4512
899.993	4565
900.113	4538
900.232	4516
900.352	4504
900.472	4451
900.591	4413
900.711	4519
900.83	4421
900.95	4577
901.069	4698
901.189	4538
901.308	4383
901.427	4303
901.546	4405
901.665	4436
901.784	4523
901.904	4363
902.023	4329
902.141	4166
902.26	4185
902.379	4287
902.498	4242
902.617	4223
902.735	4356
902.854	4405
902.973	4348
903.091	4196
903.21	4204
903.328	4287
903.446	4219
903.565	4215
903.683	4367
903.801	4295
903.919	4383
904.038	4413
904.156	4341
904.274	4485
904.392	4402
904.51	4386
904.627	4481
904.745	4554
904.863	4698
904.981	4421
905.098	4268
905.216	4356
905.334	4375
905.451	4443
905.569	4409
905.686	4535
905.803	4558
905.921	4428
906.038	4554
906.155	4493
906.272	4455
906.389	4405
906.506	4341
906.623	4402
906.74	4421
906.857	4272
906.974	4386
907.091	4531
907.208	4694
907.324	4573
907.441	4489
907.557	4325
907.674	4337
907.79	4337
907.907	4386
908.023	4512
908.139	4516
908.256	4440
908.372	4459
908.488	4478
908.604	4379
908.72	4310
908.836	4443
908.952	4352
909.068	4459
909.184	4569
909.3	4508
909.415	4599
909.531	4596
909.647	4348
909.762	4360
909.878	4322
909.993	4504
910.108	4443
910.224	4421
910.339	4462
910.454	4432
910.57	4322
910.685	4303
910.8	4634
910.915	4577
911.03	4481
911.145	4344
911.259	4287
911.374	4379
911.489	4318
911.604	4265
911.718	4200
911.833	4204
911.947	4090
912.062	4006
912.176	4215
912.291	4234
912.405	4200
912.519	4428
912.633	4462
912.748	4363
912.862	4352
912.976	4227
913.09	4101
913.204	4173
913.318	4238
913.431	4344
913.545	4356
913.659	4428
913.772	4337
913.886	4227
914	4215
914.113	4443
914.226	4375
914.34	4383
914.453	4238
914.566	4428
914.68	4329
914.793	4329
914.906	4173
915.019	4154
915.132	4067
915.245	4204
915.358	4196
915.47	4223
915.583	4253
915.696	4272
915.809	4394
915.921	4417
916.034	4306
916.146	4265
916.259	4215
916.371	4398
916.483	4383
916.595	4287
916.708	4268
916.82	4306
916.932	4329
917.044	4322
917.156	4325
917.268	4227
917.38	4299
917.491	4284
917.603	4383
917.715	4390
917.826	4481
917.938	4409
918.049	4230
918.161	4360
918.272	4508
918.384	4523
918.495	4424
918.606	4295
918.717	4261
918.828	4318
918.939	4348
919.05	4280
919.161	4337
919.272	4150
919.383	4219
919.494	4424
919.604	4618
919.715	4432
919.826	4341
919.936	4356
920.047	4493
920.157	4497
920.267	4733
920.378	4599
920.488	4535
920.598	4672
920.708	4919
920.818	4736
920.928	4759
921.038	4949
921.148	4896
921.258	4637
921.368	4565
921.477	4512
921.587	4481
921.697	4386
921.806	4500
921.916	4432
922.025	4268
922.134	4268
922.244	4246
922.353	4303
922.462	4192
922.571	4185
922.68	4010
922.789	3949
922.898	3983
923.007	4013
923.116	4128
923.224	4082
923.333	4051
923.442	4040
923.55	3987
923.659	4021
923.767	4097
923.876	4044
923.984	4128
924.092	3998
924.201	4109
924.309	4101
924.417	4097
924.525	4090
924.633	4128
924.741	5045
924.849	3903
924.956	4116
925.064	3975
925.172	3899
925.279	3975
925.387	4067
925.494	4078
925.602	4215
925.709	4185
925.816	4071
925.924	4143
926.031	4192
926.138	4162
926.245	4219
926.352	4135
926.459	4280
926.566	4299
926.673	4158
926.779	4093
926.886	4063
926.993	3998
927.099	3941
927.206	3937
927.312	3915
927.419	4051
927.525	4006
927.631	4135
927.737	3945
927.843	3945
927.95	3774
928.056	3949
928.162	3987
928.267	4059
928.373	4698
928.479	4124
928.585	3892
928.69	4013
928.796	4017
928.901	3941
929.007	3816
929.112	4036
929.218	3949
929.323	3926
929.428	3979
929.533	4116
929.638	3869
929.743	3907
929.848	4044
929.953	3991
930.058	3934
930.163	3785
930.267	3823
930.372	3945
930.477	3846
930.581	4112
930.685	3945
930.79	3804
930.894	3861
930.998	3857
931.103	4032
931.207	3717
931.311	3690
931.415	3663
931.519	3545
931.623	3568
