Data from test_V78500241_2556.txt Node
Date: Fri Mar 25 17:06:46 CST 2022
User: usil
Spectrometer: V785-0024
Trigger mode: 0
Integration Time (sec): 4.000000E-1
Scans to average: 1
Nonlinearity correction enabled: false
Boxcar width: 0
Storing dark spectrum: false
XAxis mode: Wavelengths
Number of Pixels in Spectrum: 1024
>>>>>Begin Spectral Data<<<<<
801.071	8016
801.214	8008
801.356	7887
801.499	7864
801.641	7788
801.783	7841
801.926	7963
802.068	7959
802.211	8046
802.353	8016
802.496	7849
802.638	7978
802.78	7917
802.923	7890
803.065	7928
803.208	7917
803.35	7970
803.492	8153
803.635	8225
803.777	8073
803.919	8103
804.061	8454
804.204	8164
804.346	8157
804.488	7993
804.63	8138
804.773	8035
804.915	8168
805.057	8366
805.199	8157
805.341	8172
805.483	8229
805.626	8252
805.768	8248
805.91	8195
806.052	8294
806.194	8092
806.336	8309
806.478	8050
806.62	8027
806.762	8161
806.904	8187
807.046	8450
807.188	8374
807.33	8336
807.472	8317
807.614	8225
807.756	8168
807.898	8020
808.04	7856
808.182	7860
808.324	7875
808.465	7894
808.607	8096
808.749	8180
808.891	8221
809.033	8370
809.174	8248
809.316	8084
809.458	8062
809.6	8001
809.741	8039
809.883	8027
810.025	8111
810.166	8084
810.308	8050
810.45	8050
810.591	7913
810.733	7738
810.875	7670
811.016	7556
811.158	7468
811.299	7601
811.441	7708
811.582	7677
811.724	7571
811.865	7586
812.007	7700
812.148	7681
812.29	7655
812.431	7788
812.573	7944
812.714	7951
812.855	8119
812.997	8214
813.138	8305
813.279	8187
813.421	8096
813.562	8024
813.703	7898
813.845	7841
813.986	7453
814.127	7266
814.268	7251
814.41	7213
814.551	7228
814.692	7251
814.833	7141
814.974	7175
815.115	7194
815.256	6993
815.397	6973
815.539	6916
815.68	6856
815.821	6821
815.962	6871
816.103	6878
816.244	6749
816.385	6631
816.526	6688
816.666	6563
816.807	6372
816.948	6422
817.089	6471
817.23	6471
817.371	6372
817.512	6445
817.653	6346
817.793	6399
817.934	6391
818.075	6486
818.216	6403
818.356	6395
818.497	6251
818.638	6152
818.778	6186
818.919	6155
819.06	6239
819.2	6380
819.341	6308
819.481	6441
819.622	6536
819.762	6715
819.903	6745
820.043	6658
820.184	6608
820.324	6639
820.465	6726
820.605	6681
820.746	6620
820.886	6536
821.026	6707
821.167	6776
821.307	6806
821.447	6806
821.588	6730
821.728	6623
821.868	6506
822.008	6319
822.149	6410
822.289	6342
822.429	6144
822.569	6098
822.709	6220
822.849	6019
822.99	5977
823.13	5965
823.27	5939
823.41	5832
823.55	5828
823.69	5764
823.83	5840
823.97	5699
824.11	5539
824.25	5532
824.389	5562
824.529	5608
824.669	5547
824.809	5676
824.949	5691
825.089	5642
825.228	5551
825.368	5402
825.508	5364
825.648	5379
825.787	5398
825.927	5414
826.067	5284
826.206	5334
826.346	5410
826.485	5425
826.625	5471
826.765	5551
826.904	5486
827.044	5311
827.183	5242
827.323	5136
827.462	5341
827.601	5174
827.741	5204
827.88	5227
828.02	5132
828.159	5273
828.298	5315
828.437	5410
828.577	5265
828.716	5478
828.855	5322
828.994	5201
829.134	5170
829.273	5239
829.412	5201
829.551	5151
829.69	5189
829.829	5250
829.968	5337
830.107	5235
830.246	5288
830.385	5212
830.524	5162
830.663	5102
830.802	5010
830.941	4911
831.08	4885
831.219	4976
831.357	4995
831.496	5189
831.635	4927
831.774	4873
831.913	4797
832.051	4752
832.19	4744
832.329	4866
832.467	4698
832.606	4668
832.744	4774
832.883	4759
833.022	4740
833.16	4767
833.299	4809
833.437	4790
833.576	4873
833.714	4881
833.852	4881
833.991	4885
834.129	4999
834.267	4972
834.406	4892
834.544	5006
834.682	4968
834.821	4987
834.959	5151
835.097	4987
835.235	5189
835.373	5025
835.511	5083
835.65	5041
835.788	5018
835.926	4946
836.064	4896
836.202	4946
836.34	5174
836.478	5220
836.615	5151
836.753	5193
836.891	5288
837.029	5258
837.167	5147
837.305	5170
837.443	5166
837.58	5075
837.718	5284
837.856	5204
837.993	5166
838.131	5273
838.269	5231
838.406	5258
838.544	5185
838.681	5033
838.819	5022
838.956	4892
839.094	4889
839.231	5022
839.369	5075
839.506	5444
839.643	5280
839.781	5079
839.918	4987
840.055	5121
840.193	5117
840.33	5109
840.467	5124
840.604	5174
840.742	5417
840.879	5041
841.016	5086
841.153	5231
841.29	5368
841.427	5277
841.564	5273
841.701	5307
841.838	5277
841.975	5227
842.112	5250
842.249	5140
842.385	5094
842.522	5307
842.659	5170
842.796	5132
842.933	5166
843.069	5132
843.206	5166
843.343	5277
843.479	5231
843.616	5330
843.752	4999
843.889	5052
844.025	5231
844.162	5048
844.298	5166
844.435	5079
844.571	5048
844.708	5223
844.844	5303
844.98	5337
845.117	5330
845.253	5143
845.389	5083
845.525	5159
845.661	5174
845.798	5083
845.934	5162
846.07	5045
846.206	5220
846.342	5307
846.478	5181
846.614	5018
846.75	4949
846.886	4987
847.022	5083
847.158	5022
847.294	5060
847.429	5121
847.565	5006
847.701	5337
847.837	4877
847.972	4778
848.108	4942
848.244	4961
848.379	4771
848.515	4714
848.65	4714
848.786	4744
848.921	4793
849.057	4870
849.192	4873
849.328	4862
849.463	4843
849.598	4771
849.734	4759
849.869	4687
850.004	4588
850.14	4637
850.275	4607
850.41	4592
850.545	4615
850.68	4645
850.815	4630
850.95	4599
851.085	4870
851.22	4793
851.355	4691
851.49	4668
851.625	4641
851.76	4660
851.895	4592
852.03	4546
852.165	4698
852.299	4748
852.434	4763
852.569	4778
852.703	4778
852.838	4847
852.973	4965
853.107	4908
853.242	4725
853.376	4706
853.511	4577
853.645	4656
853.78	4828
853.914	4687
854.048	4714
854.183	4752
854.317	4714
854.451	4892
854.585	4672
854.72	4645
854.854	4790
854.988	4588
855.122	4675
855.256	4546
855.39	4679
855.524	4782
855.658	4759
855.792	4687
855.926	4797
856.06	4786
856.194	4858
856.327	4752
856.461	4599
856.595	4660
856.729	4672
856.862	4778
856.996	4698
857.13	4774
857.263	4752
857.397	4862
857.53	4687
857.664	4725
857.797	4812
857.931	4862
858.064	4733
858.197	4793
858.331	4653
858.464	4645
858.597	4588
858.731	4672
858.864	4656
858.997	4656
859.13	4672
859.263	4740
859.396	4759
859.529	4656
859.662	4611
859.795	4596
859.928	4645
860.061	4729
860.194	4828
860.327	4649
860.46	4622
860.592	4790
860.725	4752
860.858	4748
860.99	4641
861.123	4599
861.256	4550
861.388	4679
861.521	5398
861.653	4523
861.786	4523
861.918	4527
862.05	4580
862.183	4558
862.315	4607
862.447	4744
862.58	4607
862.712	4440
862.844	4386
862.976	4561
863.108	4531
863.24	4790
863.372	4344
863.504	4455
863.636	4485
863.768	4527
863.9	4459
864.032	4432
864.164	4474
864.296	4516
864.428	4588
864.559	4573
864.691	4580
864.823	4565
864.954	4493
865.086	4542
865.217	4485
865.349	4485
865.48	4508
865.612	4531
865.743	4664
865.875	4512
866.006	4428
866.137	4516
866.269	4443
866.4	4478
866.531	4455
866.662	4466
866.793	4470
866.924	4485
867.055	4485
867.186	4459
867.317	4451
867.448	4424
867.579	4421
867.71	4443
867.841	4390
867.972	4451
868.103	4462
868.233	4519
868.364	4500
868.495	4531
868.625	4729
868.756	4805
868.886	4580
869.017	4649
869.147	4824
869.278	4862
869.408	4736
869.539	4702
869.669	4725
869.799	4668
869.929	4782
870.06	4778
870.19	5014
870.32	4904
870.45	4995
870.58	5003
870.71	5147
870.84	5117
870.97	4942
871.1	4889
871.23	5155
871.36	5132
871.489	5037
871.619	5113
871.749	5162
871.879	5204
872.008	5185
872.138	5083
872.267	5029
872.397	4809
872.526	4801
872.656	4767
872.785	4824
872.915	5056
873.044	5071
873.173	4942
873.303	5022
873.432	5037
873.561	5033
873.69	4908
873.819	4885
873.948	4984
874.077	4885
874.206	4847
874.335	4850
874.464	4965
874.593	5067
874.722	4961
874.851	5140
874.979	5075
875.108	5075
875.237	4938
875.365	4900
875.494	4892
875.623	5064
875.751	4839
875.88	4942
876.008	5003
876.136	5052
876.265	5258
876.393	5379
876.521	5284
876.65	5250
876.778	5151
876.906	5140
877.034	5033
877.162	5079
877.29	5045
877.418	5090
877.546	5052
877.674	5075
877.802	5052
877.93	5025
878.058	5003
878.185	4915
878.313	5045
878.441	4987
878.568	4873
878.696	4938
878.824	4946
878.951	5075
879.079	5166
879.206	5364
879.333	5086
879.461	4999
879.588	5006
879.715	5113
879.842	5239
879.97	5003
880.097	4786
880.224	4755
880.351	4786
880.478	4896
880.605	4850
880.732	4797
880.859	5098
880.986	4965
881.112	4957
881.239	4809
881.366	4729
881.493	4641
881.619	4615
881.746	4679
881.872	4679
881.999	4672
882.125	4733
882.252	4790
882.378	4900
882.505	5003
882.631	4801
882.757	4702
882.883	4774
883.01	4733
883.136	4710
883.262	4615
883.388	4634
883.514	4870
883.64	4908
883.766	4793
883.892	4763
884.018	4828
884.143	4957
884.269	5083
884.395	4679
884.52	4634
884.646	4634
884.772	4653
884.897	4634
885.023	4687
885.148	4820
885.274	4961
885.399	4831
885.524	4763
885.65	4733
885.775	4733
885.9	4736
886.025	4866
886.15	4793
886.275	4706
886.4	4687
886.525	4721
886.65	4736
886.775	4702
886.9	4938
887.025	5064
887.149	4850
887.274	4668
887.399	4592
887.523	4675
887.648	4618
887.773	4649
887.897	4809
888.021	4755
888.146	4717
888.27	4839
888.395	4911
888.519	4862
888.643	4809
888.767	4854
888.891	4694
889.015	4634
889.139	4634
889.263	4641
889.387	4816
889.511	4927
889.635	4729
889.759	4645
889.883	4683
890.006	4755
890.13	4850
890.254	4668
890.377	4664
890.501	4554
890.624	4550
890.748	4641
890.871	4538
890.995	4462
891.118	4432
891.241	4542
891.364	4535
891.488	4641
891.611	4516
891.734	4584
891.857	4649
891.98	4535
892.103	4626
892.226	4637
892.349	4558
892.471	4428
892.594	4596
892.717	4618
892.839	4653
892.962	4615
893.085	4687
893.207	4626
893.33	4512
893.452	4565
893.575	4660
893.697	4580
893.819	4812
893.941	4858
894.064	4824
894.186	4584
894.308	4580
894.43	4744
894.552	4835
894.674	4824
894.796	4573
894.918	4611
895.04	4634
895.161	4725
895.283	4637
895.405	4588
895.526	4694
895.648	4687
895.769	4706
895.891	4691
896.012	4771
896.134	4740
896.255	4706
896.376	4683
896.498	4645
896.619	4710
896.74	4618
896.861	4664
896.982	4946
897.103	5140
897.224	4877
897.345	4790
897.466	4702
897.587	4774
897.708	4885
897.828	4793
897.949	4717
898.07	4573
898.19	4664
898.311	4877
898.431	4664
898.552	4763
898.672	4850
898.792	4850
898.913	4736
899.033	4641
899.153	4542
899.273	4470
899.393	4538
899.513	4561
899.633	4569
899.753	4531
899.873	4523
899.993	4618
900.113	4584
900.232	4596
900.352	4546
900.472	4546
900.591	4428
900.711	4561
900.83	4436
900.95	4679
901.069	4729
901.189	4558
901.308	4428
901.427	4329
901.546	4386
901.665	4497
901.784	4504
901.904	4379
902.023	4348
902.141	4211
902.26	4204
902.379	4337
902.498	4299
902.617	4268
902.735	4398
902.854	4405
902.973	4360
903.091	4242
903.21	4230
903.328	4306
903.446	4276
903.565	4299
903.683	4383
903.801	4329
903.919	4413
904.038	4413
904.156	4344
904.274	4436
904.392	4398
904.51	4455
904.627	4500
904.745	4596
904.863	4687
904.981	4428
905.098	4287
905.216	4363
905.334	4481
905.451	4478
905.569	4451
905.686	4558
905.803	4599
905.921	4390
906.038	4584
906.155	4512
906.272	4398
906.389	4500
906.506	4363
906.623	4371
906.74	4402
906.857	4337
906.974	4394
907.091	4611
907.208	4691
907.324	4584
907.441	4489
907.557	4352
907.674	4371
907.79	4344
907.907	4417
908.023	4504
908.139	4516
908.256	4447
908.372	4466
908.488	4440
908.604	4386
908.72	4360
908.836	4356
908.952	4402
909.068	4455
909.184	4565
909.3	4481
909.415	4607
909.531	4519
909.647	4405
909.762	4375
909.878	4390
909.993	4424
910.108	4451
910.224	4436
910.339	4485
910.454	4394
910.57	4371
910.685	4329
910.8	4630
910.915	4615
911.03	4493
911.145	4367
911.259	4363
911.374	4390
911.489	4318
911.604	4261
911.718	4162
911.833	4223
911.947	4112
912.062	4059
912.176	4246
912.291	4196
912.405	4242
912.519	4451
912.633	4500
912.748	4375
912.862	4291
912.976	4268
913.09	4082
913.204	4196
913.318	4265
913.431	4402
913.545	4356
913.659	4356
913.772	4363
913.886	4257
914	4246
914.113	4356
914.226	4413
914.34	4409
914.453	4238
914.566	4432
914.68	4325
914.793	4295
914.906	4196
915.019	4154
915.132	4082
915.245	4200
915.358	4207
915.47	4284
915.583	4207
915.696	4306
915.809	4485
915.921	4409
916.034	4257
916.146	4287
916.259	4211
916.371	4337
916.483	4367
916.595	4276
916.708	4341
916.82	4322
916.932	4310
917.044	4318
917.156	4337
917.268	4268
917.38	4344
917.491	4287
917.603	4363
917.715	4470
917.826	4424
917.938	4379
918.049	4265
918.161	4383
918.272	4573
918.384	4493
918.495	4523
918.606	4280
918.717	4215
918.828	4306
918.939	4383
919.05	4261
919.161	4341
919.272	4147
919.383	4200
919.494	4478
919.604	4630
919.715	4447
919.826	4314
919.936	4405
920.047	4508
920.157	4516
920.267	4721
920.378	4535
920.488	4478
920.598	4706
920.708	4847
920.818	4698
920.928	4782
921.038	4961
921.148	4870
921.258	4645
921.368	4512
921.477	4512
921.587	4470
921.697	4409
921.806	4542
921.916	4443
922.025	4265
922.134	4253
922.244	4147
922.353	4344
922.462	4196
922.571	4143
922.68	4032
922.789	3991
922.898	3998
923.007	4025
923.116	4097
923.224	4040
923.333	4093
923.442	3975
923.55	3956
923.659	4044
923.767	4109
923.876	3998
923.984	4124
924.092	4002
924.201	4090
924.309	4112
924.417	4097
924.525	4078
924.633	4109
924.741	5052
924.849	3964
924.956	4150
925.064	3994
925.172	3907
925.279	4006
925.387	4063
925.494	4093
925.602	4204
925.709	4185
925.816	4086
925.924	4162
926.031	4265
926.138	4242
926.245	4204
926.352	4120
926.459	4276
926.566	4291
926.673	4143
926.779	4063
926.886	4071
926.993	3964
927.099	3941
927.206	3964
927.312	3975
927.419	4040
927.525	4059
927.631	4150
927.737	3968
927.843	3964
927.95	3850
928.056	3960
928.162	3983
928.267	4063
928.373	4622
928.479	4139
928.585	3896
928.69	4013
928.796	4067
928.901	3937
929.007	3838
929.112	4029
929.218	3964
929.323	3975
929.428	3960
929.533	4078
929.638	3922
929.743	3968
929.848	4032
929.953	3987
930.058	3915
930.163	3781
930.267	3869
930.372	3975
930.477	3823
930.581	4055
930.685	3949
930.79	3861
930.894	3911
930.998	3835
931.103	4063
931.207	3717
931.311	3694
931.415	3705
931.519	3519
931.623	3530
