Data from test_V78500241_515.txt Node
Date: Fri Mar 25 16:52:35 CST 2022
User: usil
Spectrometer: V785-0024
Trigger mode: 0
Integration Time (sec): 4.000000E-1
Scans to average: 1
Nonlinearity correction enabled: false
Boxcar width: 0
Storing dark spectrum: false
XAxis mode: Wavelengths
Number of Pixels in Spectrum: 1024
>>>>>Begin Spectral Data<<<<<
801.071	7997
801.214	7970
801.356	7803
801.499	7871
801.641	7803
801.783	7856
801.926	8012
802.068	7978
802.211	8020
802.353	8062
802.496	7879
802.638	7849
802.78	7955
802.923	7868
803.065	7845
803.208	7841
803.35	7951
803.492	8096
803.635	8126
803.777	7955
803.919	8130
804.061	8385
804.204	8134
804.346	7978
804.488	8001
804.63	8043
804.773	7978
804.915	8115
805.057	8370
805.199	8142
805.341	8256
805.483	8229
805.626	8107
805.768	8024
805.91	8210
806.052	8123
806.194	8077
806.336	8279
806.478	8058
806.62	8054
806.762	8142
806.904	8218
807.046	8438
807.188	8248
807.33	8210
807.472	8157
807.614	8172
807.756	8084
807.898	8012
808.04	7841
808.182	7925
808.324	7875
808.465	7894
808.607	8016
808.749	8058
808.891	8180
809.033	8218
809.174	8161
809.316	8016
809.458	8088
809.6	7967
809.741	8020
809.883	8065
810.025	8054
810.166	8069
810.308	8012
810.45	7959
810.591	7898
810.733	7731
810.875	7658
811.016	7480
811.158	7483
811.299	7529
811.441	7704
811.582	7693
811.724	7567
811.865	7552
812.007	7571
812.148	7571
812.29	7567
812.431	7712
812.573	7921
812.714	7974
812.855	8115
812.997	8252
813.138	8366
813.279	8164
813.421	8134
813.562	8024
813.703	7902
813.845	7856
813.986	7476
814.127	7384
814.268	7331
814.41	7274
814.551	7217
814.692	7244
814.833	7080
814.974	7076
815.115	7099
815.256	6958
815.397	6947
815.539	6951
815.68	6814
815.821	6818
815.962	6878
816.103	6867
816.244	6776
816.385	6627
816.526	6612
816.666	6441
816.807	6308
816.948	6357
817.089	6433
817.23	6445
817.371	6399
817.512	6350
817.653	6403
817.793	6369
817.934	6445
818.075	6433
818.216	6388
818.356	6334
818.497	6201
818.638	6117
818.778	6121
818.919	6136
819.06	6209
819.2	6270
819.341	6331
819.481	6380
819.622	6467
819.762	6734
819.903	6696
820.043	6555
820.184	6532
820.324	6513
820.465	6662
820.605	6669
820.746	6578
820.886	6502
821.026	6662
821.167	6684
821.307	6745
821.447	6730
821.588	6612
821.728	6521
821.868	6513
822.008	6369
822.149	6372
822.289	6281
822.429	6171
822.569	6102
822.709	6087
822.849	5901
822.99	5851
823.13	5965
823.27	5904
823.41	5741
823.55	5798
823.69	5756
823.83	5760
823.97	5703
824.11	5505
824.25	5516
824.389	5589
824.529	5592
824.669	5528
824.809	5623
824.949	5653
825.089	5627
825.228	5558
825.368	5376
825.508	5364
825.648	5372
825.787	5345
825.927	5334
826.067	5296
826.206	5288
826.346	5372
826.485	5376
826.625	5402
826.765	5512
826.904	5436
827.044	5231
827.183	5170
827.323	5086
827.462	5242
827.601	5162
827.741	5178
827.88	5185
828.02	5128
828.159	5227
828.298	5273
828.437	5357
828.577	5277
828.716	5433
828.855	5341
828.994	5189
829.134	5136
829.273	5216
829.412	5132
829.551	5140
829.69	5159
829.829	5201
829.968	5299
830.107	5311
830.246	5273
830.385	5132
830.524	5136
830.663	5041
830.802	4934
830.941	4839
831.08	4854
831.219	4949
831.357	4972
831.496	5197
831.635	4949
831.774	4835
831.913	4809
832.051	4717
832.19	4752
832.329	4835
832.467	4645
832.606	4668
832.744	4664
832.883	4668
833.022	4694
833.16	4767
833.299	4831
833.437	4850
833.576	4847
833.714	4858
833.852	4847
833.991	4892
834.129	4957
834.267	4946
834.406	4873
834.544	4968
834.682	5010
834.821	4915
834.959	5143
835.097	4972
835.235	5094
835.373	5117
835.511	5083
835.65	5060
835.788	5029
835.926	4923
836.064	4908
836.202	4892
836.34	5151
836.478	5212
836.615	5132
836.753	5166
836.891	5265
837.029	5284
837.167	5212
837.305	5128
837.443	5140
837.58	5048
837.718	5208
837.856	5140
837.993	5098
838.131	5265
838.269	5204
838.406	5208
838.544	5174
838.681	4987
838.819	4995
838.956	4892
839.094	4953
839.231	4930
839.369	5052
839.506	5376
839.643	5265
839.781	5014
839.918	5048
840.055	5094
840.193	5079
840.33	5090
840.467	5105
840.604	5189
840.742	5425
840.879	5037
841.016	5121
841.153	5105
841.29	5379
841.427	5334
841.564	5307
841.701	5349
841.838	5280
841.975	5220
842.112	5250
842.249	5147
842.385	5102
842.522	5261
842.659	5147
842.796	5143
842.933	5174
843.069	5174
843.206	5193
843.343	5315
843.479	5208
843.616	5246
843.752	5056
843.889	5048
844.025	5193
844.162	5025
844.298	5181
844.435	5105
844.571	5048
844.708	5185
844.844	5307
844.98	5296
845.117	5296
845.253	5124
845.389	5064
845.525	5086
845.661	5105
845.798	5060
845.934	5136
846.07	5071
846.206	5212
846.342	5250
846.478	5193
846.614	4972
846.75	4961
846.886	4919
847.022	5136
847.158	5037
847.294	5067
847.429	5136
847.565	5102
847.701	5288
847.837	4820
847.972	4839
848.108	4953
848.244	4911
848.379	4771
848.515	4736
848.65	4706
848.786	4698
848.921	4786
849.057	4850
849.192	4949
849.328	4824
849.463	4805
849.598	4786
849.734	4736
849.869	4740
850.004	4611
850.14	4630
850.275	4592
850.41	4512
850.545	4565
850.68	4565
850.815	4630
850.95	4618
851.085	4847
851.22	4740
851.355	4664
851.49	4603
851.625	4607
851.76	4607
851.895	4542
852.03	4535
852.165	4641
852.299	4717
852.434	4812
852.569	4744
852.703	4774
852.838	4850
852.973	4949
853.107	4934
853.242	4702
853.376	4637
853.511	4588
853.645	4596
853.78	4850
853.914	4710
854.048	4649
854.183	4656
854.317	4725
854.451	4862
854.585	4702
854.72	4637
854.854	4824
854.988	4622
855.122	4603
855.256	4561
855.39	4668
855.524	4774
855.658	4714
855.792	4733
855.926	4748
856.06	4752
856.194	4828
856.327	4740
856.461	4626
856.595	4660
856.729	4675
856.862	4786
856.996	4759
857.13	4793
857.263	4790
857.397	4858
857.53	4744
857.664	4793
857.797	4820
857.931	4809
858.064	4725
858.197	4790
858.331	4706
858.464	4653
858.597	4554
858.731	4710
858.864	4725
858.997	4653
859.13	4683
859.263	4683
859.396	4706
859.529	4622
859.662	4580
859.795	4641
859.928	4656
860.061	4771
860.194	4824
860.327	4668
860.46	4649
860.592	4736
860.725	4736
860.858	4771
860.99	4626
861.123	4538
861.256	4531
861.388	4615
861.521	5486
861.653	4519
861.786	4462
861.918	4512
862.05	4550
862.183	4615
862.315	4656
862.447	4683
862.58	4592
862.712	4394
862.844	4390
862.976	4489
863.108	4443
863.24	4915
863.372	4367
863.504	4497
863.636	4436
863.768	4542
863.9	4504
864.032	4413
864.164	4451
864.296	4561
864.428	4596
864.559	4577
864.691	4588
864.823	4573
864.954	4523
865.086	4542
865.217	4443
865.349	4466
865.48	4493
865.612	4584
865.743	4641
865.875	4466
866.006	4474
866.137	4478
866.269	4489
866.4	4497
866.531	4432
866.662	4459
866.793	4519
866.924	4459
867.055	4481
867.186	4497
867.317	4478
867.448	4409
867.579	4436
867.71	4440
867.841	4432
867.972	4504
868.103	4485
868.233	4470
868.364	4497
868.495	4554
868.625	4683
868.756	4801
868.886	4569
869.017	4679
869.147	4774
869.278	4801
869.408	4740
869.539	4691
869.669	4721
869.799	4675
869.929	4793
870.06	4774
870.19	5003
870.32	4999
870.45	4965
870.58	5006
870.71	5117
870.84	5166
870.97	4976
871.1	4930
871.23	5170
871.36	5128
871.489	5022
871.619	5109
871.749	5117
871.879	5155
872.008	5216
872.138	5109
872.267	5033
872.397	4858
872.526	4831
872.656	4763
872.785	4839
872.915	5006
873.044	5056
873.173	4965
873.303	4976
873.432	4976
873.561	4987
873.69	4908
873.819	4870
873.948	4892
874.077	4866
874.206	4782
874.335	4812
874.464	4953
874.593	5102
874.722	4976
874.851	5162
874.979	5155
875.108	5079
875.237	4968
875.365	4908
875.494	4949
875.623	5045
875.751	4858
875.88	4923
876.008	4980
876.136	5041
876.265	5269
876.393	5353
876.521	5288
876.65	5265
876.778	5265
876.906	5109
877.034	5086
877.162	5056
877.29	4984
877.418	5071
877.546	5060
877.674	5064
877.802	5048
877.93	5037
878.058	4972
878.185	4938
878.313	5006
878.441	4957
878.568	4843
878.696	4873
878.824	5003
878.951	5014
879.079	5166
879.206	5357
879.333	5105
879.461	5003
879.588	5048
879.715	5159
879.842	5273
879.97	5041
880.097	4782
880.224	4801
880.351	4835
880.478	4850
880.605	4828
880.732	4831
880.859	5079
880.986	4946
881.112	4938
881.239	4873
881.366	4675
881.493	4687
881.619	4599
881.746	4660
881.872	4687
881.999	4649
882.125	4706
882.252	4843
882.378	4847
882.505	5071
882.631	4835
882.757	4675
882.883	4736
883.01	4748
883.136	4725
883.262	4596
883.388	4675
883.514	4820
883.64	4904
883.766	4828
883.892	4672
884.018	4721
884.143	4908
884.269	5022
884.395	4694
884.52	4645
884.646	4672
884.772	4630
884.897	4550
885.023	4672
885.148	4824
885.274	4873
885.399	4843
885.524	4752
885.65	4782
885.775	4790
885.9	4683
886.025	4923
886.15	4801
886.275	4736
886.4	4694
886.525	4748
886.65	4641
886.775	4714
886.9	4961
887.025	5037
887.149	4797
887.274	4660
887.399	4637
887.523	4664
887.648	4565
887.773	4622
887.897	4782
888.021	4816
888.146	4717
888.27	4873
888.395	4934
888.519	4866
888.643	4862
888.767	4835
888.891	4698
889.015	4641
889.139	4698
889.263	4630
889.387	4793
889.511	4858
889.635	4828
889.759	4672
889.883	4694
890.006	4755
890.13	4892
890.254	4618
890.377	4694
890.501	4554
890.624	4550
890.748	4645
890.871	4592
890.995	4478
891.118	4375
891.241	4611
891.364	4535
891.488	4702
891.611	4550
891.734	4596
891.857	4660
891.98	4630
892.103	4698
892.226	4641
892.349	4622
892.471	4436
892.594	4577
892.717	4626
892.839	4622
892.962	4603
893.085	4694
893.207	4637
893.33	4500
893.452	4504
893.575	4710
893.697	4634
893.819	4782
893.941	4896
894.064	4820
894.186	4611
894.308	4538
894.43	4763
894.552	4828
894.674	4816
894.796	4523
894.918	4637
895.04	4645
895.161	4759
895.283	4710
895.405	4645
895.526	4607
895.648	4687
895.769	4691
895.891	4771
896.012	4809
896.134	4752
896.255	4698
896.376	4679
896.498	4596
896.619	4710
896.74	4607
896.861	4668
896.982	4972
897.103	5064
897.224	4858
897.345	4767
897.466	4691
897.587	4740
897.708	4904
897.828	4839
897.949	4691
898.07	4603
898.19	4683
898.311	4870
898.431	4714
898.552	4755
898.672	4835
898.792	4801
898.913	4771
899.033	4660
899.153	4546
899.273	4466
899.393	4493
899.513	4523
899.633	4546
899.753	4554
899.873	4531
899.993	4622
900.113	4462
900.232	4607
900.352	4561
900.472	4542
900.591	4390
900.711	4466
900.83	4440
900.95	4641
901.069	4729
901.189	4599
901.308	4409
901.427	4318
901.546	4443
901.665	4497
901.784	4538
901.904	4386
902.023	4329
902.141	4215
902.26	4207
902.379	4337
902.498	4246
902.617	4257
902.735	4344
902.854	4398
902.973	4424
903.091	4268
903.21	4272
903.328	4383
903.446	4325
903.565	4306
903.683	4375
903.801	4306
903.919	4409
904.038	4405
904.156	4356
904.274	4470
904.392	4421
904.51	4440
904.627	4443
904.745	4573
904.863	4637
904.981	4421
905.098	4310
905.216	4428
905.334	4440
905.451	4527
905.569	4451
905.686	4565
905.803	4592
905.921	4478
906.038	4611
906.155	4519
906.272	4466
906.389	4497
906.506	4383
906.623	4443
906.74	4455
906.857	4303
906.974	4383
907.091	4630
907.208	4725
907.324	4622
907.441	4542
907.557	4375
907.674	4394
907.79	4344
907.907	4402
908.023	4493
908.139	4516
908.256	4474
908.372	4508
908.488	4489
908.604	4356
908.72	4325
908.836	4383
908.952	4402
909.068	4500
909.184	4592
909.3	4516
909.415	4645
909.531	4584
909.647	4337
909.762	4383
909.878	4329
909.993	4485
910.108	4428
910.224	4466
910.339	4447
910.454	4443
910.57	4375
910.685	4310
910.8	4656
910.915	4641
911.03	4550
911.145	4367
911.259	4348
911.374	4424
911.489	4314
911.604	4257
911.718	4158
911.833	4211
911.947	4090
912.062	4082
912.176	4246
912.291	4287
912.405	4204
912.519	4489
912.633	4493
912.748	4409
912.862	4333
912.976	4242
913.09	4173
913.204	4215
913.318	4261
913.431	4383
913.545	4394
913.659	4409
913.772	4390
913.886	4230
914	4272
914.113	4367
914.226	4451
914.34	4409
914.453	4303
914.566	4421
914.68	4383
914.793	4363
914.906	4135
915.019	4082
915.132	4105
915.245	4177
915.358	4238
915.47	4249
915.583	4268
915.696	4333
915.809	4413
915.921	4440
916.034	4253
916.146	4303
916.259	4188
916.371	4375
916.483	4386
916.595	4314
916.708	4303
916.82	4280
916.932	4344
917.044	4341
917.156	4371
917.268	4253
917.38	4306
917.491	4306
917.603	4341
917.715	4462
917.826	4447
917.938	4344
918.049	4242
918.161	4459
918.272	4580
918.384	4558
918.495	4474
918.606	4337
918.717	4291
918.828	4413
918.939	4394
919.05	4238
919.161	4371
919.272	4139
919.383	4249
919.494	4478
919.604	4664
919.715	4474
919.826	4363
919.936	4371
920.047	4569
920.157	4516
920.267	4694
920.378	4546
920.488	4535
920.598	4763
920.708	4946
920.818	4763
920.928	4812
921.038	5006
921.148	4870
921.258	4641
921.368	4577
921.477	4538
921.587	4459
921.697	4421
921.806	4527
921.916	4478
922.025	4257
922.134	4310
922.244	4246
922.353	4402
922.462	4211
922.571	4223
922.68	4063
922.789	4021
922.898	4051
923.007	4048
923.116	4093
923.224	4097
923.333	4143
923.442	4013
923.55	3994
923.659	4067
923.767	4131
923.876	4051
923.984	4185
924.092	4013
924.201	4109
924.309	4124
924.417	4169
924.525	4101
924.633	4185
924.741	5128
924.849	3987
924.956	4169
925.064	3983
925.172	3979
925.279	3983
925.387	4086
925.494	4067
925.602	4261
925.709	4215
925.816	4116
925.924	4169
926.031	4265
926.138	4211
926.245	4253
926.352	4139
926.459	4322
926.566	4322
926.673	4204
926.779	4139
926.886	4109
926.993	4040
927.099	3975
927.206	3987
927.312	3956
927.419	4067
927.525	4021
927.631	4116
927.737	4021
927.843	4021
927.95	3873
928.056	4021
928.162	4040
928.267	4128
928.373	4740
928.479	4181
928.585	3918
928.69	4029
928.796	4097
928.901	3991
929.007	3922
929.112	4048
929.218	3987
929.323	3960
929.428	4032
929.533	4128
929.638	3949
929.743	4036
929.848	4090
929.953	4086
930.058	3972
930.163	3808
930.267	3922
930.372	4044
930.477	3838
930.581	4169
930.685	3964
930.79	3945
930.894	3941
930.998	3854
931.103	4059
931.207	3793
931.311	3709
931.415	3713
931.519	3542
931.623	3587
