Data from test_V78500241_214.txt Node
Date: Fri Mar 25 16:50:29 CST 2022
User: usil
Spectrometer: V785-0024
Trigger mode: 0
Integration Time (sec): 4.000000E-1
Scans to average: 1
Nonlinearity correction enabled: false
Boxcar width: 0
Storing dark spectrum: false
XAxis mode: Wavelengths
Number of Pixels in Spectrum: 1024
>>>>>Begin Spectral Data<<<<<
801.071	8046
801.214	8024
801.356	7822
801.499	7849
801.641	7864
801.783	7807
801.926	8008
802.068	7944
802.211	7928
802.353	7940
802.496	7818
802.638	7913
802.78	7909
802.923	7917
803.065	7887
803.208	7841
803.35	8039
803.492	8092
803.635	8115
803.777	7982
803.919	8039
804.061	8396
804.204	8069
804.346	8073
804.488	7921
804.63	8062
804.773	7978
804.915	8031
805.057	8309
805.199	8100
805.341	8168
805.483	8294
805.626	8130
805.768	8084
805.91	8180
806.052	8138
806.194	8088
806.336	8290
806.478	8119
806.62	8005
806.762	8096
806.904	8259
807.046	8434
807.188	8324
807.33	8259
807.472	8259
807.614	8187
807.756	8130
807.898	7959
808.04	7970
808.182	7864
808.324	7928
808.465	8024
808.607	8092
808.749	8100
808.891	8294
809.033	8271
809.174	8271
809.316	8069
809.458	8039
809.6	8001
809.741	7967
809.883	8035
810.025	8123
810.166	8084
810.308	7986
810.45	7906
810.591	7841
810.733	7780
810.875	7624
811.016	7571
811.158	7518
811.299	7578
811.441	7689
811.582	7613
811.724	7586
811.865	7552
812.007	7628
812.148	7666
812.29	7582
812.431	7803
812.573	7890
812.714	8008
812.855	8100
812.997	8244
813.138	8298
813.279	8149
813.421	8134
813.562	8005
813.703	7887
813.845	7765
813.986	7472
814.127	7274
814.268	7251
814.41	7190
814.551	7175
814.692	7228
814.833	7103
814.974	7034
815.115	7145
815.256	6943
815.397	6901
815.539	7015
815.68	6886
815.821	6681
815.962	6818
816.103	6852
816.244	6650
816.385	6574
816.526	6627
816.666	6471
816.807	6350
816.948	6452
817.089	6437
817.23	6452
817.371	6372
817.512	6437
817.653	6395
817.793	6281
817.934	6410
818.075	6445
818.216	6365
818.356	6437
818.497	6224
818.638	6117
818.778	6098
818.919	6129
819.06	6136
819.2	6319
819.341	6273
819.481	6289
819.622	6517
819.762	6703
819.903	6608
820.043	6559
820.184	6566
820.324	6559
820.465	6665
820.605	6601
820.746	6627
820.886	6433
821.026	6665
821.167	6646
821.307	6791
821.447	6745
821.588	6612
821.728	6486
821.868	6517
822.008	6327
822.149	6388
822.289	6319
822.429	6140
822.569	6083
822.709	6121
822.849	5927
822.99	5882
823.13	5931
823.27	5950
823.41	5844
823.55	5737
823.69	5805
823.83	5790
823.97	5657
824.11	5566
824.25	5482
824.389	5558
824.529	5615
824.669	5482
824.809	5634
824.949	5688
825.089	5627
825.228	5570
825.368	5398
825.508	5364
825.648	5383
825.787	5322
825.927	5349
826.067	5303
826.206	5296
826.346	5368
826.485	5387
826.625	5433
826.765	5528
826.904	5474
827.044	5239
827.183	5185
827.323	5109
827.462	5242
827.601	5181
827.741	5193
827.88	5178
828.02	5128
828.159	5269
828.298	5277
828.437	5326
828.577	5307
828.716	5554
828.855	5357
828.994	5204
829.134	5128
829.273	5166
829.412	5151
829.551	5147
829.69	5189
829.829	5239
829.968	5387
830.107	5280
830.246	5269
830.385	5147
830.524	5197
830.663	5090
830.802	4995
830.941	4870
831.08	4862
831.219	4995
831.357	4984
831.496	5121
831.635	4911
831.774	4835
831.913	4816
832.051	4736
832.19	4721
832.329	4858
832.467	4668
832.606	4630
832.744	4752
832.883	4752
833.022	4706
833.16	4812
833.299	4805
833.437	4858
833.576	4854
833.714	4824
833.852	4885
833.991	4923
834.129	4961
834.267	4908
834.406	4900
834.544	5010
834.682	5003
834.821	4972
834.959	5143
835.097	4995
835.235	5136
835.373	5098
835.511	5109
835.65	5056
835.788	5022
835.926	4908
836.064	4938
836.202	4892
836.34	5143
836.478	5235
836.615	5079
836.753	5246
836.891	5273
837.029	5318
837.167	5174
837.305	5151
837.443	5121
837.58	5090
837.718	5246
837.856	5170
837.993	5143
838.131	5265
838.269	5181
838.406	5299
838.544	5220
838.681	4999
838.819	4953
838.956	4881
839.094	4934
839.231	4938
839.369	5083
839.506	5402
839.643	5258
839.781	5041
839.918	5022
840.055	5033
840.193	5098
840.33	5128
840.467	5166
840.604	5231
840.742	5467
840.879	5132
841.016	5033
841.153	5151
841.29	5395
841.427	5372
841.564	5303
841.701	5357
841.838	5292
841.975	5284
842.112	5273
842.249	5174
842.385	5090
842.522	5357
842.659	5109
842.796	5121
842.933	5181
843.069	5143
843.206	5151
843.343	5261
843.479	5250
843.616	5315
843.752	4972
843.889	4984
844.025	5265
844.162	5010
844.298	5204
844.435	5121
844.571	5048
844.708	5212
844.844	5296
844.98	5406
845.117	5307
845.253	5102
845.389	5102
845.525	5166
845.661	5185
845.798	5033
845.934	5083
846.07	5029
846.206	5227
846.342	5280
846.478	5208
846.614	5033
846.75	4965
846.886	4946
847.022	5109
847.158	5025
847.294	5075
847.429	5124
847.565	5056
847.701	5341
847.837	4862
847.972	4828
848.108	4930
848.244	4927
848.379	4774
848.515	4771
848.65	4702
848.786	4767
848.921	4759
849.057	4858
849.192	4885
849.328	4801
849.463	4885
849.598	4767
849.734	4786
849.869	4668
850.004	4615
850.14	4683
850.275	4656
850.41	4554
850.545	4565
850.68	4618
850.815	4607
850.95	4622
851.085	4824
851.22	4755
851.355	4649
851.49	4645
851.625	4694
851.76	4630
851.895	4596
852.03	4558
852.165	4687
852.299	4740
852.434	4831
852.569	4729
852.703	4771
852.838	4820
852.973	4873
853.107	4942
853.242	4790
853.376	4725
853.511	4504
853.645	4683
853.78	4843
853.914	4725
854.048	4653
854.183	4645
854.317	4710
854.451	4839
854.585	4687
854.72	4653
854.854	4790
854.988	4607
855.122	4672
855.256	4462
855.39	4698
855.524	4812
855.658	4752
855.792	4679
855.926	4736
856.06	4736
856.194	4809
856.327	4694
856.461	4584
856.595	4611
856.729	4641
856.862	4752
856.996	4683
857.13	4736
857.263	4717
857.397	4850
857.53	4618
857.664	4725
857.797	4793
857.931	4820
858.064	4714
858.197	4782
858.331	4675
858.464	4630
858.597	4516
858.731	4687
858.864	4679
858.997	4649
859.13	4691
859.263	4664
859.396	4679
859.529	4599
859.662	4580
859.795	4554
859.928	4672
860.061	4763
860.194	4752
860.327	4603
860.46	4550
860.592	4714
860.725	4729
860.858	4683
860.99	4535
861.123	4535
861.256	4508
861.388	4599
861.521	5280
861.653	4478
861.786	4447
861.918	4447
862.05	4523
862.183	4535
862.315	4584
862.447	4641
862.58	4508
862.712	4390
862.844	4341
862.976	4497
863.108	4443
863.24	4900
863.372	4306
863.504	4428
863.636	4436
863.768	4466
863.9	4421
864.032	4329
864.164	4356
864.296	4459
864.428	4565
864.559	4554
864.691	4489
864.823	4512
864.954	4504
865.086	4512
865.217	4508
865.349	4413
865.48	4493
865.612	4497
865.743	4634
865.875	4470
866.006	4432
866.137	4455
866.269	4447
866.4	4402
866.531	4455
866.662	4432
866.793	4383
866.924	4440
867.055	4512
867.186	4455
867.317	4402
867.448	4383
867.579	4390
867.71	4394
867.841	4417
867.972	4493
868.103	4489
868.233	4436
868.364	4451
868.495	4493
868.625	4653
868.756	4771
868.886	4603
869.017	4649
869.147	4717
869.278	4805
869.408	4679
869.539	4679
869.669	4736
869.799	4645
869.929	4797
870.06	4736
870.19	4942
870.32	4930
870.45	4942
870.58	5022
870.71	5083
870.84	5083
870.97	4976
871.1	4942
871.23	5132
871.36	5098
871.489	5056
871.619	5079
871.749	5113
871.879	5216
872.008	5147
872.138	5037
872.267	5075
872.397	4889
872.526	4790
872.656	4714
872.785	4828
872.915	4961
873.044	5018
873.173	4961
873.303	4968
873.432	4927
873.561	4946
873.69	4889
873.819	4896
873.948	4927
874.077	4812
874.206	4820
874.335	4824
874.464	4968
874.593	5083
874.722	4915
874.851	5056
874.979	5037
875.108	5079
875.237	4915
875.365	4870
875.494	4889
875.623	4987
875.751	4820
875.88	4915
876.008	4965
876.136	5056
876.265	5193
876.393	5303
876.521	5258
876.65	5220
876.778	5121
876.906	5071
877.034	5045
877.162	5064
877.29	4972
877.418	5075
877.546	5075
877.674	5041
877.802	5029
877.93	5041
878.058	4972
878.185	4896
878.313	4980
878.441	4904
878.568	4812
878.696	4881
878.824	4972
878.951	5052
879.079	5124
879.206	5372
879.333	5075
879.461	4987
879.588	5003
879.715	5109
879.842	5254
879.97	5006
880.097	4812
880.224	4778
880.351	4759
880.478	4824
880.605	4774
880.732	4854
880.859	5064
880.986	4892
881.112	4904
881.239	4809
881.366	4641
881.493	4603
881.619	4599
881.746	4656
881.872	4645
881.999	4656
882.125	4687
882.252	4809
882.378	4843
882.505	4972
882.631	4797
882.757	4653
882.883	4767
883.01	4767
883.136	4656
883.262	4599
883.388	4611
883.514	4801
883.64	4892
883.766	4759
883.892	4683
884.018	4710
884.143	4866
884.269	5014
884.395	4679
884.52	4634
884.646	4656
884.772	4615
884.897	4584
885.023	4679
885.148	4790
885.274	4850
885.399	4866
885.524	4744
885.65	4679
885.775	4759
885.9	4774
886.025	4896
886.15	4786
886.275	4702
886.4	4634
886.525	4736
886.65	4714
886.775	4725
886.9	4949
887.025	5060
887.149	4812
887.274	4630
887.399	4618
887.523	4641
887.648	4596
887.773	4573
887.897	4759
888.021	4793
888.146	4683
888.27	4854
888.395	4923
888.519	4805
888.643	4774
888.767	4847
888.891	4645
889.015	4641
889.139	4675
889.263	4672
889.387	4759
889.511	4873
889.635	4797
889.759	4611
889.883	4656
890.006	4694
890.13	4786
890.254	4641
890.377	4691
890.501	4588
890.624	4516
890.748	4641
890.871	4481
890.995	4447
891.118	4421
891.241	4538
891.364	4565
891.488	4660
891.611	4493
891.734	4531
891.857	4599
891.98	4615
892.103	4672
892.226	4615
892.349	4504
892.471	4440
892.594	4527
892.717	4603
892.839	4561
892.962	4599
893.085	4649
893.207	4622
893.33	4417
893.452	4577
893.575	4653
893.697	4523
893.819	4752
893.941	4828
894.064	4763
894.186	4588
894.308	4569
894.43	4752
894.552	4839
894.674	4782
894.796	4565
894.918	4558
895.04	4538
895.161	4679
895.283	4714
895.405	4611
895.526	4615
895.648	4706
895.769	4714
895.891	4717
896.012	4721
896.134	4736
896.255	4683
896.376	4729
896.498	4634
896.619	4679
896.74	4634
896.861	4618
896.982	4919
897.103	5102
897.224	4831
897.345	4740
897.466	4683
897.587	4721
897.708	4877
897.828	4778
897.949	4706
898.07	4550
898.19	4634
898.311	4824
898.431	4660
898.552	4729
898.672	4805
898.792	4790
898.913	4698
899.033	4607
899.153	4478
899.273	4424
899.393	4474
899.513	4504
899.633	4558
899.753	4561
899.873	4512
899.993	4569
900.113	4577
900.232	4588
900.352	4584
900.472	4519
900.591	4405
900.711	4523
900.83	4447
900.95	4618
901.069	4679
901.189	4527
901.308	4329
901.427	4329
901.546	4375
901.665	4470
901.784	4519
901.904	4405
902.023	4325
902.141	4204
902.26	4185
902.379	4352
902.498	4268
902.617	4234
902.735	4390
902.854	4383
902.973	4325
903.091	4227
903.21	4234
903.328	4268
903.446	4284
903.565	4238
903.683	4341
903.801	4253
903.919	4417
904.038	4459
904.156	4367
904.274	4421
904.392	4413
904.51	4413
904.627	4459
904.745	4596
904.863	4664
904.981	4390
905.098	4295
905.216	4325
905.334	4428
905.451	4451
905.569	4478
905.686	4588
905.803	4580
905.921	4447
906.038	4588
906.155	4455
906.272	4371
906.389	4443
906.506	4375
906.623	4360
906.74	4394
906.857	4337
906.974	4413
907.091	4603
907.208	4675
907.324	4538
907.441	4512
907.557	4333
907.674	4371
907.79	4318
907.907	4417
908.023	4493
908.139	4485
908.256	4470
908.372	4481
908.488	4459
908.604	4363
908.72	4341
908.836	4386
908.952	4363
909.068	4470
909.184	4596
909.3	4489
909.415	4550
909.531	4561
909.647	4356
909.762	4371
909.878	4371
909.993	4459
910.108	4383
910.224	4363
910.339	4462
910.454	4398
910.57	4417
910.685	4299
910.8	4637
910.915	4634
911.03	4489
911.145	4371
911.259	4337
911.374	4356
911.489	4310
911.604	4299
911.718	4154
911.833	4185
911.947	4143
912.062	4002
912.176	4207
912.291	4253
912.405	4280
912.519	4470
912.633	4478
912.748	4356
912.862	4310
912.976	4238
913.09	4109
913.204	4227
913.318	4238
913.431	4379
913.545	4375
913.659	4421
913.772	4341
913.886	4280
914	4246
914.113	4363
914.226	4432
914.34	4390
914.453	4234
914.566	4413
914.68	4295
914.793	4371
914.906	4173
915.019	4101
915.132	4082
915.245	4185
915.358	4211
915.47	4272
915.583	4257
915.696	4295
915.809	4417
915.921	4428
916.034	4253
916.146	4291
916.259	4238
916.371	4344
916.483	4390
916.595	4268
916.708	4379
916.82	4276
916.932	4344
917.044	4341
917.156	4333
917.268	4242
917.38	4314
917.491	4280
917.603	4329
917.715	4413
917.826	4436
917.938	4398
918.049	4246
918.161	4398
918.272	4577
918.384	4508
918.495	4497
918.606	4291
918.717	4257
918.828	4344
918.939	4360
919.05	4272
919.161	4371
919.272	4177
919.383	4185
919.494	4443
919.604	4691
919.715	4379
919.826	4318
919.936	4451
920.047	4519
920.157	4493
920.267	4736
920.378	4588
920.488	4489
920.598	4714
920.708	4881
920.818	4759
920.928	4752
921.038	4961
921.148	4934
921.258	4656
921.368	4577
921.477	4432
921.587	4462
921.697	4344
921.806	4607
921.916	4417
922.025	4291
922.134	4306
922.244	4265
922.353	4318
922.462	4169
922.571	4128
922.68	3968
922.789	3968
922.898	4036
923.007	4032
923.116	4078
923.224	4093
923.333	4109
923.442	3975
923.55	3979
923.659	4044
923.767	4128
923.876	3960
923.984	4128
924.092	3972
924.201	4086
924.309	4101
924.417	4147
924.525	4082
924.633	4131
924.741	5052
924.849	3945
924.956	4135
925.064	3941
925.172	3941
925.279	3983
925.387	4036
925.494	4059
925.602	4230
925.709	4207
925.816	4040
925.924	4112
926.031	4227
926.138	4169
926.245	4211
926.352	4090
926.459	4272
926.566	4303
926.673	4139
926.779	4090
926.886	4048
926.993	3960
927.099	3991
927.206	3937
927.312	3941
927.419	4051
927.525	4036
927.631	4082
927.737	3994
927.843	3964
927.95	3869
928.056	3937
928.162	3998
928.267	4090
928.373	4740
928.479	4097
928.585	3899
928.69	4040
928.796	4082
928.901	3964
929.007	3869
929.112	3972
929.218	3964
929.323	3945
929.428	3949
929.533	4131
929.638	3926
929.743	3956
929.848	4048
929.953	4040
930.058	3922
930.163	3793
930.267	3835
930.372	4013
930.477	3819
930.581	4101
930.685	3972
930.79	3842
930.894	3884
930.998	3842
931.103	4040
931.207	3694
931.311	3663
931.415	3709
931.519	3545
931.623	3576
