Data from test_V78500241_1884.txt Node
Date: Fri Mar 25 17:02:06 CST 2022
User: usil
Spectrometer: V785-0024
Trigger mode: 0
Integration Time (sec): 4.000000E-1
Scans to average: 1
Nonlinearity correction enabled: false
Boxcar width: 0
Storing dark spectrum: false
XAxis mode: Wavelengths
Number of Pixels in Spectrum: 1024
>>>>>Begin Spectral Data<<<<<
801.071	8001
801.214	7970
801.356	7864
801.499	7822
801.641	7750
801.783	7852
801.926	7974
802.068	7906
802.211	8065
802.353	7932
802.496	7826
802.638	7860
802.78	7826
802.923	7951
803.065	7822
803.208	7784
803.35	7974
803.492	8081
803.635	8210
803.777	8069
803.919	8134
804.061	8389
804.204	8138
804.346	8043
804.488	8005
804.63	8103
804.773	8016
804.915	8123
805.057	8309
805.199	8161
805.341	8263
805.483	8301
805.626	8210
805.768	8126
805.91	8240
806.052	8183
806.194	8111
806.336	8343
806.478	8058
806.62	8084
806.762	8214
806.904	8240
807.046	8454
807.188	8377
807.33	8301
807.472	8339
807.614	8206
807.756	8088
807.898	7986
808.04	7883
808.182	7890
808.324	7925
808.465	7947
808.607	8115
808.749	8138
808.891	8252
809.033	8320
809.174	8221
809.316	8103
809.458	8054
809.6	8035
809.741	8100
809.883	8020
810.025	8088
810.166	8142
810.308	8058
810.45	8008
810.591	7871
810.733	7670
810.875	7677
811.016	7533
811.158	7537
811.299	7620
811.441	7727
811.582	7719
811.724	7586
811.865	7578
812.007	7601
812.148	7639
812.29	7636
812.431	7784
812.573	7925
812.714	8027
812.855	8134
812.997	8221
813.138	8267
813.279	8115
813.421	8088
813.562	7974
813.703	7841
813.845	7734
813.986	7453
814.127	7255
814.268	7240
814.41	7232
814.551	7228
814.692	7305
814.833	7160
814.974	7126
815.115	7103
815.256	7023
815.397	6939
815.539	6935
815.68	6776
815.821	6795
815.962	6859
816.103	6909
816.244	6745
816.385	6635
816.526	6601
816.666	6532
816.807	6281
816.948	6395
817.089	6521
817.23	6502
817.371	6433
817.512	6372
817.653	6441
817.793	6338
817.934	6448
818.075	6414
818.216	6410
818.356	6399
818.497	6258
818.638	6110
818.778	6201
818.919	6110
819.06	6167
819.2	6346
819.341	6342
819.481	6376
819.622	6585
819.762	6787
819.903	6741
820.043	6604
820.184	6536
820.324	6566
820.465	6734
820.605	6665
820.746	6658
820.886	6525
821.026	6681
821.167	6703
821.307	6783
821.447	6779
821.588	6635
821.728	6597
821.868	6536
822.008	6311
822.149	6388
822.289	6327
822.429	6121
822.569	6140
822.709	6133
822.849	5927
822.99	5916
823.13	5927
823.27	5958
823.41	5805
823.55	5786
823.69	5783
823.83	5802
823.97	5684
824.11	5539
824.25	5520
824.389	5528
824.529	5600
824.669	5532
824.809	5619
824.949	5604
825.089	5592
825.228	5570
825.368	5402
825.508	5360
825.648	5387
825.787	5482
825.927	5376
826.067	5349
826.206	5322
826.346	5334
826.485	5376
826.625	5429
826.765	5573
826.904	5440
827.044	5284
827.183	5193
827.323	5128
827.462	5208
827.601	5174
827.741	5204
827.88	5239
828.02	5189
828.159	5227
828.298	5337
828.437	5402
828.577	5315
828.716	5497
828.855	5330
828.994	5151
829.134	5212
829.273	5181
829.412	5128
829.551	5109
829.69	5132
829.829	5269
829.968	5398
830.107	5280
830.246	5303
830.385	5143
830.524	5124
830.663	5090
830.802	4961
830.941	4896
831.08	4923
831.219	5022
831.357	4984
831.496	5159
831.635	4972
831.774	4885
831.913	4889
832.051	4774
832.19	4733
832.329	4850
832.467	4698
832.606	4637
832.744	4771
832.883	4721
833.022	4725
833.16	4816
833.299	4812
833.437	4786
833.576	4820
833.714	4824
833.852	4831
833.991	4854
834.129	4995
834.267	4957
834.406	4908
834.544	4976
834.682	5006
834.821	4934
834.959	5193
835.097	5014
835.235	5162
835.373	5060
835.511	5067
835.65	5071
835.788	5022
835.926	4904
836.064	4900
836.202	4927
836.34	5204
836.478	5227
836.615	5140
836.753	5220
836.891	5307
837.029	5212
837.167	5220
837.305	5136
837.443	5181
837.58	5094
837.718	5223
837.856	5170
837.993	5128
838.131	5239
838.269	5189
838.406	5242
838.544	5162
838.681	5098
838.819	4976
838.956	4858
839.094	4949
839.231	4957
839.369	5086
839.506	5406
839.643	5261
839.781	5052
839.918	5010
840.055	5079
840.193	5075
840.33	5132
840.467	5166
840.604	5189
840.742	5448
840.879	5090
841.016	5071
841.153	5166
841.29	5372
841.427	5349
841.564	5315
841.701	5372
841.838	5280
841.975	5220
842.112	5288
842.249	5174
842.385	5117
842.522	5303
842.659	5162
842.796	5151
842.933	5181
843.069	5121
843.206	5197
843.343	5303
843.479	5212
843.616	5254
843.752	4987
843.889	4991
844.025	5254
844.162	5041
844.298	5174
844.435	5048
844.571	5052
844.708	5201
844.844	5318
844.98	5299
845.117	5265
845.253	5185
845.389	5083
845.525	5151
845.661	5208
845.798	5033
845.934	5170
846.07	5067
846.206	5197
846.342	5360
846.478	5193
846.614	5056
846.75	4965
846.886	4927
847.022	5109
847.158	5052
847.294	5079
847.429	5094
847.565	5060
847.701	5326
847.837	4870
847.972	4778
848.108	4911
848.244	4946
848.379	4790
848.515	4759
848.65	4702
848.786	4740
848.921	4793
849.057	4866
849.192	4908
849.328	4831
849.463	4854
849.598	4748
849.734	4850
849.869	4683
850.004	4626
850.14	4702
850.275	4618
850.41	4516
850.545	4558
850.68	4615
850.815	4618
850.95	4672
851.085	4858
851.22	4763
851.355	4630
851.49	4550
851.625	4637
851.76	4634
851.895	4550
852.03	4504
852.165	4668
852.299	4717
852.434	4790
852.569	4744
852.703	4805
852.838	4854
852.973	4938
853.107	4919
853.242	4744
853.376	4683
853.511	4523
853.645	4637
853.78	4790
853.914	4668
854.048	4668
854.183	4656
854.317	4664
854.451	4862
854.585	4672
854.72	4637
854.854	4767
854.988	4565
855.122	4649
855.256	4554
855.39	4641
855.524	4733
855.658	4755
855.792	4744
855.926	4736
856.06	4782
856.194	4801
856.327	4679
856.461	4611
856.595	4599
856.729	4603
856.862	4736
856.996	4706
857.13	4725
857.263	4752
857.397	4824
857.53	4653
857.664	4759
857.797	4767
857.931	4755
858.064	4683
858.197	4752
858.331	4626
858.464	4580
858.597	4531
858.731	4634
858.864	4618
858.997	4565
859.13	4679
859.263	4706
859.396	4656
859.529	4558
859.662	4580
859.795	4554
859.928	4603
860.061	4748
860.194	4778
860.327	4599
860.46	4546
860.592	4710
860.725	4733
860.858	4714
860.99	4569
861.123	4519
861.256	4550
861.388	4607
861.521	5383
861.653	4519
861.786	4451
861.918	4462
862.05	4489
862.183	4546
862.315	4645
862.447	4672
862.58	4538
862.712	4394
862.844	4306
862.976	4451
863.108	4432
863.24	4824
863.372	4314
863.504	4402
863.636	4402
863.768	4497
863.9	4428
864.032	4432
864.164	4390
864.296	4474
864.428	4580
864.559	4538
864.691	4527
864.823	4474
864.954	4497
865.086	4531
865.217	4428
865.349	4413
865.48	4436
865.612	4485
865.743	4596
865.875	4470
866.006	4440
866.137	4497
866.269	4459
866.4	4421
866.531	4379
866.662	4386
866.793	4440
866.924	4417
867.055	4481
867.186	4481
867.317	4417
867.448	4398
867.579	4398
867.71	4375
867.841	4344
867.972	4451
868.103	4489
868.233	4432
868.364	4451
868.495	4493
868.625	4664
868.756	4736
868.886	4550
869.017	4611
869.147	4752
869.278	4767
869.408	4675
869.539	4653
869.669	4694
869.799	4641
869.929	4752
870.06	4729
870.19	4919
870.32	4896
870.45	4930
870.58	5014
870.71	5109
870.84	5083
870.97	4896
871.1	4889
871.23	5143
871.36	5113
871.489	4999
871.619	5029
871.749	5124
871.879	5140
872.008	5136
872.138	4984
872.267	4987
872.397	4858
872.526	4805
872.656	4744
872.785	4786
872.915	4946
873.044	5052
873.173	4980
873.303	4961
873.432	4934
873.561	4961
873.69	4911
873.819	4847
873.948	4915
874.077	4797
874.206	4752
874.335	4805
874.464	4904
874.593	5067
874.722	4946
874.851	5098
874.979	5029
875.108	5067
875.237	4904
875.365	4900
875.494	4885
875.623	4942
875.751	4790
875.88	4873
876.008	4995
876.136	5052
876.265	5124
876.393	5337
876.521	5246
876.65	5246
876.778	5197
876.906	5037
877.034	5037
877.162	5037
877.29	5006
877.418	5006
877.546	4946
877.674	5071
877.802	5037
877.93	4995
878.058	4927
878.185	4892
878.313	4949
878.441	4961
878.568	4816
878.696	4850
878.824	5006
878.951	4984
879.079	5147
879.206	5277
879.333	5079
879.461	5033
879.588	4972
879.715	5098
879.842	5170
879.97	5025
880.097	4740
880.224	4752
880.351	4824
880.478	4816
880.605	4824
880.732	4790
880.859	5094
880.986	4877
881.112	4892
881.239	4793
881.366	4702
881.493	4577
881.619	4580
881.746	4626
881.872	4626
881.999	4615
882.125	4691
882.252	4809
882.378	4812
882.505	4976
882.631	4797
882.757	4668
882.883	4717
883.01	4729
883.136	4660
883.262	4611
883.388	4588
883.514	4820
883.64	4858
883.766	4740
883.892	4675
884.018	4675
884.143	4892
884.269	4980
884.395	4687
884.52	4607
884.646	4573
884.772	4580
884.897	4561
885.023	4637
885.148	4786
885.274	4828
885.399	4793
885.524	4736
885.65	4733
885.775	4748
885.9	4736
886.025	4904
886.15	4790
886.275	4714
886.4	4653
886.525	4748
886.65	4725
886.775	4675
886.9	4870
887.025	5029
887.149	4812
887.274	4645
887.399	4546
887.523	4611
887.648	4622
887.773	4554
887.897	4725
888.021	4809
888.146	4664
888.27	4812
888.395	4942
888.519	4774
888.643	4820
888.767	4820
888.891	4683
889.015	4626
889.139	4649
889.263	4596
889.387	4729
889.511	4812
889.635	4774
889.759	4672
889.883	4683
890.006	4740
890.13	4774
890.254	4653
890.377	4691
890.501	4580
890.624	4531
890.748	4618
890.871	4542
890.995	4424
891.118	4356
891.241	4523
891.364	4558
891.488	4618
891.611	4512
891.734	4493
891.857	4622
891.98	4508
892.103	4645
892.226	4554
892.349	4577
892.471	4428
892.594	4531
892.717	4584
892.839	4577
892.962	4596
893.085	4641
893.207	4592
893.33	4409
893.452	4508
893.575	4656
893.697	4584
893.819	4767
893.941	4771
894.064	4717
894.186	4569
894.308	4523
894.43	4710
894.552	4782
894.674	4691
894.796	4580
894.918	4565
895.04	4558
895.161	4706
895.283	4603
895.405	4596
895.526	4599
895.648	4660
895.769	4626
895.891	4668
896.012	4759
896.134	4710
896.255	4653
896.376	4592
896.498	4611
896.619	4702
896.74	4637
896.861	4622
896.982	4908
897.103	5025
897.224	4816
897.345	4740
897.466	4641
897.587	4740
897.708	4866
897.828	4824
897.949	4679
898.07	4565
898.19	4660
898.311	4835
898.431	4668
898.552	4736
898.672	4801
898.792	4801
898.913	4755
899.033	4630
899.153	4497
899.273	4493
899.393	4519
899.513	4538
899.633	4500
899.753	4516
899.873	4527
899.993	4588
900.113	4523
900.232	4622
900.352	4599
900.472	4493
900.591	4379
900.711	4485
900.83	4417
900.95	4611
901.069	4694
901.189	4538
901.308	4337
901.427	4291
901.546	4371
901.665	4478
901.784	4500
901.904	4367
902.023	4314
902.141	4173
902.26	4166
902.379	4337
902.498	4253
902.617	4265
902.735	4325
902.854	4356
902.973	4375
903.091	4207
903.21	4196
903.328	4310
903.446	4287
903.565	4227
903.683	4356
903.801	4272
903.919	4394
904.038	4443
904.156	4306
904.274	4424
904.392	4421
904.51	4409
904.627	4466
904.745	4565
904.863	4641
904.981	4383
905.098	4295
905.216	4386
905.334	4421
905.451	4424
905.569	4402
905.686	4577
905.803	4523
905.921	4398
906.038	4592
906.155	4459
906.272	4352
906.389	4466
906.506	4352
906.623	4318
906.74	4379
906.857	4314
906.974	4322
907.091	4573
907.208	4664
907.324	4554
907.441	4481
907.557	4367
907.674	4341
907.79	4295
907.907	4394
908.023	4470
908.139	4462
908.256	4421
908.372	4466
908.488	4402
908.604	4356
908.72	4322
908.836	4386
908.952	4394
909.068	4413
909.184	4565
909.3	4497
909.415	4577
909.531	4523
909.647	4367
909.762	4363
909.878	4306
909.993	4443
910.108	4390
910.224	4379
910.339	4478
910.454	4386
910.57	4371
910.685	4310
910.8	4611
910.915	4634
911.03	4489
911.145	4310
911.259	4348
911.374	4352
911.489	4223
911.604	4291
911.718	4128
911.833	4162
911.947	4051
912.062	3998
912.176	4196
912.291	4215
912.405	4257
912.519	4470
912.633	4527
912.748	4360
912.862	4287
912.976	4181
913.09	4112
913.204	4139
913.318	4280
913.431	4379
913.545	4386
913.659	4455
913.772	4348
913.886	4215
914	4215
914.113	4344
914.226	4421
914.34	4367
914.453	4238
914.566	4398
914.68	4272
914.793	4329
914.906	4169
915.019	4116
915.132	4086
915.245	4177
915.358	4238
915.47	4223
915.583	4295
915.696	4280
915.809	4344
915.921	4485
916.034	4223
916.146	4268
916.259	4257
916.371	4405
916.483	4344
916.595	4230
916.708	4344
916.82	4329
916.932	4344
917.044	4287
917.156	4337
917.268	4249
917.38	4291
917.491	4291
917.603	4306
917.715	4379
917.826	4390
917.938	4394
918.049	4261
918.161	4371
918.272	4535
918.384	4546
918.495	4500
918.606	4299
918.717	4253
918.828	4268
918.939	4360
919.05	4242
919.161	4310
919.272	4112
919.383	4188
919.494	4451
919.604	4630
919.715	4417
919.826	4337
919.936	4360
920.047	4527
920.157	4493
920.267	4725
920.378	4500
920.488	4523
920.598	4729
920.708	4828
920.818	4805
920.928	4759
921.038	4904
921.148	4953
921.258	4580
921.368	4554
921.477	4531
921.587	4459
921.697	4352
921.806	4577
921.916	4402
922.025	4257
922.134	4268
922.244	4219
922.353	4299
922.462	4169
922.571	4131
922.68	3994
922.789	3968
922.898	4074
923.007	4010
923.116	4086
923.224	4071
923.333	4078
923.442	3975
923.55	3975
923.659	4017
923.767	4116
923.876	4006
923.984	4120
924.092	3998
924.201	4063
924.309	4082
924.417	4124
924.525	4059
924.633	4120
924.741	5041
924.849	3918
924.956	4112
925.064	3964
925.172	3876
925.279	3972
925.387	4067
925.494	4071
925.602	4185
925.709	4185
925.816	4013
925.924	4147
926.031	4215
926.138	4150
926.245	4200
926.352	4067
926.459	4249
926.566	4303
926.673	4139
926.779	4067
926.886	4078
926.993	4002
927.099	3975
927.206	3918
927.312	3930
927.419	4063
927.525	4017
927.631	4071
927.737	3934
927.843	3934
927.95	3816
928.056	3949
928.162	4025
928.267	4112
928.373	4584
928.479	4105
928.585	3888
928.69	4017
928.796	4082
928.901	3953
929.007	3819
929.112	4010
929.218	3964
929.323	3964
929.428	3945
929.533	4090
929.638	3880
929.743	3956
929.848	4006
929.953	4002
930.058	3930
930.163	3781
930.267	3774
930.372	3930
930.477	3789
930.581	4067
930.685	3915
930.79	3804
930.894	3861
930.998	3846
931.103	4025
931.207	3717
931.311	3709
931.415	3652
931.519	3507
931.623	3564
