Data from test_V78500241_1252.txt Node
Date: Fri Mar 25 16:57:42 CST 2022
User: usil
Spectrometer: V785-0024
Trigger mode: 0
Integration Time (sec): 4.000000E-1
Scans to average: 1
Nonlinearity correction enabled: false
Boxcar width: 0
Storing dark spectrum: false
XAxis mode: Wavelengths
Number of Pixels in Spectrum: 1024
>>>>>Begin Spectral Data<<<<<
801.071	8050
801.214	8031
801.356	7974
801.499	7849
801.641	7784
801.783	7849
801.926	7997
802.068	7959
802.211	8058
802.353	8031
802.496	7845
802.638	7887
802.78	7898
802.923	7993
803.065	7951
803.208	7868
803.35	7921
803.492	8153
803.635	8145
803.777	8050
803.919	8172
804.061	8503
804.204	8172
804.346	8065
804.488	7970
804.63	8115
804.773	8027
804.915	8183
805.057	8282
805.199	8176
805.341	8244
805.483	8275
805.626	8191
805.768	8176
805.91	8252
806.052	8206
806.194	8050
806.336	8286
806.478	8142
806.62	7993
806.762	8138
806.904	8244
807.046	8461
807.188	8305
807.33	8355
807.472	8324
807.614	8130
807.756	8191
807.898	8035
808.04	7894
808.182	7978
808.324	7875
808.465	7944
808.607	8092
808.749	8168
808.891	8180
809.033	8282
809.174	8210
809.316	8027
809.458	8077
809.6	8046
809.741	8050
809.883	8031
810.025	8130
810.166	8031
810.308	8016
810.45	8062
810.591	7928
810.733	7727
810.875	7662
811.016	7552
811.158	7472
811.299	7613
811.441	7750
811.582	7719
811.724	7651
811.865	7483
812.007	7586
812.148	7571
812.29	7632
812.431	7765
812.573	7890
812.714	7947
812.855	8084
812.997	8138
813.138	8332
813.279	8218
813.421	8138
813.562	7986
813.703	7811
813.845	7753
813.986	7449
814.127	7213
814.268	7202
814.41	7240
814.551	7179
814.692	7164
814.833	7091
814.974	7050
815.115	7099
815.256	6989
815.397	6954
815.539	7046
815.68	6837
815.821	6787
815.962	6867
816.103	6848
816.244	6741
816.385	6642
816.526	6585
816.666	6521
816.807	6315
816.948	6460
817.089	6536
817.23	6429
817.371	6395
817.512	6350
817.653	6407
817.793	6391
817.934	6350
818.075	6521
818.216	6456
818.356	6384
818.497	6239
818.638	6117
818.778	6140
818.919	6133
819.06	6186
819.2	6369
819.341	6323
819.481	6391
819.622	6517
819.762	6753
819.903	6669
820.043	6639
820.184	6593
820.324	6642
820.465	6772
820.605	6658
820.746	6642
820.886	6464
821.026	6650
821.167	6753
821.307	6776
821.447	6722
821.588	6688
821.728	6551
821.868	6464
822.008	6331
822.149	6357
822.289	6327
822.429	6152
822.569	6045
822.709	6133
822.849	5904
822.99	5904
823.13	5958
823.27	5904
823.41	5821
823.55	5798
823.69	5802
823.83	5737
823.97	5722
824.11	5554
824.25	5482
824.389	5543
824.529	5581
824.669	5566
824.809	5661
824.949	5688
825.089	5611
825.228	5535
825.368	5395
825.508	5326
825.648	5322
825.787	5372
825.927	5387
826.067	5299
826.206	5296
826.346	5436
826.485	5383
826.625	5436
826.765	5543
826.904	5444
827.044	5197
827.183	5216
827.323	5117
827.462	5265
827.601	5147
827.741	5212
827.88	5227
828.02	5155
828.159	5284
828.298	5299
828.437	5360
828.577	5284
828.716	5539
828.855	5311
828.994	5147
829.134	5193
829.273	5178
829.412	5102
829.551	5178
829.69	5193
829.829	5239
829.968	5334
830.107	5254
830.246	5212
830.385	5143
830.524	5140
830.663	5124
830.802	4980
830.941	4873
831.08	4858
831.219	4991
831.357	4976
831.496	5197
831.635	4938
831.774	4866
831.913	4843
832.051	4729
832.19	4767
832.329	4847
832.467	4725
832.606	4622
832.744	4725
832.883	4698
833.022	4698
833.16	4793
833.299	4759
833.437	4820
833.576	4900
833.714	4870
833.852	4854
833.991	4892
834.129	4995
834.267	4965
834.406	4900
834.544	4953
834.682	4984
834.821	5006
834.959	5124
835.097	4995
835.235	5143
835.373	5018
835.511	5083
835.65	5037
835.788	5010
835.926	4949
836.064	4881
836.202	4942
836.34	5162
836.478	5265
836.615	5132
836.753	5227
836.891	5288
837.029	5231
837.167	5216
837.305	5117
837.443	5136
837.58	5071
837.718	5246
837.856	5147
837.993	5124
838.131	5216
838.269	5162
838.406	5178
838.544	5212
838.681	4987
838.819	5033
838.956	4873
839.094	4889
839.231	4968
839.369	5048
839.506	5417
839.643	5261
839.781	5105
839.918	5052
840.055	5124
840.193	5094
840.33	5090
840.467	5174
840.604	5178
840.742	5417
840.879	5064
841.016	5117
841.153	5181
841.29	5398
841.427	5280
841.564	5277
841.701	5334
841.838	5280
841.975	5250
842.112	5242
842.249	5140
842.385	5090
842.522	5280
842.659	5117
842.796	5174
842.933	5185
843.069	5151
843.206	5216
843.343	5322
843.479	5197
843.616	5242
843.752	5014
843.889	5045
844.025	5208
844.162	5010
844.298	5250
844.435	5090
844.571	5067
844.708	5185
844.844	5307
844.98	5318
845.117	5315
845.253	5140
845.389	5083
845.525	5170
845.661	5143
845.798	5037
845.934	5128
846.07	5018
846.206	5178
846.342	5277
846.478	5197
846.614	4980
846.75	4987
846.886	4934
847.022	5109
847.158	4980
847.294	5094
847.429	5090
847.565	5064
847.701	5345
847.837	4866
847.972	4820
848.108	4961
848.244	4968
848.379	4733
848.515	4778
848.65	4725
848.786	4767
848.921	4755
849.057	4820
849.192	4881
849.328	4771
849.463	4820
849.598	4736
849.734	4717
849.869	4706
850.004	4618
850.14	4641
850.275	4592
850.41	4504
850.545	4550
850.68	4577
850.815	4618
850.95	4584
851.085	4809
851.22	4729
851.355	4618
851.49	4603
851.625	4660
851.76	4679
851.895	4554
852.03	4535
852.165	4683
852.299	4759
852.434	4801
852.569	4736
852.703	4763
852.838	4866
852.973	4892
853.107	4892
853.242	4702
853.376	4664
853.511	4580
853.645	4626
853.78	4812
853.914	4683
854.048	4656
854.183	4618
854.317	4653
854.451	4831
854.585	4679
854.72	4679
854.854	4725
854.988	4573
855.122	4637
855.256	4531
855.39	4641
855.524	4809
855.658	4694
855.792	4687
855.926	4748
856.06	4816
856.194	4809
856.327	4683
856.461	4630
856.595	4584
856.729	4637
856.862	4714
856.996	4717
857.13	4675
857.263	4744
857.397	4831
857.53	4634
857.664	4702
857.797	4767
857.931	4748
858.064	4672
858.197	4725
858.331	4599
858.464	4607
858.597	4481
858.731	4596
858.864	4641
858.997	4607
859.13	4660
859.263	4672
859.396	4675
859.529	4584
859.662	4554
859.795	4596
859.928	4630
860.061	4710
860.194	4778
860.327	4596
860.46	4592
860.592	4691
860.725	4748
860.858	4683
860.99	4550
861.123	4489
861.256	4535
861.388	4630
861.521	5318
861.653	4493
861.786	4443
861.918	4451
862.05	4535
862.183	4573
862.315	4630
862.447	4683
862.58	4573
862.712	4413
862.844	4333
862.976	4466
863.108	4459
863.24	4877
863.372	4310
863.504	4470
863.636	4371
863.768	4443
863.9	4421
864.032	4394
864.164	4394
864.296	4462
864.428	4569
864.559	4504
864.691	4508
864.823	4519
864.954	4508
865.086	4508
865.217	4451
865.349	4390
865.48	4497
865.612	4485
865.743	4611
865.875	4390
866.006	4428
866.137	4516
866.269	4455
866.4	4474
866.531	4424
866.662	4405
866.793	4428
866.924	4417
867.055	4478
867.186	4421
867.317	4409
867.448	4383
867.579	4417
867.71	4360
867.841	4337
867.972	4455
868.103	4478
868.233	4451
868.364	4432
868.495	4519
868.625	4679
868.756	4763
868.886	4550
869.017	4630
869.147	4744
869.278	4748
869.408	4668
869.539	4607
869.669	4687
869.799	4668
869.929	4755
870.06	4717
870.19	4930
870.32	4896
870.45	4892
870.58	4980
870.71	5064
870.84	5124
870.97	4930
871.1	4889
871.23	5064
871.36	5086
871.489	5010
871.619	5014
871.749	5025
871.879	5128
872.008	5155
872.138	4991
872.267	4961
872.397	4790
872.526	4763
872.656	4698
872.785	4820
872.915	4896
873.044	5052
873.173	4934
873.303	4938
873.432	4957
873.561	4923
873.69	4866
873.819	4858
873.948	4892
874.077	4763
874.206	4774
874.335	4793
874.464	4942
874.593	5041
874.722	4938
874.851	5064
874.979	5048
875.108	5071
875.237	4885
875.365	4870
875.494	4889
875.623	4946
875.751	4740
875.88	4873
876.008	4957
876.136	5003
876.265	5216
876.393	5315
876.521	5220
876.65	5231
876.778	5105
876.906	5102
877.034	4999
877.162	5018
877.29	4984
877.418	5090
877.546	5010
877.674	5029
877.802	5003
877.93	5029
878.058	4980
878.185	4858
878.313	4942
878.441	4904
878.568	4782
878.696	4854
878.824	4949
878.951	4999
879.079	5098
879.206	5318
879.333	5147
879.461	5014
879.588	4987
879.715	5052
879.842	5231
879.97	4968
880.097	4763
880.224	4771
880.351	4812
880.478	4801
880.605	4812
880.732	4790
880.859	5064
880.986	4892
881.112	4942
881.239	4759
881.366	4649
881.493	4584
881.619	4599
881.746	4626
881.872	4641
881.999	4645
882.125	4618
882.252	4797
882.378	4790
882.505	4930
882.631	4839
882.757	4626
882.883	4736
883.01	4752
883.136	4710
883.262	4634
883.388	4588
883.514	4820
883.64	4828
883.766	4793
883.892	4653
884.018	4698
884.143	4877
884.269	5018
884.395	4664
884.52	4615
884.646	4630
884.772	4596
884.897	4607
885.023	4660
885.148	4759
885.274	4927
885.399	4801
885.524	4736
885.65	4653
885.775	4702
885.9	4714
886.025	4835
886.15	4759
886.275	4698
886.4	4630
886.525	4706
886.65	4672
886.775	4679
886.9	4889
887.025	5022
887.149	4782
887.274	4649
887.399	4550
887.523	4573
887.648	4596
887.773	4592
887.897	4755
888.021	4793
888.146	4714
888.27	4755
888.395	4919
888.519	4801
888.643	4820
888.767	4831
888.891	4645
889.015	4577
889.139	4618
889.263	4577
889.387	4744
889.511	4816
889.635	4748
889.759	4668
889.883	4668
890.006	4694
890.13	4835
890.254	4611
890.377	4656
890.501	4550
890.624	4512
890.748	4664
890.871	4451
890.995	4409
891.118	4424
891.241	4500
891.364	4504
891.488	4618
891.611	4523
891.734	4546
891.857	4596
891.98	4542
892.103	4630
892.226	4596
892.349	4542
892.471	4383
892.594	4588
892.717	4580
892.839	4561
892.962	4603
893.085	4641
893.207	4592
893.33	4436
893.452	4519
893.575	4645
893.697	4596
893.819	4752
893.941	4793
894.064	4740
894.186	4554
894.308	4527
894.43	4706
894.552	4805
894.674	4763
894.796	4527
894.918	4599
895.04	4588
895.161	4675
895.283	4637
895.405	4588
895.526	4599
895.648	4706
895.769	4645
895.891	4691
896.012	4725
896.134	4752
896.255	4672
896.376	4656
896.498	4634
896.619	4622
896.74	4649
896.861	4649
896.982	4946
897.103	5079
897.224	4828
897.345	4748
897.466	4626
897.587	4717
897.708	4870
897.828	4767
897.949	4679
898.07	4531
898.19	4573
898.311	4816
898.431	4653
898.552	4691
898.672	4763
898.792	4733
898.913	4759
899.033	4622
899.153	4485
899.273	4421
899.393	4512
899.513	4523
899.633	4542
899.753	4504
899.873	4512
899.993	4580
900.113	4523
900.232	4561
900.352	4542
900.472	4497
900.591	4383
900.711	4478
900.83	4409
900.95	4592
901.069	4645
901.189	4561
901.308	4409
901.427	4310
901.546	4329
901.665	4466
901.784	4508
901.904	4383
902.023	4318
902.141	4188
902.26	4154
902.379	4284
902.498	4261
902.617	4207
902.735	4367
902.854	4398
902.973	4371
903.091	4196
903.21	4242
903.328	4249
903.446	4234
903.565	4261
903.683	4352
903.801	4280
903.919	4386
904.038	4409
904.156	4268
904.274	4413
904.392	4386
904.51	4394
904.627	4451
904.745	4596
904.863	4645
904.981	4417
905.098	4314
905.216	4360
905.334	4455
905.451	4417
905.569	4455
905.686	4573
905.803	4558
905.921	4459
906.038	4542
906.155	4436
906.272	4390
906.389	4383
906.506	4356
906.623	4386
906.74	4363
906.857	4299
906.974	4367
907.091	4554
907.208	4710
907.324	4634
907.441	4523
907.557	4348
907.674	4337
907.79	4291
907.907	4337
908.023	4478
908.139	4455
908.256	4478
908.372	4447
908.488	4428
908.604	4398
908.72	4310
908.836	4398
908.952	4383
909.068	4485
909.184	4554
909.3	4481
909.415	4577
909.531	4565
909.647	4352
909.762	4379
909.878	4348
909.993	4432
910.108	4402
910.224	4409
910.339	4531
910.454	4405
910.57	4379
910.685	4268
910.8	4618
910.915	4596
911.03	4550
911.145	4363
911.259	4299
911.374	4341
911.489	4318
911.604	4249
911.718	4162
911.833	4143
911.947	4135
912.062	4002
912.176	4219
912.291	4253
912.405	4188
912.519	4459
912.633	4512
912.748	4329
912.862	4284
912.976	4196
913.09	4048
913.204	4173
913.318	4242
913.431	4352
913.545	4379
913.659	4405
913.772	4306
913.886	4284
914	4162
914.113	4383
914.226	4402
914.34	4371
914.453	4215
914.566	4421
914.68	4268
914.793	4306
914.906	4120
915.019	4120
915.132	4055
915.245	4131
915.358	4207
915.47	4242
915.583	4249
915.696	4310
915.809	4379
915.921	4413
916.034	4246
916.146	4234
916.259	4215
916.371	4310
916.483	4341
916.595	4272
916.708	4333
916.82	4295
916.932	4325
917.044	4322
917.156	4287
917.268	4246
917.38	4295
917.491	4238
917.603	4329
917.715	4459
917.826	4428
917.938	4363
918.049	4223
918.161	4360
918.272	4542
918.384	4504
918.495	4455
918.606	4284
918.717	4227
918.828	4341
918.939	4352
919.05	4238
919.161	4322
919.272	4128
919.383	4185
919.494	4451
919.604	4656
919.715	4409
919.826	4352
919.936	4367
920.047	4531
920.157	4443
920.267	4687
920.378	4519
920.488	4489
920.598	4706
920.708	4870
920.818	4782
920.928	4748
921.038	4946
921.148	4915
921.258	4611
921.368	4504
921.477	4504
921.587	4459
921.697	4379
921.806	4542
921.916	4398
922.025	4242
922.134	4280
922.244	4219
922.353	4265
922.462	4158
922.571	4131
922.68	3937
922.789	3964
922.898	4051
923.007	3987
923.116	4101
923.224	4040
923.333	4067
923.442	3960
923.55	3964
923.659	4051
923.767	4078
923.876	4013
923.984	4063
924.092	4006
924.201	4120
924.309	4055
924.417	4116
924.525	4082
924.633	4093
924.741	5079
924.849	3880
924.956	4112
925.064	3960
925.172	3884
925.279	3922
925.387	4063
925.494	4082
925.602	4238
925.709	4169
925.816	4006
925.924	4116
926.031	4219
926.138	4101
926.245	4181
926.352	4124
926.459	4272
926.566	4276
926.673	4131
926.779	4112
926.886	4067
926.993	4002
927.099	3907
927.206	3949
927.312	3953
927.419	4002
927.525	4036
927.631	4074
927.737	3968
927.843	3953
927.95	3861
928.056	3949
928.162	3991
928.267	4029
928.373	4675
928.479	4120
928.585	3842
928.69	4044
928.796	4044
928.901	3960
929.007	3816
929.112	4013
929.218	3991
929.323	3949
929.428	3956
929.533	4116
929.638	3930
929.743	3968
929.848	4010
929.953	4017
930.058	3899
930.163	3762
930.267	3804
930.372	3998
930.477	3816
930.581	4059
930.685	3930
930.79	3785
930.894	3846
930.998	3812
931.103	4017
931.207	3720
931.311	3740
931.415	3652
931.519	3526
931.623	3534
