Data from test_V78500241_1384.txt Node
Date: Fri Mar 25 16:58:37 CST 2022
User: usil
Spectrometer: V785-0024
Trigger mode: 0
Integration Time (sec): 4.000000E-1
Scans to average: 1
Nonlinearity correction enabled: false
Boxcar width: 0
Storing dark spectrum: false
XAxis mode: Wavelengths
Number of Pixels in Spectrum: 1024
>>>>>Begin Spectral Data<<<<<
801.071	8005
801.214	7940
801.356	7894
801.499	7852
801.641	7830
801.783	7811
801.926	7974
802.068	7890
802.211	7986
802.353	8005
802.496	7864
802.638	7906
802.78	7894
802.923	7963
803.065	7864
803.208	7818
803.35	7894
803.492	8088
803.635	8081
803.777	8001
803.919	8077
804.061	8461
804.204	8149
804.346	8054
804.488	7967
804.63	8119
804.773	8107
804.915	8107
805.057	8298
805.199	8168
805.341	8221
805.483	8267
805.626	8202
805.768	8149
805.91	8256
806.052	8244
806.194	8145
806.336	8237
806.478	8084
806.62	8123
806.762	8115
806.904	8244
807.046	8507
807.188	8343
807.33	8317
807.472	8263
807.614	8145
807.756	8168
807.898	7894
808.04	7909
808.182	7925
808.324	7947
808.465	8016
808.607	8065
808.749	8145
808.891	8191
809.033	8237
809.174	8199
809.316	8088
809.458	8081
809.6	7974
809.741	8031
809.883	8054
810.025	8062
810.166	8069
810.308	8027
810.45	8012
810.591	7875
810.733	7734
810.875	7685
811.016	7499
811.158	7540
811.299	7559
811.441	7712
811.582	7696
811.724	7605
811.865	7552
812.007	7556
812.148	7597
812.29	7658
812.431	7704
812.573	7909
812.714	7989
812.855	8062
812.997	8237
813.138	8370
813.279	8259
813.421	8123
813.562	7997
813.703	7807
813.845	7696
813.986	7457
814.127	7209
814.268	7259
814.41	7209
814.551	7122
814.692	7278
814.833	7057
814.974	7027
815.115	7099
815.256	6973
815.397	6859
815.539	6859
815.68	6795
815.821	6753
815.962	6856
816.103	6764
816.244	6711
816.385	6635
816.526	6631
816.666	6456
816.807	6296
816.948	6452
817.089	6475
817.23	6460
817.371	6353
817.512	6410
817.653	6395
817.793	6380
817.934	6460
818.075	6460
818.216	6429
818.356	6388
818.497	6235
818.638	6102
818.778	6144
818.919	6167
819.06	6144
819.2	6296
819.341	6331
819.481	6346
819.622	6559
819.762	6662
819.903	6673
820.043	6601
820.184	6563
820.324	6555
820.465	6719
820.605	6623
820.746	6696
820.886	6502
821.026	6658
821.167	6642
821.307	6783
821.447	6768
821.588	6662
821.728	6547
821.868	6467
822.008	6319
822.149	6361
822.289	6365
822.429	6034
822.569	6125
822.709	6121
822.849	5912
822.99	5904
823.13	5908
823.27	5897
823.41	5771
823.55	5794
823.69	5790
823.83	5790
823.97	5703
824.11	5512
824.25	5539
824.389	5539
824.529	5573
824.669	5524
824.809	5676
824.949	5661
825.089	5573
825.228	5573
825.368	5433
825.508	5341
825.648	5345
825.787	5417
825.927	5372
826.067	5280
826.206	5318
826.346	5318
826.485	5421
826.625	5372
826.765	5528
826.904	5459
827.044	5235
827.183	5223
827.323	5109
827.462	5258
827.601	5174
827.741	5178
827.88	5212
828.02	5151
828.159	5273
828.298	5299
828.437	5398
828.577	5273
828.716	5463
828.855	5311
828.994	5162
829.134	5162
829.273	5189
829.412	5159
829.551	5174
829.69	5128
829.829	5273
829.968	5326
830.107	5258
830.246	5292
830.385	5216
830.524	5143
830.663	5079
830.802	4949
830.941	4885
831.08	4866
831.219	4999
831.357	5010
831.496	5132
831.635	4927
831.774	4805
831.913	4816
832.051	4717
832.19	4740
832.329	4809
832.467	4668
832.606	4634
832.744	4733
832.883	4759
833.022	4774
833.16	4812
833.299	4748
833.437	4763
833.576	4847
833.714	4820
833.852	4843
833.991	4870
834.129	4957
834.267	4911
834.406	4885
834.544	4968
834.682	4991
834.821	4927
834.959	5170
835.097	5010
835.235	5109
835.373	5098
835.511	5117
835.65	5010
835.788	5041
835.926	4858
836.064	4873
836.202	4911
836.34	5170
836.478	5216
836.615	5140
836.753	5185
836.891	5277
837.029	5239
837.167	5185
837.305	5105
837.443	5113
837.58	5041
837.718	5242
837.856	5197
837.993	5140
838.131	5220
838.269	5155
838.406	5178
838.544	5147
838.681	5003
838.819	5003
838.956	4870
839.094	4919
839.231	4976
839.369	5075
839.506	5501
839.643	5258
839.781	5109
839.918	5010
840.055	5075
840.193	5124
840.33	5086
840.467	5143
840.604	5193
840.742	5433
840.879	5048
841.016	5109
841.153	5208
841.29	5307
841.427	5337
841.564	5349
841.701	5383
841.838	5277
841.975	5242
842.112	5193
842.249	5132
842.385	5079
842.522	5311
842.659	5178
842.796	5121
842.933	5208
843.069	5178
843.206	5147
843.343	5296
843.479	5185
843.616	5261
843.752	5056
843.889	4999
844.025	5223
844.162	4995
844.298	5220
844.435	5090
844.571	5025
844.708	5231
844.844	5242
844.98	5353
845.117	5258
845.253	5102
845.389	5071
845.525	5121
845.661	5181
845.798	4999
845.934	5109
846.07	5037
846.206	5170
846.342	5284
846.478	5151
846.614	5052
846.75	4999
846.886	4934
847.022	5132
847.158	4999
847.294	5022
847.429	5071
847.565	4980
847.701	5334
847.837	4824
847.972	4774
848.108	4927
848.244	4923
848.379	4740
848.515	4702
848.65	4717
848.786	4755
848.921	4809
849.057	4782
849.192	4942
849.328	4790
849.463	4843
849.598	4774
849.734	4736
849.869	4725
850.004	4668
850.14	4694
850.275	4603
850.41	4561
850.545	4546
850.68	4634
850.815	4611
850.95	4630
851.085	4870
851.22	4740
851.355	4687
851.49	4618
851.625	4561
851.76	4622
851.895	4561
852.03	4542
852.165	4664
852.299	4733
852.434	4767
852.569	4744
852.703	4782
852.838	4847
852.973	4938
853.107	4904
853.242	4736
853.376	4702
853.511	4565
853.645	4580
853.78	4782
853.914	4702
854.048	4653
854.183	4668
854.317	4664
854.451	4828
854.585	4626
854.72	4637
854.854	4744
854.988	4618
855.122	4630
855.256	4500
855.39	4660
855.524	4809
855.658	4698
855.792	4702
855.926	4702
856.06	4733
856.194	4828
856.327	4675
856.461	4592
856.595	4634
856.729	4599
856.862	4660
856.996	4721
857.13	4710
857.263	4786
857.397	4755
857.53	4637
857.664	4706
857.797	4744
857.931	4778
858.064	4691
858.197	4771
858.331	4668
858.464	4565
858.597	4523
858.731	4668
858.864	4649
858.997	4618
859.13	4645
859.263	4649
859.396	4710
859.529	4569
859.662	4546
859.795	4554
859.928	4599
860.061	4790
860.194	4782
860.327	4550
860.46	4535
860.592	4710
860.725	4733
860.858	4748
860.99	4531
861.123	4569
861.256	4497
861.388	4622
861.521	5448
861.653	4504
861.786	4459
861.918	4481
862.05	4512
862.183	4508
862.315	4618
862.447	4615
862.58	4516
862.712	4424
862.844	4310
862.976	4413
863.108	4470
863.24	4843
863.372	4310
863.504	4413
863.636	4386
863.768	4443
863.9	4440
864.032	4306
864.164	4398
864.296	4497
864.428	4523
864.559	4531
864.691	4558
864.823	4493
864.954	4493
865.086	4516
865.217	4481
865.349	4424
865.48	4432
865.612	4489
865.743	4630
865.875	4470
866.006	4432
866.137	4481
866.269	4428
866.4	4413
866.531	4443
866.662	4394
866.793	4383
866.924	4428
867.055	4478
867.186	4436
867.317	4386
867.448	4318
867.579	4390
867.71	4405
867.841	4341
867.972	4428
868.103	4436
868.233	4421
868.364	4402
868.495	4474
868.625	4630
868.756	4812
868.886	4538
869.017	4645
869.147	4744
869.278	4793
869.408	4645
869.539	4611
869.669	4729
869.799	4615
869.929	4721
870.06	4679
870.19	4930
870.32	4908
870.45	4908
870.58	5029
870.71	5075
870.84	5094
870.97	4889
871.1	4873
871.23	5181
871.36	5124
871.489	5033
871.619	5056
871.749	5079
871.879	5098
872.008	5181
872.138	5064
872.267	4991
872.397	4831
872.526	4797
872.656	4706
872.785	4778
872.915	4972
873.044	5052
873.173	4934
873.303	4946
873.432	4946
873.561	5003
873.69	4866
873.819	4908
873.948	4938
874.077	4801
874.206	4748
874.335	4771
874.464	4961
874.593	5094
874.722	4930
874.851	5083
874.979	5067
875.108	5018
875.237	4889
875.365	4854
875.494	4911
875.623	4953
875.751	4790
875.88	4862
876.008	4915
876.136	4957
876.265	5151
876.393	5288
876.521	5204
876.65	5216
876.778	5121
876.906	5090
877.034	5025
877.162	5041
877.29	4991
877.418	5006
877.546	5064
877.674	4984
877.802	4991
877.93	5025
878.058	4900
878.185	4873
878.313	4995
878.441	4980
878.568	4782
878.696	4877
878.824	4953
878.951	5003
879.079	5170
879.206	5307
879.333	5067
879.461	4965
879.588	4938
879.715	5143
879.842	5189
879.97	4991
880.097	4778
880.224	4733
880.351	4824
880.478	4809
880.605	4778
880.732	4763
880.859	5048
880.986	4873
881.112	4896
881.239	4763
881.366	4660
881.493	4565
881.619	4596
881.746	4649
881.872	4637
881.999	4656
882.125	4710
882.252	4748
882.378	4805
882.505	4961
882.631	4797
882.757	4622
882.883	4668
883.01	4717
883.136	4649
883.262	4603
883.388	4577
883.514	4835
883.64	4824
883.766	4793
883.892	4626
884.018	4771
884.143	4850
884.269	5010
884.395	4668
884.52	4630
884.646	4603
884.772	4607
884.897	4550
885.023	4694
885.148	4748
885.274	4850
885.399	4820
885.524	4733
885.65	4710
885.775	4725
885.9	4729
886.025	4839
886.15	4778
886.275	4679
886.4	4664
886.525	4679
886.65	4653
886.775	4706
886.9	4854
887.025	4995
887.149	4774
887.274	4637
887.399	4542
887.523	4599
887.648	4558
887.773	4584
887.897	4752
888.021	4809
888.146	4672
888.27	4816
888.395	4923
888.519	4816
888.643	4831
888.767	4812
888.891	4660
889.015	4603
889.139	4618
889.263	4584
889.387	4763
889.511	4850
889.635	4767
889.759	4607
889.883	4634
890.006	4672
890.13	4809
890.254	4573
890.377	4645
890.501	4523
890.624	4550
890.748	4668
890.871	4497
890.995	4421
891.118	4379
891.241	4504
891.364	4527
891.488	4634
891.611	4470
891.734	4542
891.857	4641
891.98	4580
892.103	4653
892.226	4577
892.349	4508
892.471	4443
892.594	4588
892.717	4603
892.839	4565
892.962	4569
893.085	4615
893.207	4599
893.33	4462
893.452	4459
893.575	4626
893.697	4569
893.819	4774
893.941	4778
894.064	4740
894.186	4516
894.308	4527
894.43	4668
894.552	4812
894.674	4759
894.796	4550
894.918	4550
895.04	4519
895.161	4668
895.283	4664
895.405	4618
895.526	4622
895.648	4698
895.769	4702
895.891	4748
896.012	4744
896.134	4691
896.255	4656
896.376	4573
896.498	4641
896.619	4622
896.74	4584
896.861	4599
896.982	4881
897.103	5071
897.224	4831
897.345	4717
897.466	4622
897.587	4710
897.708	4831
897.828	4816
897.949	4637
898.07	4584
898.19	4607
898.311	4831
898.431	4675
898.552	4736
898.672	4793
898.792	4748
898.913	4710
899.033	4596
899.153	4512
899.273	4455
899.393	4489
899.513	4481
899.633	4459
899.753	4516
899.873	4478
899.993	4637
900.113	4535
900.232	4550
900.352	4489
900.472	4481
900.591	4402
900.711	4470
900.83	4436
900.95	4592
901.069	4687
901.189	4561
901.308	4390
901.427	4303
901.546	4405
901.665	4470
901.784	4512
901.904	4413
902.023	4295
902.141	4192
902.26	4150
902.379	4280
902.498	4196
902.617	4238
902.735	4352
902.854	4398
902.973	4337
903.091	4242
903.21	4268
903.328	4318
903.446	4253
903.565	4238
903.683	4405
903.801	4268
903.919	4348
904.038	4398
904.156	4329
904.274	4417
904.392	4352
904.51	4402
904.627	4470
904.745	4577
904.863	4599
904.981	4417
905.098	4329
905.216	4352
905.334	4409
905.451	4451
905.569	4428
905.686	4535
905.803	4542
905.921	4371
906.038	4561
906.155	4466
906.272	4375
906.389	4459
906.506	4360
906.623	4367
906.74	4398
906.857	4295
906.974	4363
907.091	4584
907.208	4675
907.324	4584
907.441	4500
907.557	4348
907.674	4329
907.79	4352
907.907	4386
908.023	4428
908.139	4478
908.256	4451
908.372	4455
908.488	4447
908.604	4322
908.72	4390
908.836	4367
908.952	4337
909.068	4375
909.184	4596
909.3	4481
909.415	4554
909.531	4500
909.647	4398
909.762	4363
909.878	4295
909.993	4424
910.108	4451
910.224	4371
910.339	4512
910.454	4405
910.57	4348
910.685	4272
910.8	4641
910.915	4580
911.03	4523
911.145	4348
911.259	4303
911.374	4383
911.489	4322
911.604	4249
911.718	4158
911.833	4147
911.947	4051
912.062	4021
912.176	4196
912.291	4227
912.405	4249
912.519	4440
912.633	4531
912.748	4424
912.862	4280
912.976	4227
913.09	4078
913.204	4166
913.318	4265
913.431	4421
913.545	4344
913.659	4459
913.772	4402
913.886	4219
914	4188
914.113	4344
914.226	4436
914.34	4352
914.453	4242
914.566	4421
914.68	4299
914.793	4314
914.906	4116
915.019	4131
915.132	4017
915.245	4158
915.358	4150
915.47	4204
915.583	4276
915.696	4249
915.809	4409
915.921	4379
916.034	4303
916.146	4227
916.259	4192
916.371	4344
916.483	4379
916.595	4280
916.708	4325
916.82	4356
916.932	4318
917.044	4306
917.156	4344
917.268	4265
917.38	4295
917.491	4287
917.603	4318
917.715	4394
917.826	4443
917.938	4325
918.049	4234
918.161	4405
918.272	4554
918.384	4519
918.495	4462
918.606	4329
918.717	4234
918.828	4325
918.939	4344
919.05	4242
919.161	4322
919.272	4147
919.383	4249
919.494	4424
919.604	4580
919.715	4421
919.826	4333
919.936	4390
920.047	4500
920.157	4554
920.267	4653
920.378	4542
920.488	4508
920.598	4729
920.708	4938
920.818	4748
920.928	4774
921.038	4930
921.148	4915
921.258	4588
921.368	4554
921.477	4466
921.587	4451
921.697	4341
921.806	4550
921.916	4451
922.025	4303
922.134	4291
922.244	4158
922.353	4291
922.462	4162
922.571	4150
922.68	4010
922.789	4032
922.898	4051
923.007	3991
923.116	4131
923.224	4044
923.333	4090
923.442	4002
923.55	3998
923.659	3983
923.767	4086
923.876	3991
923.984	4109
924.092	4010
924.201	4093
924.309	4055
924.417	4128
924.525	4036
924.633	4071
924.741	4987
924.849	3915
924.956	4139
925.064	3972
925.172	3907
925.279	3979
925.387	4036
925.494	4071
925.602	4181
925.709	4147
925.816	4032
925.924	4158
926.031	4192
926.138	4143
926.245	4207
926.352	4128
926.459	4234
926.566	4329
926.673	4116
926.779	4059
926.886	4051
926.993	3949
927.099	3949
927.206	3960
927.312	3899
927.419	4044
927.525	4036
927.631	4078
927.737	3945
927.843	3941
927.95	3842
928.056	3907
928.162	3994
928.267	4067
928.373	4694
928.479	4139
928.585	3876
928.69	4036
928.796	4078
928.901	3945
929.007	3876
929.112	3972
929.218	3991
929.323	3949
929.428	3896
929.533	4147
929.638	3926
929.743	3953
929.848	3998
929.953	4013
930.058	3873
930.163	3778
930.267	3838
930.372	3972
930.477	3785
930.581	4116
930.685	3903
930.79	3823
930.894	3899
930.998	3865
931.103	4017
931.207	3713
931.311	3667
931.415	3701
931.519	3469
931.623	3519
