Data from test_V78500241_2499.txt Node
Date: Fri Mar 25 17:06:22 CST 2022
User: usil
Spectrometer: V785-0024
Trigger mode: 0
Integration Time (sec): 4.000000E-1
Scans to average: 1
Nonlinearity correction enabled: false
Boxcar width: 0
Storing dark spectrum: false
XAxis mode: Wavelengths
Number of Pixels in Spectrum: 1024
>>>>>Begin Spectral Data<<<<<
801.071	7944
801.214	7982
801.356	7841
801.499	7826
801.641	7792
801.783	7780
801.926	7940
802.068	7947
802.211	7921
802.353	7967
802.496	7909
802.638	7856
802.78	7887
802.923	7902
803.065	7864
803.208	7807
803.35	7887
803.492	8119
803.635	8199
803.777	7986
803.919	8168
804.061	8476
804.204	8180
804.346	8035
804.488	7963
804.63	8043
804.773	8020
804.915	8123
805.057	8309
805.199	8202
805.341	8218
805.483	8294
805.626	8164
805.768	8210
805.91	8225
806.052	8214
806.194	8134
806.336	8305
806.478	8046
806.62	8027
806.762	8115
806.904	8256
807.046	8499
807.188	8404
807.33	8301
807.472	8290
807.614	8176
807.756	8153
807.898	8027
808.04	7795
808.182	7868
808.324	7841
808.465	7917
808.607	8031
808.749	8134
808.891	8206
809.033	8320
809.174	8214
809.316	8103
809.458	8008
809.6	8039
809.741	7993
809.883	8016
810.025	8062
810.166	8046
810.308	8012
810.45	7925
810.591	7856
810.733	7727
810.875	7681
811.016	7601
811.158	7487
811.299	7499
811.441	7757
811.582	7704
811.724	7537
811.865	7556
812.007	7586
812.148	7597
812.29	7597
812.431	7715
812.573	7864
812.714	7993
812.855	8088
812.997	8214
813.138	8328
813.279	8176
813.421	8107
813.562	8008
813.703	7913
813.845	7776
813.986	7400
814.127	7301
814.268	7225
814.41	7183
814.551	7194
814.692	7251
814.833	7042
814.974	7110
815.115	7152
815.256	6977
815.397	6875
815.539	6905
815.68	6787
815.821	6764
815.962	6867
816.103	6875
816.244	6707
816.385	6669
816.526	6604
816.666	6475
816.807	6365
816.948	6403
817.089	6429
817.23	6448
817.371	6429
817.512	6334
817.653	6410
817.793	6350
817.934	6441
818.075	6437
818.216	6456
818.356	6418
818.497	6216
818.638	6163
818.778	6144
818.919	6178
819.06	6079
819.2	6315
819.341	6365
819.481	6372
819.622	6544
819.762	6711
819.903	6726
820.043	6612
820.184	6601
820.324	6589
820.465	6703
820.605	6703
820.746	6616
820.886	6547
821.026	6650
821.167	6711
821.307	6837
821.447	6814
821.588	6654
821.728	6544
821.868	6445
822.008	6346
822.149	6338
822.289	6353
822.429	6224
822.569	6106
822.709	6098
822.849	5912
822.99	5870
823.13	5882
823.27	5878
823.41	5741
823.55	5722
823.69	5805
823.83	5802
823.97	5649
824.11	5505
824.25	5459
824.389	5554
824.529	5596
824.669	5539
824.809	5611
824.949	5608
825.089	5558
825.228	5516
825.368	5383
825.508	5330
825.648	5376
825.787	5360
825.927	5414
826.067	5322
826.206	5277
826.346	5349
826.485	5345
826.625	5383
826.765	5528
826.904	5535
827.044	5258
827.183	5258
827.323	5121
827.462	5250
827.601	5151
827.741	5197
827.88	5223
828.02	5105
828.159	5227
828.298	5296
828.437	5372
828.577	5307
828.716	5501
828.855	5318
828.994	5159
829.134	5128
829.273	5124
829.412	5166
829.551	5056
829.69	5132
829.829	5201
829.968	5387
830.107	5288
830.246	5303
830.385	5220
830.524	5109
830.663	5037
830.802	4987
830.941	4896
831.08	4900
831.219	5022
831.357	4934
831.496	5113
831.635	4961
831.774	4843
831.913	4831
832.051	4759
832.19	4748
832.329	4843
832.467	4675
832.606	4630
832.744	4698
832.883	4687
833.022	4740
833.16	4774
833.299	4847
833.437	4835
833.576	4835
833.714	4835
833.852	4858
833.991	4892
834.129	4949
834.267	4953
834.406	4877
834.544	4987
834.682	4976
834.821	4976
834.959	5098
835.097	4995
835.235	5140
835.373	5079
835.511	5090
835.65	4976
835.788	5045
835.926	4892
836.064	4885
836.202	4923
836.34	5132
836.478	5212
836.615	5079
836.753	5197
836.891	5280
837.029	5296
837.167	5197
837.305	5159
837.443	5162
837.58	5094
837.718	5261
837.856	5204
837.993	5242
838.131	5227
838.269	5170
838.406	5178
838.544	5201
838.681	5022
838.819	5048
838.956	4930
839.094	4927
839.231	4972
839.369	5117
839.506	5429
839.643	5288
839.781	5071
839.918	5033
840.055	5079
840.193	5079
840.33	5140
840.467	5170
840.604	5216
840.742	5467
840.879	5136
841.016	5109
841.153	5166
841.29	5429
841.427	5364
841.564	5360
841.701	5379
841.838	5296
841.975	5242
842.112	5311
842.249	5185
842.385	5140
842.522	5414
842.659	5178
842.796	5181
842.933	5242
843.069	5201
843.206	5220
843.343	5383
843.479	5235
843.616	5280
843.752	5117
843.889	5086
844.025	5288
844.162	5071
844.298	5227
844.435	5151
844.571	5098
844.708	5231
844.844	5376
844.98	5410
845.117	5227
845.253	5170
845.389	5079
845.525	5155
845.661	5132
845.798	5086
845.934	5109
846.07	5113
846.206	5280
846.342	5334
846.478	5193
846.614	5090
846.75	4987
846.886	4980
847.022	5128
847.158	5067
847.294	5079
847.429	5109
847.565	5067
847.701	5334
847.837	4930
847.972	4870
848.108	4957
848.244	4968
848.379	4797
848.515	4767
848.65	4752
848.786	4778
848.921	4793
849.057	4885
849.192	4972
849.328	4881
849.463	4866
849.598	4843
849.734	4774
849.869	4679
850.004	4679
850.14	4683
850.275	4588
850.41	4565
850.545	4577
850.68	4675
850.815	4675
850.95	4618
851.085	4866
851.22	4786
851.355	4710
851.49	4683
851.625	4679
851.76	4683
851.895	4630
852.03	4603
852.165	4740
852.299	4748
852.434	4812
852.569	4778
852.703	4790
852.838	4900
852.973	4953
853.107	4927
853.242	4793
853.376	4717
853.511	4554
853.645	4649
853.78	4816
853.914	4706
854.048	4736
854.183	4637
854.317	4706
854.451	4923
854.585	4733
854.72	4660
854.854	4778
854.988	4637
855.122	4634
855.256	4607
855.39	4683
855.524	4812
855.658	4748
855.792	4748
855.926	4763
856.06	4854
856.194	4824
856.327	4721
856.461	4668
856.595	4653
856.729	4668
856.862	4809
856.996	4736
857.13	4752
857.263	4801
857.397	4843
857.53	4664
857.664	4736
857.797	4847
857.931	4847
858.064	4706
858.197	4767
858.331	4679
858.464	4630
858.597	4527
858.731	4630
858.864	4622
858.997	4618
859.13	4694
859.263	4733
859.396	4706
859.529	4607
859.662	4622
859.795	4546
859.928	4626
860.061	4725
860.194	4786
860.327	4660
860.46	4592
860.592	4755
860.725	4755
860.858	4694
860.99	4558
861.123	4565
861.256	4554
861.388	4603
861.521	5242
861.653	4508
861.786	4478
861.918	4489
862.05	4561
862.183	4569
862.315	4634
862.447	4675
862.58	4603
862.712	4466
862.844	4394
862.976	4459
863.108	4493
863.24	4866
863.372	4344
863.504	4417
863.636	4443
863.768	4508
863.9	4459
864.032	4367
864.164	4493
864.296	4497
864.428	4546
864.559	4573
864.691	4577
864.823	4546
864.954	4504
865.086	4546
865.217	4512
865.349	4470
865.48	4493
865.612	4535
865.743	4679
865.875	4489
866.006	4409
866.137	4512
866.269	4485
866.4	4466
866.531	4443
866.662	4432
866.793	4428
866.924	4466
867.055	4470
867.186	4481
867.317	4478
867.448	4379
867.579	4478
867.71	4386
867.841	4386
867.972	4493
868.103	4508
868.233	4474
868.364	4474
868.495	4554
868.625	4687
868.756	4782
868.886	4603
869.017	4687
869.147	4782
869.278	4759
869.408	4687
869.539	4664
869.669	4714
869.799	4672
869.929	4778
870.06	4782
870.19	4968
870.32	4934
870.45	4999
870.58	5025
870.71	5140
870.84	5121
870.97	5018
871.1	4904
871.23	5166
871.36	5178
871.489	5102
871.619	5086
871.749	5170
871.879	5147
872.008	5208
872.138	5083
872.267	5060
872.397	4885
872.526	4839
872.656	4763
872.785	4839
872.915	4927
873.044	5033
873.173	4961
873.303	4995
873.432	4972
873.561	5025
873.69	4896
873.819	4927
873.948	4934
874.077	4843
874.206	4797
874.335	4801
874.464	4915
874.593	5086
874.722	4953
874.851	5166
874.979	5121
875.108	5056
875.237	4949
875.365	4904
875.494	4892
875.623	5037
875.751	4854
875.88	4953
876.008	4984
876.136	5102
876.265	5235
876.393	5345
876.521	5307
876.65	5246
876.778	5185
876.906	5105
877.034	5090
877.162	5124
877.29	5018
877.418	5079
877.546	5075
877.674	5079
877.802	5056
877.93	5045
878.058	4946
878.185	4976
878.313	5033
878.441	5006
878.568	4850
878.696	4900
878.824	4938
878.951	4995
879.079	5147
879.206	5318
879.333	5162
879.461	5060
879.588	4976
879.715	5132
879.842	5254
879.97	5033
880.097	4854
880.224	4820
880.351	4824
880.478	4911
880.605	4835
880.732	4752
880.859	5079
880.986	4870
881.112	4946
881.239	4809
881.366	4755
881.493	4622
881.619	4664
881.746	4649
881.872	4675
881.999	4691
882.125	4691
882.252	4850
882.378	4824
882.505	5010
882.631	4847
882.757	4721
882.883	4736
883.01	4759
883.136	4721
883.262	4615
883.388	4607
883.514	4877
883.64	4866
883.766	4801
883.892	4679
884.018	4687
884.143	4896
884.269	5014
884.395	4698
884.52	4649
884.646	4634
884.772	4618
884.897	4546
885.023	4702
885.148	4812
885.274	4854
885.399	4854
885.524	4748
885.65	4656
885.775	4763
885.9	4748
886.025	4889
886.15	4778
886.275	4740
886.4	4694
886.525	4755
886.65	4725
886.775	4721
886.9	4972
887.025	5037
887.149	4854
887.274	4622
887.399	4630
887.523	4611
887.648	4603
887.773	4656
887.897	4778
888.021	4778
888.146	4710
888.27	4820
888.395	4930
888.519	4831
888.643	4820
888.767	4854
888.891	4687
889.015	4584
889.139	4672
889.263	4626
889.387	4778
889.511	4923
889.635	4809
889.759	4645
889.883	4679
890.006	4717
890.13	4843
890.254	4622
890.377	4660
890.501	4569
890.624	4550
890.748	4664
890.871	4512
890.995	4440
891.118	4379
891.241	4538
891.364	4580
891.488	4622
891.611	4512
891.734	4580
891.857	4634
891.98	4577
892.103	4641
892.226	4584
892.349	4538
892.471	4432
892.594	4538
892.717	4592
892.839	4611
892.962	4618
893.085	4641
893.207	4641
893.33	4478
893.452	4542
893.575	4660
893.697	4603
893.819	4774
893.941	4824
894.064	4752
894.186	4634
894.308	4550
894.43	4767
894.552	4786
894.674	4759
894.796	4596
894.918	4588
895.04	4615
895.161	4740
895.283	4649
895.405	4584
895.526	4656
895.648	4721
895.769	4714
895.891	4710
896.012	4774
896.134	4744
896.255	4679
896.376	4641
896.498	4584
896.619	4675
896.74	4672
896.861	4664
896.982	4961
897.103	5109
897.224	4858
897.345	4748
897.466	4714
897.587	4801
897.708	4824
897.828	4786
897.949	4679
898.07	4584
898.19	4668
898.311	4782
898.431	4748
898.552	4805
898.672	4854
898.792	4820
898.913	4729
899.033	4626
899.153	4550
899.273	4474
899.393	4542
899.513	4569
899.633	4569
899.753	4588
899.873	4573
899.993	4599
900.113	4554
900.232	4554
900.352	4596
900.472	4554
900.591	4379
900.711	4493
900.83	4462
900.95	4626
901.069	4706
901.189	4527
901.308	4337
901.427	4299
901.546	4390
901.665	4459
901.784	4512
901.904	4443
902.023	4371
902.141	4211
902.26	4230
902.379	4325
902.498	4253
902.617	4219
902.735	4413
902.854	4432
902.973	4367
903.091	4200
903.21	4223
903.328	4303
903.446	4295
903.565	4314
903.683	4337
903.801	4268
903.919	4409
904.038	4459
904.156	4352
904.274	4447
904.392	4402
904.51	4455
904.627	4535
904.745	4596
904.863	4668
904.981	4421
905.098	4314
905.216	4386
905.334	4455
905.451	4470
905.569	4462
905.686	4573
905.803	4599
905.921	4428
906.038	4523
906.155	4493
906.272	4360
906.389	4481
906.506	4352
906.623	4363
906.74	4390
906.857	4333
906.974	4337
907.091	4561
907.208	4694
907.324	4558
907.441	4500
907.557	4356
907.674	4356
907.79	4303
907.907	4413
908.023	4493
908.139	4451
908.256	4470
908.372	4440
908.488	4474
908.604	4348
908.72	4333
908.836	4413
908.952	4371
909.068	4443
909.184	4584
909.3	4497
909.415	4607
909.531	4573
909.647	4341
909.762	4367
909.878	4390
909.993	4428
910.108	4428
910.224	4405
910.339	4512
910.454	4405
910.57	4360
910.685	4337
910.8	4736
910.915	4584
911.03	4470
911.145	4314
911.259	4348
911.374	4371
911.489	4303
911.604	4268
911.718	4200
911.833	4192
911.947	4101
912.062	4025
912.176	4234
912.291	4261
912.405	4280
912.519	4485
912.633	4542
912.748	4394
912.862	4276
912.976	4268
913.09	4128
913.204	4173
913.318	4268
913.431	4390
913.545	4367
913.659	4474
913.772	4421
913.886	4310
914	4276
914.113	4424
914.226	4474
914.34	4424
914.453	4272
914.566	4440
914.68	4333
914.793	4363
914.906	4166
915.019	4150
915.132	4105
915.245	4215
915.358	4238
915.47	4287
915.583	4314
915.696	4390
915.809	4466
915.921	4478
916.034	4253
916.146	4310
916.259	4246
916.371	4481
916.483	4379
916.595	4299
916.708	4356
916.82	4379
916.932	4379
917.044	4383
917.156	4390
917.268	4276
917.38	4325
917.491	4314
917.603	4428
917.715	4485
917.826	4447
917.938	4344
918.049	4306
918.161	4432
918.272	4603
918.384	4554
918.495	4474
918.606	4363
918.717	4238
918.828	4360
918.939	4466
919.05	4310
919.161	4348
919.272	4120
919.383	4265
919.494	4523
919.604	4622
919.715	4447
919.826	4398
919.936	4462
920.047	4565
920.157	4497
920.267	4694
920.378	4588
920.488	4561
920.598	4755
920.708	4930
920.818	4801
920.928	4793
921.038	5006
921.148	4927
921.258	4668
921.368	4588
921.477	4527
921.587	4500
921.697	4405
921.806	4573
921.916	4459
922.025	4295
922.134	4314
922.244	4261
922.353	4348
922.462	4166
922.571	4215
922.68	4044
922.789	4044
922.898	4124
923.007	3979
923.116	4124
923.224	4112
923.333	4112
923.442	3991
923.55	4029
923.659	4059
923.767	4109
923.876	4048
923.984	4154
924.092	4006
924.201	4086
924.309	4173
924.417	4154
924.525	4036
924.633	4124
924.741	4927
924.849	3960
924.956	4166
925.064	3975
925.172	3937
925.279	4017
925.387	4109
925.494	4090
925.602	4219
925.709	4211
925.816	4112
925.924	4181
926.031	4246
926.138	4204
926.245	4215
926.352	4120
926.459	4295
926.566	4314
926.673	4219
926.779	4116
926.886	4192
926.993	4040
927.099	3972
927.206	4002
927.312	3945
927.419	4101
927.525	4025
927.631	4116
927.737	4036
927.843	3953
927.95	3911
928.056	4010
928.162	3994
928.267	4078
928.373	4634
928.479	4166
928.585	3907
928.69	4055
928.796	4124
928.901	4017
929.007	3884
929.112	4040
929.218	4025
929.323	3979
929.428	3979
929.533	4116
929.638	3975
929.743	4006
929.848	4105
929.953	4055
930.058	3968
930.163	3838
930.267	3846
930.372	3998
930.477	3884
930.581	4150
930.685	4010
930.79	3880
930.894	3930
930.998	3888
931.103	4097
931.207	3793
931.311	3694
931.415	3709
931.519	3538
931.623	3599
