Data from test_V78500241_1659.txt Node
Date: Fri Mar 25 17:00:32 CST 2022
User: usil
Spectrometer: V785-0024
Trigger mode: 0
Integration Time (sec): 4.000000E-1
Scans to average: 1
Nonlinearity correction enabled: false
Boxcar width: 0
Storing dark spectrum: false
XAxis mode: Wavelengths
Number of Pixels in Spectrum: 1024
>>>>>Begin Spectral Data<<<<<
801.071	8001
801.214	7940
801.356	7814
801.499	7917
801.641	7742
801.783	7799
801.926	7868
802.068	7940
802.211	7940
802.353	7970
802.496	7845
802.638	7822
802.78	7871
802.923	7887
803.065	7887
803.208	7856
803.35	7932
803.492	8058
803.635	8103
803.777	7989
803.919	8096
804.061	8488
804.204	8145
804.346	8111
804.488	7932
804.63	8126
804.773	7967
804.915	8123
805.057	8328
805.199	8069
805.341	8252
805.483	8298
805.626	8191
805.768	8115
805.91	8248
806.052	8218
806.194	8054
806.336	8248
806.478	8096
806.62	8020
806.762	8164
806.904	8305
807.046	8522
807.188	8298
807.33	8271
807.472	8290
807.614	8138
807.756	8081
807.898	7993
808.04	7940
808.182	7902
808.324	7906
808.465	7925
808.607	8084
808.749	8050
808.891	8149
809.033	8339
809.174	8103
809.316	8084
809.458	8138
809.6	7959
809.741	8065
809.883	8054
810.025	8043
810.166	8050
810.308	7997
810.45	7997
810.591	7898
810.733	7681
810.875	7674
811.016	7533
811.158	7457
811.299	7586
811.441	7742
811.582	7677
811.724	7548
811.865	7518
812.007	7578
812.148	7590
812.29	7578
812.431	7792
812.573	7902
812.714	7921
812.855	8103
812.997	8168
813.138	8320
813.279	8244
813.421	8065
813.562	7947
813.703	7818
813.845	7734
813.986	7384
814.127	7202
814.268	7179
814.41	7137
814.551	7107
814.692	7228
814.833	7065
814.974	7114
815.115	7133
815.256	6966
815.397	6932
815.539	6947
815.68	6749
815.821	6760
815.962	6787
816.103	6760
816.244	6662
816.385	6593
816.526	6570
816.666	6467
816.807	6346
816.948	6437
817.089	6464
817.23	6418
817.371	6300
817.512	6426
817.653	6414
817.793	6292
817.934	6426
818.075	6456
818.216	6399
818.356	6399
818.497	6239
818.638	6114
818.778	6133
818.919	6155
819.06	6159
819.2	6308
819.341	6247
819.481	6296
819.622	6532
819.762	6745
819.903	6688
820.043	6540
820.184	6547
820.324	6627
820.465	6700
820.605	6669
820.746	6715
820.886	6483
821.026	6620
821.167	6688
821.307	6741
821.447	6768
821.588	6627
821.728	6559
821.868	6407
822.008	6304
822.149	6388
822.289	6338
822.429	6167
822.569	6072
822.709	6121
822.849	5885
822.99	5935
823.13	5878
823.27	5920
823.41	5775
823.55	5760
823.69	5745
823.83	5786
823.97	5691
824.11	5501
824.25	5493
824.389	5604
824.529	5592
824.669	5448
824.809	5600
824.949	5649
825.089	5562
825.228	5471
825.368	5376
825.508	5296
825.648	5364
825.787	5345
825.927	5364
826.067	5261
826.206	5315
826.346	5349
826.485	5414
826.625	5376
826.765	5566
826.904	5520
827.044	5250
827.183	5174
827.323	5159
827.462	5246
827.601	5181
827.741	5166
827.88	5269
828.02	5143
828.159	5235
828.298	5265
828.437	5322
828.577	5299
828.716	5463
828.855	5391
828.994	5143
829.134	5178
829.273	5223
829.412	5136
829.551	5143
829.69	5170
829.829	5269
829.968	5395
830.107	5235
830.246	5326
830.385	5201
830.524	5197
830.663	5052
830.802	4980
830.941	4911
831.08	4930
831.219	4995
831.357	5006
831.496	5250
831.635	4927
831.774	4873
831.913	4858
832.051	4774
832.19	4755
832.329	4858
832.467	4710
832.606	4656
832.744	4805
832.883	4767
833.022	4790
833.16	4862
833.299	4870
833.437	4828
833.576	4831
833.714	4870
833.852	4896
833.991	4930
834.129	4961
834.267	5041
834.406	4923
834.544	5003
834.682	5037
834.821	4961
834.959	5166
835.097	4972
835.235	5162
835.373	5121
835.511	5162
835.65	5056
835.788	5045
835.926	4953
836.064	4900
836.202	4915
836.34	5216
836.478	5273
836.615	5197
836.753	5227
836.891	5311
837.029	5227
837.167	5204
837.305	5155
837.443	5140
837.58	5128
837.718	5311
837.856	5254
837.993	5128
838.131	5269
838.269	5231
838.406	5185
838.544	5231
838.681	5018
838.819	5018
838.956	4900
839.094	4938
839.231	5079
839.369	5117
839.506	5455
839.643	5292
839.781	5075
839.918	5033
840.055	5083
840.193	5090
840.33	5109
840.467	5181
840.604	5204
840.742	5463
840.879	5121
841.016	5098
841.153	5197
841.29	5440
841.427	5353
841.564	5360
841.701	5455
841.838	5330
841.975	5265
842.112	5292
842.249	5181
842.385	5056
842.522	5326
842.659	5185
842.796	5170
842.933	5220
843.069	5239
843.206	5212
843.343	5326
843.479	5265
843.616	5280
843.752	5056
843.889	5033
844.025	5269
844.162	5056
844.298	5250
844.435	5128
844.571	5083
844.708	5231
844.844	5318
844.98	5341
845.117	5341
845.253	5174
845.389	5113
845.525	5181
845.661	5140
845.798	5060
845.934	5128
846.07	5064
846.206	5193
846.342	5315
846.478	5185
846.614	5079
846.75	5006
846.886	4972
847.022	5136
847.158	5052
847.294	5098
847.429	5132
847.565	5090
847.701	5330
847.837	4911
847.972	4820
848.108	5045
848.244	4987
848.379	4854
848.515	4771
848.65	4733
848.786	4759
848.921	4805
849.057	4866
849.192	4892
849.328	4850
849.463	4892
849.598	4778
849.734	4774
849.869	4736
850.004	4698
850.14	4664
850.275	4634
850.41	4523
850.545	4660
850.68	4645
850.815	4679
850.95	4611
851.085	4843
851.22	4736
851.355	4702
851.49	4702
851.625	4687
851.76	4641
851.895	4618
852.03	4546
852.165	4664
852.299	4790
852.434	4774
852.569	4786
852.703	4812
852.838	4862
852.973	4934
853.107	4972
853.242	4767
853.376	4729
853.511	4546
853.645	4649
853.78	4809
853.914	4721
854.048	4687
854.183	4687
854.317	4706
854.451	4877
854.585	4710
854.72	4691
854.854	4740
854.988	4672
855.122	4668
855.256	4535
855.39	4672
855.524	4755
855.658	4744
855.792	4740
855.926	4736
856.06	4797
856.194	4774
856.327	4755
856.461	4653
856.595	4694
856.729	4664
856.862	4797
856.996	4714
857.13	4729
857.263	4828
857.397	4847
857.53	4683
857.664	4733
857.797	4797
857.931	4740
858.064	4706
858.197	4774
858.331	4653
858.464	4649
858.597	4588
858.731	4698
858.864	4698
858.997	4653
859.13	4653
859.263	4702
859.396	4744
859.529	4550
859.662	4596
859.795	4573
859.928	4618
860.061	4782
860.194	4786
860.327	4683
860.46	4546
860.592	4683
860.725	4736
860.858	4767
860.99	4599
861.123	4561
861.256	4558
861.388	4618
861.521	5368
861.653	4474
861.786	4409
861.918	4531
862.05	4558
862.183	4618
862.315	4668
862.447	4656
862.58	4531
862.712	4466
862.844	4322
862.976	4497
863.108	4424
863.24	4771
863.372	4402
863.504	4409
863.636	4432
863.768	4493
863.9	4504
864.032	4360
864.164	4451
864.296	4512
864.428	4588
864.559	4577
864.691	4508
864.823	4588
864.954	4527
865.086	4527
865.217	4474
865.349	4383
865.48	4485
865.612	4565
865.743	4653
865.875	4478
866.006	4443
866.137	4504
866.269	4447
866.4	4470
866.531	4436
866.662	4432
866.793	4436
866.924	4447
867.055	4527
867.186	4459
867.317	4424
867.448	4428
867.579	4451
867.71	4386
867.841	4379
867.972	4478
868.103	4455
868.233	4466
868.364	4493
868.495	4538
868.625	4702
868.756	4797
868.886	4577
869.017	4618
869.147	4759
869.278	4786
869.408	4672
869.539	4668
869.669	4721
869.799	4675
869.929	4759
870.06	4801
870.19	4984
870.32	4930
870.45	4972
870.58	5083
870.71	5098
870.84	5086
870.97	5014
871.1	4904
871.23	5220
871.36	5155
871.489	5048
871.619	5128
871.749	5094
871.879	5174
872.008	5151
872.138	5071
872.267	5033
872.397	4896
872.526	4793
872.656	4759
872.785	4839
872.915	4980
873.044	5071
873.173	4949
873.303	4976
873.432	4987
873.561	4961
873.69	4873
873.819	4873
873.948	4953
874.077	4881
874.206	4767
874.335	4782
874.464	4961
874.593	5041
874.722	4961
874.851	5113
874.979	5098
875.108	5029
875.237	5003
875.365	4892
875.494	4904
875.623	4976
875.751	4805
875.88	4854
876.008	5014
876.136	5045
876.265	5140
876.393	5357
876.521	5273
876.65	5258
876.778	5140
876.906	5079
877.034	5060
877.162	5155
877.29	5041
877.418	5060
877.546	5071
877.674	5037
877.802	5056
877.93	5022
878.058	4915
878.185	4904
878.313	4999
878.441	4938
878.568	4793
878.696	4900
878.824	4961
878.951	5014
879.079	5128
879.206	5334
879.333	5109
879.461	5025
879.588	5018
879.715	5147
879.842	5250
879.97	5033
880.097	4801
880.224	4786
880.351	4801
880.478	4828
880.605	4771
880.732	4870
880.859	5102
880.986	4904
881.112	4946
881.239	4786
881.366	4694
881.493	4618
881.619	4603
881.746	4656
881.872	4691
881.999	4672
882.125	4698
882.252	4801
882.378	4793
882.505	4999
882.631	4801
882.757	4675
882.883	4763
883.01	4721
883.136	4664
883.262	4558
883.388	4664
883.514	4824
883.64	4862
883.766	4721
883.892	4656
884.018	4725
884.143	4911
884.269	5037
884.395	4725
884.52	4660
884.646	4675
884.772	4607
884.897	4577
885.023	4656
885.148	4778
885.274	4858
885.399	4824
885.524	4805
885.65	4672
885.775	4759
885.9	4725
886.025	4881
886.15	4797
886.275	4717
886.4	4687
886.525	4752
886.65	4694
886.775	4683
886.9	4904
887.025	5045
887.149	4793
887.274	4683
887.399	4622
887.523	4622
887.648	4599
887.773	4615
887.897	4706
888.021	4812
888.146	4687
888.27	4866
888.395	4927
888.519	4786
888.643	4866
888.767	4866
888.891	4729
889.015	4584
889.139	4679
889.263	4672
889.387	4782
889.511	4870
889.635	4793
889.759	4668
889.883	4660
890.006	4702
890.13	4805
890.254	4641
890.377	4691
890.501	4538
890.624	4519
890.748	4649
890.871	4527
890.995	4436
891.118	4409
891.241	4569
891.364	4519
891.488	4622
891.611	4500
891.734	4573
891.857	4645
891.98	4577
892.103	4645
892.226	4626
892.349	4573
892.471	4436
892.594	4577
892.717	4630
892.839	4577
892.962	4611
893.085	4672
893.207	4641
893.33	4451
893.452	4474
893.575	4698
893.697	4580
893.819	4790
893.941	4858
894.064	4778
894.186	4565
894.308	4519
894.43	4687
894.552	4801
894.674	4752
894.796	4550
894.918	4607
895.04	4554
895.161	4683
895.283	4694
895.405	4565
895.526	4679
895.648	4691
895.769	4698
895.891	4698
896.012	4702
896.134	4679
896.255	4664
896.376	4622
896.498	4615
896.619	4679
896.74	4592
896.861	4679
896.982	4915
897.103	5071
897.224	4797
897.345	4729
897.466	4710
897.587	4702
897.708	4877
897.828	4847
897.949	4660
898.07	4565
898.19	4618
898.311	4828
898.431	4698
898.552	4725
898.672	4801
898.792	4793
898.913	4759
899.033	4649
899.153	4519
899.273	4424
899.393	4489
899.513	4516
899.633	4523
899.753	4531
899.873	4565
899.993	4554
900.113	4554
900.232	4603
900.352	4519
900.472	4478
900.591	4413
900.711	4466
900.83	4440
900.95	4577
901.069	4664
901.189	4527
901.308	4447
901.427	4337
901.546	4318
901.665	4474
901.784	4554
901.904	4375
902.023	4318
902.141	4211
902.26	4158
902.379	4314
902.498	4261
902.617	4230
902.735	4371
902.854	4394
902.973	4310
903.091	4230
903.21	4272
903.328	4329
903.446	4310
903.565	4291
903.683	4383
903.801	4306
903.919	4413
904.038	4443
904.156	4356
904.274	4474
904.392	4402
904.51	4470
904.627	4462
904.745	4637
904.863	4683
904.981	4424
905.098	4325
905.216	4405
905.334	4443
905.451	4512
905.569	4481
905.686	4634
905.803	4607
905.921	4432
906.038	4561
906.155	4535
906.272	4424
906.389	4474
906.506	4440
906.623	4436
906.74	4424
906.857	4402
906.974	4421
907.091	4626
907.208	4725
907.324	4618
907.441	4542
907.557	4375
907.674	4390
907.79	4383
907.907	4462
908.023	4474
908.139	4535
908.256	4523
908.372	4504
908.488	4485
908.604	4398
908.72	4398
908.836	4455
908.952	4432
909.068	4478
909.184	4577
909.3	4542
909.415	4637
909.531	4584
909.647	4375
909.762	4371
909.878	4409
909.993	4481
910.108	4474
910.224	4440
910.339	4508
910.454	4451
910.57	4447
910.685	4344
910.8	4706
910.915	4660
911.03	4558
911.145	4367
911.259	4363
911.374	4394
911.489	4322
911.604	4276
911.718	4207
911.833	4268
911.947	4131
912.062	4059
912.176	4276
912.291	4295
912.405	4287
912.519	4447
912.633	4596
912.748	4386
912.862	4383
912.976	4227
913.09	4154
913.204	4192
913.318	4291
913.431	4356
913.545	4424
913.659	4493
913.772	4371
913.886	4284
914	4261
914.113	4409
914.226	4478
914.34	4447
914.453	4249
914.566	4500
914.68	4306
914.793	4383
914.906	4207
915.019	4200
915.132	4090
915.245	4238
915.358	4230
915.47	4276
915.583	4333
915.696	4310
915.809	4447
915.921	4394
916.034	4322
916.146	4291
916.259	4253
916.371	4405
916.483	4363
916.595	4306
916.708	4360
916.82	4367
916.932	4398
917.044	4310
917.156	4348
917.268	4280
917.38	4303
917.491	4333
917.603	4367
917.715	4489
917.826	4489
917.938	4348
918.049	4303
918.161	4402
918.272	4538
918.384	4504
918.495	4432
918.606	4295
918.717	4272
918.828	4390
918.939	4356
919.05	4246
919.161	4329
919.272	4173
919.383	4284
919.494	4451
919.604	4626
919.715	4516
919.826	4371
919.936	4485
920.047	4546
920.157	4577
920.267	4710
920.378	4561
920.488	4527
920.598	4744
920.708	4885
920.818	4816
920.928	4759
921.038	4965
921.148	4934
921.258	4702
921.368	4588
921.477	4512
921.587	4493
921.697	4383
921.806	4607
921.916	4424
922.025	4299
922.134	4318
922.244	4230
922.353	4360
922.462	4234
922.571	4128
922.68	4059
922.789	3983
922.898	4078
923.007	4029
923.116	4131
923.224	4109
923.333	4116
923.442	4048
923.55	4044
923.659	4010
923.767	4162
923.876	4040
923.984	4185
924.092	4032
924.201	4101
924.309	4154
924.417	4158
924.525	4124
924.633	4112
924.741	4942
924.849	3987
924.956	4150
925.064	4002
925.172	3953
925.279	3994
925.387	4048
925.494	4086
925.602	4211
925.709	4177
925.816	4120
925.924	4135
926.031	4211
926.138	4169
926.245	4215
926.352	4074
926.459	4299
926.566	4329
926.673	4185
926.779	4200
926.886	4128
926.993	4059
927.099	4032
927.206	3994
927.312	3949
927.419	4071
927.525	4097
927.631	4116
927.737	3975
927.843	3941
927.95	3835
928.056	3979
928.162	4029
928.267	4090
928.373	4584
928.479	4116
928.585	3911
928.69	4097
928.796	4093
928.901	4010
929.007	3865
929.112	4025
929.218	4021
929.323	4036
929.428	3964
929.533	4116
929.638	3949
929.743	4017
929.848	4044
929.953	4040
930.058	3934
930.163	3781
930.267	3846
930.372	3983
930.477	3842
930.581	4147
930.685	3979
930.79	3850
930.894	3918
930.998	3888
931.103	4074
931.207	3755
931.311	3759
931.415	3709
931.519	3564
931.623	3572
