Data from test_V78500241_2284.txt Node
Date: Fri Mar 25 17:04:53 CST 2022
User: usil
Spectrometer: V785-0024
Trigger mode: 0
Integration Time (sec): 4.000000E-1
Scans to average: 1
Nonlinearity correction enabled: false
Boxcar width: 0
Storing dark spectrum: false
XAxis mode: Wavelengths
Number of Pixels in Spectrum: 1024
>>>>>Begin Spectral Data<<<<<
801.071	8008
801.214	7986
801.356	7811
801.499	7776
801.641	7772
801.783	7811
801.926	7955
802.068	7906
802.211	7970
802.353	7955
802.496	7849
802.638	7883
802.78	7856
802.923	7864
803.065	7830
803.208	7913
803.35	7997
803.492	8035
803.635	8221
803.777	8092
803.919	8046
804.061	8461
804.204	8142
804.346	8069
804.488	8005
804.63	8054
804.773	8039
804.915	8065
805.057	8267
805.199	8153
805.341	8218
805.483	8271
805.626	8157
805.768	8134
805.91	8191
806.052	8168
806.194	8149
806.336	8187
806.478	8027
806.62	8043
806.762	8123
806.904	8248
807.046	8450
807.188	8294
807.33	8305
807.472	8328
807.614	8130
807.756	8157
807.898	8001
808.04	7852
808.182	7852
808.324	7879
808.465	7875
808.607	8043
808.749	8103
808.891	8248
809.033	8332
809.174	8202
809.316	8069
809.458	8081
809.6	8005
809.741	8073
809.883	8012
810.025	8062
810.166	8164
810.308	8035
810.45	7986
810.591	7906
810.733	7757
810.875	7677
811.016	7480
811.158	7476
811.299	7575
811.441	7700
811.582	7696
811.724	7559
811.865	7487
812.007	7590
812.148	7632
812.29	7601
812.431	7753
812.573	7818
812.714	7925
812.855	8073
812.997	8187
813.138	8320
813.279	8145
813.421	8100
813.562	7936
813.703	7856
813.845	7715
813.986	7445
814.127	7247
814.268	7152
814.41	7152
814.551	7145
814.692	7236
814.833	7065
814.974	7065
815.115	7065
815.256	6939
815.397	6920
815.539	6894
815.68	6776
815.821	6741
815.962	6863
816.103	6802
816.244	6787
816.385	6627
816.526	6547
816.666	6490
816.807	6296
816.948	6525
817.089	6460
817.23	6391
817.371	6334
817.512	6338
817.653	6384
817.793	6338
817.934	6414
818.075	6437
818.216	6464
818.356	6369
818.497	6220
818.638	6125
818.778	6140
818.919	6121
819.06	6140
819.2	6277
819.341	6304
819.481	6372
819.622	6528
819.762	6669
819.903	6692
820.043	6646
820.184	6528
820.324	6608
820.465	6734
820.605	6681
820.746	6654
820.886	6509
821.026	6658
821.167	6764
821.307	6825
821.447	6722
821.588	6658
821.728	6563
821.868	6486
822.008	6319
822.149	6350
822.289	6365
822.429	6148
822.569	6068
822.709	6079
822.849	5916
822.99	5904
823.13	5870
823.27	5977
823.41	5756
823.55	5786
823.69	5775
823.83	5805
823.97	5615
824.11	5532
824.25	5535
824.389	5600
824.529	5596
824.669	5520
824.809	5615
824.949	5657
825.089	5642
825.228	5524
825.368	5398
825.508	5349
825.648	5326
825.787	5379
825.927	5417
826.067	5265
826.206	5273
826.346	5395
826.485	5414
826.625	5334
826.765	5562
826.904	5512
827.044	5258
827.183	5185
827.323	5128
827.462	5254
827.601	5181
827.741	5121
827.88	5170
828.02	5136
828.159	5265
828.298	5258
828.437	5372
828.577	5258
828.716	5512
828.855	5311
828.994	5143
829.134	5166
829.273	5239
829.412	5067
829.551	5086
829.69	5193
829.829	5250
829.968	5299
830.107	5273
830.246	5307
830.385	5162
830.524	5193
830.663	5067
830.802	4976
830.941	4923
831.08	4805
831.219	4995
831.357	4991
831.496	5155
831.635	4927
831.774	4824
831.913	4847
832.051	4698
832.19	4691
832.329	4790
832.467	4683
832.606	4630
832.744	4706
832.883	4710
833.022	4717
833.16	4755
833.299	4763
833.437	4812
833.576	4835
833.714	4824
833.852	4885
833.991	4896
834.129	4919
834.267	4934
834.406	4919
834.544	4965
834.682	4991
834.821	4984
834.959	5166
835.097	4934
835.235	5162
835.373	5045
835.511	5128
835.65	4976
835.788	5029
835.926	4896
836.064	4866
836.202	4900
836.34	5166
836.478	5261
836.615	5113
836.753	5143
836.891	5242
837.029	5265
837.167	5227
837.305	5128
837.443	5151
837.58	5075
837.718	5212
837.856	5181
837.993	5159
838.131	5288
838.269	5185
838.406	5162
838.544	5181
838.681	5037
838.819	5003
838.956	4892
839.094	4934
839.231	4995
839.369	5048
839.506	5379
839.643	5280
839.781	5109
839.918	4980
840.055	5079
840.193	5094
840.33	5121
840.467	5143
840.604	5155
840.742	5490
840.879	5060
841.016	5094
841.153	5155
841.29	5391
841.427	5353
841.564	5296
841.701	5357
841.838	5273
841.975	5246
842.112	5284
842.249	5155
842.385	5124
842.522	5357
842.659	5239
842.796	5181
842.933	5204
843.069	5208
843.206	5151
843.343	5277
843.479	5261
843.616	5280
843.752	5041
843.889	5006
844.025	5269
844.162	5075
844.298	5220
844.435	5090
844.571	5060
844.708	5223
844.844	5341
844.98	5353
845.117	5273
845.253	5201
845.389	5140
845.525	5239
845.661	5166
845.798	5109
845.934	5143
846.07	5090
846.206	5201
846.342	5292
846.478	5227
846.614	5071
846.75	4965
846.886	4930
847.022	5178
847.158	5048
847.294	5094
847.429	5155
847.565	5105
847.701	5299
847.837	4858
847.972	4843
848.108	4999
848.244	4984
848.379	4873
848.515	4793
848.65	4717
848.786	4752
848.921	4809
849.057	4881
849.192	4949
849.328	4843
849.463	4850
849.598	4854
849.734	4820
849.869	4733
850.004	4691
850.14	4714
850.275	4645
850.41	4512
850.545	4622
850.68	4641
850.815	4637
850.95	4660
851.085	4828
851.22	4797
851.355	4683
851.49	4626
851.625	4641
851.76	4660
851.895	4637
852.03	4554
852.165	4653
852.299	4759
852.434	4843
852.569	4771
852.703	4805
852.838	4919
852.973	4980
853.107	4949
853.242	4763
853.376	4672
853.511	4603
853.645	4698
853.78	4816
853.914	4740
854.048	4706
854.183	4653
854.317	4729
854.451	4839
854.585	4702
854.72	4634
854.854	4759
854.988	4577
855.122	4656
855.256	4569
855.39	4668
855.524	4752
855.658	4793
855.792	4755
855.926	4774
856.06	4793
856.194	4797
856.327	4702
856.461	4615
856.595	4622
856.729	4634
856.862	4774
856.996	4702
857.13	4778
857.263	4809
857.397	4843
857.53	4668
857.664	4793
857.797	4755
857.931	4782
858.064	4714
858.197	4767
858.331	4668
858.464	4660
858.597	4493
858.731	4656
858.864	4664
858.997	4599
859.13	4653
859.263	4641
859.396	4721
859.529	4618
859.662	4569
859.795	4588
859.928	4683
860.061	4805
860.194	4782
860.327	4611
860.46	4615
860.592	4706
860.725	4740
860.858	4744
860.99	4603
861.123	4504
861.256	4565
861.388	4618
861.521	5269
861.653	4493
861.786	4459
861.918	4489
862.05	4573
862.183	4554
862.315	4599
862.447	4679
862.58	4519
862.712	4383
862.844	4363
862.976	4489
863.108	4459
863.24	4892
863.372	4394
863.504	4485
863.636	4459
863.768	4508
863.9	4440
864.032	4409
864.164	4417
864.296	4512
864.428	4577
864.559	4607
864.691	4554
864.823	4542
864.954	4497
865.086	4508
865.217	4481
865.349	4409
865.48	4466
865.612	4519
865.743	4656
865.875	4512
866.006	4443
866.137	4504
866.269	4455
866.4	4424
866.531	4466
866.662	4440
866.793	4390
866.924	4447
867.055	4542
867.186	4474
867.317	4428
867.448	4398
867.579	4367
867.71	4402
867.841	4341
867.972	4516
868.103	4478
868.233	4478
868.364	4493
868.495	4535
868.625	4664
868.756	4786
868.886	4607
869.017	4675
869.147	4790
869.278	4786
869.408	4672
869.539	4675
869.669	4675
869.799	4641
869.929	4805
870.06	4752
870.19	5029
870.32	4946
870.45	4976
870.58	5083
870.71	5128
870.84	5143
870.97	4995
871.1	4908
871.23	5189
871.36	5151
871.489	5098
871.619	5064
871.749	5136
871.879	5132
872.008	5166
872.138	5060
872.267	5018
872.397	4843
872.526	4820
872.656	4740
872.785	4816
872.915	4961
873.044	5056
873.173	4953
873.303	4976
873.432	4965
873.561	4991
873.69	4892
873.819	4889
873.948	4942
874.077	4854
874.206	4774
874.335	4763
874.464	4934
874.593	5052
874.722	4972
874.851	5105
874.979	5079
875.108	5079
875.237	4972
875.365	4946
875.494	4900
875.623	4987
875.751	4870
875.88	4934
876.008	4957
876.136	5067
876.265	5216
876.393	5349
876.521	5292
876.65	5258
876.778	5261
876.906	5113
877.034	5056
877.162	5064
877.29	5041
877.418	5151
877.546	5056
877.674	5079
877.802	5086
877.93	5064
878.058	4953
878.185	4862
878.313	4968
878.441	4984
878.568	4793
878.696	4942
878.824	4965
878.951	5022
879.079	5109
879.206	5250
879.333	5105
879.461	5014
879.588	4972
879.715	5136
879.842	5284
879.97	5033
880.097	4748
880.224	4714
880.351	4847
880.478	4843
880.605	4797
880.732	4782
880.859	5113
880.986	4927
881.112	4930
881.239	4797
881.366	4668
881.493	4656
881.619	4596
881.746	4611
881.872	4683
881.999	4683
882.125	4744
882.252	4752
882.378	4809
882.505	4946
882.631	4820
882.757	4702
882.883	4733
883.01	4706
883.136	4672
883.262	4611
883.388	4653
883.514	4820
883.64	4866
883.766	4809
883.892	4710
884.018	4729
884.143	4877
884.269	5010
884.395	4733
884.52	4668
884.646	4618
884.772	4649
884.897	4573
885.023	4660
885.148	4774
885.274	4870
885.399	4816
885.524	4698
885.65	4717
885.775	4767
885.9	4714
886.025	4866
886.15	4767
886.275	4691
886.4	4664
886.525	4694
886.65	4714
886.775	4717
886.9	4889
887.025	5067
887.149	4820
887.274	4714
887.399	4599
887.523	4653
887.648	4561
887.773	4611
887.897	4744
888.021	4843
888.146	4767
888.27	4786
888.395	4938
888.519	4782
888.643	4870
888.767	4835
888.891	4672
889.015	4637
889.139	4668
889.263	4565
889.387	4793
889.511	4839
889.635	4805
889.759	4641
889.883	4668
890.006	4752
890.13	4831
890.254	4611
890.377	4721
890.501	4546
890.624	4508
890.748	4611
890.871	4538
890.995	4424
891.118	4402
891.241	4580
891.364	4577
891.488	4637
891.611	4558
891.734	4561
891.857	4592
891.98	4580
892.103	4683
892.226	4607
892.349	4527
892.471	4455
892.594	4565
892.717	4565
892.839	4603
892.962	4630
893.085	4653
893.207	4637
893.33	4443
893.452	4565
893.575	4675
893.697	4592
893.819	4820
893.941	4892
894.064	4793
894.186	4611
894.308	4558
894.43	4721
894.552	4824
894.674	4790
894.796	4558
894.918	4603
895.04	4584
895.161	4733
895.283	4672
895.405	4546
895.526	4672
895.648	4694
895.769	4733
895.891	4774
896.012	4729
896.134	4694
896.255	4710
896.376	4618
896.498	4599
896.619	4672
896.74	4630
896.861	4694
896.982	4957
897.103	5090
897.224	4866
897.345	4733
897.466	4672
897.587	4782
897.708	4896
897.828	4793
897.949	4698
898.07	4561
898.19	4656
898.311	4812
898.431	4668
898.552	4805
898.672	4786
898.792	4847
898.913	4736
899.033	4637
899.153	4527
899.273	4443
899.393	4489
899.513	4504
899.633	4535
899.753	4577
899.873	4523
899.993	4641
900.113	4500
900.232	4565
900.352	4497
900.472	4504
900.591	4421
900.711	4535
900.83	4474
900.95	4645
901.069	4698
901.189	4546
901.308	4360
901.427	4299
901.546	4375
901.665	4447
901.784	4519
901.904	4405
902.023	4310
902.141	4188
902.26	4173
902.379	4333
902.498	4242
902.617	4295
902.735	4405
902.854	4428
902.973	4405
903.091	4223
903.21	4230
903.328	4284
903.446	4246
903.565	4227
903.683	4337
903.801	4253
903.919	4424
904.038	4436
904.156	4363
904.274	4459
904.392	4383
904.51	4459
904.627	4443
904.745	4569
904.863	4660
904.981	4367
905.098	4337
905.216	4322
905.334	4417
905.451	4409
905.569	4455
905.686	4554
905.803	4592
905.921	4413
906.038	4550
906.155	4436
906.272	4447
906.389	4447
906.506	4360
906.623	4405
906.74	4356
906.857	4333
906.974	4367
907.091	4565
907.208	4683
907.324	4653
907.441	4500
907.557	4341
907.674	4394
907.79	4333
907.907	4367
908.023	4478
908.139	4527
908.256	4447
908.372	4493
908.488	4413
908.604	4421
908.72	4352
908.836	4417
908.952	4402
909.068	4474
909.184	4577
909.3	4474
909.415	4599
909.531	4542
909.647	4352
909.762	4413
909.878	4344
909.993	4428
910.108	4432
910.224	4421
910.339	4500
910.454	4394
910.57	4371
910.685	4348
910.8	4702
910.915	4596
911.03	4489
911.145	4287
911.259	4348
911.374	4424
911.489	4276
911.604	4238
911.718	4204
911.833	4173
911.947	4048
912.062	4010
912.176	4169
912.291	4238
912.405	4238
912.519	4478
912.633	4516
912.748	4421
912.862	4299
912.976	4223
913.09	4086
913.204	4173
913.318	4299
913.431	4394
913.545	4333
913.659	4451
913.772	4360
913.886	4337
914	4230
914.113	4386
914.226	4428
914.34	4375
914.453	4215
914.566	4413
914.68	4356
914.793	4314
914.906	4188
915.019	4158
915.132	4116
915.245	4246
915.358	4181
915.47	4230
915.583	4268
915.696	4356
915.809	4481
915.921	4428
916.034	4303
916.146	4325
916.259	4230
916.371	4386
916.483	4394
916.595	4295
916.708	4398
916.82	4386
916.932	4348
917.044	4352
917.156	4371
917.268	4295
917.38	4291
917.491	4333
917.603	4356
917.715	4474
917.826	4459
917.938	4379
918.049	4276
918.161	4447
918.272	4561
918.384	4561
918.495	4489
918.606	4329
918.717	4249
918.828	4352
918.939	4409
919.05	4261
919.161	4409
919.272	4166
919.383	4287
919.494	4421
919.604	4664
919.715	4459
919.826	4394
919.936	4440
920.047	4584
920.157	4580
920.267	4710
920.378	4630
920.488	4538
920.598	4714
920.708	4915
920.818	4790
920.928	4835
921.038	4961
921.148	4961
921.258	4679
921.368	4599
921.477	4531
921.587	4508
921.697	4451
921.806	4588
921.916	4440
922.025	4291
922.134	4348
922.244	4253
922.353	4356
922.462	4150
922.571	4154
922.68	4055
922.789	4017
922.898	4067
923.007	4025
923.116	4090
923.224	4135
923.333	4112
923.442	4029
923.55	4021
923.659	4097
923.767	4128
923.876	4025
923.984	4128
924.092	4044
924.201	4120
924.309	4124
924.417	4154
924.525	4112
924.633	4166
924.741	5067
924.849	3972
924.956	4139
925.064	4013
925.172	3937
925.279	3987
925.387	4082
925.494	4074
925.602	4257
925.709	4177
925.816	4124
925.924	4192
926.031	4230
926.138	4204
926.245	4204
926.352	4097
926.459	4261
926.566	4318
926.673	4215
926.779	4124
926.886	4112
926.993	4036
927.099	4059
927.206	3983
927.312	3949
927.419	4097
927.525	4032
927.631	4124
927.737	4017
927.843	3972
927.95	3896
928.056	3972
928.162	4036
928.267	4128
928.373	4736
928.479	4135
928.585	3941
928.69	4067
928.796	4120
928.901	4002
929.007	3846
929.112	4029
929.218	3991
929.323	3975
929.428	3934
929.533	4112
929.638	3930
929.743	3991
929.848	4063
929.953	4048
930.058	3998
930.163	3842
930.267	3819
930.372	4013
930.477	3827
930.581	4124
930.685	3964
930.79	3861
930.894	3880
930.998	3861
931.103	4074
931.207	3762
931.311	3743
931.415	3724
931.519	3553
931.623	3557
