Data from test_V78500241_599.txt Node
Date: Fri Mar 25 16:53:10 CST 2022
User: usil
Spectrometer: V785-0024
Trigger mode: 0
Integration Time (sec): 4.000000E-1
Scans to average: 1
Nonlinearity correction enabled: false
Boxcar width: 0
Storing dark spectrum: false
XAxis mode: Wavelengths
Number of Pixels in Spectrum: 1024
>>>>>Begin Spectral Data<<<<<
801.071	7989
801.214	8005
801.356	7845
801.499	7868
801.641	7757
801.783	7875
801.926	7989
802.068	7978
802.211	7989
802.353	8005
802.496	7864
802.638	7936
802.78	7944
802.923	7967
803.065	7845
803.208	7826
803.35	7970
803.492	8058
803.635	8199
803.777	8031
803.919	8138
804.061	8396
804.204	8065
804.346	8096
804.488	7944
804.63	8069
804.773	8005
804.915	8084
805.057	8275
805.199	8191
805.341	8218
805.483	8313
805.626	8233
805.768	8119
805.91	8176
806.052	8210
806.194	8084
806.336	8225
806.478	8130
806.62	8069
806.762	8092
806.904	8279
807.046	8412
807.188	8393
807.33	8298
807.472	8298
807.614	8210
807.756	8119
807.898	7928
808.04	7841
808.182	8005
808.324	7894
808.465	7860
808.607	8001
808.749	8039
808.891	8161
809.033	8275
809.174	8092
809.316	8031
809.458	7986
809.6	7925
809.741	7993
809.883	8008
810.025	8092
810.166	8012
810.308	8027
810.45	8031
810.591	7868
810.733	7738
810.875	7639
811.016	7533
811.158	7495
811.299	7590
811.441	7685
811.582	7719
811.724	7559
811.865	7495
812.007	7582
812.148	7556
812.29	7586
812.431	7761
812.573	7830
812.714	7947
812.855	8176
812.997	8183
813.138	8294
813.279	8210
813.421	8180
813.562	8069
813.703	7913
813.845	7818
813.986	7460
814.127	7335
814.268	7263
814.41	7270
814.551	7145
814.692	7187
814.833	7042
814.974	7042
815.115	7099
815.256	6985
815.397	6871
815.539	6867
815.68	6859
815.821	6867
815.962	6867
816.103	6814
816.244	6772
816.385	6639
816.526	6616
816.666	6475
816.807	6300
816.948	6475
817.089	6509
817.23	6395
817.371	6391
817.512	6338
817.653	6331
817.793	6380
817.934	6410
818.075	6448
818.216	6376
818.356	6391
818.497	6213
818.638	6121
818.778	6159
818.919	6125
819.06	6155
819.2	6277
819.341	6281
819.481	6334
819.622	6502
819.762	6681
819.903	6677
820.043	6601
820.184	6509
820.324	6559
820.465	6696
820.605	6589
820.746	6623
820.886	6513
821.026	6673
821.167	6715
821.307	6798
821.447	6760
821.588	6604
821.728	6498
821.868	6445
822.008	6311
822.149	6384
822.289	6338
822.429	6133
822.569	6102
822.709	6095
822.849	5904
822.99	5904
823.13	5870
823.27	5893
823.41	5786
823.55	5756
823.69	5741
823.83	5809
823.97	5684
824.11	5478
824.25	5490
824.389	5535
824.529	5493
824.669	5547
824.809	5573
824.949	5676
825.089	5653
825.228	5566
825.368	5406
825.508	5322
825.648	5326
825.787	5383
825.927	5376
826.067	5296
826.206	5250
826.346	5326
826.485	5391
826.625	5421
826.765	5497
826.904	5467
827.044	5223
827.183	5212
827.323	5140
827.462	5246
827.601	5189
827.741	5201
827.88	5216
828.02	5105
828.159	5223
828.298	5334
828.437	5376
828.577	5250
828.716	5486
828.855	5303
828.994	5197
829.134	5155
829.273	5204
829.412	5147
829.551	5124
829.69	5193
829.829	5220
829.968	5360
830.107	5254
830.246	5246
830.385	5159
830.524	5162
830.663	5071
830.802	4953
830.941	4904
831.08	4877
831.219	5010
831.357	4968
831.496	5143
831.635	4957
831.774	4858
831.913	4816
832.051	4774
832.19	4729
832.329	4831
832.467	4656
832.606	4588
832.744	4767
832.883	4748
833.022	4706
833.16	4816
833.299	4809
833.437	4771
833.576	4835
833.714	4866
833.852	4862
833.991	4820
834.129	4942
834.267	4980
834.406	4892
834.544	4984
834.682	4919
834.821	4934
834.959	5086
835.097	5022
835.235	5201
835.373	5033
835.511	5121
835.65	5067
835.788	5006
835.926	4908
836.064	4942
836.202	4965
836.34	5132
836.478	5197
836.615	5090
836.753	5143
836.891	5311
837.029	5181
837.167	5178
837.305	5124
837.443	5132
837.58	5071
837.718	5220
837.856	5151
837.993	5121
838.131	5223
838.269	5159
838.406	5102
838.544	5166
838.681	5067
838.819	5014
838.956	4949
839.094	4915
839.231	5003
839.369	5090
839.506	5387
839.643	5254
839.781	4980
839.918	5029
840.055	5102
840.193	5121
840.33	5113
840.467	5117
840.604	5151
840.742	5421
840.879	5105
841.016	5060
841.153	5124
841.29	5299
841.427	5288
841.564	5330
841.701	5379
841.838	5296
841.975	5242
842.112	5246
842.249	5155
842.385	5086
842.522	5280
842.659	5143
842.796	5162
842.933	5185
843.069	5174
843.206	5185
843.343	5269
843.479	5231
843.616	5254
843.752	5033
843.889	5006
844.025	5220
844.162	5045
844.298	5193
844.435	5102
844.571	4995
844.708	5208
844.844	5292
844.98	5315
845.117	5235
845.253	5143
845.389	5090
845.525	5102
845.661	5159
845.798	5037
845.934	5128
846.07	5037
846.206	5128
846.342	5242
846.478	5140
846.614	5018
846.75	4961
846.886	4927
847.022	5159
847.158	5037
847.294	5079
847.429	5086
847.565	5033
847.701	5277
847.837	4854
847.972	4767
848.108	4968
848.244	4911
848.379	4752
848.515	4714
848.65	4736
848.786	4774
848.921	4805
849.057	4870
849.192	4911
849.328	4831
849.463	4786
849.598	4778
849.734	4778
849.869	4672
850.004	4592
850.14	4683
850.275	4599
850.41	4497
850.545	4569
850.68	4603
850.815	4645
850.95	4622
851.085	4843
851.22	4755
851.355	4656
851.49	4599
851.625	4634
851.76	4664
851.895	4542
852.03	4531
852.165	4691
852.299	4740
852.434	4774
852.569	4763
852.703	4759
852.838	4828
852.973	4892
853.107	4885
853.242	4714
853.376	4656
853.511	4531
853.645	4653
853.78	4740
853.914	4656
854.048	4672
854.183	4645
854.317	4668
854.451	4847
854.585	4626
854.72	4615
854.854	4755
854.988	4603
855.122	4611
855.256	4531
855.39	4691
855.524	4774
855.658	4748
855.792	4656
855.926	4687
856.06	4744
856.194	4755
856.327	4660
856.461	4580
856.595	4622
856.729	4592
856.862	4748
856.996	4694
857.13	4767
857.263	4725
857.397	4797
857.53	4618
857.664	4729
857.797	4717
857.931	4748
858.064	4687
858.197	4721
858.331	4675
858.464	4580
858.597	4542
858.731	4596
858.864	4637
858.997	4603
859.13	4599
859.263	4645
859.396	4698
859.529	4588
859.662	4588
859.795	4527
859.928	4615
860.061	4755
860.194	4805
860.327	4592
860.46	4554
860.592	4668
860.725	4736
860.858	4714
860.99	4599
861.123	4504
861.256	4523
861.388	4584
861.521	5395
861.653	4470
861.786	4443
861.918	4531
862.05	4500
862.183	4542
862.315	4611
862.447	4645
862.58	4523
862.712	4367
862.844	4303
862.976	4481
863.108	4436
863.24	4831
863.372	4325
863.504	4432
863.636	4455
863.768	4546
863.9	4432
864.032	4329
864.164	4417
864.296	4485
864.428	4558
864.559	4569
864.691	4512
864.823	4546
864.954	4478
865.086	4500
865.217	4402
865.349	4394
865.48	4455
865.612	4478
865.743	4630
865.875	4455
866.006	4432
866.137	4558
866.269	4417
866.4	4474
866.531	4440
866.662	4405
866.793	4421
866.924	4409
867.055	4535
867.186	4447
867.317	4402
867.448	4344
867.579	4402
867.71	4352
867.841	4367
867.972	4497
868.103	4497
868.233	4440
868.364	4478
868.495	4481
868.625	4687
868.756	4740
868.886	4546
869.017	4611
869.147	4736
869.278	4771
869.408	4645
869.539	4675
869.669	4679
869.799	4672
869.929	4733
870.06	4714
870.19	4927
870.32	4904
870.45	4877
870.58	4961
870.71	5098
870.84	5113
870.97	4980
871.1	4919
871.23	5105
871.36	5113
871.489	5014
871.619	5018
871.749	5075
871.879	5113
872.008	5155
872.138	5075
872.267	5003
872.397	4911
872.526	4816
872.656	4710
872.785	4763
872.915	4938
873.044	4980
873.173	4946
873.303	4957
873.432	4961
873.561	4904
873.69	4881
873.819	4881
873.948	4885
874.077	4820
874.206	4729
874.335	4793
874.464	4904
874.593	5090
874.722	4930
874.851	5083
874.979	5006
875.108	5018
875.237	4904
875.365	4881
875.494	4896
875.623	4976
875.751	4805
875.88	4908
876.008	4987
876.136	4980
876.265	5140
876.393	5315
876.521	5220
876.65	5235
876.778	5098
876.906	5086
877.034	5060
877.162	5037
877.29	5022
877.418	5094
877.546	5041
877.674	5018
877.802	4987
877.93	5029
878.058	4885
878.185	4850
878.313	4991
878.441	4949
878.568	4797
878.696	4805
878.824	4946
878.951	4995
879.079	5124
879.206	5231
879.333	5064
879.461	4980
879.588	4961
879.715	5105
879.842	5204
879.97	5018
880.097	4755
880.224	4729
880.351	4809
880.478	4847
880.605	4797
880.732	4790
880.859	5022
880.986	4953
881.112	4892
881.239	4774
881.366	4653
881.493	4615
881.619	4573
881.746	4630
881.872	4672
881.999	4645
882.125	4763
882.252	4805
882.378	4767
882.505	4946
882.631	4755
882.757	4691
882.883	4694
883.01	4725
883.136	4660
883.262	4599
883.388	4634
883.514	4835
883.64	4828
883.766	4831
883.892	4736
884.018	4706
884.143	4930
884.269	4942
884.395	4702
884.52	4660
884.646	4626
884.772	4626
884.897	4607
885.023	4679
885.148	4824
885.274	4942
885.399	4839
885.524	4733
885.65	4725
885.775	4763
885.9	4740
886.025	4892
886.15	4824
886.275	4759
886.4	4645
886.525	4771
886.65	4706
886.775	4717
886.9	4930
887.025	5079
887.149	4839
887.274	4656
887.399	4626
887.523	4637
887.648	4634
887.773	4622
887.897	4778
888.021	4824
888.146	4710
888.27	4850
888.395	4946
888.519	4847
888.643	4850
888.767	4889
888.891	4710
889.015	4630
889.139	4664
889.263	4649
889.387	4801
889.511	4885
889.635	4831
889.759	4668
889.883	4672
890.006	4812
890.13	4870
890.254	4630
890.377	4733
890.501	4611
890.624	4489
890.748	4687
890.871	4569
890.995	4474
891.118	4413
891.241	4569
891.364	4565
891.488	4668
891.611	4500
891.734	4554
891.857	4656
891.98	4569
892.103	4698
892.226	4607
892.349	4565
892.471	4489
892.594	4584
892.717	4615
892.839	4634
892.962	4615
893.085	4668
893.207	4656
893.33	4489
893.452	4611
893.575	4717
893.697	4630
893.819	4831
893.941	4889
894.064	4805
894.186	4630
894.308	4607
894.43	4793
894.552	4862
894.674	4828
894.796	4542
894.918	4649
895.04	4637
895.161	4790
895.283	4672
895.405	4558
895.526	4607
895.648	4687
895.769	4717
895.891	4748
896.012	4736
896.134	4717
896.255	4683
896.376	4694
896.498	4634
896.619	4694
896.74	4660
896.861	4691
896.982	4965
897.103	5083
897.224	4839
897.345	4828
897.466	4721
897.587	4733
897.708	4866
897.828	4843
897.949	4755
898.07	4584
898.19	4672
898.311	4862
898.431	4729
898.552	4793
898.672	4847
898.792	4843
898.913	4793
899.033	4672
899.153	4550
899.273	4443
899.393	4550
899.513	4531
899.633	4519
899.753	4561
899.873	4580
899.993	4626
900.113	4554
900.232	4634
900.352	4592
900.472	4474
900.591	4440
900.711	4573
900.83	4493
900.95	4618
901.069	4771
901.189	4531
901.308	4371
901.427	4360
901.546	4402
901.665	4481
901.784	4538
901.904	4417
902.023	4344
902.141	4196
902.26	4223
902.379	4325
902.498	4276
902.617	4261
902.735	4405
902.854	4432
902.973	4436
903.091	4234
903.21	4227
903.328	4306
903.446	4314
903.565	4337
903.683	4390
903.801	4291
903.919	4451
904.038	4489
904.156	4318
904.274	4451
904.392	4481
904.51	4440
904.627	4451
904.745	4588
904.863	4645
904.981	4432
905.098	4341
905.216	4402
905.334	4447
905.451	4421
905.569	4436
905.686	4580
905.803	4630
905.921	4440
906.038	4569
906.155	4565
906.272	4428
906.389	4527
906.506	4386
906.623	4428
906.74	4440
906.857	4344
906.974	4428
907.091	4607
907.208	4694
907.324	4622
907.441	4554
907.557	4371
907.674	4363
907.79	4344
907.907	4424
908.023	4561
908.139	4504
908.256	4485
908.372	4485
908.488	4462
908.604	4367
908.72	4398
908.836	4409
908.952	4398
909.068	4489
909.184	4592
909.3	4512
909.415	4603
909.531	4596
909.647	4383
909.762	4405
909.878	4352
909.993	4500
910.108	4447
910.224	4436
910.339	4542
910.454	4428
910.57	4402
910.685	4325
910.8	4694
910.915	4626
911.03	4546
911.145	4405
911.259	4337
911.374	4402
911.489	4310
911.604	4295
911.718	4219
911.833	4200
911.947	4078
912.062	4044
912.176	4238
912.291	4303
912.405	4265
912.519	4504
912.633	4512
912.748	4436
912.862	4356
912.976	4211
913.09	4177
913.204	4200
913.318	4242
913.431	4436
913.545	4417
913.659	4451
913.772	4356
913.886	4284
914	4257
914.113	4363
914.226	4398
914.34	4466
914.453	4299
914.566	4489
914.68	4314
914.793	4371
914.906	4177
915.019	4169
915.132	4086
915.245	4219
915.358	4204
915.47	4287
915.583	4306
915.696	4337
915.809	4462
915.921	4470
916.034	4268
916.146	4272
916.259	4284
916.371	4398
916.483	4360
916.595	4261
916.708	4363
916.82	4322
916.932	4329
917.044	4352
917.156	4360
917.268	4249
917.38	4322
917.491	4280
917.603	4375
917.715	4436
917.826	4443
917.938	4409
918.049	4265
918.161	4466
918.272	4561
918.384	4535
918.495	4481
918.606	4333
918.717	4227
918.828	4363
918.939	4367
919.05	4318
919.161	4363
919.272	4181
919.383	4246
919.494	4489
919.604	4660
919.715	4451
919.826	4352
919.936	4402
920.047	4546
920.157	4497
920.267	4752
920.378	4573
920.488	4500
920.598	4729
920.708	4908
920.818	4771
920.928	4721
921.038	5010
921.148	4915
921.258	4641
921.368	4558
921.477	4493
921.587	4485
921.697	4428
921.806	4565
921.916	4432
922.025	4295
922.134	4253
922.244	4257
922.353	4363
922.462	4227
922.571	4154
922.68	4032
922.789	4006
922.898	4055
923.007	4025
923.116	4139
923.224	4082
923.333	4120
923.442	4067
923.55	4040
923.659	4067
923.767	4120
923.876	4051
923.984	4154
924.092	4029
924.201	4109
924.309	4131
924.417	4147
924.525	4093
924.633	4116
924.741	5045
924.849	3937
924.956	4150
925.064	4013
925.172	3964
925.279	4013
925.387	4097
925.494	4082
925.602	4215
925.709	4219
925.816	4116
925.924	4150
926.031	4280
926.138	4173
926.245	4234
926.352	4154
926.459	4276
926.566	4322
926.673	4242
926.779	4105
926.886	4063
926.993	4036
927.099	3991
927.206	3972
927.312	3979
927.419	4059
927.525	4086
927.631	4120
927.737	4013
927.843	3945
927.95	3873
928.056	3979
928.162	4032
928.267	4074
928.373	4706
928.479	4109
928.585	3949
928.69	4071
928.796	4074
928.901	4025
929.007	3812
929.112	4021
929.218	3991
929.323	3975
929.428	3949
929.533	4101
929.638	3934
929.743	3972
929.848	4059
929.953	3998
930.058	3975
930.163	3793
930.267	3835
930.372	3983
930.477	3816
930.581	4105
930.685	3968
930.79	3861
930.894	3945
930.998	3888
931.103	4059
931.207	3720
931.311	3717
931.415	3671
931.519	3561
931.623	3564
