Data from test_V78500241_724.txt Node
Date: Fri Mar 25 16:54:02 CST 2022
User: usil
Spectrometer: V785-0024
Trigger mode: 0
Integration Time (sec): 4.000000E-1
Scans to average: 1
Nonlinearity correction enabled: false
Boxcar width: 0
Storing dark spectrum: false
XAxis mode: Wavelengths
Number of Pixels in Spectrum: 1024
>>>>>Begin Spectral Data<<<<<
801.071	7928
801.214	7993
801.356	7830
801.499	7852
801.641	7803
801.783	7837
801.926	7928
802.068	7959
802.211	8031
802.353	8005
802.496	7818
802.638	7887
802.78	7936
802.923	7955
803.065	7799
803.208	7822
803.35	7959
803.492	8126
803.635	8126
803.777	8035
803.919	8073
804.061	8393
804.204	8039
804.346	7982
804.488	7947
804.63	8100
804.773	8005
804.915	8119
805.057	8267
805.199	8206
805.341	8206
805.483	8275
805.626	8161
805.768	8088
805.91	8176
806.052	8164
806.194	8062
806.336	8244
806.478	8103
806.62	8035
806.762	8107
806.904	8275
807.046	8457
807.188	8328
807.33	8290
807.472	8324
807.614	8126
807.756	8077
807.898	7982
808.04	7875
808.182	7898
808.324	7879
808.465	7883
808.607	8008
808.749	8046
808.891	8183
809.033	8347
809.174	8145
809.316	8035
809.458	8069
809.6	7925
809.741	7982
809.883	8027
810.025	8149
810.166	8077
810.308	8020
810.45	8050
810.591	7856
810.733	7685
810.875	7647
811.016	7491
811.158	7472
811.299	7518
811.441	7761
811.582	7647
811.724	7563
811.865	7502
812.007	7605
812.148	7525
812.29	7586
812.431	7689
812.573	7792
812.714	7982
812.855	8065
812.997	8267
813.138	8244
813.279	8123
813.421	8119
813.562	8027
813.703	7845
813.845	7761
813.986	7457
814.127	7221
814.268	7255
814.41	7168
814.551	7133
814.692	7145
814.833	7053
814.974	7076
815.115	7057
815.256	6909
815.397	6928
815.539	7027
815.68	6806
815.821	6791
815.962	6795
816.103	6802
816.244	6696
816.385	6597
816.526	6589
816.666	6521
816.807	6262
816.948	6391
817.089	6490
817.23	6369
817.371	6346
817.512	6380
817.653	6380
817.793	6315
817.934	6452
818.075	6414
818.216	6403
818.356	6391
818.497	6243
818.638	6053
818.778	6083
818.919	6053
819.06	6136
819.2	6270
819.341	6273
819.481	6353
819.622	6486
819.762	6703
819.903	6738
820.043	6585
820.184	6494
820.324	6525
820.465	6703
820.605	6566
820.746	6601
820.886	6502
821.026	6623
821.167	6700
821.307	6833
821.447	6753
821.588	6616
821.728	6540
821.868	6414
822.008	6308
822.149	6399
822.289	6315
822.429	6194
822.569	6106
822.709	6049
822.849	5893
822.99	5954
823.13	5863
823.27	5950
823.41	5748
823.55	5802
823.69	5729
823.83	5771
823.97	5642
824.11	5516
824.25	5509
824.389	5562
824.529	5558
824.669	5528
824.809	5596
824.949	5653
825.089	5661
825.228	5577
825.368	5368
825.508	5311
825.648	5284
825.787	5337
825.927	5334
826.067	5288
826.206	5296
826.346	5406
826.485	5395
826.625	5330
826.765	5532
826.904	5520
827.044	5277
827.183	5212
827.323	5109
827.462	5216
827.601	5136
827.741	5136
827.88	5147
828.02	5056
828.159	5220
828.298	5292
828.437	5273
828.577	5280
828.716	5459
828.855	5322
828.994	5174
829.134	5170
829.273	5162
829.412	5124
829.551	5098
829.69	5159
829.829	5254
829.968	5364
830.107	5296
830.246	5265
830.385	5124
830.524	5117
830.663	5048
830.802	4980
830.941	4862
831.08	4839
831.219	4987
831.357	4972
831.496	5124
831.635	4908
831.774	4820
831.913	4854
832.051	4706
832.19	4687
832.329	4809
832.467	4653
832.606	4626
832.744	4702
832.883	4679
833.022	4733
833.16	4763
833.299	4812
833.437	4816
833.576	4809
833.714	4835
833.852	4854
833.991	4858
834.129	4938
834.267	4877
834.406	4927
834.544	4972
834.682	4919
834.821	4980
834.959	5189
835.097	4946
835.235	5113
835.373	5064
835.511	5143
835.65	5010
835.788	5022
835.926	4908
836.064	4862
836.202	4877
836.34	5204
836.478	5181
836.615	5075
836.753	5204
836.891	5326
837.029	5246
837.167	5193
837.305	5181
837.443	5113
837.58	5003
837.718	5265
837.856	5174
837.993	5162
838.131	5216
838.269	5227
838.406	5231
838.544	5174
838.681	5052
838.819	5014
838.956	4889
839.094	4877
839.231	4957
839.369	5056
839.506	5379
839.643	5254
839.781	5048
839.918	5033
840.055	5098
840.193	5094
840.33	5048
840.467	5117
840.604	5212
840.742	5433
840.879	5056
841.016	5064
841.153	5128
841.29	5357
841.427	5337
841.564	5235
841.701	5414
841.838	5261
841.975	5261
842.112	5280
842.249	5132
842.385	5094
842.522	5318
842.659	5155
842.796	5124
842.933	5204
843.069	5159
843.206	5162
843.343	5307
843.479	5216
843.616	5246
843.752	5041
843.889	4965
844.025	5197
844.162	5045
844.298	5185
844.435	5105
844.571	5018
844.708	5174
844.844	5269
844.98	5318
845.117	5242
845.253	5159
845.389	5079
845.525	5121
845.661	5143
845.798	5079
845.934	5113
846.07	4987
846.206	5250
846.342	5261
846.478	5166
846.614	5006
846.75	4972
846.886	4976
847.022	5151
847.158	4999
847.294	5025
847.429	5067
847.565	5048
847.701	5273
847.837	4828
847.972	4786
848.108	5018
848.244	4923
848.379	4752
848.515	4717
848.65	4683
848.786	4752
848.921	4752
849.057	4866
849.192	4915
849.328	4835
849.463	4847
849.598	4759
849.734	4691
849.869	4645
850.004	4622
850.14	4675
850.275	4634
850.41	4542
850.545	4599
850.68	4558
850.815	4626
850.95	4599
851.085	4816
851.22	4717
851.355	4596
851.49	4577
851.625	4626
851.76	4630
851.895	4603
852.03	4516
852.165	4615
852.299	4744
852.434	4782
852.569	4725
852.703	4763
852.838	4850
852.973	4896
853.107	4904
853.242	4725
853.376	4691
853.511	4554
853.645	4615
853.78	4774
853.914	4683
854.048	4672
854.183	4634
854.317	4714
854.451	4816
854.585	4672
854.72	4641
854.854	4725
854.988	4565
855.122	4599
855.256	4508
855.39	4660
855.524	4790
855.658	4702
855.792	4664
855.926	4759
856.06	4733
856.194	4767
856.327	4725
856.461	4577
856.595	4558
856.729	4607
856.862	4694
856.996	4649
857.13	4725
857.263	4744
857.397	4809
857.53	4664
857.664	4714
857.797	4748
857.931	4782
858.064	4660
858.197	4698
858.331	4664
858.464	4630
858.597	4489
858.731	4634
858.864	4584
858.997	4618
859.13	4618
859.263	4656
859.396	4714
859.529	4538
859.662	4554
859.795	4470
859.928	4634
860.061	4725
860.194	4691
860.327	4607
860.46	4497
860.592	4698
860.725	4714
860.858	4702
860.99	4531
861.123	4516
861.256	4516
861.388	4599
861.521	5402
861.653	4470
861.786	4432
861.918	4424
862.05	4504
862.183	4531
862.315	4573
862.447	4626
862.58	4542
862.712	4390
862.844	4261
862.976	4432
863.108	4443
863.24	4828
863.372	4333
863.504	4371
863.636	4409
863.768	4443
863.9	4428
864.032	4360
864.164	4383
864.296	4485
864.428	4542
864.559	4519
864.691	4523
864.823	4516
864.954	4481
865.086	4455
865.217	4440
865.349	4371
865.48	4447
865.612	4443
865.743	4584
865.875	4432
866.006	4398
866.137	4424
866.269	4405
866.4	4413
866.531	4394
866.662	4390
866.793	4348
866.924	4413
867.055	4489
867.186	4443
867.317	4390
867.448	4363
867.579	4371
867.71	4428
867.841	4379
867.972	4417
868.103	4459
868.233	4451
868.364	4436
868.495	4451
868.625	4664
868.756	4702
868.886	4550
869.017	4596
869.147	4782
869.278	4763
869.408	4641
869.539	4615
869.669	4668
869.799	4615
869.929	4759
870.06	4717
870.19	4927
870.32	4915
870.45	4965
870.58	5022
870.71	5064
870.84	5098
870.97	4892
871.1	4866
871.23	5117
871.36	5151
871.489	5018
871.619	5105
871.749	5052
871.879	5181
872.008	5204
872.138	5025
872.267	4938
872.397	4850
872.526	4805
872.656	4729
872.785	4809
872.915	4980
873.044	5029
873.173	4961
873.303	4923
873.432	4987
873.561	4942
873.69	4923
873.819	4885
873.948	4915
874.077	4831
874.206	4820
874.335	4828
874.464	4938
874.593	5067
874.722	4984
874.851	5159
874.979	5052
875.108	5041
875.237	4927
875.365	4892
875.494	4930
875.623	5041
875.751	4831
875.88	4877
876.008	5029
876.136	5048
876.265	5254
876.393	5349
876.521	5265
876.65	5220
876.778	5162
876.906	5075
877.034	5022
877.162	5075
877.29	5022
877.418	5094
877.546	5124
877.674	5086
877.802	5060
877.93	5071
878.058	4976
878.185	4908
878.313	4976
878.441	5006
878.568	4885
878.696	4908
878.824	4987
878.951	5033
879.079	5136
879.206	5311
879.333	5132
879.461	5041
879.588	4995
879.715	5178
879.842	5258
879.97	5045
880.097	4797
880.224	4801
880.351	4831
880.478	4854
880.605	4866
880.732	4793
880.859	5102
880.986	4957
881.112	4968
881.239	4812
881.366	4702
881.493	4656
881.619	4599
881.746	4649
881.872	4717
881.999	4645
882.125	4683
882.252	4843
882.378	4870
882.505	5029
882.631	4870
882.757	4729
882.883	4778
883.01	4767
883.136	4702
883.262	4634
883.388	4649
883.514	4835
883.64	4911
883.766	4835
883.892	4668
884.018	4698
884.143	4927
884.269	5025
884.395	4710
884.52	4675
884.646	4717
884.772	4645
884.897	4603
885.023	4694
885.148	4786
885.274	4919
885.399	4862
885.524	4771
885.65	4729
885.775	4782
885.9	4759
886.025	4889
886.15	4835
886.275	4767
886.4	4683
886.525	4767
886.65	4714
886.775	4675
886.9	4934
887.025	5060
887.149	4820
887.274	4675
887.399	4596
887.523	4622
887.648	4599
887.773	4588
887.897	4752
888.021	4805
888.146	4698
888.27	4831
888.395	4900
888.519	4835
888.643	4843
888.767	4801
888.891	4733
889.015	4622
889.139	4622
889.263	4630
889.387	4805
889.511	4885
889.635	4816
889.759	4679
889.883	4668
890.006	4752
890.13	4793
890.254	4660
890.377	4702
890.501	4554
890.624	4565
890.748	4664
890.871	4512
890.995	4455
891.118	4417
891.241	4531
891.364	4577
891.488	4672
891.611	4580
891.734	4523
891.857	4596
891.98	4577
892.103	4721
892.226	4641
892.349	4542
892.471	4466
892.594	4565
892.717	4607
892.839	4603
892.962	4622
893.085	4672
893.207	4634
893.33	4493
893.452	4565
893.575	4687
893.697	4615
893.819	4831
893.941	4877
894.064	4767
894.186	4634
894.308	4596
894.43	4786
894.552	4809
894.674	4782
894.796	4550
894.918	4599
895.04	4550
895.161	4698
895.283	4641
895.405	4592
895.526	4637
895.648	4698
895.769	4736
895.891	4706
896.012	4744
896.134	4748
896.255	4675
896.376	4653
896.498	4668
896.619	4664
896.74	4634
896.861	4641
896.982	4942
897.103	5045
897.224	4873
897.345	4786
897.466	4675
897.587	4752
897.708	4965
897.828	4778
897.949	4691
898.07	4569
898.19	4687
898.311	4854
898.431	4702
898.552	4801
898.672	4866
898.792	4801
898.913	4733
899.033	4691
899.153	4565
899.273	4432
899.393	4504
899.513	4546
899.633	4538
899.753	4588
899.873	4542
899.993	4622
900.113	4519
900.232	4588
900.352	4584
900.472	4538
900.591	4481
900.711	4542
900.83	4462
900.95	4645
901.069	4774
901.189	4554
901.308	4379
901.427	4303
901.546	4432
901.665	4478
901.784	4531
901.904	4440
902.023	4322
902.141	4230
902.26	4188
902.379	4310
902.498	4337
902.617	4200
902.735	4405
902.854	4390
902.973	4371
903.091	4230
903.21	4230
903.328	4322
903.446	4268
903.565	4253
903.683	4413
903.801	4348
903.919	4440
904.038	4424
904.156	4360
904.274	4470
904.392	4417
904.51	4424
904.627	4512
904.745	4599
904.863	4618
904.981	4436
905.098	4344
905.216	4356
905.334	4478
905.451	4493
905.569	4478
905.686	4577
905.803	4565
905.921	4447
906.038	4607
906.155	4504
906.272	4428
906.389	4459
906.506	4386
906.623	4424
906.74	4470
906.857	4295
906.974	4394
907.091	4580
907.208	4710
907.324	4645
907.441	4531
907.557	4367
907.674	4375
907.79	4287
907.907	4390
908.023	4546
908.139	4523
908.256	4443
908.372	4519
908.488	4470
908.604	4375
908.72	4337
908.836	4459
908.952	4367
909.068	4470
909.184	4577
909.3	4550
909.415	4637
909.531	4569
909.647	4360
909.762	4386
909.878	4344
909.993	4489
910.108	4455
910.224	4436
910.339	4421
910.454	4428
910.57	4390
910.685	4310
910.8	4660
910.915	4596
911.03	4497
911.145	4371
911.259	4363
911.374	4432
911.489	4352
911.604	4318
911.718	4211
911.833	4204
911.947	4101
912.062	4059
912.176	4246
912.291	4287
912.405	4227
912.519	4519
912.633	4504
912.748	4379
912.862	4390
912.976	4200
913.09	4105
913.204	4162
913.318	4272
913.431	4409
913.545	4390
913.659	4447
913.772	4371
913.886	4276
914	4211
914.113	4405
914.226	4451
914.34	4417
914.453	4314
914.566	4478
914.68	4314
914.793	4299
914.906	4162
915.019	4150
915.132	4048
915.245	4185
915.358	4211
915.47	4272
915.583	4276
915.696	4276
915.809	4447
915.921	4383
916.034	4253
916.146	4234
916.259	4227
916.371	4424
916.483	4394
916.595	4310
916.708	4299
916.82	4295
916.932	4356
917.044	4371
917.156	4337
917.268	4230
917.38	4341
917.491	4322
917.603	4356
917.715	4485
917.826	4474
917.938	4344
918.049	4242
918.161	4367
918.272	4546
918.384	4558
918.495	4508
918.606	4329
918.717	4234
918.828	4356
918.939	4375
919.05	4265
919.161	4363
919.272	4131
919.383	4257
919.494	4466
919.604	4694
919.715	4455
919.826	4383
919.936	4436
920.047	4535
920.157	4523
920.267	4691
920.378	4531
920.488	4508
920.598	4748
920.708	4923
920.818	4790
920.928	4793
921.038	4934
921.148	4915
921.258	4622
921.368	4561
921.477	4531
921.587	4432
921.697	4390
921.806	4561
921.916	4409
922.025	4291
922.134	4291
922.244	4223
922.353	4367
922.462	4181
922.571	4150
922.68	4017
922.789	4010
922.898	4044
923.007	3979
923.116	4109
923.224	4090
923.333	4101
923.442	4051
923.55	4002
923.659	4010
923.767	4082
923.876	4048
923.984	4185
924.092	3983
924.201	4067
924.309	4169
924.417	4135
924.525	4093
924.633	4109
924.741	5022
924.849	3899
924.956	4109
925.064	3987
925.172	3903
925.279	3983
925.387	4112
925.494	4029
925.602	4227
925.709	4177
925.816	4044
925.924	4192
926.031	4287
926.138	4162
926.245	4207
926.352	4128
926.459	4261
926.566	4333
926.673	4223
926.779	4051
926.886	4105
926.993	3964
927.099	3979
927.206	3983
927.312	3937
927.419	4101
927.525	4048
927.631	4101
927.737	3941
927.843	3918
927.95	3861
928.056	3953
928.162	3979
928.267	4051
928.373	4664
928.479	4143
928.585	3884
928.69	3998
928.796	4090
928.901	3956
929.007	3854
929.112	4055
929.218	3979
929.323	3975
929.428	3964
929.533	4090
929.638	3922
929.743	3953
929.848	4029
929.953	3975
930.058	3953
930.163	3789
930.267	3854
930.372	3964
930.477	3838
930.581	4105
930.685	3922
930.79	3835
930.894	3876
930.998	3896
931.103	4059
931.207	3720
931.311	3747
931.415	3663
931.519	3507
931.623	3580
