Data from test_V78500241_689.txt Node
Date: Fri Mar 25 16:53:47 CST 2022
User: usil
Spectrometer: V785-0024
Trigger mode: 0
Integration Time (sec): 4.000000E-1
Scans to average: 1
Nonlinearity correction enabled: false
Boxcar width: 0
Storing dark spectrum: false
XAxis mode: Wavelengths
Number of Pixels in Spectrum: 1024
>>>>>Begin Spectral Data<<<<<
801.071	8039
801.214	7993
801.356	7921
801.499	7974
801.641	7761
801.783	7898
801.926	8024
802.068	7978
802.211	7970
802.353	7993
802.496	7894
802.638	7928
802.78	7974
802.923	7936
803.065	7887
803.208	7894
803.35	7982
803.492	8077
803.635	8214
803.777	8001
803.919	8103
804.061	8377
804.204	8081
804.346	8050
804.488	8005
804.63	8153
804.773	8107
804.915	8149
805.057	8279
805.199	8142
805.341	8248
805.483	8336
805.626	8195
805.768	8130
805.91	8172
806.052	8202
806.194	8138
806.336	8271
806.478	8088
806.62	8088
806.762	8088
806.904	8301
807.046	8499
807.188	8332
807.33	8279
807.472	8351
807.614	8176
807.756	8119
807.898	8001
808.04	7879
808.182	7887
808.324	7944
808.465	7902
808.607	8046
808.749	8081
808.891	8256
809.033	8275
809.174	8225
809.316	8077
809.458	8077
809.6	8058
809.741	8031
809.883	7925
810.025	8073
810.166	8027
810.308	8020
810.45	8069
810.591	7898
810.733	7742
810.875	7666
811.016	7586
811.158	7529
811.299	7651
811.441	7780
811.582	7753
811.724	7636
811.865	7556
812.007	7613
812.148	7559
812.29	7677
812.431	7704
812.573	7830
812.714	7932
812.855	8130
812.997	8244
813.138	8358
813.279	8195
813.421	8092
813.562	8005
813.703	7894
813.845	7742
813.986	7472
814.127	7293
814.268	7255
814.41	7240
814.551	7179
814.692	7198
814.833	7031
814.974	7072
815.115	7129
815.256	6981
815.397	6901
815.539	6954
815.68	6814
815.821	6776
815.962	6890
816.103	6825
816.244	6745
816.385	6612
816.526	6631
816.666	6532
816.807	6289
816.948	6426
817.089	6486
817.23	6441
817.371	6327
817.512	6372
817.653	6372
817.793	6380
817.934	6407
818.075	6486
818.216	6342
818.356	6407
818.497	6228
818.638	6091
818.778	6190
818.919	6102
819.06	6167
819.2	6277
819.341	6372
819.481	6380
819.622	6464
819.762	6760
819.903	6673
820.043	6566
820.184	6601
820.324	6544
820.465	6662
820.605	6642
820.746	6612
820.886	6490
821.026	6639
821.167	6707
821.307	6787
821.447	6760
821.588	6707
821.728	6582
821.868	6517
822.008	6350
822.149	6361
822.289	6418
822.429	6186
822.569	6114
822.709	6125
822.849	5824
822.99	5916
823.13	5927
823.27	5946
823.41	5805
823.55	5824
823.69	5779
823.83	5832
823.97	5684
824.11	5611
824.25	5490
824.389	5501
824.529	5604
824.669	5570
824.809	5642
824.949	5649
825.089	5619
825.228	5562
825.368	5391
825.508	5376
825.648	5357
825.787	5353
825.927	5341
826.067	5258
826.206	5307
826.346	5406
826.485	5414
826.625	5478
826.765	5554
826.904	5516
827.044	5292
827.183	5181
827.323	5128
827.462	5269
827.601	5189
827.741	5189
827.88	5189
828.02	5094
828.159	5189
828.298	5330
828.437	5334
828.577	5288
828.716	5505
828.855	5315
828.994	5189
829.134	5102
829.273	5185
829.412	5113
829.551	5136
829.69	5174
829.829	5231
829.968	5337
830.107	5246
830.246	5288
830.385	5201
830.524	5185
830.663	5083
830.802	5025
830.941	4904
831.08	4908
831.219	5060
831.357	4991
831.496	5151
831.635	4968
831.774	4889
831.913	4858
832.051	4717
832.19	4782
832.329	4824
832.467	4679
832.606	4622
832.744	4717
832.883	4698
833.022	4752
833.16	4850
833.299	4812
833.437	4850
833.576	4873
833.714	4873
833.852	4835
833.991	4900
834.129	4957
834.267	4991
834.406	4889
834.544	4961
834.682	4953
834.821	4991
834.959	5220
835.097	5025
835.235	5124
835.373	5071
835.511	5094
835.65	5071
835.788	4995
835.926	4930
836.064	4847
836.202	4904
836.34	5140
836.478	5265
836.615	5151
836.753	5197
836.891	5292
837.029	5254
837.167	5159
837.305	5159
837.443	5121
837.58	5113
837.718	5231
837.856	5201
837.993	5178
838.131	5292
838.269	5197
838.406	5246
838.544	5181
838.681	5037
838.819	5033
838.956	4858
839.094	4961
839.231	5014
839.369	5060
839.506	5357
839.643	5273
839.781	5060
839.918	5064
840.055	5083
840.193	5094
840.33	5113
840.467	5140
840.604	5159
840.742	5417
840.879	5052
841.016	5060
841.153	5170
841.29	5429
841.427	5341
841.564	5345
841.701	5360
841.838	5258
841.975	5307
842.112	5227
842.249	5109
842.385	5113
842.522	5322
842.659	5212
842.796	5113
842.933	5151
843.069	5151
843.206	5193
843.343	5261
843.479	5227
843.616	5307
843.752	5060
843.889	5014
844.025	5201
844.162	4999
844.298	5239
844.435	5109
844.571	5048
844.708	5201
844.844	5269
844.98	5368
845.117	5326
845.253	5143
845.389	5105
845.525	5250
845.661	5147
845.798	5025
845.934	5083
846.07	5079
846.206	5239
846.342	5296
846.478	5128
846.614	5048
846.75	5018
846.886	4915
847.022	5067
847.158	5014
847.294	5086
847.429	5105
847.565	5064
847.701	5292
847.837	4904
847.972	4828
848.108	4934
848.244	4934
848.379	4763
848.515	4759
848.65	4687
848.786	4778
848.921	4790
849.057	4870
849.192	4915
849.328	4809
849.463	4843
849.598	4744
849.734	4736
849.869	4702
850.004	4637
850.14	4637
850.275	4577
850.41	4512
850.545	4558
850.68	4565
850.815	4634
850.95	4668
851.085	4828
851.22	4755
851.355	4630
851.49	4641
851.625	4622
851.76	4653
851.895	4542
852.03	4561
852.165	4679
852.299	4706
852.434	4767
852.569	4782
852.703	4755
852.838	4828
852.973	4904
853.107	4923
853.242	4668
853.376	4694
853.511	4565
853.645	4592
853.78	4763
853.914	4641
854.048	4641
854.183	4588
854.317	4668
854.451	4858
854.585	4687
854.72	4599
854.854	4744
854.988	4603
855.122	4656
855.256	4523
855.39	4641
855.524	4809
855.658	4729
855.792	4683
855.926	4748
856.06	4755
856.194	4809
856.327	4714
856.461	4645
856.595	4656
856.729	4592
856.862	4740
856.996	4672
857.13	4694
857.263	4736
857.397	4801
857.53	4626
857.664	4736
857.797	4763
857.931	4839
858.064	4717
858.197	4710
858.331	4675
858.464	4622
858.597	4466
858.731	4577
858.864	4668
858.997	4580
859.13	4645
859.263	4675
859.396	4721
859.529	4531
859.662	4569
859.795	4542
859.928	4626
860.061	4721
860.194	4744
860.327	4626
860.46	4573
860.592	4717
860.725	4729
860.858	4710
860.99	4596
861.123	4535
861.256	4546
861.388	4580
861.521	5357
861.653	4436
861.786	4447
861.918	4516
862.05	4512
862.183	4569
862.315	4561
862.447	4603
862.58	4508
862.712	4367
862.844	4306
862.976	4466
863.108	4481
863.24	4854
863.372	4299
863.504	4413
863.636	4432
863.768	4497
863.9	4409
864.032	4348
864.164	4424
864.296	4424
864.428	4577
864.559	4531
864.691	4527
864.823	4542
864.954	4466
865.086	4478
865.217	4462
865.349	4409
865.48	4440
865.612	4478
865.743	4618
865.875	4493
866.006	4436
866.137	4504
866.269	4466
866.4	4497
866.531	4413
866.662	4390
866.793	4417
866.924	4443
867.055	4474
867.186	4417
867.317	4432
867.448	4417
867.579	4421
867.71	4402
867.841	4329
867.972	4421
868.103	4447
868.233	4459
868.364	4413
868.495	4493
868.625	4645
868.756	4763
868.886	4527
869.017	4615
869.147	4778
869.278	4778
869.408	4698
869.539	4626
869.669	4721
869.799	4634
869.929	4752
870.06	4733
870.19	4965
870.32	4911
870.45	4938
870.58	5003
870.71	5121
870.84	5045
870.97	4908
871.1	4934
871.23	5166
871.36	5113
871.489	5022
871.619	5094
871.749	5102
871.879	5090
872.008	5201
872.138	5121
872.267	4987
872.397	4877
872.526	4782
872.656	4717
872.785	4755
872.915	4961
873.044	5022
873.173	4938
873.303	4911
873.432	4995
873.561	4919
873.69	4889
873.819	4847
873.948	4938
874.077	4797
874.206	4748
874.335	4786
874.464	4908
874.593	5033
874.722	4987
874.851	5090
874.979	5086
875.108	5056
875.237	4911
875.365	4885
875.494	4835
875.623	4949
875.751	4805
875.88	4866
876.008	4991
876.136	5056
876.265	5181
876.393	5303
876.521	5242
876.65	5185
876.778	5155
876.906	5075
877.034	5018
877.162	5018
877.29	4987
877.418	5018
877.546	5056
877.674	5033
877.802	5029
877.93	4976
878.058	4934
878.185	4889
878.313	4980
878.441	4949
878.568	4801
878.696	4854
878.824	4968
878.951	5010
879.079	5170
879.206	5261
879.333	5071
879.461	5003
879.588	5003
879.715	5124
879.842	5246
879.97	4995
880.097	4839
880.224	4805
880.351	4828
880.478	4790
880.605	4801
880.732	4816
880.859	5098
880.986	4870
881.112	4919
881.239	4767
881.366	4687
881.493	4577
881.619	4577
881.746	4637
881.872	4672
881.999	4634
882.125	4694
882.252	4778
882.378	4828
882.505	4938
882.631	4763
882.757	4672
882.883	4748
883.01	4710
883.136	4660
883.262	4607
883.388	4603
883.514	4797
883.64	4809
883.766	4786
883.892	4733
884.018	4729
884.143	4881
884.269	5029
884.395	4710
884.52	4653
884.646	4641
884.772	4599
884.897	4561
885.023	4683
885.148	4729
885.274	4866
885.399	4801
885.524	4752
885.65	4679
885.775	4752
885.9	4694
886.025	4843
886.15	4797
886.275	4637
886.4	4637
886.525	4740
886.65	4687
886.775	4714
886.9	4908
887.025	5067
887.149	4790
887.274	4607
887.399	4596
887.523	4588
887.648	4577
887.773	4603
887.897	4786
888.021	4771
888.146	4694
888.27	4801
888.395	4877
888.519	4793
888.643	4790
888.767	4816
888.891	4630
889.015	4584
889.139	4649
889.263	4573
889.387	4790
889.511	4850
889.635	4809
889.759	4622
889.883	4611
890.006	4763
890.13	4793
890.254	4645
890.377	4653
890.501	4577
890.624	4538
890.748	4637
890.871	4535
890.995	4485
891.118	4325
891.241	4504
891.364	4531
891.488	4660
891.611	4462
891.734	4542
891.857	4656
891.98	4546
892.103	4649
892.226	4569
892.349	4519
892.471	4447
892.594	4584
892.717	4584
892.839	4588
892.962	4573
893.085	4664
893.207	4618
893.33	4497
893.452	4489
893.575	4634
893.697	4611
893.819	4771
893.941	4847
894.064	4805
894.186	4596
894.308	4569
894.43	4755
894.552	4843
894.674	4767
894.796	4519
894.918	4607
895.04	4588
895.161	4691
895.283	4603
895.405	4596
895.526	4645
895.648	4675
895.769	4694
895.891	4710
896.012	4748
896.134	4702
896.255	4634
896.376	4641
896.498	4656
896.619	4641
896.74	4618
896.861	4637
896.982	4946
897.103	5086
897.224	4870
897.345	4691
897.466	4691
897.587	4744
897.708	4805
897.828	4759
897.949	4645
898.07	4569
898.19	4660
898.311	4774
898.431	4656
898.552	4733
898.672	4767
898.792	4790
898.913	4748
899.033	4653
899.153	4523
899.273	4459
899.393	4470
899.513	4538
899.633	4523
899.753	4573
899.873	4538
899.993	4558
900.113	4527
900.232	4584
900.352	4550
900.472	4478
900.591	4367
900.711	4421
900.83	4375
900.95	4626
901.069	4679
901.189	4516
901.308	4318
901.427	4333
901.546	4356
901.665	4478
901.784	4493
901.904	4424
902.023	4299
902.141	4200
902.26	4196
902.379	4318
902.498	4246
902.617	4238
902.735	4352
902.854	4379
902.973	4386
903.091	4204
903.21	4181
903.328	4314
903.446	4265
903.565	4204
903.683	4386
903.801	4249
903.919	4390
904.038	4413
904.156	4322
904.274	4455
904.392	4390
904.51	4421
904.627	4485
904.745	4573
904.863	4637
904.981	4409
905.098	4280
905.216	4318
905.334	4466
905.451	4405
905.569	4398
905.686	4577
905.803	4573
905.921	4443
906.038	4535
906.155	4508
906.272	4337
906.389	4512
906.506	4341
906.623	4402
906.74	4379
906.857	4322
906.974	4383
907.091	4542
907.208	4607
907.324	4569
907.441	4500
907.557	4352
907.674	4310
907.79	4261
907.907	4405
908.023	4478
908.139	4470
908.256	4485
908.372	4443
908.488	4440
908.604	4329
908.72	4295
908.836	4398
908.952	4325
909.068	4447
909.184	4603
909.3	4527
909.415	4569
909.531	4584
909.647	4428
909.762	4306
909.878	4310
909.993	4402
910.108	4398
910.224	4500
910.339	4485
910.454	4409
910.57	4341
910.685	4318
910.8	4672
910.915	4577
911.03	4542
911.145	4333
911.259	4318
911.374	4360
911.489	4280
911.604	4265
911.718	4166
911.833	4200
911.947	4010
912.062	4040
912.176	4234
912.291	4227
912.405	4230
912.519	4440
912.633	4512
912.748	4398
912.862	4268
912.976	4223
913.09	4051
913.204	4188
913.318	4230
913.431	4367
913.545	4375
913.659	4421
913.772	4383
913.886	4253
914	4249
914.113	4383
914.226	4428
914.34	4409
914.453	4227
914.566	4394
914.68	4344
914.793	4352
914.906	4169
915.019	4097
915.132	4116
915.245	4150
915.358	4223
915.47	4238
915.583	4291
915.696	4325
915.809	4390
915.921	4447
916.034	4246
916.146	4234
916.259	4211
916.371	4402
916.483	4394
916.595	4322
916.708	4295
916.82	4325
916.932	4306
917.044	4310
917.156	4356
917.268	4230
917.38	4325
917.491	4230
917.603	4306
917.715	4394
917.826	4386
917.938	4344
918.049	4215
918.161	4379
918.272	4531
918.384	4550
918.495	4436
918.606	4265
918.717	4253
918.828	4287
918.939	4333
919.05	4287
919.161	4314
919.272	4128
919.383	4306
919.494	4459
919.604	4653
919.715	4394
919.826	4337
919.936	4367
920.047	4508
920.157	4485
920.267	4755
920.378	4489
920.488	4497
920.598	4706
920.708	4881
920.818	4790
920.928	4816
921.038	4968
921.148	4919
921.258	4656
921.368	4580
921.477	4493
921.587	4504
921.697	4379
921.806	4573
921.916	4462
922.025	4276
922.134	4272
922.244	4246
922.353	4310
922.462	4238
922.571	4154
922.68	4021
922.789	4006
922.898	4071
923.007	4010
923.116	4067
923.224	4021
923.333	4044
923.442	4013
923.55	3987
923.659	4044
923.767	4086
923.876	4021
923.984	4200
924.092	3956
924.201	4090
924.309	4078
924.417	4105
924.525	4063
924.633	4097
924.741	5083
924.849	3941
924.956	4147
925.064	3964
925.172	3937
925.279	3926
925.387	4048
925.494	4059
925.602	4230
925.709	4166
925.816	4097
925.924	4120
926.031	4188
926.138	4135
926.245	4215
926.352	4086
926.459	4219
926.566	4333
926.673	4162
926.779	4105
926.886	4067
926.993	3972
927.099	3960
927.206	3968
927.312	3949
927.419	4025
927.525	4051
927.631	4055
927.737	3968
927.843	3949
927.95	3831
928.056	3960
928.162	3998
928.267	4082
928.373	4653
928.479	4116
928.585	3838
928.69	4040
928.796	4116
928.901	3953
929.007	3842
929.112	3964
929.218	3953
929.323	3903
929.428	3956
929.533	4150
929.638	3873
929.743	3960
929.848	4055
929.953	3972
930.058	3941
930.163	3793
930.267	3819
930.372	3956
930.477	3797
930.581	4055
930.685	3956
930.79	3789
930.894	3804
930.998	3873
931.103	4055
931.207	3724
931.311	3720
931.415	3675
931.519	3519
931.623	3603
