Data from test_V78500241_2335.txt Node
Date: Fri Mar 25 17:05:14 CST 2022
User: usil
Spectrometer: V785-0024
Trigger mode: 0
Integration Time (sec): 4.000000E-1
Scans to average: 1
Nonlinearity correction enabled: false
Boxcar width: 0
Storing dark spectrum: false
XAxis mode: Wavelengths
Number of Pixels in Spectrum: 1024
>>>>>Begin Spectral Data<<<<<
801.071	8035
801.214	7970
801.356	7894
801.499	7841
801.641	7799
801.783	7887
801.926	7982
802.068	7936
802.211	7963
802.353	7978
802.496	7879
802.638	7849
802.78	7871
802.923	7936
803.065	7909
803.208	7864
803.35	7978
803.492	8024
803.635	8164
803.777	8039
803.919	8191
804.061	8415
804.204	8183
804.346	8077
804.488	7955
804.63	8043
804.773	8008
804.915	8145
805.057	8271
805.199	8096
805.341	8271
805.483	8282
805.626	8221
805.768	8145
805.91	8161
806.052	8248
806.194	8119
806.336	8320
806.478	8062
806.62	8100
806.762	8092
806.904	8298
807.046	8419
807.188	8355
807.33	8385
807.472	8282
807.614	8164
807.756	8161
807.898	8046
808.04	7951
808.182	7868
808.324	7822
808.465	7868
808.607	8043
808.749	8069
808.891	8180
809.033	8317
809.174	8259
809.316	8077
809.458	8092
809.6	8020
809.741	8054
809.883	7955
810.025	8084
810.166	8020
810.308	8001
810.45	8008
810.591	7860
810.733	7761
810.875	7662
811.016	7525
811.158	7468
811.299	7597
811.441	7750
811.582	7715
811.724	7594
811.865	7529
812.007	7643
812.148	7632
812.29	7601
812.431	7799
812.573	7917
812.714	8043
812.855	8027
812.997	8199
813.138	8267
813.279	8134
813.421	8046
813.562	7928
813.703	7898
813.845	7689
813.986	7407
814.127	7232
814.268	7190
814.41	7202
814.551	7198
814.692	7274
814.833	7122
814.974	7164
815.115	7133
815.256	6932
815.397	6916
815.539	6977
815.68	6818
815.821	6734
815.962	6924
816.103	6829
816.244	6688
816.385	6578
816.526	6677
816.666	6506
816.807	6289
816.948	6456
817.089	6498
817.23	6437
817.371	6346
817.512	6437
817.653	6422
817.793	6331
817.934	6429
818.075	6422
818.216	6448
818.356	6380
818.497	6266
818.638	6133
818.778	6152
818.919	6121
819.06	6152
819.2	6342
819.341	6353
819.481	6338
819.622	6563
819.762	6677
819.903	6669
820.043	6589
820.184	6536
820.324	6623
820.465	6715
820.605	6650
820.746	6650
820.886	6513
821.026	6688
821.167	6726
821.307	6852
821.447	6779
821.588	6654
821.728	6593
821.868	6525
822.008	6304
822.149	6350
822.289	6395
822.429	6114
822.569	6152
822.709	6102
822.849	5992
822.99	5916
823.13	5904
823.27	5939
823.41	5764
823.55	5745
823.69	5790
823.83	5805
823.97	5691
824.11	5562
824.25	5543
824.389	5543
824.529	5562
824.669	5551
824.809	5596
824.949	5657
825.089	5604
825.228	5558
825.368	5353
825.508	5357
825.648	5349
825.787	5360
825.927	5315
826.067	5277
826.206	5292
826.346	5376
826.485	5425
826.625	5376
826.765	5528
826.904	5516
827.044	5220
827.183	5227
827.323	5166
827.462	5246
827.601	5132
827.741	5174
827.88	5212
828.02	5128
828.159	5204
828.298	5341
828.437	5345
828.577	5265
828.716	5497
828.855	5360
828.994	5170
829.134	5166
829.273	5178
829.412	5083
829.551	5113
829.69	5151
829.829	5254
829.968	5376
830.107	5273
830.246	5273
830.385	5201
830.524	5121
830.663	5090
830.802	4972
830.941	4858
831.08	4873
831.219	4995
831.357	4915
831.496	5109
831.635	4900
831.774	4850
831.913	4812
832.051	4717
832.19	4729
832.329	4828
832.467	4668
832.606	4618
832.744	4717
832.883	4687
833.022	4733
833.16	4771
833.299	4809
833.437	4771
833.576	4843
833.714	4850
833.852	4850
833.991	4889
834.129	4999
834.267	4927
834.406	4915
834.544	4961
834.682	4984
834.821	5003
834.959	5178
835.097	4984
835.235	5075
835.373	5090
835.511	5094
835.65	5052
835.788	5033
835.926	4904
836.064	4850
836.202	4908
836.34	5140
836.478	5242
836.615	5075
836.753	5220
836.891	5269
837.029	5231
837.167	5193
837.305	5159
837.443	5117
837.58	5052
837.718	5258
837.856	5201
837.993	5124
838.131	5223
838.269	5189
838.406	5220
838.544	5204
838.681	5064
838.819	4976
838.956	4866
839.094	4949
839.231	4991
839.369	5067
839.506	5398
839.643	5349
839.781	5060
839.918	4991
840.055	5105
840.193	5109
840.33	5052
840.467	5079
840.604	5208
840.742	5398
840.879	5083
841.016	5003
841.153	5143
841.29	5406
841.427	5334
841.564	5258
841.701	5311
841.838	5280
841.975	5250
842.112	5299
842.249	5147
842.385	5159
842.522	5334
842.659	5220
842.796	5159
842.933	5181
843.069	5147
843.206	5162
843.343	5288
843.479	5178
843.616	5216
843.752	5003
843.889	4991
844.025	5170
844.162	4995
844.298	5216
844.435	5075
844.571	5060
844.708	5181
844.844	5299
844.98	5334
845.117	5273
845.253	5132
845.389	5098
845.525	5212
845.661	5105
845.798	5098
845.934	5170
846.07	5003
846.206	5178
846.342	5299
846.478	5197
846.614	5003
846.75	4923
846.886	4934
847.022	5147
847.158	5037
847.294	5090
847.429	5136
847.565	5121
847.701	5311
847.837	4850
847.972	4847
848.108	4953
848.244	4946
848.379	4786
848.515	4694
848.65	4710
848.786	4706
848.921	4725
849.057	4881
849.192	4934
849.328	4839
849.463	4847
849.598	4797
849.734	4759
849.869	4653
850.004	4626
850.14	4653
850.275	4558
850.41	4504
850.545	4569
850.68	4622
850.815	4580
850.95	4622
851.085	4843
851.22	4714
851.355	4668
851.49	4554
851.625	4592
851.76	4645
851.895	4584
852.03	4538
852.165	4675
852.299	4755
852.434	4778
852.569	4694
852.703	4763
852.838	4828
852.973	4870
853.107	4908
853.242	4752
853.376	4679
853.511	4546
853.645	4592
853.78	4820
853.914	4740
854.048	4694
854.183	4618
854.317	4653
854.451	4889
854.585	4691
854.72	4656
854.854	4721
854.988	4577
855.122	4656
855.256	4542
855.39	4649
855.524	4801
855.658	4721
855.792	4717
855.926	4683
856.06	4759
856.194	4828
856.327	4675
856.461	4649
856.595	4607
856.729	4592
856.862	4736
856.996	4710
857.13	4714
857.263	4771
857.397	4790
857.53	4679
857.664	4706
857.797	4736
857.931	4698
858.064	4660
858.197	4740
858.331	4630
858.464	4603
858.597	4489
858.731	4649
858.864	4626
858.997	4546
859.13	4573
859.263	4702
859.396	4725
859.529	4592
859.662	4565
859.795	4538
859.928	4656
860.061	4755
860.194	4740
860.327	4592
860.46	4523
860.592	4706
860.725	4714
860.858	4752
860.99	4542
861.123	4459
861.256	4500
861.388	4607
861.521	5311
861.653	4478
861.786	4398
861.918	4440
862.05	4527
862.183	4535
862.315	4603
862.447	4649
862.58	4558
862.712	4409
862.844	4360
862.976	4462
863.108	4455
863.24	4900
863.372	4329
863.504	4421
863.636	4405
863.768	4493
863.9	4402
864.032	4360
864.164	4394
864.296	4485
864.428	4504
864.559	4550
864.691	4538
864.823	4508
864.954	4504
865.086	4497
865.217	4436
865.349	4402
865.48	4466
865.612	4538
865.743	4618
865.875	4470
866.006	4451
866.137	4428
866.269	4409
866.4	4451
866.531	4455
866.662	4417
866.793	4386
866.924	4462
867.055	4440
867.186	4481
867.317	4440
867.448	4337
867.579	4367
867.71	4417
867.841	4443
867.972	4493
868.103	4470
868.233	4428
868.364	4417
868.495	4478
868.625	4683
868.756	4736
868.886	4584
869.017	4691
869.147	4748
869.278	4759
869.408	4668
869.539	4656
869.669	4706
869.799	4653
869.929	4698
870.06	4702
870.19	4999
870.32	4930
870.45	4919
870.58	5037
870.71	5075
870.84	5094
870.97	4965
871.1	4873
871.23	5147
871.36	5147
871.489	4991
871.619	5060
871.749	5086
871.879	5079
872.008	5162
872.138	5079
872.267	4999
872.397	4797
872.526	4790
872.656	4717
872.785	4858
872.915	4927
873.044	5045
873.173	4915
873.303	4980
873.432	4961
873.561	5010
873.69	4908
873.819	4866
873.948	4927
874.077	4843
874.206	4793
874.335	4797
874.464	4972
874.593	5109
874.722	4984
874.851	5067
874.979	5029
875.108	5037
875.237	4934
875.365	4889
875.494	4881
875.623	5010
875.751	4831
875.88	4854
876.008	4980
876.136	5067
876.265	5193
876.393	5307
876.521	5250
876.65	5246
876.778	5181
876.906	5090
877.034	5067
877.162	4987
877.29	5029
877.418	4999
877.546	5033
877.674	5025
877.802	5045
877.93	5052
878.058	4900
878.185	4854
878.313	4961
878.441	4953
878.568	4805
878.696	4847
878.824	4965
878.951	5037
879.079	5113
879.206	5258
879.333	5121
879.461	4980
879.588	5018
879.715	5132
879.842	5220
879.97	4995
880.097	4805
880.224	4740
880.351	4774
880.478	4812
880.605	4763
880.732	4862
880.859	5102
880.986	4870
881.112	4862
881.239	4820
881.366	4687
881.493	4584
881.619	4626
881.746	4653
881.872	4634
881.999	4645
882.125	4698
882.252	4820
882.378	4873
882.505	4976
882.631	4809
882.757	4653
882.883	4729
883.01	4759
883.136	4615
883.262	4554
883.388	4622
883.514	4858
883.64	4866
883.766	4820
883.892	4660
884.018	4675
884.143	4873
884.269	5003
884.395	4653
884.52	4618
884.646	4664
884.772	4599
884.897	4596
885.023	4679
885.148	4771
885.274	4870
885.399	4805
885.524	4740
885.65	4687
885.775	4740
885.9	4698
886.025	4854
886.15	4786
886.275	4721
886.4	4656
886.525	4725
886.65	4664
886.775	4679
886.9	4919
887.025	5048
887.149	4816
887.274	4622
887.399	4546
887.523	4573
887.648	4580
887.773	4622
887.897	4710
888.021	4812
888.146	4622
888.27	4824
888.395	4850
888.519	4843
888.643	4839
888.767	4812
888.891	4664
889.015	4618
889.139	4580
889.263	4584
889.387	4771
889.511	4820
889.635	4812
889.759	4626
889.883	4603
890.006	4755
890.13	4850
890.254	4603
890.377	4679
890.501	4565
890.624	4546
890.748	4611
890.871	4535
890.995	4424
891.118	4394
891.241	4497
891.364	4512
891.488	4645
891.611	4462
891.734	4542
891.857	4580
891.98	4573
892.103	4637
892.226	4592
892.349	4478
892.471	4447
892.594	4512
892.717	4611
892.839	4554
892.962	4558
893.085	4691
893.207	4573
893.33	4474
893.452	4508
893.575	4653
893.697	4580
893.819	4771
893.941	4847
894.064	4763
894.186	4550
894.308	4569
894.43	4675
894.552	4824
894.674	4744
894.796	4558
894.918	4580
895.04	4569
895.161	4702
895.283	4611
895.405	4554
895.526	4577
895.648	4694
895.769	4656
895.891	4725
896.012	4752
896.134	4733
896.255	4641
896.376	4634
896.498	4641
896.619	4653
896.74	4592
896.861	4649
896.982	4919
897.103	5098
897.224	4866
897.345	4729
897.466	4668
897.587	4675
897.708	4919
897.828	4759
897.949	4675
898.07	4550
898.19	4588
898.311	4828
898.431	4660
898.552	4729
898.672	4786
898.792	4805
898.913	4679
899.033	4637
899.153	4535
899.273	4462
899.393	4531
899.513	4462
899.633	4493
899.753	4527
899.873	4531
899.993	4607
900.113	4493
900.232	4599
900.352	4538
900.472	4489
900.591	4402
900.711	4497
900.83	4455
900.95	4599
901.069	4691
901.189	4531
901.308	4375
901.427	4310
901.546	4383
901.665	4470
901.784	4531
901.904	4383
902.023	4291
902.141	4185
902.26	4204
902.379	4291
902.498	4227
902.617	4200
902.735	4333
902.854	4428
902.973	4356
903.091	4219
903.21	4261
903.328	4284
903.446	4284
903.565	4230
903.683	4360
903.801	4287
903.919	4363
904.038	4405
904.156	4314
904.274	4409
904.392	4394
904.51	4405
904.627	4489
904.745	4615
904.863	4637
904.981	4329
905.098	4299
905.216	4352
905.334	4386
905.451	4459
905.569	4478
905.686	4500
905.803	4523
905.921	4470
906.038	4573
906.155	4523
906.272	4394
906.389	4470
906.506	4306
906.623	4363
906.74	4360
906.857	4341
906.974	4356
907.091	4615
907.208	4653
907.324	4630
907.441	4466
907.557	4375
907.674	4291
907.79	4303
907.907	4360
908.023	4500
908.139	4455
908.256	4481
908.372	4440
908.488	4440
908.604	4413
908.72	4367
908.836	4394
908.952	4383
909.068	4421
909.184	4569
909.3	4447
909.415	4580
909.531	4580
909.647	4367
909.762	4398
909.878	4341
909.993	4421
910.108	4383
910.224	4440
910.339	4493
910.454	4409
910.57	4367
910.685	4299
910.8	4668
910.915	4615
911.03	4535
911.145	4371
911.259	4322
911.374	4363
911.489	4284
911.604	4284
911.718	4181
911.833	4211
911.947	4097
912.062	4021
912.176	4223
912.291	4230
912.405	4261
912.519	4451
912.633	4497
912.748	4344
912.862	4337
912.976	4211
913.09	4128
913.204	4177
913.318	4207
913.431	4390
913.545	4379
913.659	4432
913.772	4333
913.886	4234
914	4219
914.113	4409
914.226	4421
914.34	4371
914.453	4272
914.566	4383
914.68	4299
914.793	4310
914.906	4128
915.019	4131
915.132	4063
915.245	4188
915.358	4272
915.47	4204
915.583	4272
915.696	4303
915.809	4405
915.921	4367
916.034	4272
916.146	4219
916.259	4211
916.371	4352
916.483	4344
916.595	4287
916.708	4318
916.82	4344
916.932	4329
917.044	4363
917.156	4337
917.268	4188
917.38	4242
917.491	4306
917.603	4249
917.715	4421
917.826	4440
917.938	4322
918.049	4207
918.161	4409
918.272	4481
918.384	4580
918.495	4405
918.606	4314
918.717	4215
918.828	4325
918.939	4356
919.05	4223
919.161	4363
919.272	4120
919.383	4204
919.494	4459
919.604	4618
919.715	4383
919.826	4314
919.936	4417
920.047	4497
920.157	4470
920.267	4767
920.378	4504
920.488	4428
920.598	4736
920.708	4892
920.818	4694
920.928	4725
921.038	4953
921.148	4896
921.258	4653
921.368	4546
921.477	4462
921.587	4447
921.697	4360
921.806	4546
921.916	4447
922.025	4249
922.134	4265
922.244	4287
922.353	4329
922.462	4169
922.571	4116
922.68	4013
922.789	3972
922.898	3994
923.007	3968
923.116	4131
923.224	4067
923.333	4112
923.442	3979
923.55	3998
923.659	3983
923.767	4090
923.876	3998
923.984	4116
924.092	3975
924.201	4055
924.309	4101
924.417	4112
924.525	4051
924.633	4044
924.741	5067
924.849	3945
924.956	4158
925.064	3934
925.172	3907
925.279	3934
925.387	4044
925.494	4029
925.602	4196
925.709	4204
925.816	4067
925.924	4120
926.031	4169
926.138	4154
926.245	4246
926.352	4078
926.459	4272
926.566	4303
926.673	4177
926.779	4048
926.886	4063
926.993	3994
927.099	3968
927.206	3945
927.312	3934
927.419	4086
927.525	4010
927.631	4112
927.737	3945
927.843	3915
927.95	3793
928.056	3960
928.162	3968
928.267	4071
928.373	4599
928.479	4105
928.585	3873
928.69	3994
928.796	4112
928.901	3987
929.007	3861
929.112	4021
929.218	3975
929.323	3922
929.428	3911
929.533	4063
929.638	3911
929.743	3937
929.848	3979
929.953	3975
930.058	3922
930.163	3781
930.267	3861
930.372	3998
930.477	3762
930.581	4101
930.685	3896
930.79	3789
930.894	3892
930.998	3880
931.103	4055
931.207	3709
931.311	3709
931.415	3633
931.519	3507
931.623	3557
