Data from test_V78500241_44.txt Node
Date: Fri Mar 25 16:49:18 CST 2022
User: usil
Spectrometer: V785-0024
Trigger mode: 0
Integration Time (sec): 4.000000E-1
Scans to average: 1
Nonlinearity correction enabled: false
Boxcar width: 0
Storing dark spectrum: false
XAxis mode: Wavelengths
Number of Pixels in Spectrum: 1024
>>>>>Begin Spectral Data<<<<<
801.071	8088
801.214	8050
801.356	7959
801.499	7947
801.641	7879
801.783	7902
801.926	8043
802.068	8043
802.211	8081
802.353	8031
802.496	7940
802.638	8054
802.78	8043
802.923	8012
803.065	7883
803.208	7856
803.35	8001
803.492	8054
803.635	8153
803.777	7997
803.919	8100
804.061	8431
804.204	8153
804.346	8065
804.488	8027
804.63	8115
804.773	8039
804.915	8084
805.057	8248
805.199	8172
805.341	8275
805.483	8244
805.626	8290
805.768	8134
805.91	8263
806.052	8229
806.194	8119
806.336	8294
806.478	8157
806.62	8126
806.762	8218
806.904	8374
807.046	8450
807.188	8450
807.33	8339
807.472	8374
807.614	8180
807.756	8240
807.898	8069
808.04	8008
808.182	7955
808.324	7909
808.465	7967
808.607	8123
808.749	8221
808.891	8218
809.033	8320
809.174	8202
809.316	8012
809.458	8062
809.6	7982
809.741	8008
809.883	7970
810.025	8103
810.166	8103
810.308	8062
810.45	8084
810.591	7940
810.733	7712
810.875	7708
811.016	7597
811.158	7502
811.299	7700
811.441	7845
811.582	7795
811.724	7647
811.865	7605
812.007	7624
812.148	7685
812.29	7708
812.431	7765
812.573	7947
812.714	8035
812.855	8202
812.997	8301
813.138	8377
813.279	8221
813.421	8126
813.562	8077
813.703	7852
813.845	7784
813.986	7483
814.127	7297
814.268	7232
814.41	7251
814.551	7179
814.692	7217
814.833	7110
814.974	7156
815.115	7103
815.256	7019
815.397	6989
815.539	6947
815.68	6878
815.821	6825
815.962	6859
816.103	6844
816.244	6738
816.385	6677
816.526	6688
816.666	6566
816.807	6369
816.948	6467
817.089	6471
817.23	6498
817.371	6441
817.512	6441
817.653	6407
817.793	6441
817.934	6479
818.075	6460
818.216	6490
818.356	6509
818.497	6361
818.638	6186
818.778	6194
818.919	6125
819.06	6182
819.2	6323
819.341	6361
819.481	6395
819.622	6593
819.762	6798
819.903	6791
820.043	6597
820.184	6627
820.324	6650
820.465	6745
820.605	6673
820.746	6707
820.886	6563
821.026	6696
821.167	6772
821.307	6833
821.447	6791
821.588	6719
821.728	6612
821.868	6563
822.008	6369
822.149	6429
822.289	6422
822.429	6213
822.569	6136
822.709	6178
822.849	5950
822.99	5977
823.13	5973
823.27	5977
823.41	5844
823.55	5817
823.69	5885
823.83	5760
823.97	5703
824.11	5604
824.25	5600
824.389	5589
824.529	5642
824.669	5589
824.809	5642
824.949	5729
825.089	5710
825.228	5630
825.368	5471
825.508	5376
825.648	5414
825.787	5406
825.927	5406
826.067	5360
826.206	5326
826.346	5436
826.485	5459
826.625	5463
826.765	5592
826.904	5490
827.044	5292
827.183	5193
827.323	5216
827.462	5349
827.601	5303
827.741	5212
827.88	5223
828.02	5223
828.159	5227
828.298	5395
828.437	5379
828.577	5299
828.716	5528
828.855	5368
828.994	5185
829.134	5185
829.273	5258
829.412	5147
829.551	5162
829.69	5204
829.829	5235
829.968	5417
830.107	5280
830.246	5337
830.385	5242
830.524	5151
830.663	5079
830.802	5014
830.941	4965
831.08	4911
831.219	5067
831.357	4987
831.496	5155
831.635	4961
831.774	4866
831.913	4911
832.051	4759
832.19	4759
832.329	4858
832.467	4721
832.606	4649
832.744	4714
832.883	4774
833.022	4714
833.16	4809
833.299	4862
833.437	4839
833.576	4892
833.714	4908
833.852	4915
833.991	4919
834.129	5018
834.267	5006
834.406	4968
834.544	5041
834.682	4987
834.821	4957
834.959	5250
835.097	5052
835.235	5239
835.373	5136
835.511	5159
835.65	5041
835.788	5071
835.926	4972
836.064	4911
836.202	4995
836.34	5212
836.478	5277
836.615	5132
836.753	5273
836.891	5341
837.029	5326
837.167	5231
837.305	5193
837.443	5124
837.58	5140
837.718	5292
837.856	5208
837.993	5178
838.131	5250
838.269	5216
838.406	5216
838.544	5178
838.681	5071
838.819	4984
838.956	4915
839.094	4908
839.231	4972
839.369	5136
839.506	5520
839.643	5334
839.781	5090
839.918	5022
840.055	5121
840.193	5121
840.33	5174
840.467	5178
840.604	5265
840.742	5501
840.879	5121
841.016	5086
841.153	5162
841.29	5417
841.427	5357
841.564	5357
841.701	5402
841.838	5280
841.975	5284
842.112	5299
842.249	5208
842.385	5147
842.522	5402
842.659	5250
842.796	5151
842.933	5250
843.069	5155
843.206	5208
843.343	5280
843.479	5322
843.616	5296
843.752	5071
843.889	5033
844.025	5235
844.162	5079
844.298	5227
844.435	5117
844.571	5102
844.708	5235
844.844	5368
844.98	5383
845.117	5269
845.253	5136
845.389	5174
845.525	5170
845.661	5098
845.798	5155
845.934	5181
846.07	5094
846.206	5227
846.342	5326
846.478	5216
846.614	5056
846.75	5010
846.886	4995
847.022	5140
847.158	5086
847.294	5105
847.429	5105
847.565	5067
847.701	5330
847.837	4927
847.972	4870
848.108	5033
848.244	4968
848.379	4812
848.515	4778
848.65	4778
848.786	4736
848.921	4850
849.057	4896
849.192	4946
849.328	4828
849.463	4850
849.598	4805
849.734	4805
849.869	4706
850.004	4653
850.14	4717
850.275	4641
850.41	4535
850.545	4630
850.68	4645
850.815	4683
850.95	4645
851.085	4889
851.22	4790
851.355	4721
851.49	4702
851.625	4668
851.76	4653
851.895	4603
852.03	4546
852.165	4649
852.299	4698
852.434	4831
852.569	4797
852.703	4805
852.838	4881
852.973	4961
853.107	4942
853.242	4755
853.376	4683
853.511	4630
853.645	4653
853.78	4881
853.914	4744
854.048	4744
854.183	4698
854.317	4729
854.451	4870
854.585	4729
854.72	4687
854.854	4733
854.988	4622
855.122	4630
855.256	4527
855.39	4714
855.524	4831
855.658	4805
855.792	4740
855.926	4759
856.06	4740
856.194	4816
856.327	4721
856.461	4618
856.595	4687
856.729	4664
856.862	4831
856.996	4714
857.13	4790
857.263	4782
857.397	4835
857.53	4656
857.664	4691
857.797	4797
857.931	4782
858.064	4733
858.197	4816
858.331	4649
858.464	4641
858.597	4615
858.731	4645
858.864	4691
858.997	4683
859.13	4687
859.263	4694
859.396	4767
859.529	4637
859.662	4580
859.795	4565
859.928	4687
860.061	4809
860.194	4812
860.327	4630
860.46	4634
860.592	4755
860.725	4759
860.858	4752
860.99	4664
861.123	4508
861.256	4554
861.388	4653
861.521	5288
861.653	4531
861.786	4462
861.918	4519
862.05	4546
862.183	4596
862.315	4691
862.447	4679
862.58	4653
862.712	4440
862.844	4383
862.976	4523
863.108	4481
863.24	4896
863.372	4417
863.504	4478
863.636	4421
863.768	4550
863.9	4459
864.032	4398
864.164	4447
864.296	4531
864.428	4611
864.559	4603
864.691	4535
864.823	4561
864.954	4599
865.086	4538
865.217	4504
865.349	4485
865.48	4500
865.612	4504
865.743	4653
865.875	4470
866.006	4527
866.137	4489
866.269	4474
866.4	4470
866.531	4478
866.662	4424
866.793	4474
866.924	4466
867.055	4500
867.186	4493
867.317	4424
867.448	4428
867.579	4417
867.71	4443
867.841	4417
867.972	4527
868.103	4485
868.233	4489
868.364	4474
868.495	4508
868.625	4683
868.756	4839
868.886	4584
869.017	4672
869.147	4843
869.278	4797
869.408	4698
869.539	4702
869.669	4702
869.799	4725
869.929	4740
870.06	4831
870.19	4957
870.32	4980
870.45	4987
870.58	5079
870.71	5140
870.84	5128
870.97	4911
871.1	4942
871.23	5208
871.36	5155
871.489	5022
871.619	5117
871.749	5128
871.879	5223
872.008	5227
872.138	5128
872.267	5041
872.397	4919
872.526	4877
872.656	4752
872.785	4892
872.915	4995
873.044	5064
873.173	4934
873.303	5037
873.432	4999
873.561	5048
873.69	4881
873.819	4927
873.948	5014
874.077	4850
874.206	4767
874.335	4870
874.464	4976
874.593	5147
874.722	5010
874.851	5147
874.979	5102
875.108	5060
875.237	4938
875.365	4927
875.494	4900
875.623	5029
875.751	4854
875.88	4885
876.008	5018
876.136	5067
876.265	5273
876.393	5398
876.521	5284
876.65	5277
876.778	5170
876.906	5105
877.034	5086
877.162	5102
877.29	5033
877.418	5033
877.546	5109
877.674	5102
877.802	5064
877.93	5045
878.058	5010
878.185	4911
878.313	5022
878.441	4965
878.568	4816
878.696	4934
878.824	4976
878.951	5052
879.079	5132
879.206	5353
879.333	5105
879.461	4984
879.588	4999
879.715	5079
879.842	5277
879.97	5056
880.097	4793
880.224	4752
880.351	4892
880.478	4873
880.605	4816
880.732	4847
880.859	5136
880.986	4892
881.112	5029
881.239	4793
881.366	4740
881.493	4607
881.619	4672
881.746	4649
881.872	4736
881.999	4721
882.125	4714
882.252	4824
882.378	4847
882.505	5048
882.631	4824
882.757	4714
882.883	4771
883.01	4767
883.136	4664
883.262	4687
883.388	4634
883.514	4854
883.64	4854
883.766	4843
883.892	4706
884.018	4748
884.143	4915
884.269	5056
884.395	4721
884.52	4675
884.646	4653
884.772	4656
884.897	4622
885.023	4717
885.148	4843
885.274	4896
885.399	4873
885.524	4698
885.65	4782
885.775	4812
885.9	4744
886.025	4900
886.15	4881
886.275	4752
886.4	4691
886.525	4763
886.65	4786
886.775	4729
886.9	4949
887.025	5067
887.149	4812
887.274	4714
887.399	4660
887.523	4611
887.648	4634
887.773	4580
887.897	4782
888.021	4824
888.146	4664
888.27	4786
888.395	4923
888.519	4809
888.643	4786
888.767	4892
888.891	4702
889.015	4645
889.139	4653
889.263	4634
889.387	4812
889.511	4870
889.635	4839
889.759	4637
889.883	4660
890.006	4763
890.13	4824
890.254	4630
890.377	4725
890.501	4542
890.624	4535
890.748	4691
890.871	4550
890.995	4489
891.118	4436
891.241	4561
891.364	4558
891.488	4710
891.611	4535
891.734	4542
891.857	4656
891.98	4611
892.103	4675
892.226	4634
892.349	4565
892.471	4478
892.594	4607
892.717	4656
892.839	4596
892.962	4618
893.085	4725
893.207	4561
893.33	4516
893.452	4546
893.575	4698
893.697	4607
893.819	4812
893.941	4847
894.064	4850
894.186	4580
894.308	4626
894.43	4729
894.552	4858
894.674	4809
894.796	4558
894.918	4660
895.04	4607
895.161	4679
895.283	4714
895.405	4618
895.526	4691
895.648	4679
895.769	4717
895.891	4790
896.012	4793
896.134	4755
896.255	4698
896.376	4634
896.498	4653
896.619	4702
896.74	4675
896.861	4714
896.982	4896
897.103	5113
897.224	4885
897.345	4793
897.466	4694
897.587	4736
897.708	4892
897.828	4816
897.949	4706
898.07	4569
898.19	4641
898.311	4892
898.431	4725
898.552	4809
898.672	4873
898.792	4877
898.913	4748
899.033	4607
899.153	4580
899.273	4462
899.393	4550
899.513	4592
899.633	4535
899.753	4573
899.873	4558
899.993	4634
900.113	4535
900.232	4611
900.352	4607
900.472	4546
900.591	4440
900.711	4535
900.83	4459
900.95	4611
901.069	4710
901.189	4569
901.308	4394
901.427	4341
901.546	4440
901.665	4493
901.784	4508
901.904	4390
902.023	4379
902.141	4219
902.26	4185
902.379	4318
902.498	4280
902.617	4295
902.735	4402
902.854	4440
902.973	4360
903.091	4268
903.21	4238
903.328	4303
903.446	4284
903.565	4265
903.683	4341
903.801	4318
903.919	4459
904.038	4478
904.156	4318
904.274	4489
904.392	4424
904.51	4409
904.627	4443
904.745	4592
904.863	4679
904.981	4409
905.098	4344
905.216	4390
905.334	4394
905.451	4440
905.569	4440
905.686	4565
905.803	4634
905.921	4421
906.038	4584
906.155	4489
906.272	4493
906.389	4478
906.506	4375
906.623	4421
906.74	4398
906.857	4344
906.974	4424
907.091	4637
907.208	4748
907.324	4599
907.441	4527
907.557	4363
907.674	4409
907.79	4363
907.907	4417
908.023	4523
908.139	4550
908.256	4508
908.372	4504
908.488	4462
908.604	4367
908.72	4333
908.836	4459
908.952	4447
909.068	4481
909.184	4637
909.3	4500
909.415	4607
909.531	4584
909.647	4409
909.762	4390
909.878	4371
909.993	4485
910.108	4447
910.224	4375
910.339	4512
910.454	4466
910.57	4386
910.685	4371
910.8	4691
910.915	4607
911.03	4538
911.145	4398
911.259	4333
911.374	4383
911.489	4360
911.604	4272
911.718	4219
911.833	4219
911.947	4112
912.062	4055
912.176	4287
912.291	4238
912.405	4253
912.519	4519
912.633	4527
912.748	4432
912.862	4337
912.976	4272
913.09	4173
913.204	4154
913.318	4325
913.431	4409
913.545	4329
913.659	4489
913.772	4402
913.886	4249
914	4268
914.113	4360
914.226	4417
914.34	4402
914.453	4276
914.566	4462
914.68	4367
914.793	4352
914.906	4147
915.019	4105
915.132	4128
915.245	4192
915.358	4261
915.47	4265
915.583	4303
915.696	4306
915.809	4428
915.921	4455
916.034	4299
916.146	4253
916.259	4253
916.371	4447
916.483	4402
916.595	4310
916.708	4325
916.82	4318
916.932	4398
917.044	4344
917.156	4394
917.268	4230
917.38	4261
917.491	4291
917.603	4356
917.715	4451
917.826	4489
917.938	4371
918.049	4295
918.161	4417
918.272	4588
918.384	4542
918.495	4489
918.606	4337
918.717	4299
918.828	4363
918.939	4383
919.05	4291
919.161	4344
919.272	4162
919.383	4242
919.494	4481
919.604	4634
919.715	4493
919.826	4402
919.936	4432
920.047	4569
920.157	4523
920.267	4740
920.378	4573
920.488	4523
920.598	4748
920.708	4946
920.818	4736
920.928	4786
921.038	4984
921.148	5006
921.258	4694
921.368	4615
921.477	4516
921.587	4478
921.697	4421
921.806	4615
921.916	4485
922.025	4284
922.134	4303
922.244	4310
922.353	4417
922.462	4223
922.571	4227
922.68	4055
922.789	4036
922.898	4116
923.007	4071
923.116	4150
923.224	4120
923.333	4135
923.442	4036
923.55	4002
923.659	4105
923.767	4162
923.876	4048
923.984	4204
924.092	4105
924.201	4131
924.309	4143
924.417	4204
924.525	4135
924.633	4192
924.741	5124
924.849	4002
924.956	4219
925.064	4032
925.172	3964
925.279	4071
925.387	4082
925.494	4105
925.602	4280
925.709	4276
925.816	4097
925.924	4219
926.031	4303
926.138	4322
926.245	4310
926.352	4181
926.459	4318
926.566	4398
926.673	4246
926.779	4162
926.886	4162
926.993	4097
927.099	4017
927.206	4017
927.312	4029
927.419	4158
927.525	4116
927.631	4196
927.737	4063
927.843	4021
927.95	3896
928.056	4063
928.162	4059
928.267	4143
928.373	4706
928.479	4192
928.585	3941
928.69	4116
928.796	4143
928.901	4017
929.007	3880
929.112	4078
929.218	4032
929.323	4029
929.428	4040
929.533	4162
929.638	3956
929.743	4067
929.848	4128
929.953	4109
930.058	3960
930.163	3869
930.267	3888
930.372	4063
930.477	3884
930.581	4173
930.685	4036
930.79	3876
930.894	3964
930.998	3934
931.103	4128
931.207	3831
931.311	3785
931.415	3740
931.519	3610
931.623	3587
