Data from test_V78500241_2732.txt Node
Date: Fri Mar 25 17:07:59 CST 2022
User: usil
Spectrometer: V785-0024
Trigger mode: 0
Integration Time (sec): 4.000000E-1
Scans to average: 1
Nonlinearity correction enabled: false
Boxcar width: 0
Storing dark spectrum: false
XAxis mode: Wavelengths
Number of Pixels in Spectrum: 1024
>>>>>Begin Spectral Data<<<<<
801.071	8035
801.214	8012
801.356	7913
801.499	7875
801.641	7757
801.783	7879
801.926	7963
802.068	7909
802.211	8012
802.353	8016
802.496	7963
802.638	7894
802.78	7951
802.923	7856
803.065	7852
803.208	7871
803.35	7944
803.492	8088
803.635	8157
803.777	8016
803.919	8206
804.061	8442
804.204	8107
804.346	8081
804.488	7978
804.63	8119
804.773	8054
804.915	8054
805.057	8313
805.199	8149
805.341	8218
805.483	8282
805.626	8233
805.768	8100
805.91	8164
806.052	8282
806.194	8119
806.336	8343
806.478	8138
806.62	8096
806.762	8130
806.904	8206
807.046	8457
807.188	8339
807.33	8362
807.472	8366
807.614	8199
807.756	8180
807.898	8031
808.04	7852
808.182	7921
808.324	7894
808.465	7963
808.607	8138
808.749	8164
808.891	8263
809.033	8343
809.174	8248
809.316	8119
809.458	8107
809.6	8005
809.741	8035
809.883	8012
810.025	8084
810.166	8081
810.308	8001
810.45	8065
810.591	7860
810.733	7715
810.875	7662
811.016	7616
811.158	7540
811.299	7662
811.441	7731
811.582	7727
811.724	7632
811.865	7582
812.007	7624
812.148	7578
812.29	7674
812.431	7708
812.573	7898
812.714	7947
812.855	8138
812.997	8263
813.138	8263
813.279	8183
813.421	8130
813.562	7970
813.703	7879
813.845	7704
813.986	7502
814.127	7270
814.268	7194
814.41	7183
814.551	7183
814.692	7179
814.833	7095
814.974	7095
815.115	7118
815.256	6928
815.397	6932
815.539	6954
815.68	6772
815.821	6776
815.962	6886
816.103	6875
816.244	6776
816.385	6646
816.526	6635
816.666	6544
816.807	6304
816.948	6407
817.089	6475
817.23	6464
817.371	6372
817.512	6399
817.653	6380
817.793	6342
817.934	6369
818.075	6464
818.216	6410
818.356	6388
818.497	6209
818.638	6079
818.778	6148
818.919	6148
819.06	6190
819.2	6372
819.341	6311
819.481	6350
819.622	6528
819.762	6738
819.903	6669
820.043	6616
820.184	6597
820.324	6601
820.465	6696
820.605	6696
820.746	6669
820.886	6437
821.026	6635
821.167	6681
821.307	6791
821.447	6703
821.588	6635
821.728	6604
821.868	6452
822.008	6292
822.149	6418
822.289	6391
822.429	6209
822.569	6125
822.709	6095
822.849	5950
822.99	5882
823.13	5958
823.27	5893
823.41	5794
823.55	5813
823.69	5752
823.83	5805
823.97	5672
824.11	5505
824.25	5516
824.389	5566
824.529	5551
824.669	5554
824.809	5665
824.949	5703
825.089	5596
825.228	5570
825.368	5414
825.508	5337
825.648	5318
825.787	5376
825.927	5387
826.067	5349
826.206	5223
826.346	5398
826.485	5455
826.625	5357
826.765	5562
826.904	5471
827.044	5288
827.183	5204
827.323	5098
827.462	5239
827.601	5220
827.741	5185
827.88	5208
828.02	5090
828.159	5204
828.298	5269
828.437	5406
828.577	5299
828.716	5482
828.855	5280
828.994	5159
829.134	5117
829.273	5208
829.412	5086
829.551	5140
829.69	5147
829.829	5212
829.968	5334
830.107	5216
830.246	5239
830.385	5220
830.524	5128
830.663	5079
830.802	4934
830.941	4885
831.08	4824
831.219	4965
831.357	4987
831.496	5166
831.635	4923
831.774	4850
831.913	4839
832.051	4748
832.19	4778
832.329	4816
832.467	4683
832.606	4653
832.744	4694
832.883	4729
833.022	4691
833.16	4797
833.299	4828
833.437	4805
833.576	4828
833.714	4847
833.852	4873
833.991	4892
834.129	4900
834.267	4995
834.406	4858
834.544	4984
834.682	4942
834.821	4908
834.959	5159
835.097	4965
835.235	5102
835.373	5037
835.511	5060
835.65	5022
835.788	5071
835.926	4889
836.064	4877
836.202	4900
836.34	5124
836.478	5258
836.615	5083
836.753	5223
836.891	5277
837.029	5231
837.167	5178
837.305	5128
837.443	5143
837.58	5079
837.718	5242
837.856	5162
837.993	5197
838.131	5258
838.269	5197
838.406	5193
838.544	5189
838.681	5022
838.819	4984
838.956	4904
839.094	4908
839.231	4965
839.369	5121
839.506	5372
839.643	5269
839.781	5018
839.918	5045
840.055	5075
840.193	5094
840.33	5159
840.467	5166
840.604	5178
840.742	5387
840.879	5147
841.016	5090
841.153	5166
841.29	5357
841.427	5391
841.564	5341
841.701	5318
841.838	5322
841.975	5239
842.112	5261
842.249	5136
842.385	5094
842.522	5292
842.659	5181
842.796	5155
842.933	5216
843.069	5136
843.206	5212
843.343	5280
843.479	5181
843.616	5303
843.752	5014
843.889	5003
844.025	5227
844.162	4984
844.298	5269
844.435	5140
844.571	5056
844.708	5151
844.844	5265
844.98	5311
845.117	5254
845.253	5136
845.389	5098
845.525	5170
845.661	5151
845.798	5075
845.934	5147
846.07	5052
846.206	5170
846.342	5284
846.478	5231
846.614	5014
846.75	4919
846.886	4923
847.022	5147
847.158	5022
847.294	5098
847.429	5166
847.565	5071
847.701	5341
847.837	4847
847.972	4816
848.108	4923
848.244	4946
848.379	4809
848.515	4771
848.65	4717
848.786	4736
848.921	4782
849.057	4843
849.192	4896
849.328	4820
849.463	4824
849.598	4771
849.734	4736
849.869	4687
850.004	4649
850.14	4664
850.275	4599
850.41	4512
850.545	4584
850.68	4615
850.815	4615
850.95	4645
851.085	4854
851.22	4767
851.355	4702
851.49	4607
851.625	4694
851.76	4618
851.895	4542
852.03	4516
852.165	4645
852.299	4733
852.434	4839
852.569	4687
852.703	4786
852.838	4793
852.973	4908
853.107	4949
853.242	4736
853.376	4664
853.511	4569
853.645	4622
853.78	4752
853.914	4702
854.048	4687
854.183	4607
854.317	4744
854.451	4873
854.585	4641
854.72	4603
854.854	4694
854.988	4592
855.122	4603
855.256	4516
855.39	4615
855.524	4752
855.658	4714
855.792	4714
855.926	4733
856.06	4748
856.194	4801
856.327	4672
856.461	4634
856.595	4615
856.729	4611
856.862	4767
856.996	4694
857.13	4763
857.263	4801
857.397	4831
857.53	4626
857.664	4702
857.797	4759
857.931	4717
858.064	4683
858.197	4725
858.331	4664
858.464	4573
858.597	4550
858.731	4607
858.864	4622
858.997	4573
859.13	4645
859.263	4615
859.396	4714
859.529	4634
859.662	4577
859.795	4554
859.928	4634
860.061	4755
860.194	4752
860.327	4615
860.46	4588
860.592	4694
860.725	4714
860.858	4725
860.99	4565
861.123	4424
861.256	4531
861.388	4584
861.521	5318
861.653	4481
861.786	4432
861.918	4497
862.05	4523
862.183	4554
862.315	4596
862.447	4603
862.58	4500
862.712	4379
862.844	4348
862.976	4459
863.108	4436
863.24	4721
863.372	4363
863.504	4413
863.636	4459
863.768	4489
863.9	4462
864.032	4341
864.164	4409
864.296	4500
864.428	4535
864.559	4561
864.691	4538
864.823	4497
864.954	4500
865.086	4516
865.217	4459
865.349	4443
865.48	4478
865.612	4508
865.743	4618
865.875	4516
866.006	4405
866.137	4485
866.269	4462
866.4	4440
866.531	4428
866.662	4413
866.793	4390
866.924	4432
867.055	4512
867.186	4466
867.317	4375
867.448	4386
867.579	4421
867.71	4394
867.841	4379
867.972	4432
868.103	4474
868.233	4447
868.364	4466
868.495	4466
868.625	4691
868.756	4736
868.886	4554
869.017	4607
869.147	4759
869.278	4816
869.408	4687
869.539	4577
869.669	4672
869.799	4660
869.929	4824
870.06	4706
870.19	4972
870.32	4866
870.45	4908
870.58	4980
870.71	5128
870.84	5109
870.97	4953
871.1	4896
871.23	5197
871.36	5060
871.489	4999
871.619	5048
871.749	5045
871.879	5136
872.008	5174
872.138	5052
872.267	5010
872.397	4896
872.526	4801
872.656	4759
872.785	4797
872.915	4915
873.044	5025
873.173	4946
873.303	4953
873.432	4877
873.561	4991
873.69	4858
873.819	4904
873.948	4881
874.077	4805
874.206	4729
874.335	4790
874.464	4911
874.593	5033
874.722	4957
874.851	5086
874.979	5037
875.108	5075
875.237	4862
875.365	4881
875.494	4866
875.623	4957
875.751	4828
875.88	4949
876.008	4984
876.136	5018
876.265	5223
876.393	5303
876.521	5223
876.65	5239
876.778	5128
876.906	5086
877.034	5006
877.162	5083
877.29	4965
877.418	5056
877.546	5010
877.674	5045
877.802	5067
877.93	4991
878.058	4942
878.185	4923
878.313	4942
878.441	4946
878.568	4809
878.696	4892
878.824	4923
878.951	5060
879.079	5109
879.206	5299
879.333	5113
879.461	4968
879.588	4976
879.715	5098
879.842	5227
879.97	5060
880.097	4809
880.224	4744
880.351	4828
880.478	4850
880.605	4835
880.732	4752
880.859	5121
880.986	4873
881.112	4942
881.239	4771
881.366	4702
881.493	4588
881.619	4607
881.746	4599
881.872	4645
881.999	4630
882.125	4725
882.252	4740
882.378	4843
882.505	4972
882.631	4801
882.757	4675
882.883	4714
883.01	4679
883.136	4702
883.262	4645
883.388	4569
883.514	4824
883.64	4801
883.766	4816
883.892	4679
884.018	4748
884.143	4904
884.269	5075
884.395	4683
884.52	4656
884.646	4649
884.772	4580
884.897	4538
885.023	4675
885.148	4812
885.274	4866
885.399	4786
885.524	4679
885.65	4679
885.775	4740
885.9	4691
886.025	4809
886.15	4778
886.275	4725
886.4	4599
886.525	4744
886.65	4691
886.775	4679
886.9	4854
887.025	5052
887.149	4809
887.274	4653
887.399	4622
887.523	4569
887.648	4577
887.773	4573
887.897	4759
888.021	4767
888.146	4668
888.27	4771
888.395	4938
888.519	4805
888.643	4847
888.767	4816
888.891	4668
889.015	4664
889.139	4649
889.263	4565
889.387	4755
889.511	4812
889.635	4763
889.759	4683
889.883	4649
890.006	4714
890.13	4797
890.254	4634
890.377	4679
890.501	4508
890.624	4561
890.748	4615
890.871	4504
890.995	4409
891.118	4451
891.241	4527
891.364	4561
891.488	4675
891.611	4504
891.734	4542
891.857	4626
891.98	4519
892.103	4645
892.226	4577
892.349	4523
892.471	4455
892.594	4584
892.717	4588
892.839	4569
892.962	4607
893.085	4687
893.207	4573
893.33	4466
893.452	4531
893.575	4672
893.697	4607
893.819	4782
893.941	4828
894.064	4786
894.186	4512
894.308	4622
894.43	4771
894.552	4835
894.674	4771
894.796	4565
894.918	4592
895.04	4546
895.161	4694
895.283	4653
895.405	4618
895.526	4664
895.648	4679
895.769	4622
895.891	4710
896.012	4687
896.134	4740
896.255	4656
896.376	4637
896.498	4607
896.619	4660
896.74	4542
896.861	4641
896.982	4908
897.103	5029
897.224	4797
897.345	4740
897.466	4679
897.587	4733
897.708	4824
897.828	4801
897.949	4653
898.07	4588
898.19	4649
898.311	4847
898.431	4698
898.552	4725
898.672	4797
898.792	4809
898.913	4748
899.033	4588
899.153	4474
899.273	4451
899.393	4519
899.513	4531
899.633	4546
899.753	4573
899.873	4538
899.993	4569
900.113	4485
900.232	4569
900.352	4459
900.472	4466
900.591	4398
900.711	4489
900.83	4432
900.95	4607
901.069	4687
901.189	4535
901.308	4398
901.427	4276
901.546	4360
901.665	4489
901.784	4500
901.904	4447
902.023	4310
902.141	4185
902.26	4131
902.379	4287
902.498	4246
902.617	4238
902.735	4371
902.854	4424
902.973	4356
903.091	4196
903.21	4253
903.328	4299
903.446	4284
903.565	4242
903.683	4352
903.801	4280
903.919	4405
904.038	4440
904.156	4303
904.274	4451
904.392	4375
904.51	4421
904.627	4417
904.745	4611
904.863	4664
904.981	4341
905.098	4314
905.216	4405
905.334	4402
905.451	4436
905.569	4470
905.686	4535
905.803	4592
905.921	4451
906.038	4592
906.155	4447
906.272	4421
906.389	4497
906.506	4348
906.623	4344
906.74	4371
906.857	4303
906.974	4356
907.091	4538
907.208	4679
907.324	4584
907.441	4459
907.557	4329
907.674	4333
907.79	4322
907.907	4413
908.023	4462
908.139	4485
908.256	4394
908.372	4497
908.488	4417
908.604	4352
908.72	4295
908.836	4447
908.952	4352
909.068	4455
909.184	4546
909.3	4455
909.415	4569
909.531	4527
909.647	4325
909.762	4360
909.878	4386
909.993	4459
910.108	4432
910.224	4424
910.339	4474
910.454	4409
910.57	4371
910.685	4280
910.8	4645
910.915	4588
911.03	4508
911.145	4363
911.259	4325
911.374	4291
911.489	4325
911.604	4303
911.718	4173
911.833	4200
911.947	4128
912.062	4036
912.176	4223
912.291	4234
912.405	4276
912.519	4440
912.633	4508
912.748	4413
912.862	4318
912.976	4234
913.09	4051
913.204	4143
913.318	4211
913.431	4356
913.545	4360
913.659	4459
913.772	4337
913.886	4272
914	4253
914.113	4329
914.226	4413
914.34	4367
914.453	4227
914.566	4413
914.68	4295
914.793	4299
914.906	4173
915.019	4139
915.132	4086
915.245	4166
915.358	4227
915.47	4284
915.583	4337
915.696	4291
915.809	4337
915.921	4428
916.034	4227
916.146	4238
916.259	4223
916.371	4352
916.483	4363
916.595	4261
916.708	4310
916.82	4272
916.932	4280
917.044	4348
917.156	4337
917.268	4219
917.38	4291
917.491	4295
917.603	4325
917.715	4409
917.826	4432
917.938	4314
918.049	4253
918.161	4379
918.272	4580
918.384	4565
918.495	4432
918.606	4287
918.717	4276
918.828	4310
918.939	4417
919.05	4257
919.161	4310
919.272	4158
919.383	4215
919.494	4440
919.604	4634
919.715	4466
919.826	4295
919.936	4417
920.047	4493
920.157	4424
920.267	4717
920.378	4565
920.488	4538
920.598	4710
920.708	4877
920.818	4786
920.928	4763
921.038	4972
921.148	4949
921.258	4672
921.368	4542
921.477	4447
921.587	4504
921.697	4405
921.806	4542
921.916	4405
922.025	4242
922.134	4276
922.244	4280
922.353	4306
922.462	4162
922.571	4143
922.68	4021
922.789	3968
922.898	4021
923.007	4013
923.116	4082
923.224	4086
923.333	4124
923.442	3983
923.55	3918
923.659	4021
923.767	4124
923.876	3968
923.984	4101
924.092	4074
924.201	4093
924.309	4067
924.417	4143
924.525	4078
924.633	4074
924.741	5022
924.849	3918
924.956	4109
925.064	3953
925.172	3888
925.279	3972
925.387	4055
925.494	4010
925.602	4166
925.709	4135
925.816	4044
925.924	4120
926.031	4230
926.138	4158
926.245	4131
926.352	4074
926.459	4249
926.566	4249
926.673	4169
926.779	4097
926.886	4071
926.993	4002
927.099	3922
927.206	3949
927.312	3960
927.419	4063
927.525	4082
927.631	4124
927.737	3945
927.843	3922
927.95	3873
928.056	3934
928.162	3983
928.267	4074
928.373	4592
928.479	4128
928.585	3842
928.69	3994
928.796	4135
928.901	3975
929.007	3838
929.112	4006
929.218	3960
929.323	3949
929.428	3975
929.533	4158
929.638	3884
929.743	3956
929.848	4032
929.953	4013
930.058	3918
930.163	3762
930.267	3823
930.372	3972
930.477	3804
930.581	4071
930.685	3956
930.79	3838
930.894	3892
930.998	3857
931.103	4051
931.207	3717
931.311	3682
931.415	3667
931.519	3561
931.623	3538
