Data from test_V78500241_606.txt Node
Date: Fri Mar 25 16:53:12 CST 2022
User: usil
Spectrometer: V785-0024
Trigger mode: 0
Integration Time (sec): 4.000000E-1
Scans to average: 1
Nonlinearity correction enabled: false
Boxcar width: 0
Storing dark spectrum: false
XAxis mode: Wavelengths
Number of Pixels in Spectrum: 1024
>>>>>Begin Spectral Data<<<<<
801.071	8031
801.214	7974
801.356	7871
801.499	7837
801.641	7792
801.783	7860
801.926	8031
802.068	7970
802.211	7993
802.353	8024
802.496	7894
802.638	7936
802.78	7974
802.923	7898
803.065	7822
803.208	7742
803.35	7963
803.492	8115
803.635	8168
803.777	8050
803.919	8111
804.061	8377
804.204	8202
804.346	8012
804.488	7887
804.63	8161
804.773	8027
804.915	8069
805.057	8240
805.199	8195
805.341	8248
805.483	8298
805.626	8237
805.768	8103
805.91	8138
806.052	8168
806.194	8111
806.336	8298
806.478	8126
806.62	8092
806.762	8225
806.904	8290
807.046	8434
807.188	8423
807.33	8313
807.472	8393
807.614	8187
807.756	8195
807.898	7982
808.04	7826
808.182	7955
808.324	7913
808.465	7974
808.607	8031
808.749	8096
808.891	8202
809.033	8195
809.174	8221
809.316	8073
809.458	8107
809.6	8020
809.741	8020
809.883	8031
810.025	8088
810.166	8069
810.308	8012
810.45	8046
810.591	7947
810.733	7693
810.875	7704
811.016	7575
811.158	7540
811.299	7605
811.441	7822
811.582	7601
811.724	7578
811.865	7540
812.007	7624
812.148	7586
812.29	7639
812.431	7750
812.573	7906
812.714	8035
812.855	8149
812.997	8252
813.138	8362
813.279	8290
813.421	8210
813.562	7989
813.703	7913
813.845	7776
813.986	7510
814.127	7324
814.268	7324
814.41	7236
814.551	7156
814.692	7160
814.833	7046
814.974	7061
815.115	7072
815.256	7015
815.397	6954
815.539	6939
815.68	6837
815.821	6764
815.962	6837
816.103	6848
816.244	6719
816.385	6570
816.526	6601
816.666	6502
816.807	6300
816.948	6437
817.089	6494
817.23	6429
817.371	6365
817.512	6369
817.653	6399
817.793	6376
817.934	6460
818.075	6513
818.216	6498
818.356	6323
818.497	6266
818.638	6098
818.778	6144
818.919	6148
819.06	6190
819.2	6311
819.341	6273
819.481	6346
819.622	6559
819.762	6692
819.903	6692
820.043	6563
820.184	6563
820.324	6593
820.465	6654
820.605	6673
820.746	6639
820.886	6544
821.026	6654
821.167	6692
821.307	6814
821.447	6768
821.588	6681
821.728	6528
821.868	6445
822.008	6331
822.149	6308
822.289	6315
822.429	6190
822.569	6072
822.709	6136
822.849	5920
822.99	5863
823.13	5863
823.27	5984
823.41	5794
823.55	5771
823.69	5760
823.83	5817
823.97	5672
824.11	5577
824.25	5524
824.389	5554
824.529	5627
824.669	5509
824.809	5649
824.949	5657
825.089	5623
825.228	5539
825.368	5387
825.508	5345
825.648	5360
825.787	5433
825.927	5349
826.067	5315
826.206	5379
826.346	5410
826.485	5387
826.625	5391
826.765	5524
826.904	5467
827.044	5273
827.183	5197
827.323	5117
827.462	5193
827.601	5204
827.741	5162
827.88	5239
828.02	5124
828.159	5239
828.298	5288
828.437	5357
828.577	5231
828.716	5512
828.855	5379
828.994	5181
829.134	5151
829.273	5170
829.412	5121
829.551	5128
829.69	5170
829.829	5242
829.968	5391
830.107	5227
830.246	5250
830.385	5181
830.524	5140
830.663	5094
830.802	4961
830.941	4873
831.08	4881
831.219	4980
831.357	4995
831.496	5181
831.635	4938
831.774	4862
831.913	4847
832.051	4759
832.19	4759
832.329	4809
832.467	4687
832.606	4664
832.744	4675
832.883	4740
833.022	4660
833.16	4816
833.299	4774
833.437	4831
833.576	4797
833.714	4870
833.852	4889
833.991	4881
834.129	4938
834.267	4919
834.406	4923
834.544	4999
834.682	4976
834.821	4900
834.959	5174
835.097	4980
835.235	5151
835.373	5018
835.511	5060
835.65	5029
835.788	5014
835.926	4862
836.064	4873
836.202	4908
836.34	5121
836.478	5201
836.615	5132
836.753	5265
836.891	5269
837.029	5258
837.167	5227
837.305	5181
837.443	5098
837.58	5113
837.718	5284
837.856	5212
837.993	5140
838.131	5212
838.269	5216
838.406	5178
838.544	5166
838.681	5037
838.819	5056
838.956	4927
839.094	4908
839.231	4957
839.369	5041
839.506	5444
839.643	5261
839.781	5045
839.918	4965
840.055	5155
840.193	5105
840.33	5113
840.467	5143
840.604	5197
840.742	5433
840.879	5067
841.016	5075
841.153	5132
841.29	5353
841.427	5277
841.564	5349
841.701	5364
841.838	5318
841.975	5239
842.112	5315
842.249	5140
842.385	5136
842.522	5299
842.659	5151
842.796	5109
842.933	5216
843.069	5121
843.206	5174
843.343	5261
843.479	5216
843.616	5288
843.752	5079
843.889	4999
844.025	5212
844.162	5052
844.298	5174
844.435	5121
844.571	5071
844.708	5174
844.844	5322
844.98	5303
845.117	5315
845.253	5143
845.389	5124
845.525	5132
845.661	5166
845.798	5018
845.934	5174
846.07	5098
846.206	5155
846.342	5307
846.478	5181
846.614	5033
846.75	4946
846.886	4923
847.022	5121
847.158	4987
847.294	5098
847.429	5105
847.565	5052
847.701	5322
847.837	4854
847.972	4805
848.108	4991
848.244	4972
848.379	4778
848.515	4714
848.65	4733
848.786	4740
848.921	4763
849.057	4858
849.192	4915
849.328	4843
849.463	4858
849.598	4801
849.734	4733
849.869	4733
850.004	4660
850.14	4653
850.275	4630
850.41	4519
850.545	4508
850.68	4626
850.815	4615
850.95	4649
851.085	4847
851.22	4755
851.355	4714
851.49	4626
851.625	4641
851.76	4634
851.895	4580
852.03	4535
852.165	4630
852.299	4736
852.434	4828
852.569	4744
852.703	4782
852.838	4812
852.973	4911
853.107	4953
853.242	4744
853.376	4634
853.511	4584
853.645	4653
853.78	4812
853.914	4573
854.048	4664
854.183	4626
854.317	4748
854.451	4881
854.585	4714
854.72	4653
854.854	4767
854.988	4630
855.122	4653
855.256	4516
855.39	4683
855.524	4778
855.658	4694
855.792	4717
855.926	4721
856.06	4736
856.194	4782
856.327	4706
856.461	4618
856.595	4626
856.729	4637
856.862	4744
856.996	4698
857.13	4717
857.263	4763
857.397	4782
857.53	4596
857.664	4759
857.797	4774
857.931	4771
858.064	4694
858.197	4782
858.331	4607
858.464	4630
858.597	4523
858.731	4626
858.864	4626
858.997	4596
859.13	4618
859.263	4687
859.396	4691
859.529	4577
859.662	4584
859.795	4573
859.928	4630
860.061	4725
860.194	4774
860.327	4588
860.46	4535
860.592	4656
860.725	4733
860.858	4744
860.99	4580
861.123	4531
861.256	4497
861.388	4561
861.521	5433
861.653	4485
861.786	4424
861.918	4466
862.05	4561
862.183	4512
862.315	4577
862.447	4672
862.58	4580
862.712	4417
862.844	4341
862.976	4443
863.108	4462
863.24	4915
863.372	4325
863.504	4363
863.636	4409
863.768	4519
863.9	4451
864.032	4337
864.164	4443
864.296	4478
864.428	4523
864.559	4565
864.691	4535
864.823	4485
864.954	4470
865.086	4493
865.217	4421
865.349	4436
865.48	4432
865.612	4443
865.743	4611
865.875	4459
866.006	4428
866.137	4440
866.269	4459
866.4	4424
866.531	4432
866.662	4394
866.793	4440
866.924	4394
867.055	4497
867.186	4447
867.317	4402
867.448	4428
867.579	4379
867.71	4386
867.841	4390
867.972	4489
868.103	4462
868.233	4504
868.364	4462
868.495	4481
868.625	4645
868.756	4729
868.886	4561
869.017	4653
869.147	4759
869.278	4767
869.408	4653
869.539	4649
869.669	4691
869.799	4675
869.929	4797
870.06	4744
870.19	4961
870.32	4908
870.45	4946
870.58	5022
870.71	5102
870.84	5083
870.97	4968
871.1	4942
871.23	5178
871.36	5124
871.489	5048
871.619	5071
871.749	5071
871.879	5136
872.008	5227
872.138	5018
872.267	4961
872.397	4854
872.526	4778
872.656	4725
872.785	4767
872.915	4927
873.044	4995
873.173	4881
873.303	4961
873.432	4923
873.561	4957
873.69	4873
873.819	4831
873.948	4915
874.077	4820
874.206	4698
874.335	4847
874.464	4930
874.593	5048
874.722	4953
874.851	5075
874.979	5086
875.108	5018
875.237	4949
875.365	4904
875.494	4870
875.623	4965
875.751	4881
875.88	4839
876.008	4961
876.136	5086
876.265	5170
876.393	5322
876.521	5296
876.65	5170
876.778	5170
876.906	5113
877.034	4991
877.162	5010
877.29	5022
877.418	5102
877.546	5060
877.674	5048
877.802	5041
877.93	4980
878.058	4927
878.185	4930
878.313	4984
878.441	4991
878.568	4790
878.696	4892
878.824	4934
878.951	5018
879.079	5143
879.206	5284
879.333	5128
879.461	4999
879.588	4957
879.715	5201
879.842	5220
879.97	4980
880.097	4797
880.224	4717
880.351	4812
880.478	4805
880.605	4793
880.732	4805
880.859	5052
880.986	4877
881.112	4908
881.239	4740
881.366	4653
881.493	4649
881.619	4584
881.746	4592
881.872	4694
881.999	4622
882.125	4687
882.252	4771
882.378	4778
882.505	4923
882.631	4778
882.757	4626
882.883	4736
883.01	4752
883.136	4645
883.262	4596
883.388	4637
883.514	4820
883.64	4854
883.766	4809
883.892	4664
884.018	4710
884.143	4896
884.269	4987
884.395	4698
884.52	4630
884.646	4672
884.772	4546
884.897	4527
885.023	4691
885.148	4790
885.274	4839
885.399	4831
885.524	4679
885.65	4717
885.775	4740
885.9	4725
886.025	4847
886.15	4755
886.275	4710
886.4	4637
886.525	4717
886.65	4672
886.775	4706
886.9	4942
887.025	5003
887.149	4786
887.274	4649
887.399	4622
887.523	4668
887.648	4531
887.773	4626
887.897	4744
888.021	4797
888.146	4653
888.27	4858
888.395	4911
888.519	4755
888.643	4812
888.767	4797
888.891	4706
889.015	4656
889.139	4637
889.263	4596
889.387	4748
889.511	4835
889.635	4778
889.759	4626
889.883	4630
890.006	4733
890.13	4911
890.254	4649
890.377	4683
890.501	4542
890.624	4519
890.748	4668
890.871	4546
890.995	4485
891.118	4394
891.241	4538
891.364	4573
891.488	4611
891.611	4489
891.734	4542
891.857	4577
891.98	4535
892.103	4672
892.226	4596
892.349	4561
892.471	4440
892.594	4527
892.717	4615
892.839	4569
892.962	4592
893.085	4660
893.207	4618
893.33	4485
893.452	4531
893.575	4672
893.697	4538
893.819	4820
893.941	4824
894.064	4744
894.186	4569
894.308	4599
894.43	4691
894.552	4812
894.674	4729
894.796	4550
894.918	4611
895.04	4577
895.161	4702
895.283	4641
895.405	4569
895.526	4656
895.648	4733
895.769	4683
895.891	4691
896.012	4740
896.134	4771
896.255	4660
896.376	4634
896.498	4626
896.619	4675
896.74	4618
896.861	4607
896.982	4965
897.103	5037
897.224	4805
897.345	4740
897.466	4664
897.587	4698
897.708	4854
897.828	4816
897.949	4641
898.07	4542
898.19	4592
898.311	4790
898.431	4679
898.552	4755
898.672	4812
898.792	4793
898.913	4767
899.033	4630
899.153	4550
899.273	4421
899.393	4462
899.513	4466
899.633	4512
899.753	4497
899.873	4523
899.993	4580
900.113	4523
900.232	4565
900.352	4558
900.472	4535
900.591	4409
900.711	4493
900.83	4459
900.95	4630
901.069	4664
901.189	4531
901.308	4371
901.427	4341
901.546	4417
901.665	4478
901.784	4500
901.904	4432
902.023	4303
902.141	4192
902.26	4177
902.379	4261
902.498	4211
902.617	4219
902.735	4390
902.854	4413
902.973	4337
903.091	4219
903.21	4242
903.328	4299
903.446	4268
903.565	4177
903.683	4333
903.801	4299
903.919	4421
904.038	4455
904.156	4333
904.274	4443
904.392	4383
904.51	4417
904.627	4497
904.745	4569
904.863	4645
904.981	4375
905.098	4284
905.216	4375
905.334	4432
905.451	4451
905.569	4440
905.686	4512
905.803	4603
905.921	4394
906.038	4538
906.155	4478
906.272	4394
906.389	4428
906.506	4322
906.623	4363
906.74	4398
906.857	4333
906.974	4413
907.091	4527
907.208	4694
907.324	4500
907.441	4508
907.557	4371
907.674	4352
907.79	4367
907.907	4379
908.023	4459
908.139	4512
908.256	4485
908.372	4447
908.488	4436
908.604	4325
908.72	4303
908.836	4417
908.952	4386
909.068	4443
909.184	4538
909.3	4493
909.415	4577
909.531	4558
909.647	4371
909.762	4360
909.878	4344
909.993	4470
910.108	4409
910.224	4417
910.339	4481
910.454	4443
910.57	4337
910.685	4310
910.8	4687
910.915	4668
911.03	4462
911.145	4310
911.259	4314
911.374	4348
911.489	4306
911.604	4299
911.718	4215
911.833	4188
911.947	4120
912.062	4051
912.176	4192
912.291	4253
912.405	4272
912.519	4443
912.633	4497
912.748	4337
912.862	4329
912.976	4207
913.09	4097
913.204	4219
913.318	4249
913.431	4390
913.545	4337
913.659	4428
913.772	4363
913.886	4238
914	4234
914.113	4383
914.226	4451
914.34	4371
914.453	4242
914.566	4413
914.68	4333
914.793	4291
914.906	4166
915.019	4090
915.132	4093
915.245	4166
915.358	4166
915.47	4268
915.583	4276
915.696	4322
915.809	4390
915.921	4398
916.034	4299
916.146	4280
916.259	4268
916.371	4383
916.483	4306
916.595	4253
916.708	4314
916.82	4314
916.932	4322
917.044	4352
917.156	4303
917.268	4185
917.38	4295
917.491	4268
917.603	4371
917.715	4367
917.826	4386
917.938	4367
918.049	4265
918.161	4379
918.272	4508
918.384	4550
918.495	4485
918.606	4268
918.717	4257
918.828	4284
918.939	4390
919.05	4265
919.161	4284
919.272	4147
919.383	4200
919.494	4500
919.604	4588
919.715	4409
919.826	4352
919.936	4421
920.047	4512
920.157	4516
920.267	4634
920.378	4485
920.488	4531
920.598	4725
920.708	4900
920.818	4755
920.928	4755
921.038	4957
921.148	4896
921.258	4634
921.368	4550
921.477	4519
921.587	4462
921.697	4390
921.806	4504
921.916	4478
922.025	4257
922.134	4287
922.244	4188
922.353	4398
922.462	4185
922.571	4093
922.68	3998
922.789	3987
922.898	4013
923.007	3979
923.116	4082
923.224	4048
923.333	4093
923.442	3979
923.55	3975
923.659	4025
923.767	4128
923.876	4006
923.984	4109
924.092	3975
924.201	4105
924.309	4086
924.417	4090
924.525	4071
924.633	4124
924.741	5083
924.849	3934
924.956	4131
925.064	3937
925.172	3899
925.279	3949
925.387	4048
925.494	4051
925.602	4188
925.709	4188
925.816	4029
925.924	4139
926.031	4227
926.138	4143
926.245	4188
926.352	4086
926.459	4284
926.566	4348
926.673	4185
926.779	4124
926.886	4109
926.993	3972
927.099	3968
927.206	3956
927.312	3960
927.419	4067
927.525	4013
927.631	4124
927.737	3987
927.843	3934
927.95	3835
928.056	3956
928.162	3994
928.267	4036
928.373	4694
928.479	4131
928.585	3850
928.69	4029
928.796	4086
928.901	3964
929.007	3846
929.112	4002
929.218	3979
929.323	3953
929.428	3953
929.533	4158
929.638	3934
929.743	3960
929.848	4093
929.953	3979
930.058	3934
930.163	3751
930.267	3835
930.372	4002
930.477	3827
930.581	4116
930.685	3918
930.79	3793
930.894	3892
930.998	3899
931.103	4040
931.207	3717
931.311	3701
931.415	3641
931.519	3500
931.623	3553
