Data from test_V78500241_1661.txt Node
Date: Fri Mar 25 17:00:33 CST 2022
User: usil
Spectrometer: V785-0024
Trigger mode: 0
Integration Time (sec): 4.000000E-1
Scans to average: 1
Nonlinearity correction enabled: false
Boxcar width: 0
Storing dark spectrum: false
XAxis mode: Wavelengths
Number of Pixels in Spectrum: 1024
>>>>>Begin Spectral Data<<<<<
801.071	7959
801.214	8031
801.356	7898
801.499	7921
801.641	7780
801.783	7837
801.926	7936
802.068	7936
802.211	7974
802.353	8054
802.496	7856
802.638	7818
802.78	7890
802.923	7883
803.065	7807
803.208	7883
803.35	7986
803.492	8134
803.635	8157
803.777	7986
803.919	8176
804.061	8400
804.204	8180
804.346	8054
804.488	7978
804.63	8077
804.773	8020
804.915	8096
805.057	8180
805.199	8130
805.341	8130
805.483	8271
805.626	8240
805.768	8103
805.91	8248
806.052	8233
806.194	8111
806.336	8377
806.478	8073
806.62	8050
806.762	8183
806.904	8271
807.046	8492
807.188	8374
807.33	8381
807.472	8301
807.614	8183
807.756	8081
807.898	7944
808.04	7883
808.182	7890
808.324	7795
808.465	7951
808.607	8024
808.749	8069
808.891	8199
809.033	8332
809.174	8164
809.316	8096
809.458	8077
809.6	7947
809.741	8039
809.883	8054
810.025	8149
810.166	8088
810.308	8092
810.45	8039
810.591	7860
810.733	7658
810.875	7696
811.016	7559
811.158	7506
811.299	7571
811.441	7719
811.582	7655
811.724	7590
811.865	7510
812.007	7636
812.148	7548
812.29	7681
812.431	7788
812.573	7879
812.714	7997
812.855	8100
812.997	8214
813.138	8298
813.279	8191
813.421	8088
813.562	7982
813.703	7833
813.845	7799
813.986	7441
814.127	7244
814.268	7187
814.41	7179
814.551	7187
814.692	7266
814.833	7122
814.974	7160
815.115	7141
815.256	6916
815.397	6932
815.539	6924
815.68	6757
815.821	6749
815.962	6867
816.103	6837
816.244	6669
816.385	6627
816.526	6646
816.666	6483
816.807	6365
816.948	6460
817.089	6483
817.23	6483
817.371	6361
817.512	6372
817.653	6429
817.793	6346
817.934	6395
818.075	6369
818.216	6433
818.356	6426
818.497	6232
818.638	6110
818.778	6140
818.919	6152
819.06	6133
819.2	6304
819.341	6323
819.481	6380
819.622	6528
819.762	6730
819.903	6734
820.043	6593
820.184	6540
820.324	6540
820.465	6669
820.605	6673
820.746	6627
820.886	6479
821.026	6631
821.167	6707
821.307	6825
821.447	6795
821.588	6711
821.728	6509
821.868	6479
822.008	6395
822.149	6384
822.289	6331
822.429	6155
822.569	6091
822.709	6083
822.849	5954
822.99	5878
823.13	5912
823.27	5939
823.41	5764
823.55	5733
823.69	5737
823.83	5771
823.97	5623
824.11	5509
824.25	5547
824.389	5543
824.529	5577
824.669	5509
824.809	5661
824.949	5676
825.089	5604
825.228	5535
825.368	5398
825.508	5318
825.648	5318
825.787	5383
825.927	5341
826.067	5231
826.206	5330
826.346	5353
826.485	5379
826.625	5436
826.765	5539
826.904	5471
827.044	5212
827.183	5216
827.323	5140
827.462	5242
827.601	5189
827.741	5166
827.88	5181
828.02	5067
828.159	5185
828.298	5341
828.437	5368
828.577	5284
828.716	5414
828.855	5322
828.994	5128
829.134	5201
829.273	5189
829.412	5124
829.551	5109
829.69	5117
829.829	5235
829.968	5417
830.107	5242
830.246	5265
830.385	5151
830.524	5174
830.663	5006
830.802	4972
830.941	4896
831.08	4881
831.219	4961
831.357	4968
831.496	5204
831.635	4892
831.774	4801
831.913	4858
832.051	4717
832.19	4733
832.329	4866
832.467	4691
832.606	4656
832.744	4698
832.883	4744
833.022	4771
833.16	4824
833.299	4797
833.437	4763
833.576	4782
833.714	4847
833.852	4889
833.991	4843
834.129	4972
834.267	4908
834.406	4911
834.544	4961
834.682	4965
834.821	4934
834.959	5128
835.097	4930
835.235	5159
835.373	5071
835.511	5117
835.65	5067
835.788	5014
835.926	4953
836.064	4908
836.202	4896
836.34	5159
836.478	5197
836.615	5170
836.753	5246
836.891	5261
837.029	5277
837.167	5140
837.305	5174
837.443	5147
837.58	5086
837.718	5239
837.856	5193
837.993	5140
838.131	5261
838.269	5208
838.406	5208
838.544	5170
838.681	5048
838.819	4984
838.956	4892
839.094	4889
839.231	4949
839.369	5014
839.506	5402
839.643	5235
839.781	5045
839.918	4980
840.055	5128
840.193	5052
840.33	5128
840.467	5185
840.604	5166
840.742	5379
840.879	5102
841.016	5048
841.153	5124
841.29	5368
841.427	5288
841.564	5296
841.701	5296
841.838	5296
841.975	5223
842.112	5269
842.249	5147
842.385	5079
842.522	5315
842.659	5151
842.796	5178
842.933	5181
843.069	5143
843.206	5143
843.343	5326
843.479	5227
843.616	5250
843.752	5014
843.889	5037
844.025	5185
844.162	5003
844.298	5193
844.435	5105
844.571	5029
844.708	5181
844.844	5337
844.98	5364
845.117	5307
845.253	5166
845.389	5075
845.525	5181
845.661	5098
845.798	5033
845.934	5147
846.07	5022
846.206	5178
846.342	5337
846.478	5185
846.614	4999
846.75	4987
846.886	4915
847.022	5121
847.158	5006
847.294	5094
847.429	5113
847.565	5018
847.701	5277
847.837	4843
847.972	4835
848.108	4923
848.244	4873
848.379	4778
848.515	4744
848.65	4740
848.786	4786
848.921	4748
849.057	4892
849.192	4824
849.328	4790
849.463	4831
849.598	4797
849.734	4748
849.869	4675
850.004	4622
850.14	4645
850.275	4592
850.41	4519
850.545	4577
850.68	4630
850.815	4691
850.95	4626
851.085	4835
851.22	4736
851.355	4675
851.49	4637
851.625	4577
851.76	4656
851.895	4561
852.03	4538
852.165	4687
852.299	4683
852.434	4850
852.569	4767
852.703	4755
852.838	4805
852.973	4904
853.107	4915
853.242	4759
853.376	4660
853.511	4561
853.645	4615
853.78	4767
853.914	4706
854.048	4668
854.183	4668
854.317	4649
854.451	4870
854.585	4675
854.72	4611
854.854	4748
854.988	4599
855.122	4656
855.256	4546
855.39	4660
855.524	4763
855.658	4714
855.792	4706
855.926	4733
856.06	4706
856.194	4733
856.327	4702
856.461	4584
856.595	4630
856.729	4622
856.862	4763
856.996	4702
857.13	4702
857.263	4801
857.397	4824
857.53	4641
857.664	4759
857.797	4786
857.931	4790
858.064	4687
858.197	4725
858.331	4653
858.464	4599
858.597	4523
858.731	4607
858.864	4558
858.997	4615
859.13	4634
859.263	4645
859.396	4683
859.529	4573
859.662	4527
859.795	4546
859.928	4592
860.061	4733
860.194	4702
860.327	4611
860.46	4611
860.592	4694
860.725	4710
860.858	4736
860.99	4542
861.123	4443
861.256	4470
861.388	4618
861.521	5318
861.653	4493
861.786	4440
861.918	4478
862.05	4519
862.183	4569
862.315	4592
862.447	4653
862.58	4538
862.712	4383
862.844	4306
862.976	4500
863.108	4428
863.24	4759
863.372	4325
863.504	4398
863.636	4383
863.768	4504
863.9	4409
864.032	4272
864.164	4402
864.296	4432
864.428	4558
864.559	4573
864.691	4535
864.823	4531
864.954	4470
865.086	4538
865.217	4432
865.349	4421
865.48	4394
865.612	4474
865.743	4580
865.875	4512
866.006	4470
866.137	4440
866.269	4436
866.4	4466
866.531	4443
866.662	4356
866.793	4405
866.924	4390
867.055	4481
867.186	4462
867.317	4405
867.448	4337
867.579	4402
867.71	4405
867.841	4379
867.972	4451
868.103	4474
868.233	4489
868.364	4428
868.495	4481
868.625	4679
868.756	4733
868.886	4599
869.017	4622
869.147	4786
869.278	4755
869.408	4694
869.539	4588
869.669	4660
869.799	4672
869.929	4755
870.06	4744
870.19	4984
870.32	4911
870.45	4873
870.58	5018
870.71	5098
870.84	5075
870.97	4930
871.1	4946
871.23	5105
871.36	5132
871.489	4987
871.619	5117
871.749	5102
871.879	5060
872.008	5143
872.138	5048
872.267	4987
872.397	4850
872.526	4809
872.656	4710
872.785	4767
872.915	4911
873.044	5010
873.173	4957
873.303	5006
873.432	4938
873.561	4965
873.69	4805
873.819	4850
873.948	4949
874.077	4847
874.206	4774
874.335	4831
874.464	4892
874.593	5037
874.722	4927
874.851	5128
874.979	5083
875.108	5048
875.237	4927
875.365	4877
875.494	4919
875.623	4980
875.751	4843
875.88	4927
876.008	4968
876.136	4980
876.265	5189
876.393	5326
876.521	5220
876.65	5201
876.778	5174
876.906	5090
877.034	4968
877.162	5033
877.29	4915
877.418	5056
877.546	5060
877.674	4965
877.802	5041
877.93	5003
878.058	4987
878.185	4885
878.313	4957
878.441	4946
878.568	4812
878.696	4870
878.824	4911
878.951	4972
879.079	5166
879.206	5246
879.333	5128
879.461	4972
879.588	4984
879.715	5086
879.842	5220
879.97	4980
880.097	4786
880.224	4801
880.351	4835
880.478	4816
880.605	4820
880.732	4797
880.859	5136
880.986	4839
881.112	4908
881.239	4744
881.366	4675
881.493	4592
881.619	4592
881.746	4653
881.872	4626
881.999	4649
882.125	4683
882.252	4809
882.378	4816
882.505	4946
882.631	4786
882.757	4687
882.883	4710
883.01	4698
883.136	4641
883.262	4596
883.388	4580
883.514	4820
883.64	4866
883.766	4744
883.892	4645
884.018	4702
884.143	4862
884.269	5025
884.395	4687
884.52	4592
884.646	4664
884.772	4615
884.897	4516
885.023	4702
885.148	4801
885.274	4862
885.399	4801
885.524	4702
885.65	4702
885.775	4736
885.9	4729
886.025	4847
886.15	4854
886.275	4698
886.4	4618
886.525	4721
886.65	4736
886.775	4668
886.9	4904
887.025	5075
887.149	4839
887.274	4656
887.399	4580
887.523	4634
887.648	4569
887.773	4592
887.897	4759
888.021	4793
888.146	4660
888.27	4858
888.395	4934
888.519	4835
888.643	4805
888.767	4797
888.891	4710
889.015	4622
889.139	4584
889.263	4584
889.387	4759
889.511	4850
889.635	4778
889.759	4615
889.883	4630
890.006	4771
890.13	4805
890.254	4630
890.377	4729
890.501	4542
890.624	4497
890.748	4645
890.871	4535
890.995	4424
891.118	4390
891.241	4523
891.364	4531
891.488	4653
891.611	4500
891.734	4546
891.857	4588
891.98	4596
892.103	4622
892.226	4565
892.349	4554
892.471	4402
892.594	4558
892.717	4573
892.839	4554
892.962	4588
893.085	4656
893.207	4550
893.33	4428
893.452	4538
893.575	4611
893.697	4580
893.819	4782
893.941	4835
894.064	4790
894.186	4542
894.308	4519
894.43	4752
894.552	4793
894.674	4744
894.796	4565
894.918	4596
895.04	4561
895.161	4649
895.283	4656
895.405	4550
895.526	4592
895.648	4683
895.769	4675
895.891	4649
896.012	4767
896.134	4729
896.255	4645
896.376	4626
896.498	4607
896.619	4653
896.74	4596
896.861	4611
896.982	4881
897.103	5060
897.224	4816
897.345	4725
897.466	4694
897.587	4702
897.708	4854
897.828	4805
897.949	4622
898.07	4550
898.19	4630
898.311	4801
898.431	4649
898.552	4664
898.672	4790
898.792	4835
898.913	4736
899.033	4535
899.153	4546
899.273	4405
899.393	4500
899.513	4531
899.633	4500
899.753	4527
899.873	4489
899.993	4584
900.113	4508
900.232	4622
900.352	4569
900.472	4474
900.591	4383
900.711	4554
900.83	4402
900.95	4569
901.069	4694
901.189	4512
901.308	4325
901.427	4322
901.546	4379
901.665	4478
901.784	4527
901.904	4405
902.023	4337
902.141	4185
902.26	4185
902.379	4310
902.498	4211
902.617	4223
902.735	4352
902.854	4394
902.973	4386
903.091	4192
903.21	4211
903.328	4280
903.446	4295
903.565	4196
903.683	4333
903.801	4246
903.919	4402
904.038	4489
904.156	4329
904.274	4409
904.392	4417
904.51	4424
904.627	4493
904.745	4577
904.863	4634
904.981	4440
905.098	4333
905.216	4352
905.334	4409
905.451	4421
905.569	4432
905.686	4516
905.803	4622
905.921	4417
906.038	4561
906.155	4470
906.272	4367
906.389	4451
906.506	4318
906.623	4390
906.74	4390
906.857	4265
906.974	4398
907.091	4558
907.208	4622
907.324	4592
907.441	4527
907.557	4318
907.674	4348
907.79	4379
907.907	4390
908.023	4485
908.139	4459
908.256	4398
908.372	4481
908.488	4375
908.604	4352
908.72	4356
908.836	4371
908.952	4409
909.068	4447
909.184	4573
909.3	4459
909.415	4577
909.531	4596
909.647	4360
909.762	4356
909.878	4318
909.993	4440
910.108	4417
910.224	4436
910.339	4485
910.454	4421
910.57	4363
910.685	4310
910.8	4622
910.915	4573
911.03	4462
911.145	4310
911.259	4322
911.374	4440
911.489	4314
911.604	4276
911.718	4143
911.833	4166
911.947	4131
912.062	4013
912.176	4249
912.291	4204
912.405	4223
912.519	4493
912.633	4500
912.748	4356
912.862	4306
912.976	4200
913.09	4090
913.204	4169
913.318	4284
913.431	4363
913.545	4413
913.659	4455
913.772	4367
913.886	4268
914	4200
914.113	4371
914.226	4424
914.34	4398
914.453	4253
914.566	4405
914.68	4303
914.793	4310
914.906	4192
915.019	4120
915.132	4090
915.245	4215
915.358	4223
915.47	4196
915.583	4249
915.696	4268
915.809	4421
915.921	4333
916.034	4242
916.146	4207
916.259	4249
916.371	4390
916.483	4341
916.595	4322
916.708	4314
916.82	4299
916.932	4329
917.044	4303
917.156	4295
917.268	4188
917.38	4291
917.491	4265
917.603	4348
917.715	4409
917.826	4390
917.938	4310
918.049	4242
918.161	4413
918.272	4527
918.384	4573
918.495	4470
918.606	4306
918.717	4246
918.828	4348
918.939	4352
919.05	4227
919.161	4310
919.272	4147
919.383	4223
919.494	4398
919.604	4599
919.715	4451
919.826	4405
919.936	4424
920.047	4550
920.157	4466
920.267	4698
920.378	4497
920.488	4504
920.598	4706
920.708	4831
920.818	4740
920.928	4714
921.038	4927
921.148	4949
921.258	4618
921.368	4565
921.477	4497
921.587	4466
921.697	4383
921.806	4519
921.916	4417
922.025	4276
922.134	4295
922.244	4230
922.353	4322
922.462	4128
922.571	4101
922.68	3994
922.789	3922
922.898	4048
923.007	3987
923.116	4032
923.224	4086
923.333	4040
923.442	3975
923.55	3987
923.659	4059
923.767	4067
923.876	3983
923.984	4162
924.092	3956
924.201	4059
924.309	4097
924.417	4131
924.525	4090
924.633	4112
924.741	4904
924.849	3892
924.956	4128
925.064	3953
925.172	3960
925.279	3949
925.387	4002
925.494	4040
925.602	4227
925.709	4173
925.816	4032
925.924	4082
926.031	4219
926.138	4074
926.245	4249
926.352	4097
926.459	4204
926.566	4318
926.673	4105
926.779	4071
926.886	4101
926.993	3949
927.099	3930
927.206	3987
927.312	3941
927.419	4067
927.525	4021
927.631	4071
927.737	3930
927.843	3922
927.95	3808
928.056	3956
928.162	4067
928.267	4051
928.373	4584
928.479	4116
928.585	3876
928.69	3991
928.796	4074
928.901	3968
929.007	3888
929.112	3960
929.218	3975
929.323	3930
929.428	3975
929.533	4093
929.638	3873
929.743	3949
929.848	4032
929.953	4010
930.058	3922
930.163	3728
930.267	3816
930.372	3968
930.477	3789
930.581	4074
930.685	3949
930.79	3800
930.894	3903
930.998	3876
931.103	4032
931.207	3747
931.311	3709
931.415	3633
931.519	3572
931.623	3519
