Data from test_V78500241_554.txt Node
Date: Fri Mar 25 16:52:51 CST 2022
User: usil
Spectrometer: V785-0024
Trigger mode: 0
Integration Time (sec): 4.000000E-1
Scans to average: 1
Nonlinearity correction enabled: false
Boxcar width: 0
Storing dark spectrum: false
XAxis mode: Wavelengths
Number of Pixels in Spectrum: 1024
>>>>>Begin Spectral Data<<<<<
801.071	8046
801.214	7959
801.356	7898
801.499	7780
801.641	7765
801.783	7833
801.926	7959
802.068	8008
802.211	8005
802.353	8039
802.496	7898
802.638	7974
802.78	7928
802.923	7890
803.065	7807
803.208	7845
803.35	7944
803.492	8115
803.635	8111
803.777	7944
803.919	8096
804.061	8442
804.204	8123
804.346	8012
804.488	7970
804.63	8096
804.773	8054
804.915	8069
805.057	8259
805.199	8199
805.341	8195
805.483	8290
805.626	8221
805.768	8134
805.91	8191
806.052	8225
806.194	8092
806.336	8267
806.478	8157
806.62	8065
806.762	8157
806.904	8161
807.046	8457
807.188	8347
807.33	8221
807.472	8332
807.614	8107
807.756	8119
807.898	7959
808.04	7841
808.182	7940
808.324	7898
808.465	7921
808.607	8050
808.749	8145
808.891	8214
809.033	8256
809.174	8168
809.316	8115
809.458	8043
809.6	7970
809.741	8039
809.883	8012
810.025	8081
810.166	8065
810.308	8016
810.45	7955
810.591	7917
810.733	7731
810.875	7689
811.016	7510
811.158	7518
811.299	7578
811.441	7677
811.582	7704
811.724	7571
811.865	7491
812.007	7586
812.148	7514
812.29	7628
812.431	7761
812.573	7864
812.714	7993
812.855	8145
812.997	8229
813.138	8389
813.279	8199
813.421	8130
813.562	8062
813.703	7902
813.845	7814
813.986	7525
814.127	7384
814.268	7362
814.41	7209
814.551	7171
814.692	7129
814.833	7072
814.974	7114
815.115	7076
815.256	7004
815.397	6894
815.539	6882
815.68	6833
815.821	6810
815.962	6875
816.103	6905
816.244	6783
816.385	6616
816.526	6582
816.666	6517
816.807	6281
816.948	6437
817.089	6490
817.23	6384
817.371	6410
817.512	6376
817.653	6369
817.793	6319
817.934	6441
818.075	6410
818.216	6445
818.356	6353
818.497	6232
818.638	6079
818.778	6068
818.919	6125
819.06	6167
819.2	6308
819.341	6285
819.481	6384
819.622	6525
819.762	6722
819.903	6734
820.043	6578
820.184	6566
820.324	6555
820.465	6677
820.605	6612
820.746	6646
820.886	6494
821.026	6631
821.167	6681
821.307	6726
821.447	6753
821.588	6646
821.728	6525
821.868	6460
822.008	6277
822.149	6319
822.289	6346
822.429	6072
822.569	6026
822.709	6106
822.849	5927
822.99	5874
823.13	5965
823.27	5908
823.41	5786
823.55	5764
823.69	5726
823.83	5783
823.97	5611
824.11	5589
824.25	5532
824.389	5509
824.529	5562
824.669	5528
824.809	5661
824.949	5695
825.089	5634
825.228	5520
825.368	5398
825.508	5299
825.648	5387
825.787	5395
825.927	5341
826.067	5284
826.206	5307
826.346	5364
826.485	5376
826.625	5436
826.765	5520
826.904	5425
827.044	5254
827.183	5178
827.323	5048
827.462	5193
827.601	5208
827.741	5132
827.88	5227
828.02	5143
828.159	5189
828.298	5277
828.437	5341
828.577	5269
828.716	5436
828.855	5277
828.994	5193
829.134	5140
829.273	5159
829.412	5166
829.551	5105
829.69	5140
829.829	5197
829.968	5315
830.107	5170
830.246	5261
830.385	5223
830.524	5117
830.663	5045
830.802	4942
830.941	4889
831.08	4858
831.219	5025
831.357	4949
831.496	5181
831.635	4923
831.774	4847
831.913	4824
832.051	4755
832.19	4744
832.329	4812
832.467	4694
832.606	4615
832.744	4733
832.883	4725
833.022	4752
833.16	4786
833.299	4805
833.437	4797
833.576	4889
833.714	4824
833.852	4896
833.991	4908
834.129	4946
834.267	4995
834.406	4862
834.544	4957
834.682	4987
834.821	4946
834.959	5109
835.097	4995
835.235	5143
835.373	5064
835.511	5109
835.65	4961
835.788	4995
835.926	4889
836.064	4862
836.202	4938
836.34	5185
836.478	5193
836.615	5155
836.753	5170
836.891	5292
837.029	5277
837.167	5220
837.305	5174
837.443	5136
837.58	5117
837.718	5288
837.856	5216
837.993	5143
838.131	5223
838.269	5159
838.406	5239
838.544	5166
838.681	5025
838.819	4987
838.956	4866
839.094	4911
839.231	5033
839.369	5048
839.506	5357
839.643	5227
839.781	5048
839.918	5006
840.055	5094
840.193	5075
840.33	5025
840.467	5094
840.604	5216
840.742	5448
840.879	5086
841.016	5075
841.153	5170
841.29	5364
841.427	5284
841.564	5223
841.701	5345
841.838	5284
841.975	5235
842.112	5254
842.249	5132
842.385	5094
842.522	5231
842.659	5151
842.796	5140
842.933	5178
843.069	5117
843.206	5185
843.343	5292
843.479	5193
843.616	5250
843.752	5010
843.889	5041
844.025	5147
844.162	4972
844.298	5162
844.435	5010
844.571	5025
844.708	5178
844.844	5372
844.98	5353
845.117	5258
845.253	5181
845.389	5098
845.525	5140
845.661	5113
845.798	5071
845.934	5140
846.07	5010
846.206	5193
846.342	5254
846.478	5178
846.614	4968
846.75	4957
846.886	4934
847.022	5140
847.158	4987
847.294	5086
847.429	5113
847.565	5052
847.701	5273
847.837	4843
847.972	4801
848.108	4957
848.244	4908
848.379	4797
848.515	4759
848.65	4672
848.786	4752
848.921	4759
849.057	4896
849.192	4866
849.328	4820
849.463	4816
849.598	4805
849.734	4729
849.869	4649
850.004	4615
850.14	4694
850.275	4622
850.41	4538
850.545	4603
850.68	4577
850.815	4580
850.95	4615
851.085	4805
851.22	4797
851.355	4691
851.49	4626
851.625	4641
851.76	4653
851.895	4580
852.03	4516
852.165	4710
852.299	4721
852.434	4797
852.569	4763
852.703	4812
852.838	4881
852.973	4991
853.107	4946
853.242	4740
853.376	4702
853.511	4573
853.645	4656
853.78	4824
853.914	4721
854.048	4710
854.183	4672
854.317	4752
854.451	4889
854.585	4729
854.72	4653
854.854	4790
854.988	4637
855.122	4683
855.256	4519
855.39	4694
855.524	4805
855.658	4767
855.792	4740
855.926	4831
856.06	4816
856.194	4835
856.327	4679
856.461	4611
856.595	4607
856.729	4641
856.862	4778
856.996	4725
857.13	4752
857.263	4850
857.397	4854
857.53	4679
857.664	4748
857.797	4786
857.931	4793
858.064	4763
858.197	4870
858.331	4691
858.464	4645
858.597	4580
858.731	4683
858.864	4698
858.997	4649
859.13	4714
859.263	4721
859.396	4706
859.529	4599
859.662	4603
859.795	4577
859.928	4710
860.061	4782
860.194	4828
860.327	4630
860.46	4611
860.592	4752
860.725	4755
860.858	4763
860.99	4596
861.123	4577
861.256	4622
861.388	4664
861.521	5410
861.653	4512
861.786	4497
861.918	4523
862.05	4523
862.183	4588
862.315	4664
862.447	4668
862.58	4550
862.712	4432
862.844	4360
862.976	4504
863.108	4478
863.24	4885
863.372	4344
863.504	4462
863.636	4504
863.768	4493
863.9	4451
864.032	4360
864.164	4459
864.296	4489
864.428	4561
864.559	4618
864.691	4546
864.823	4550
864.954	4508
865.086	4561
865.217	4500
865.349	4485
865.48	4462
865.612	4542
865.743	4618
865.875	4485
866.006	4478
866.137	4493
866.269	4516
866.4	4516
866.531	4478
866.662	4462
866.793	4432
866.924	4462
867.055	4527
867.186	4470
867.317	4409
867.448	4390
867.579	4409
867.71	4394
867.841	4405
867.972	4504
868.103	4489
868.233	4489
868.364	4455
868.495	4504
868.625	4702
868.756	4759
868.886	4599
869.017	4668
869.147	4797
869.278	4801
869.408	4668
869.539	4653
869.669	4733
869.799	4710
869.929	4820
870.06	4767
870.19	5045
870.32	4915
870.45	4942
870.58	5018
870.71	5143
870.84	5117
870.97	4965
871.1	4923
871.23	5201
871.36	5155
871.489	5079
871.619	5102
871.749	5079
871.879	5136
872.008	5216
872.138	5083
872.267	5056
872.397	4866
872.526	4828
872.656	4763
872.785	4896
872.915	5003
873.044	5075
873.173	5052
873.303	4980
873.432	5025
873.561	4976
873.69	4908
873.819	4911
873.948	4911
874.077	4889
874.206	4797
874.335	4828
874.464	4919
874.593	5086
874.722	5010
874.851	5185
874.979	5079
875.108	5075
875.237	4965
875.365	4915
875.494	4889
875.623	4946
875.751	4885
875.88	4923
876.008	4999
876.136	5056
876.265	5269
876.393	5364
876.521	5292
876.65	5258
876.778	5204
876.906	5105
877.034	5090
877.162	5060
877.29	4976
877.418	5143
877.546	5056
877.674	5041
877.802	5025
877.93	5052
878.058	4961
878.185	4900
878.313	4987
878.441	4991
878.568	4854
878.696	4896
878.824	4942
878.951	5029
879.079	5178
879.206	5357
879.333	5151
879.461	5018
879.588	5010
879.715	5151
879.842	5258
879.97	5014
880.097	4877
880.224	4797
880.351	4877
880.478	4854
880.605	4812
880.732	4870
880.859	5113
880.986	4953
881.112	4930
881.239	4873
881.366	4679
881.493	4664
881.619	4622
881.746	4672
881.872	4675
881.999	4668
882.125	4733
882.252	4812
882.378	4831
882.505	4961
882.631	4801
882.757	4691
882.883	4801
883.01	4740
883.136	4698
883.262	4584
883.388	4645
883.514	4824
883.64	4942
883.766	4858
883.892	4637
884.018	4714
884.143	4870
884.269	5037
884.395	4736
884.52	4672
884.646	4683
884.772	4618
884.897	4588
885.023	4691
885.148	4797
885.274	4911
885.399	4835
885.524	4752
885.65	4733
885.775	4790
885.9	4774
886.025	4870
886.15	4839
886.275	4793
886.4	4672
886.525	4736
886.65	4725
886.775	4744
886.9	4904
887.025	5064
887.149	4835
887.274	4679
887.399	4641
887.523	4622
887.648	4573
887.773	4569
887.897	4782
888.021	4824
888.146	4702
888.27	4885
888.395	4919
888.519	4839
888.643	4835
888.767	4862
888.891	4763
889.015	4649
889.139	4637
889.263	4691
889.387	4755
889.511	4892
889.635	4812
889.759	4675
889.883	4668
890.006	4763
890.13	4850
890.254	4645
890.377	4672
890.501	4615
890.624	4592
890.748	4653
890.871	4542
890.995	4443
891.118	4383
891.241	4535
891.364	4550
891.488	4691
891.611	4550
891.734	4584
891.857	4584
891.98	4580
892.103	4687
892.226	4584
892.349	4523
892.471	4436
892.594	4565
892.717	4679
892.839	4615
892.962	4596
893.085	4675
893.207	4592
893.33	4481
893.452	4554
893.575	4694
893.697	4584
893.819	4839
893.941	4873
894.064	4877
894.186	4622
894.308	4618
894.43	4752
894.552	4889
894.674	4786
894.796	4618
894.918	4611
895.04	4603
895.161	4717
895.283	4687
895.405	4626
895.526	4622
895.648	4698
895.769	4694
895.891	4740
896.012	4736
896.134	4744
896.255	4694
896.376	4664
896.498	4626
896.619	4675
896.74	4626
896.861	4656
896.982	4965
897.103	5094
897.224	4866
897.345	4748
897.466	4714
897.587	4733
897.708	4854
897.828	4790
897.949	4660
898.07	4596
898.19	4694
898.311	4839
898.431	4714
898.552	4721
898.672	4873
898.792	4831
898.913	4740
899.033	4615
899.153	4508
899.273	4424
899.393	4523
899.513	4535
899.633	4558
899.753	4577
899.873	4527
899.993	4618
900.113	4538
900.232	4607
900.352	4577
900.472	4523
900.591	4417
900.711	4542
900.83	4440
900.95	4637
901.069	4710
901.189	4554
901.308	4375
901.427	4310
901.546	4424
901.665	4493
901.784	4497
901.904	4379
902.023	4344
902.141	4246
902.26	4238
902.379	4299
902.498	4272
902.617	4261
902.735	4390
902.854	4413
902.973	4379
903.091	4215
903.21	4276
903.328	4333
903.446	4295
903.565	4280
903.683	4363
903.801	4276
903.919	4485
904.038	4485
904.156	4322
904.274	4489
904.392	4390
904.51	4424
904.627	4535
904.745	4618
904.863	4679
904.981	4424
905.098	4272
905.216	4352
905.334	4455
905.451	4459
905.569	4478
905.686	4558
905.803	4649
905.921	4489
906.038	4584
906.155	4512
906.272	4424
906.389	4470
906.506	4337
906.623	4356
906.74	4348
906.857	4272
906.974	4386
907.091	4588
907.208	4691
907.324	4630
907.441	4504
907.557	4363
907.674	4318
907.79	4360
907.907	4421
908.023	4462
908.139	4516
908.256	4443
908.372	4497
908.488	4500
908.604	4383
908.72	4325
908.836	4390
908.952	4409
909.068	4474
909.184	4573
909.3	4493
909.415	4607
909.531	4561
909.647	4390
909.762	4356
909.878	4417
909.993	4421
910.108	4424
910.224	4447
910.339	4508
910.454	4428
910.57	4379
910.685	4348
910.8	4683
910.915	4603
911.03	4497
911.145	4314
911.259	4375
911.374	4367
911.489	4318
911.604	4291
911.718	4200
911.833	4227
911.947	4082
912.062	4048
912.176	4204
912.291	4249
912.405	4268
912.519	4497
912.633	4546
912.748	4371
912.862	4318
912.976	4227
913.09	4135
913.204	4211
913.318	4280
913.431	4348
913.545	4383
913.659	4398
913.772	4383
913.886	4291
914	4215
914.113	4409
914.226	4481
914.34	4383
914.453	4257
914.566	4481
914.68	4333
914.793	4322
914.906	4181
915.019	4143
915.132	4090
915.245	4223
915.358	4257
915.47	4230
915.583	4272
915.696	4318
915.809	4398
915.921	4481
916.034	4253
916.146	4337
916.259	4242
916.371	4367
916.483	4356
916.595	4280
916.708	4360
916.82	4314
916.932	4322
917.044	4310
917.156	4367
917.268	4268
917.38	4287
917.491	4272
917.603	4367
917.715	4432
917.826	4481
917.938	4344
918.049	4272
918.161	4405
918.272	4546
918.384	4554
918.495	4417
918.606	4314
918.717	4230
918.828	4367
918.939	4352
919.05	4280
919.161	4329
919.272	4139
919.383	4246
919.494	4409
919.604	4653
919.715	4493
919.826	4318
919.936	4447
920.047	4588
920.157	4580
920.267	4752
920.378	4569
920.488	4542
920.598	4763
920.708	4915
920.818	4778
920.928	4801
921.038	4957
921.148	4938
921.258	4649
921.368	4592
921.477	4565
921.587	4466
921.697	4405
921.806	4607
921.916	4504
922.025	4341
922.134	4265
922.244	4242
922.353	4379
922.462	4249
922.571	4188
922.68	4071
922.789	4044
922.898	4082
923.007	4074
923.116	4150
923.224	4128
923.333	4120
923.442	4063
923.55	4074
923.659	4131
923.767	4177
923.876	4055
923.984	4192
924.092	4040
924.201	4131
924.309	4135
924.417	4185
924.525	4139
924.633	4166
924.741	5128
924.849	3945
924.956	4181
925.064	3972
925.172	3945
925.279	3998
925.387	4093
925.494	4090
925.602	4268
925.709	4219
925.816	4112
925.924	4169
926.031	4249
926.138	4265
926.245	4207
926.352	4169
926.459	4299
926.566	4318
926.673	4211
926.779	4135
926.886	4169
926.993	4013
927.099	3979
927.206	3953
927.312	3964
927.419	4116
927.525	4051
927.631	4158
927.737	4029
927.843	3998
927.95	3876
928.056	4013
928.162	4025
928.267	4071
928.373	4744
928.479	4120
928.585	3922
928.69	4101
928.796	4131
928.901	4032
929.007	3842
929.112	4063
929.218	3991
929.323	4006
929.428	3979
929.533	4135
929.638	3937
929.743	3960
929.848	4074
929.953	4055
930.058	3998
930.163	3869
930.267	3899
930.372	4002
930.477	3873
930.581	4154
930.685	4006
930.79	3880
930.894	3934
930.998	3896
931.103	4067
931.207	3740
931.311	3713
931.415	3667
931.519	3530
931.623	3633
