Data from test_V78500241_617.txt Node
Date: Fri Mar 25 16:53:17 CST 2022
User: usil
Spectrometer: V785-0024
Trigger mode: 0
Integration Time (sec): 4.000000E-1
Scans to average: 1
Nonlinearity correction enabled: false
Boxcar width: 0
Storing dark spectrum: false
XAxis mode: Wavelengths
Number of Pixels in Spectrum: 1024
>>>>>Begin Spectral Data<<<<<
801.071	7986
801.214	8039
801.356	7887
801.499	7944
801.641	7784
801.783	7879
801.926	8027
802.068	8035
802.211	8008
802.353	8062
802.496	7928
802.638	7902
802.78	7917
802.923	7906
803.065	7826
803.208	7830
803.35	7936
803.492	8092
803.635	8145
803.777	8043
803.919	8145
804.061	8431
804.204	8195
804.346	7982
804.488	7936
804.63	8161
804.773	8081
804.915	8069
805.057	8267
805.199	8229
805.341	8309
805.483	8290
805.626	8301
805.768	8084
805.91	8157
806.052	8240
806.194	8111
806.336	8282
806.478	8115
806.62	8020
806.762	8142
806.904	8206
807.046	8457
807.188	8377
807.33	8248
807.472	8362
807.614	8107
807.756	8107
807.898	7993
808.04	7928
808.182	7932
808.324	7940
808.465	7928
808.607	8046
808.749	8050
808.891	8256
809.033	8320
809.174	8195
809.316	8039
809.458	8050
809.6	8027
809.741	7993
809.883	8005
810.025	8088
810.166	8073
810.308	7955
810.45	7989
810.591	7868
810.733	7742
810.875	7655
811.016	7552
811.158	7525
811.299	7658
811.441	7731
811.582	7647
811.724	7537
811.865	7578
812.007	7624
812.148	7616
812.29	7582
812.431	7742
812.573	7883
812.714	8054
812.855	8126
812.997	8233
813.138	8313
813.279	8119
813.421	8180
813.562	8084
813.703	7887
813.845	7757
813.986	7457
814.127	7305
814.268	7274
814.41	7263
814.551	7118
814.692	7247
814.833	7091
814.974	7103
815.115	7145
815.256	6977
815.397	6985
815.539	6924
815.68	6818
815.821	6783
815.962	6890
816.103	6859
816.244	6741
816.385	6650
816.526	6620
816.666	6540
816.807	6304
816.948	6376
817.089	6448
817.23	6410
817.371	6357
817.512	6388
817.653	6342
817.793	6403
817.934	6410
818.075	6494
818.216	6509
818.356	6365
818.497	6178
818.638	6098
818.778	6167
818.919	6102
819.06	6190
819.2	6292
819.341	6254
819.481	6334
819.622	6555
819.762	6753
819.903	6711
820.043	6585
820.184	6486
820.324	6551
820.465	6700
820.605	6608
820.746	6604
820.886	6479
821.026	6639
821.167	6665
821.307	6783
821.447	6715
821.588	6612
821.728	6525
821.868	6429
822.008	6262
822.149	6357
822.289	6304
822.429	6144
822.569	6083
822.709	6091
822.849	5878
822.99	5855
823.13	5882
823.27	5897
823.41	5790
823.55	5764
823.69	5733
823.83	5741
823.97	5649
824.11	5535
824.25	5520
824.389	5535
824.529	5566
824.669	5486
824.809	5680
824.949	5680
825.089	5543
825.228	5592
825.368	5433
825.508	5360
825.648	5318
825.787	5360
825.927	5349
826.067	5239
826.206	5273
826.346	5455
826.485	5379
826.625	5398
826.765	5509
826.904	5463
827.044	5284
827.183	5197
827.323	5117
827.462	5197
827.601	5143
827.741	5181
827.88	5216
828.02	5159
828.159	5254
828.298	5288
828.437	5379
828.577	5189
828.716	5474
828.855	5288
828.994	5113
829.134	5109
829.273	5155
829.412	5178
829.551	5086
829.69	5113
829.829	5254
829.968	5353
830.107	5273
830.246	5296
830.385	5174
830.524	5109
830.663	5098
830.802	4980
830.941	4889
831.08	4904
831.219	4957
831.357	4961
831.496	5117
831.635	4927
831.774	4892
831.913	4866
832.051	4725
832.19	4744
832.329	4854
832.467	4729
832.606	4672
832.744	4691
832.883	4763
833.022	4714
833.16	4767
833.299	4801
833.437	4755
833.576	4835
833.714	4877
833.852	4847
833.991	4854
834.129	4949
834.267	4953
834.406	4862
834.544	4980
834.682	5022
834.821	4995
834.959	5155
835.097	4991
835.235	5098
835.373	5025
835.511	5124
835.65	5037
835.788	5041
835.926	4877
836.064	4919
836.202	4900
836.34	5147
836.478	5246
836.615	5064
836.753	5258
836.891	5315
837.029	5231
837.167	5166
837.305	5170
837.443	5128
837.58	5086
837.718	5273
837.856	5143
837.993	5136
838.131	5197
838.269	5193
838.406	5201
838.544	5174
838.681	5018
838.819	4965
838.956	4862
839.094	4923
839.231	5003
839.369	5083
839.506	5387
839.643	5265
839.781	5113
839.918	5052
840.055	5109
840.193	5086
840.33	5083
840.467	5170
840.604	5201
840.742	5402
840.879	5071
841.016	5075
841.153	5147
841.29	5372
841.427	5322
841.564	5296
841.701	5315
841.838	5254
841.975	5223
842.112	5261
842.249	5155
842.385	5117
842.522	5330
842.659	5121
842.796	5117
842.933	5242
843.069	5166
843.206	5136
843.343	5288
843.479	5231
843.616	5280
843.752	5041
843.889	4976
844.025	5208
844.162	5018
844.298	5178
844.435	5102
844.571	5041
844.708	5201
844.844	5315
844.98	5318
845.117	5273
845.253	5136
845.389	5143
845.525	5204
845.661	5124
845.798	5048
845.934	5159
846.07	5029
846.206	5174
846.342	5280
846.478	5212
846.614	4984
846.75	4995
846.886	4919
847.022	5109
847.158	5006
847.294	5098
847.429	5083
847.565	5033
847.701	5322
847.837	4847
847.972	4752
848.108	4934
848.244	4953
848.379	4816
848.515	4694
848.65	4691
848.786	4744
848.921	4793
849.057	4892
849.192	4900
849.328	4782
849.463	4839
849.598	4816
849.734	4774
849.869	4691
850.004	4660
850.14	4683
850.275	4641
850.41	4523
850.545	4542
850.68	4577
850.815	4618
850.95	4618
851.085	4854
851.22	4748
851.355	4721
851.49	4637
851.625	4656
851.76	4660
851.895	4531
852.03	4538
852.165	4596
852.299	4714
852.434	4797
852.569	4778
852.703	4740
852.838	4790
852.973	4858
853.107	4961
853.242	4767
853.376	4656
853.511	4535
853.645	4599
853.78	4767
853.914	4672
854.048	4672
854.183	4653
854.317	4710
854.451	4839
854.585	4645
854.72	4664
854.854	4763
854.988	4588
855.122	4645
855.256	4519
855.39	4656
855.524	4755
855.658	4729
855.792	4672
855.926	4653
856.06	4702
856.194	4793
856.327	4710
856.461	4630
856.595	4599
856.729	4622
856.862	4721
856.996	4706
857.13	4691
857.263	4752
857.397	4820
857.53	4634
857.664	4717
857.797	4763
857.931	4828
858.064	4725
858.197	4759
858.331	4622
858.464	4618
858.597	4546
858.731	4641
858.864	4611
858.997	4596
859.13	4649
859.263	4656
859.396	4672
859.529	4588
859.662	4535
859.795	4531
859.928	4637
860.061	4736
860.194	4736
860.327	4622
860.46	4603
860.592	4683
860.725	4710
860.858	4767
860.99	4592
861.123	4531
861.256	4470
861.388	4634
861.521	5429
861.653	4447
861.786	4459
861.918	4459
862.05	4508
862.183	4584
862.315	4641
862.447	4664
862.58	4554
862.712	4405
862.844	4291
862.976	4451
863.108	4466
863.24	4896
863.372	4375
863.504	4436
863.636	4402
863.768	4466
863.9	4428
864.032	4322
864.164	4428
864.296	4451
864.428	4538
864.559	4599
864.691	4542
864.823	4542
864.954	4489
865.086	4470
865.217	4432
865.349	4424
865.48	4421
865.612	4462
865.743	4599
865.875	4470
866.006	4405
866.137	4417
866.269	4409
866.4	4470
866.531	4386
866.662	4352
866.793	4417
866.924	4447
867.055	4474
867.186	4432
867.317	4386
867.448	4413
867.579	4379
867.71	4386
867.841	4356
867.972	4481
868.103	4474
868.233	4428
868.364	4455
868.495	4516
868.625	4679
868.756	4702
868.886	4630
869.017	4637
869.147	4744
869.278	4782
869.408	4599
869.539	4573
869.669	4748
869.799	4618
869.929	4748
870.06	4729
870.19	4968
870.32	4904
870.45	4911
870.58	4987
870.71	5105
870.84	5121
870.97	4915
871.1	4930
871.23	5147
871.36	5151
871.489	4991
871.619	5090
871.749	5124
871.879	5079
872.008	5174
872.138	5041
872.267	4987
872.397	4809
872.526	4782
872.656	4733
872.785	4801
872.915	4953
873.044	5045
873.173	4949
873.303	4991
873.432	4923
873.561	4961
873.69	4885
873.819	4862
873.948	4919
874.077	4831
874.206	4786
874.335	4763
874.464	4934
874.593	5048
874.722	4980
874.851	5071
874.979	5052
875.108	5064
875.237	4919
875.365	4866
875.494	4934
875.623	5006
875.751	4805
875.88	4896
876.008	4961
876.136	5018
876.265	5193
876.393	5296
876.521	5231
876.65	5261
876.778	5121
876.906	5071
877.034	5041
877.162	5041
877.29	4999
877.418	5056
877.546	5022
877.674	5003
877.802	5018
877.93	5022
878.058	4938
878.185	4835
878.313	4892
878.441	4946
878.568	4797
878.696	4839
878.824	4965
878.951	4991
879.079	5090
879.206	5288
879.333	5094
879.461	5048
879.588	4991
879.715	5067
879.842	5201
879.97	4976
880.097	4820
880.224	4767
880.351	4850
880.478	4816
880.605	4839
880.732	4778
880.859	5094
880.986	4908
881.112	4866
881.239	4763
881.366	4702
881.493	4660
881.619	4554
881.746	4645
881.872	4615
881.999	4622
882.125	4702
882.252	4793
882.378	4824
882.505	4927
882.631	4809
882.757	4649
882.883	4748
883.01	4736
883.136	4710
883.262	4611
883.388	4649
883.514	4835
883.64	4866
883.766	4767
883.892	4714
884.018	4687
884.143	4915
884.269	5018
884.395	4653
884.52	4584
884.646	4691
884.772	4558
884.897	4561
885.023	4698
885.148	4858
885.274	4866
885.399	4824
885.524	4702
885.65	4679
885.775	4748
885.9	4740
886.025	4877
886.15	4778
886.275	4771
886.4	4622
886.525	4771
886.65	4683
886.775	4714
886.9	4908
887.025	5048
887.149	4812
887.274	4645
887.399	4569
887.523	4580
887.648	4630
887.773	4626
887.897	4790
888.021	4778
888.146	4694
888.27	4790
888.395	4866
888.519	4755
888.643	4805
888.767	4805
888.891	4698
889.015	4561
889.139	4687
889.263	4607
889.387	4744
889.511	4892
889.635	4763
889.759	4634
889.883	4618
890.006	4752
890.13	4831
890.254	4698
890.377	4672
890.501	4558
890.624	4527
890.748	4637
890.871	4519
890.995	4424
891.118	4390
891.241	4546
891.364	4523
891.488	4637
891.611	4459
891.734	4516
891.857	4626
891.98	4580
892.103	4615
892.226	4573
892.349	4527
892.471	4443
892.594	4542
892.717	4599
892.839	4596
892.962	4618
893.085	4641
893.207	4596
893.33	4462
893.452	4535
893.575	4675
893.697	4584
893.819	4771
893.941	4847
894.064	4748
894.186	4569
894.308	4573
894.43	4736
894.552	4790
894.674	4752
894.796	4519
894.918	4577
895.04	4588
895.161	4714
895.283	4679
895.405	4580
895.526	4645
895.648	4656
895.769	4698
895.891	4763
896.012	4767
896.134	4694
896.255	4691
896.376	4622
896.498	4607
896.619	4668
896.74	4634
896.861	4672
896.982	4919
897.103	5155
897.224	4790
897.345	4748
897.466	4672
897.587	4748
897.708	4801
897.828	4797
897.949	4649
898.07	4580
898.19	4641
898.311	4820
898.431	4668
898.552	4767
898.672	4820
898.792	4805
898.913	4717
899.033	4599
899.153	4497
899.273	4428
899.393	4508
899.513	4519
899.633	4588
899.753	4569
899.873	4493
899.993	4611
900.113	4531
900.232	4592
900.352	4527
900.472	4474
900.591	4386
900.711	4474
900.83	4432
900.95	4599
901.069	4672
901.189	4527
901.308	4379
901.427	4402
901.546	4402
901.665	4470
901.784	4527
901.904	4329
902.023	4367
902.141	4177
902.26	4188
902.379	4276
902.498	4211
902.617	4242
902.735	4371
902.854	4386
902.973	4405
903.091	4230
903.21	4238
903.328	4310
903.446	4303
903.565	4303
903.683	4386
903.801	4291
903.919	4390
904.038	4405
904.156	4287
904.274	4409
904.392	4432
904.51	4413
904.627	4459
904.745	4580
904.863	4698
904.981	4402
905.098	4291
905.216	4348
905.334	4428
905.451	4394
905.569	4409
905.686	4577
905.803	4565
905.921	4402
906.038	4558
906.155	4497
906.272	4413
906.389	4500
906.506	4314
906.623	4409
906.74	4383
906.857	4341
906.974	4390
907.091	4603
907.208	4679
907.324	4618
907.441	4443
907.557	4367
907.674	4329
907.79	4356
907.907	4394
908.023	4493
908.139	4478
908.256	4470
908.372	4390
908.488	4405
908.604	4306
908.72	4333
908.836	4367
908.952	4356
909.068	4417
909.184	4542
909.3	4516
909.415	4569
909.531	4550
909.647	4363
909.762	4417
909.878	4318
909.993	4443
910.108	4394
910.224	4348
910.339	4478
910.454	4462
910.57	4348
910.685	4257
910.8	4626
910.915	4596
911.03	4481
911.145	4268
911.259	4265
911.374	4375
911.489	4291
911.604	4299
911.718	4188
911.833	4211
911.947	4124
912.062	4029
912.176	4211
912.291	4227
912.405	4242
912.519	4489
912.633	4542
912.748	4398
912.862	4303
912.976	4200
913.09	4074
913.204	4219
913.318	4261
913.431	4337
913.545	4402
913.659	4455
913.772	4356
913.886	4196
914	4185
914.113	4356
914.226	4432
914.34	4348
914.453	4249
914.566	4436
914.68	4371
914.793	4352
914.906	4147
915.019	4135
915.132	4090
915.245	4207
915.358	4196
915.47	4223
915.583	4261
915.696	4348
915.809	4386
915.921	4436
916.034	4253
916.146	4238
916.259	4242
916.371	4356
916.483	4341
916.595	4238
916.708	4284
916.82	4325
916.932	4295
917.044	4310
917.156	4303
917.268	4227
917.38	4314
917.491	4287
917.603	4386
917.715	4413
917.826	4375
917.938	4394
918.049	4223
918.161	4417
918.272	4519
918.384	4542
918.495	4474
918.606	4295
918.717	4257
918.828	4306
918.939	4363
919.05	4310
919.161	4360
919.272	4162
919.383	4234
919.494	4398
919.604	4599
919.715	4413
919.826	4325
919.936	4417
920.047	4561
920.157	4523
920.267	4706
920.378	4504
920.488	4519
920.598	4752
920.708	4877
920.818	4763
920.928	4805
921.038	4934
921.148	4934
921.258	4637
921.368	4546
921.477	4508
921.587	4470
921.697	4375
921.806	4592
921.916	4459
922.025	4249
922.134	4261
922.244	4253
922.353	4360
922.462	4147
922.571	4131
922.68	4036
922.789	3987
922.898	4040
923.007	3956
923.116	4135
923.224	4090
923.333	4071
923.442	3983
923.55	3964
923.659	4010
923.767	4097
923.876	3994
923.984	4109
924.092	4036
924.201	4082
924.309	4071
924.417	4101
924.525	4051
924.633	4101
924.741	5094
924.849	3922
924.956	4128
925.064	4006
925.172	3907
925.279	3956
925.387	4040
925.494	4010
925.602	4227
925.709	4185
925.816	4082
925.924	4139
926.031	4265
926.138	4147
926.245	4238
926.352	4055
926.459	4261
926.566	4344
926.673	4150
926.779	4055
926.886	4097
926.993	3994
927.099	3994
927.206	3979
927.312	3915
927.419	4059
927.525	4002
927.631	4071
927.737	3956
927.843	3926
927.95	3838
928.056	3926
928.162	3979
928.267	4032
928.373	4615
928.479	4097
928.585	3926
928.69	3987
928.796	4071
928.901	3975
929.007	3827
929.112	4036
929.218	3945
929.323	3956
929.428	3953
929.533	4105
929.638	3880
929.743	3949
929.848	4074
929.953	3975
930.058	3899
930.163	3793
930.267	3827
930.372	3937
930.477	3797
930.581	4097
930.685	3972
930.79	3800
930.894	3861
930.998	3869
931.103	4029
931.207	3728
931.311	3648
931.415	3656
931.519	3511
931.623	3557
