Data from test_V78500241_818.txt Node
Date: Fri Mar 25 16:54:41 CST 2022
User: usil
Spectrometer: V785-0024
Trigger mode: 0
Integration Time (sec): 4.000000E-1
Scans to average: 1
Nonlinearity correction enabled: false
Boxcar width: 0
Storing dark spectrum: false
XAxis mode: Wavelengths
Number of Pixels in Spectrum: 1024
>>>>>Begin Spectral Data<<<<<
801.071	7974
801.214	8081
801.356	7963
801.499	7883
801.641	7913
801.783	7814
801.926	8043
802.068	7959
802.211	8001
802.353	7982
802.496	7894
802.638	7921
802.78	7932
802.923	7947
803.065	7902
803.208	7936
803.35	8077
803.492	8168
803.635	8199
803.777	8088
803.919	8134
804.061	8393
804.204	8138
804.346	8027
804.488	7978
804.63	8168
804.773	8126
804.915	8119
805.057	8298
805.199	8138
805.341	8191
805.483	8256
805.626	8237
805.768	8161
805.91	8210
806.052	8229
806.194	8039
806.336	8218
806.478	8138
806.62	7974
806.762	8054
806.904	8267
807.046	8465
807.188	8328
807.33	8320
807.472	8294
807.614	8168
807.756	8123
807.898	7974
808.04	7932
808.182	7913
808.324	7879
808.465	7864
808.607	8020
808.749	8103
808.891	8195
809.033	8290
809.174	8202
809.316	8081
809.458	8050
809.6	7955
809.741	8069
809.883	8008
810.025	8058
810.166	8054
810.308	8058
810.45	8039
810.591	7947
810.733	7780
810.875	7666
811.016	7594
811.158	7491
811.299	7594
811.441	7765
811.582	7636
811.724	7616
811.865	7529
812.007	7571
812.148	7605
812.29	7597
812.431	7753
812.573	7852
812.714	7902
812.855	8138
812.997	8256
813.138	8362
813.279	8199
813.421	8134
813.562	8012
813.703	7902
813.845	7727
813.986	7529
814.127	7293
814.268	7232
814.41	7133
814.551	7152
814.692	7065
814.833	7072
814.974	7122
815.115	7099
815.256	7000
815.397	6989
815.539	6970
815.68	6875
815.821	6844
815.962	6875
816.103	6837
816.244	6734
816.385	6681
816.526	6593
816.666	6448
816.807	6334
816.948	6475
817.089	6467
817.23	6464
817.371	6331
817.512	6441
817.653	6391
817.793	6365
817.934	6334
818.075	6494
818.216	6391
818.356	6376
818.497	6243
818.638	6125
818.778	6117
818.919	6140
819.06	6209
819.2	6342
819.341	6365
819.481	6365
819.622	6540
819.762	6753
819.903	6684
820.043	6566
820.184	6563
820.324	6616
820.465	6707
820.605	6681
820.746	6650
820.886	6494
821.026	6669
821.167	6715
821.307	6772
821.447	6703
821.588	6665
821.728	6582
821.868	6532
822.008	6346
822.149	6361
822.289	6338
822.429	6125
822.569	6079
822.709	6152
822.849	5882
822.99	5889
823.13	5882
823.27	5931
823.41	5821
823.55	5821
823.69	5748
823.83	5821
823.97	5672
824.11	5509
824.25	5562
824.389	5547
824.529	5608
824.669	5543
824.809	5600
824.949	5570
825.089	5668
825.228	5551
825.368	5395
825.508	5353
825.648	5330
825.787	5398
825.927	5421
826.067	5311
826.206	5288
826.346	5360
826.485	5353
826.625	5436
826.765	5570
826.904	5452
827.044	5280
827.183	5208
827.323	5174
827.462	5318
827.601	5189
827.741	5212
827.88	5258
828.02	5098
828.159	5307
828.298	5242
828.437	5318
828.577	5258
828.716	5478
828.855	5322
828.994	5166
829.134	5147
829.273	5223
829.412	5143
829.551	5128
829.69	5170
829.829	5265
829.968	5334
830.107	5250
830.246	5280
830.385	5143
830.524	5143
830.663	5117
830.802	4984
830.941	4873
831.08	4911
831.219	5006
831.357	4957
831.496	5193
831.635	4892
831.774	4831
831.913	4843
832.051	4752
832.19	4721
832.329	4850
832.467	4702
832.606	4672
832.744	4721
832.883	4687
833.022	4694
833.16	4790
833.299	4805
833.437	4782
833.576	4866
833.714	4835
833.852	4896
833.991	4949
834.129	4968
834.267	4942
834.406	4870
834.544	4995
834.682	4976
834.821	4965
834.959	5151
835.097	5025
835.235	5140
835.373	5113
835.511	5121
835.65	5022
835.788	5052
835.926	4911
836.064	4873
836.202	4904
836.34	5162
836.478	5197
836.615	5102
836.753	5235
836.891	5254
837.029	5273
837.167	5181
837.305	5151
837.443	5143
837.58	5033
837.718	5231
837.856	5201
837.993	5189
838.131	5227
838.269	5208
838.406	5258
838.544	5159
838.681	5029
838.819	5025
838.956	4881
839.094	4908
839.231	5003
839.369	5094
839.506	5433
839.643	5254
839.781	5083
839.918	5018
840.055	5094
840.193	5109
840.33	5121
840.467	5128
840.604	5136
840.742	5391
840.879	5025
841.016	5090
841.153	5197
841.29	5406
841.427	5334
841.564	5337
841.701	5368
841.838	5318
841.975	5223
842.112	5239
842.249	5147
842.385	5155
842.522	5307
842.659	5147
842.796	5136
842.933	5204
843.069	5166
843.206	5136
843.343	5334
843.479	5197
843.616	5265
843.752	5045
843.889	5067
844.025	5216
844.162	5041
844.298	5231
844.435	5094
844.571	5052
844.708	5181
844.844	5311
844.98	5368
845.117	5280
845.253	5060
845.389	5113
845.525	5189
845.661	5132
845.798	5067
845.934	5140
846.07	4995
846.206	5201
846.342	5265
846.478	5181
846.614	5014
846.75	4991
846.886	4930
847.022	5178
847.158	4999
847.294	5067
847.429	5109
847.565	5098
847.701	5273
847.837	4847
847.972	4782
848.108	4900
848.244	4934
848.379	4763
848.515	4736
848.65	4744
848.786	4679
848.921	4847
849.057	4847
849.192	4858
849.328	4820
849.463	4870
849.598	4733
849.734	4759
849.869	4656
850.004	4683
850.14	4710
850.275	4596
850.41	4504
850.545	4538
850.68	4588
850.815	4653
850.95	4660
851.085	4801
851.22	4763
851.355	4714
851.49	4611
851.625	4611
851.76	4687
851.895	4531
852.03	4550
852.165	4664
852.299	4656
852.434	4793
852.569	4733
852.703	4733
852.838	4904
852.973	4953
853.107	4927
853.242	4771
853.376	4664
853.511	4584
853.645	4611
853.78	4774
853.914	4653
854.048	4698
854.183	4687
854.317	4706
854.451	4820
854.585	4649
854.72	4645
854.854	4778
854.988	4580
855.122	4660
855.256	4584
855.39	4679
855.524	4797
855.658	4698
855.792	4679
855.926	4717
856.06	4763
856.194	4801
856.327	4706
856.461	4618
856.595	4584
856.729	4641
856.862	4729
856.996	4698
857.13	4717
857.263	4759
857.397	4805
857.53	4679
857.664	4710
857.797	4748
857.931	4748
858.064	4736
858.197	4759
858.331	4675
858.464	4618
858.597	4542
858.731	4660
858.864	4653
858.997	4611
859.13	4675
859.263	4675
859.396	4656
859.529	4577
859.662	4512
859.795	4500
859.928	4599
860.061	4786
860.194	4748
860.327	4634
860.46	4569
860.592	4679
860.725	4675
860.858	4691
860.99	4561
861.123	4485
861.256	4535
861.388	4603
861.521	5273
861.653	4523
861.786	4447
861.918	4432
862.05	4440
862.183	4599
862.315	4577
862.447	4653
862.58	4512
862.712	4440
862.844	4344
862.976	4466
863.108	4443
863.24	4831
863.372	4306
863.504	4390
863.636	4413
863.768	4478
863.9	4443
864.032	4405
864.164	4405
864.296	4466
864.428	4512
864.559	4512
864.691	4561
864.823	4531
864.954	4478
865.086	4531
865.217	4428
865.349	4424
865.48	4421
865.612	4481
865.743	4656
865.875	4413
866.006	4402
866.137	4455
866.269	4459
866.4	4383
866.531	4417
866.662	4383
866.793	4417
866.924	4470
867.055	4489
867.186	4424
867.317	4394
867.448	4379
867.579	4383
867.71	4386
867.841	4363
867.972	4451
868.103	4474
868.233	4432
868.364	4470
868.495	4516
868.625	4645
868.756	4759
868.886	4580
869.017	4615
869.147	4790
869.278	4755
869.408	4660
869.539	4637
869.669	4771
869.799	4683
869.929	4763
870.06	4721
870.19	4938
870.32	4889
870.45	4938
870.58	4984
870.71	5132
870.84	5060
870.97	4915
871.1	4923
871.23	5128
871.36	5128
871.489	5018
871.619	5090
871.749	5117
871.879	5105
872.008	5204
872.138	5090
872.267	4980
872.397	4904
872.526	4835
872.656	4702
872.785	4812
872.915	4942
873.044	4972
873.173	4862
873.303	4934
873.432	4961
873.561	4923
873.69	4870
873.819	4809
873.948	4908
874.077	4839
874.206	4759
874.335	4820
874.464	4927
874.593	5041
874.722	5014
874.851	5041
874.979	5086
875.108	4991
875.237	4904
875.365	4835
875.494	4904
875.623	5029
875.751	4786
875.88	4889
876.008	4953
876.136	5018
876.265	5189
876.393	5364
876.521	5193
876.65	5212
876.778	5124
876.906	5105
877.034	4991
877.162	4999
877.29	4984
877.418	5037
877.546	5029
877.674	5014
877.802	4987
877.93	4987
878.058	4987
878.185	4892
878.313	4946
878.441	5003
878.568	4744
878.696	4900
878.824	4949
878.951	4957
879.079	5124
879.206	5288
879.333	5086
879.461	4968
879.588	5018
879.715	5147
879.842	5204
879.97	4976
880.097	4755
880.224	4721
880.351	4767
880.478	4782
880.605	4790
880.732	4782
880.859	5094
880.986	4904
881.112	4870
881.239	4736
881.366	4660
881.493	4622
881.619	4569
881.746	4664
881.872	4626
881.999	4668
882.125	4634
882.252	4714
882.378	4828
882.505	4953
882.631	4782
882.757	4649
882.883	4717
883.01	4733
883.136	4634
883.262	4580
883.388	4637
883.514	4812
883.64	4866
883.766	4771
883.892	4630
884.018	4721
884.143	4854
884.269	5025
884.395	4656
884.52	4558
884.646	4656
884.772	4592
884.897	4584
885.023	4660
885.148	4694
885.274	4915
885.399	4778
885.524	4733
885.65	4717
885.775	4729
885.9	4683
886.025	4854
886.15	4786
886.275	4691
886.4	4634
886.525	4702
886.65	4706
886.775	4740
886.9	4930
887.025	5010
887.149	4797
887.274	4653
887.399	4577
887.523	4577
887.648	4592
887.773	4569
887.897	4763
888.021	4786
888.146	4668
888.27	4854
888.395	4854
888.519	4771
888.643	4835
888.767	4824
888.891	4683
889.015	4542
889.139	4656
889.263	4596
889.387	4725
889.511	4870
889.635	4824
889.759	4637
889.883	4618
890.006	4710
890.13	4862
890.254	4630
890.377	4656
890.501	4508
890.624	4531
890.748	4630
890.871	4489
890.995	4413
891.118	4375
891.241	4561
891.364	4512
891.488	4626
891.611	4466
891.734	4538
891.857	4596
891.98	4550
892.103	4656
892.226	4637
892.349	4504
892.471	4383
892.594	4538
892.717	4592
892.839	4561
892.962	4542
893.085	4653
893.207	4618
893.33	4497
893.452	4512
893.575	4634
893.697	4569
893.819	4809
893.941	4793
894.064	4771
894.186	4615
894.308	4546
894.43	4782
894.552	4778
894.674	4824
894.796	4489
894.918	4577
895.04	4569
895.161	4698
895.283	4637
895.405	4561
895.526	4664
895.648	4698
895.769	4592
895.891	4698
896.012	4733
896.134	4744
896.255	4660
896.376	4607
896.498	4596
896.619	4691
896.74	4573
896.861	4637
896.982	4873
897.103	5094
897.224	4774
897.345	4721
897.466	4679
897.587	4725
897.708	4862
897.828	4778
897.949	4577
898.07	4516
898.19	4607
898.311	4752
898.431	4607
898.552	4691
898.672	4812
898.792	4786
898.913	4694
899.033	4691
899.153	4508
899.273	4386
899.393	4500
899.513	4489
899.633	4512
899.753	4550
899.873	4508
899.993	4561
900.113	4504
900.232	4565
900.352	4554
900.472	4443
900.591	4394
900.711	4527
900.83	4462
900.95	4584
901.069	4607
901.189	4523
901.308	4367
901.427	4303
901.546	4329
901.665	4443
901.784	4493
901.904	4398
902.023	4310
902.141	4166
902.26	4158
902.379	4246
902.498	4246
902.617	4238
902.735	4383
902.854	4371
902.973	4299
903.091	4158
903.21	4196
903.328	4337
903.446	4227
903.565	4249
903.683	4383
903.801	4265
903.919	4371
904.038	4398
904.156	4303
904.274	4436
904.392	4394
904.51	4443
904.627	4481
904.745	4554
904.863	4611
904.981	4413
905.098	4318
905.216	4371
905.334	4413
905.451	4451
905.569	4386
905.686	4500
905.803	4554
905.921	4413
906.038	4523
906.155	4523
906.272	4398
906.389	4447
906.506	4344
906.623	4390
906.74	4409
906.857	4291
906.974	4383
907.091	4558
907.208	4698
907.324	4561
907.441	4516
907.557	4360
907.674	4352
907.79	4310
907.907	4379
908.023	4485
908.139	4474
908.256	4398
908.372	4459
908.488	4478
908.604	4303
908.72	4325
908.836	4394
908.952	4306
909.068	4394
909.184	4573
909.3	4466
909.415	4542
909.531	4546
909.647	4287
909.762	4375
909.878	4318
909.993	4455
910.108	4360
910.224	4405
910.339	4485
910.454	4371
910.57	4363
910.685	4322
910.8	4664
910.915	4584
911.03	4462
911.145	4299
911.259	4333
911.374	4363
911.489	4306
911.604	4249
911.718	4169
911.833	4249
911.947	3983
912.062	4071
912.176	4204
912.291	4268
912.405	4219
912.519	4493
912.633	4542
912.748	4356
912.862	4299
912.976	4154
913.09	4124
913.204	4112
913.318	4215
913.431	4356
913.545	4409
913.659	4424
913.772	4329
913.886	4249
914	4181
914.113	4341
914.226	4405
914.34	4405
914.453	4207
914.566	4417
914.68	4276
914.793	4306
914.906	4154
915.019	4055
915.132	4032
915.245	4169
915.358	4177
915.47	4265
915.583	4265
915.696	4303
915.809	4417
915.921	4424
916.034	4265
916.146	4268
916.259	4257
916.371	4352
916.483	4329
916.595	4268
916.708	4310
916.82	4314
916.932	4306
917.044	4329
917.156	4348
917.268	4246
917.38	4276
917.491	4272
917.603	4322
917.715	4436
917.826	4443
917.938	4352
918.049	4246
918.161	4383
918.272	4519
918.384	4592
918.495	4447
918.606	4344
918.717	4238
918.828	4310
918.939	4360
919.05	4261
919.161	4322
919.272	4143
919.383	4268
919.494	4421
919.604	4615
919.715	4428
919.826	4386
919.936	4383
920.047	4527
920.157	4440
920.267	4656
920.378	4550
920.488	4443
920.598	4717
920.708	4923
920.818	4771
920.928	4755
921.038	4976
921.148	4896
921.258	4637
921.368	4531
921.477	4478
921.587	4470
921.697	4394
921.806	4500
921.916	4470
922.025	4291
922.134	4265
922.244	4219
922.353	4352
922.462	4166
922.571	4150
922.68	4032
922.789	3983
922.898	3979
923.007	4040
923.116	4082
923.224	4059
923.333	4071
923.442	3979
923.55	4006
923.659	4021
923.767	4109
923.876	3991
923.984	4124
924.092	4017
924.201	4086
924.309	4074
924.417	4112
924.525	4051
924.633	4090
924.741	4870
924.849	3915
924.956	4112
925.064	3968
925.172	3896
925.279	3960
925.387	4059
925.494	4021
925.602	4169
925.709	4181
925.816	4040
925.924	4059
926.031	4246
926.138	4177
926.245	4215
926.352	4090
926.459	4211
926.566	4287
926.673	4143
926.779	4090
926.886	4093
926.993	3975
927.099	3934
927.206	3918
927.312	3934
927.419	4036
927.525	4025
927.631	4071
927.737	3975
927.843	3892
927.95	3827
928.056	3941
928.162	3949
928.267	4013
928.373	4634
928.479	4105
928.585	3861
928.69	4002
928.796	4067
928.901	3968
929.007	3816
929.112	3991
929.218	3956
929.323	3968
929.428	3937
929.533	4109
929.638	3873
929.743	3922
929.848	3983
929.953	4010
930.058	3937
930.163	3808
930.267	3823
930.372	3975
930.477	3797
930.581	4071
930.685	3949
930.79	3785
930.894	3876
930.998	3884
931.103	4021
931.207	3717
931.311	3717
931.415	3682
931.519	3526
931.623	3538
