Data from test_V78500241_2317.txt Node
Date: Fri Mar 25 17:05:06 CST 2022
User: usil
Spectrometer: V785-0024
Trigger mode: 0
Integration Time (sec): 4.000000E-1
Scans to average: 1
Nonlinearity correction enabled: false
Boxcar width: 0
Storing dark spectrum: false
XAxis mode: Wavelengths
Number of Pixels in Spectrum: 1024
>>>>>Begin Spectral Data<<<<<
801.071	8031
801.214	7974
801.356	7811
801.499	7795
801.641	7757
801.783	7784
801.926	7940
802.068	8027
802.211	7963
802.353	8039
802.496	7826
802.638	7928
802.78	7898
802.923	7849
803.065	7860
803.208	7803
803.35	7944
803.492	8081
803.635	8176
803.777	8073
803.919	8065
804.061	8438
804.204	8130
804.346	8058
804.488	7921
804.63	8096
804.773	7963
804.915	8103
805.057	8317
805.199	8172
805.341	8240
805.483	8206
805.626	8221
805.768	8164
805.91	8237
806.052	8195
806.194	8031
806.336	8267
806.478	8103
806.62	8073
806.762	8130
806.904	8210
807.046	8412
807.188	8279
807.33	8282
807.472	8393
807.614	8149
807.756	8092
807.898	7928
808.04	7921
808.182	7894
808.324	7909
808.465	7894
808.607	8027
808.749	8020
808.891	8206
809.033	8358
809.174	8195
809.316	8084
809.458	8081
809.6	8027
809.741	8046
809.883	8020
810.025	8115
810.166	8103
810.308	8115
810.45	8001
810.591	7780
810.733	7753
810.875	7590
811.016	7445
811.158	7453
811.299	7552
811.441	7689
811.582	7643
811.724	7514
811.865	7514
812.007	7559
812.148	7643
812.29	7643
812.431	7780
812.573	7921
812.714	7993
812.855	8103
812.997	8180
813.138	8301
813.279	8138
813.421	8123
813.562	7951
813.703	7822
813.845	7712
813.986	7415
814.127	7225
814.268	7228
814.41	7171
814.551	7179
814.692	7202
814.833	7050
814.974	7110
815.115	7069
815.256	7053
815.397	6886
815.539	6939
815.68	6844
815.821	6741
815.962	6920
816.103	6825
816.244	6662
816.385	6589
816.526	6601
816.666	6486
816.807	6346
816.948	6445
817.089	6456
817.23	6452
817.371	6376
817.512	6350
817.653	6422
817.793	6361
817.934	6346
818.075	6452
818.216	6433
818.356	6350
818.497	6277
818.638	6140
818.778	6121
818.919	6091
819.06	6129
819.2	6346
819.341	6327
819.481	6319
819.622	6604
819.762	6692
819.903	6692
820.043	6601
820.184	6612
820.324	6604
820.465	6738
820.605	6601
820.746	6635
820.886	6517
821.026	6620
821.167	6669
821.307	6818
821.447	6779
821.588	6650
821.728	6544
821.868	6536
822.008	6304
822.149	6388
822.289	6342
822.429	6102
822.569	6098
822.709	6129
822.849	5927
822.99	5912
823.13	5874
823.27	5950
823.41	5802
823.55	5756
823.69	5745
823.83	5752
823.97	5600
824.11	5585
824.25	5467
824.389	5547
824.529	5581
824.669	5528
824.809	5630
824.949	5638
825.089	5570
825.228	5512
825.368	5395
825.508	5345
825.648	5341
825.787	5360
825.927	5368
826.067	5280
826.206	5277
826.346	5357
826.485	5417
826.625	5395
826.765	5490
826.904	5493
827.044	5223
827.183	5181
827.323	5102
827.462	5250
827.601	5231
827.741	5227
827.88	5204
828.02	5113
828.159	5299
828.298	5326
828.437	5345
828.577	5337
828.716	5486
828.855	5360
828.994	5220
829.134	5124
829.273	5208
829.412	5166
829.551	5166
829.69	5166
829.829	5208
829.968	5379
830.107	5284
830.246	5288
830.385	5208
830.524	5174
830.663	5102
830.802	5018
830.941	4908
831.08	4889
831.219	5033
831.357	4980
831.496	5189
831.635	4953
831.774	4896
831.913	4873
832.051	4797
832.19	4801
832.329	4904
832.467	4706
832.606	4714
832.744	4717
832.883	4717
833.022	4774
833.16	4797
833.299	4923
833.437	4850
833.576	4866
833.714	4896
833.852	4965
833.991	4915
834.129	4961
834.267	5006
834.406	4915
834.544	5029
834.682	5006
834.821	5003
834.959	5147
835.097	5033
835.235	5204
835.373	5113
835.511	5090
835.65	5098
835.788	5041
835.926	4934
836.064	4896
836.202	4987
836.34	5231
836.478	5269
836.615	5235
836.753	5235
836.891	5307
837.029	5239
837.167	5231
837.305	5189
837.443	5170
837.58	5151
837.718	5280
837.856	5250
837.993	5201
838.131	5239
838.269	5242
838.406	5242
838.544	5231
838.681	5067
838.819	5022
838.956	4866
839.094	4881
839.231	5006
839.369	5117
839.506	5471
839.643	5341
839.781	5109
839.918	5048
840.055	5174
840.193	5159
840.33	5170
840.467	5132
840.604	5242
840.742	5474
840.879	5109
841.016	5105
841.153	5189
841.29	5391
841.427	5349
841.564	5292
841.701	5414
841.838	5288
841.975	5288
842.112	5315
842.249	5220
842.385	5124
842.522	5364
842.659	5208
842.796	5181
842.933	5223
843.069	5201
843.206	5204
843.343	5330
843.479	5292
843.616	5284
843.752	5075
843.889	5033
844.025	5265
844.162	5090
844.298	5220
844.435	5067
844.571	5067
844.708	5197
844.844	5364
844.98	5318
845.117	5311
845.253	5162
845.389	5098
845.525	5151
845.661	5185
845.798	5079
845.934	5147
846.07	5052
846.206	5250
846.342	5341
846.478	5197
846.614	5014
846.75	5003
846.886	4984
847.022	5181
847.158	5064
847.294	5128
847.429	5162
847.565	5075
847.701	5357
847.837	4839
847.972	4835
848.108	4987
848.244	4961
848.379	4812
848.515	4767
848.65	4733
848.786	4786
848.921	4820
849.057	4900
849.192	4900
849.328	4801
849.463	4889
849.598	4828
849.734	4740
849.869	4736
850.004	4649
850.14	4717
850.275	4683
850.41	4607
850.545	4584
850.68	4637
850.815	4664
850.95	4653
851.085	4870
851.22	4774
851.355	4683
851.49	4607
851.625	4664
851.76	4683
851.895	4603
852.03	4611
852.165	4729
852.299	4717
852.434	4812
852.569	4805
852.703	4778
852.838	4896
852.973	5006
853.107	4923
853.242	4740
853.376	4706
853.511	4577
853.645	4656
853.78	4839
853.914	4702
854.048	4687
854.183	4641
854.317	4767
854.451	4881
854.585	4721
854.72	4672
854.854	4793
854.988	4641
855.122	4637
855.256	4512
855.39	4706
855.524	4858
855.658	4763
855.792	4725
855.926	4782
856.06	4793
856.194	4790
856.327	4714
856.461	4618
856.595	4653
856.729	4607
856.862	4759
856.996	4744
857.13	4752
857.263	4782
857.397	4793
857.53	4660
857.664	4763
857.797	4725
857.931	4812
858.064	4706
858.197	4835
858.331	4660
858.464	4611
858.597	4577
858.731	4672
858.864	4637
858.997	4603
859.13	4691
859.263	4702
859.396	4744
859.529	4634
859.662	4588
859.795	4596
859.928	4615
860.061	4793
860.194	4755
860.327	4607
860.46	4584
860.592	4752
860.725	4740
860.858	4759
860.99	4607
861.123	4561
861.256	4603
861.388	4649
861.521	5250
861.653	4531
861.786	4451
861.918	4466
862.05	4489
862.183	4561
862.315	4607
862.447	4668
862.58	4569
862.712	4417
862.844	4402
862.976	4485
863.108	4466
863.24	4908
863.372	4409
863.504	4497
863.636	4443
863.768	4504
863.9	4440
864.032	4386
864.164	4466
864.296	4500
864.428	4599
864.559	4580
864.691	4546
864.823	4542
864.954	4519
865.086	4470
865.217	4489
865.349	4440
865.48	4481
865.612	4527
865.743	4645
865.875	4500
866.006	4455
866.137	4508
866.269	4462
866.4	4470
866.531	4489
866.662	4447
866.793	4405
866.924	4402
867.055	4508
867.186	4459
867.317	4462
867.448	4398
867.579	4409
867.71	4424
867.841	4337
867.972	4485
868.103	4474
868.233	4459
868.364	4440
868.495	4497
868.625	4653
868.756	4778
868.886	4596
869.017	4618
869.147	4767
869.278	4774
869.408	4691
869.539	4675
869.669	4740
869.799	4653
869.929	4786
870.06	4721
870.19	4980
870.32	4930
870.45	4991
870.58	4980
870.71	5079
870.84	5105
870.97	4927
871.1	4957
871.23	5159
871.36	5162
871.489	5064
871.619	5105
871.749	5143
871.879	5155
872.008	5204
872.138	5071
872.267	4927
872.397	4908
872.526	4824
872.656	4748
872.785	4797
872.915	4991
873.044	5041
873.173	4995
873.303	4946
873.432	4972
873.561	4999
873.69	4942
873.819	4923
873.948	4976
874.077	4843
874.206	4755
874.335	4862
874.464	4915
874.593	5079
874.722	4961
874.851	5086
874.979	5048
875.108	5124
875.237	4999
875.365	4923
875.494	4942
875.623	5018
875.751	4881
875.88	4862
876.008	4946
876.136	5060
876.265	5208
876.393	5337
876.521	5277
876.65	5227
876.778	5162
876.906	5098
877.034	5079
877.162	5060
877.29	4965
877.418	5124
877.546	5045
877.674	5045
877.802	4999
877.93	5041
878.058	4976
878.185	4934
878.313	4957
878.441	4938
878.568	4854
878.696	4896
878.824	4961
878.951	5025
879.079	5128
879.206	5334
879.333	5140
879.461	4987
879.588	5041
879.715	5109
879.842	5208
879.97	5029
880.097	4828
880.224	4782
880.351	4793
880.478	4824
880.605	4771
880.732	4816
880.859	5094
880.986	4885
881.112	4957
881.239	4835
881.366	4660
881.493	4649
881.619	4592
881.746	4653
881.872	4683
881.999	4710
882.125	4634
882.252	4824
882.378	4866
882.505	4980
882.631	4835
882.757	4714
882.883	4771
883.01	4774
883.136	4717
883.262	4626
883.388	4611
883.514	4858
883.64	4877
883.766	4812
883.892	4729
884.018	4755
884.143	4946
884.269	5060
884.395	4702
884.52	4653
884.646	4641
884.772	4618
884.897	4599
885.023	4740
885.148	4805
885.274	4873
885.399	4774
885.524	4755
885.65	4698
885.775	4721
885.9	4702
886.025	4892
886.15	4786
886.275	4710
886.4	4649
886.525	4725
886.65	4653
886.775	4755
886.9	4900
887.025	5094
887.149	4797
887.274	4630
887.399	4569
887.523	4607
887.648	4630
887.773	4641
887.897	4805
888.021	4763
888.146	4717
888.27	4843
888.395	4911
888.519	4774
888.643	4812
888.767	4885
888.891	4653
889.015	4592
889.139	4653
889.263	4637
889.387	4820
889.511	4908
889.635	4843
889.759	4691
889.883	4683
890.006	4748
890.13	4820
890.254	4641
890.377	4687
890.501	4592
890.624	4546
890.748	4660
890.871	4569
890.995	4481
891.118	4428
891.241	4500
891.364	4554
891.488	4645
891.611	4478
891.734	4546
891.857	4626
891.98	4565
892.103	4626
892.226	4584
892.349	4550
892.471	4462
892.594	4561
892.717	4611
892.839	4569
892.962	4615
893.085	4653
893.207	4641
893.33	4466
893.452	4508
893.575	4694
893.697	4573
893.819	4824
893.941	4786
894.064	4736
894.186	4588
894.308	4588
894.43	4767
894.552	4805
894.674	4729
894.796	4565
894.918	4615
895.04	4489
895.161	4714
895.283	4637
895.405	4561
895.526	4626
895.648	4736
895.769	4660
895.891	4710
896.012	4710
896.134	4698
896.255	4683
896.376	4679
896.498	4660
896.619	4721
896.74	4596
896.861	4691
896.982	4927
897.103	5098
897.224	4862
897.345	4725
897.466	4649
897.587	4729
897.708	4866
897.828	4790
897.949	4691
898.07	4565
898.19	4637
898.311	4797
898.431	4664
898.552	4729
898.672	4824
898.792	4854
898.913	4774
899.033	4599
899.153	4466
899.273	4428
899.393	4512
899.513	4550
899.633	4516
899.753	4558
899.873	4489
899.993	4592
900.113	4554
900.232	4596
900.352	4554
900.472	4489
900.591	4417
900.711	4519
900.83	4432
900.95	4577
901.069	4694
901.189	4523
901.308	4413
901.427	4322
901.546	4409
901.665	4474
901.784	4516
901.904	4398
902.023	4306
902.141	4181
902.26	4124
902.379	4333
902.498	4204
902.617	4215
902.735	4409
902.854	4421
902.973	4341
903.091	4234
903.21	4207
903.328	4291
903.446	4291
903.565	4341
903.683	4375
903.801	4299
903.919	4405
904.038	4470
904.156	4322
904.274	4481
904.392	4428
904.51	4424
904.627	4443
904.745	4615
904.863	4687
904.981	4428
905.098	4356
905.216	4383
905.334	4493
905.451	4428
905.569	4470
905.686	4542
905.803	4607
905.921	4428
906.038	4573
906.155	4546
906.272	4455
906.389	4512
906.506	4383
906.623	4428
906.74	4394
906.857	4363
906.974	4421
907.091	4603
907.208	4706
907.324	4645
907.441	4527
907.557	4413
907.674	4371
907.79	4390
907.907	4421
908.023	4523
908.139	4493
908.256	4481
908.372	4459
908.488	4485
908.604	4424
908.72	4367
908.836	4432
908.952	4379
909.068	4485
909.184	4588
909.3	4512
909.415	4622
909.531	4607
909.647	4386
909.762	4428
909.878	4348
909.993	4436
910.108	4459
910.224	4466
910.339	4531
910.454	4451
910.57	4405
910.685	4318
910.8	4702
910.915	4653
911.03	4577
911.145	4367
911.259	4379
911.374	4398
911.489	4341
911.604	4310
911.718	4219
911.833	4295
911.947	4135
912.062	4051
912.176	4284
912.291	4299
912.405	4299
912.519	4493
912.633	4516
912.748	4443
912.862	4341
912.976	4242
913.09	4173
913.204	4154
913.318	4306
913.431	4424
913.545	4440
913.659	4459
913.772	4386
913.886	4303
914	4303
914.113	4409
914.226	4500
914.34	4443
914.453	4227
914.566	4493
914.68	4394
914.793	4352
914.906	4181
915.019	4143
915.132	4128
915.245	4192
915.358	4246
915.47	4287
915.583	4314
915.696	4341
915.809	4432
915.921	4459
916.034	4318
916.146	4329
916.259	4242
916.371	4417
916.483	4409
916.595	4265
916.708	4386
916.82	4405
916.932	4333
917.044	4318
917.156	4367
917.268	4238
917.38	4291
917.491	4322
917.603	4383
917.715	4440
917.826	4466
917.938	4394
918.049	4268
918.161	4447
918.272	4618
918.384	4538
918.495	4481
918.606	4325
918.717	4261
918.828	4413
918.939	4421
919.05	4253
919.161	4375
919.272	4207
919.383	4230
919.494	4500
919.604	4675
919.715	4455
919.826	4360
919.936	4398
920.047	4538
920.157	4500
920.267	4691
920.378	4538
920.488	4500
920.598	4767
920.708	4885
920.818	4805
920.928	4736
921.038	4968
921.148	4953
921.258	4672
921.368	4546
921.477	4550
921.587	4535
921.697	4390
921.806	4626
921.916	4466
922.025	4284
922.134	4295
922.244	4204
922.353	4348
922.462	4211
922.571	4154
922.68	4032
922.789	3983
922.898	4051
923.007	4013
923.116	4109
923.224	4135
923.333	4105
923.442	4036
923.55	4025
923.659	4078
923.767	4158
923.876	3998
923.984	4158
924.092	4010
924.201	4090
924.309	4112
924.417	4177
924.525	4063
924.633	4135
924.741	5094
924.849	3907
924.956	4188
925.064	4055
925.172	3934
925.279	4006
925.387	4082
925.494	4029
925.602	4276
925.709	4173
925.816	4097
925.924	4150
926.031	4322
926.138	4230
926.245	4211
926.352	4124
926.459	4261
926.566	4344
926.673	4169
926.779	4109
926.886	4093
926.993	3998
927.099	3975
927.206	3949
927.312	3994
927.419	4131
927.525	4071
927.631	4143
927.737	3983
927.843	3991
927.95	3899
928.056	3937
928.162	4044
928.267	4128
928.373	4687
928.479	4116
928.585	3987
928.69	4059
928.796	4097
928.901	3968
929.007	3857
929.112	4063
929.218	3983
929.323	3926
929.428	4025
929.533	4120
929.638	3949
929.743	4002
929.848	4074
929.953	4044
930.058	3949
930.163	3808
930.267	3804
930.372	3983
930.477	3854
930.581	4090
930.685	3922
930.79	3842
930.894	3934
930.998	3956
931.103	4044
931.207	3755
931.311	3728
931.415	3709
931.519	3572
931.623	3580
