Data from test_V78500241_2352.txt Node
Date: Fri Mar 25 17:05:21 CST 2022
User: usil
Spectrometer: V785-0024
Trigger mode: 0
Integration Time (sec): 4.000000E-1
Scans to average: 1
Nonlinearity correction enabled: false
Boxcar width: 0
Storing dark spectrum: false
XAxis mode: Wavelengths
Number of Pixels in Spectrum: 1024
>>>>>Begin Spectral Data<<<<<
801.071	7967
801.214	7902
801.356	7833
801.499	7830
801.641	7742
801.783	7753
801.926	7982
802.068	7898
802.211	7940
802.353	7986
802.496	7875
802.638	7833
802.78	7875
802.923	7959
803.065	7932
803.208	7974
803.35	7986
803.492	8069
803.635	8084
803.777	8077
803.919	8142
804.061	8480
804.204	8157
804.346	8065
804.488	7970
804.63	8145
804.773	8024
804.915	8084
805.057	8286
805.199	8161
805.341	8191
805.483	8256
805.626	8180
805.768	8115
805.91	8206
806.052	8187
806.194	8130
806.336	8263
806.478	8069
806.62	8039
806.762	8130
806.904	8206
807.046	8503
807.188	8389
807.33	8355
807.472	8351
807.614	8199
807.756	8195
807.898	8016
808.04	7875
808.182	7868
808.324	7871
808.465	7883
808.607	8058
808.749	8065
808.891	8199
809.033	8343
809.174	8244
809.316	8016
809.458	8088
809.6	8008
809.741	8046
809.883	8008
810.025	8092
810.166	8043
810.308	8016
810.45	7944
810.591	7871
810.733	7757
810.875	7693
811.016	7552
811.158	7476
811.299	7529
811.441	7670
811.582	7708
811.724	7567
811.865	7537
812.007	7643
812.148	7620
812.29	7597
812.431	7712
812.573	7951
812.714	7982
812.855	8031
812.997	8142
813.138	8290
813.279	8187
813.421	8073
813.562	7978
813.703	7811
813.845	7784
813.986	7407
814.127	7232
814.268	7270
814.41	7168
814.551	7228
814.692	7171
814.833	7061
814.974	7107
815.115	7156
815.256	7012
815.397	6973
815.539	6947
815.68	6798
815.821	6726
815.962	6901
816.103	6844
816.244	6688
816.385	6700
816.526	6684
816.666	6506
816.807	6285
816.948	6407
817.089	6422
817.23	6429
817.371	6380
817.512	6353
817.653	6365
817.793	6350
817.934	6441
818.075	6525
818.216	6414
818.356	6418
818.497	6247
818.638	6136
818.778	6140
818.919	6148
819.06	6121
819.2	6365
819.341	6323
819.481	6429
819.622	6544
819.762	6726
819.903	6715
820.043	6593
820.184	6525
820.324	6589
820.465	6707
820.605	6688
820.746	6730
820.886	6471
821.026	6662
821.167	6684
821.307	6787
821.447	6715
821.588	6642
821.728	6623
821.868	6452
822.008	6350
822.149	6372
822.289	6315
822.429	6178
822.569	6106
822.709	6072
822.849	5935
822.99	5908
823.13	5923
823.27	5984
823.41	5771
823.55	5783
823.69	5805
823.83	5733
823.97	5634
824.11	5592
824.25	5501
824.389	5543
824.529	5600
824.669	5543
824.809	5661
824.949	5684
825.089	5661
825.228	5543
825.368	5379
825.508	5341
825.648	5292
825.787	5383
825.927	5349
826.067	5273
826.206	5265
826.346	5379
826.485	5398
826.625	5414
826.765	5528
826.904	5455
827.044	5216
827.183	5174
827.323	5098
827.462	5220
827.601	5159
827.741	5181
827.88	5223
828.02	5098
828.159	5284
828.298	5273
828.437	5353
828.577	5265
828.716	5444
828.855	5254
828.994	5155
829.134	5136
829.273	5208
829.412	5124
829.551	5124
829.69	5162
829.829	5235
829.968	5398
830.107	5288
830.246	5284
830.385	5136
830.524	5124
830.663	5052
830.802	4980
830.941	4858
831.08	4835
831.219	4965
831.357	4972
831.496	5102
831.635	4919
831.774	4839
831.913	4831
832.051	4774
832.19	4706
832.329	4778
832.467	4683
832.606	4630
832.744	4702
832.883	4702
833.022	4687
833.16	4771
833.299	4843
833.437	4843
833.576	4790
833.714	4835
833.852	4862
833.991	4927
834.129	4911
834.267	4946
834.406	4873
834.544	4953
834.682	4961
834.821	4961
834.959	5178
835.097	4995
835.235	5147
835.373	5041
835.511	5083
835.65	5014
835.788	4987
835.926	4877
836.064	4866
836.202	4889
836.34	5143
836.478	5246
836.615	5128
836.753	5239
836.891	5227
837.029	5258
837.167	5155
837.305	5174
837.443	5181
837.58	5121
837.718	5227
837.856	5181
837.993	5178
838.131	5220
838.269	5220
838.406	5208
838.544	5204
838.681	5041
838.819	4987
838.956	4889
839.094	4843
839.231	4968
839.369	5105
839.506	5448
839.643	5288
839.781	5090
839.918	5018
840.055	5041
840.193	5105
840.33	5117
840.467	5151
840.604	5174
840.742	5417
840.879	5086
841.016	5071
841.153	5140
841.29	5368
841.427	5353
841.564	5318
841.701	5334
841.838	5307
841.975	5170
842.112	5242
842.249	5166
842.385	5079
842.522	5265
842.659	5166
842.796	5128
842.933	5159
843.069	5113
843.206	5147
843.343	5296
843.479	5235
843.616	5235
843.752	5052
843.889	5018
844.025	5201
844.162	4991
844.298	5231
844.435	5090
844.571	5025
844.708	5208
844.844	5345
844.98	5307
845.117	5288
845.253	5086
845.389	5003
845.525	5170
845.661	5147
845.798	5022
845.934	5121
846.07	5029
846.206	5185
846.342	5193
846.478	5151
846.614	4991
846.75	4976
846.886	4984
847.022	5102
847.158	5022
847.294	5048
847.429	5140
847.565	5041
847.701	5273
847.837	4870
847.972	4820
848.108	4953
848.244	4965
848.379	4755
848.515	4710
848.65	4721
848.786	4790
848.921	4824
849.057	4862
849.192	4892
849.328	4793
849.463	4828
849.598	4774
849.734	4748
849.869	4694
850.004	4599
850.14	4675
850.275	4599
850.41	4538
850.545	4577
850.68	4558
850.815	4603
850.95	4649
851.085	4801
851.22	4721
851.355	4656
851.49	4611
851.625	4687
851.76	4656
851.895	4554
852.03	4538
852.165	4618
852.299	4702
852.434	4774
852.569	4717
852.703	4778
852.838	4805
852.973	4911
853.107	4892
853.242	4793
853.376	4672
853.511	4523
853.645	4565
853.78	4809
853.914	4668
854.048	4645
854.183	4641
854.317	4744
854.451	4835
854.585	4664
854.72	4664
854.854	4778
854.988	4607
855.122	4634
855.256	4527
855.39	4672
855.524	4771
855.658	4790
855.792	4714
855.926	4736
856.06	4729
856.194	4763
856.327	4694
856.461	4618
856.595	4584
856.729	4634
856.862	4729
856.996	4656
857.13	4710
857.263	4793
857.397	4812
857.53	4630
857.664	4717
857.797	4793
857.931	4691
858.064	4694
858.197	4744
858.331	4660
858.464	4660
858.597	4550
858.731	4603
858.864	4656
858.997	4531
859.13	4653
859.263	4675
859.396	4653
859.529	4580
859.662	4596
859.795	4535
859.928	4641
860.061	4767
860.194	4752
860.327	4641
860.46	4573
860.592	4672
860.725	4702
860.858	4668
860.99	4516
861.123	4535
861.256	4527
861.388	4615
861.521	5239
861.653	4527
861.786	4466
861.918	4451
862.05	4466
862.183	4573
862.315	4592
862.447	4645
862.58	4531
862.712	4352
862.844	4322
862.976	4462
863.108	4436
863.24	4892
863.372	4318
863.504	4398
863.636	4390
863.768	4519
863.9	4405
864.032	4398
864.164	4344
864.296	4436
864.428	4569
864.559	4554
864.691	4561
864.823	4478
864.954	4504
865.086	4508
865.217	4440
865.349	4402
865.48	4478
865.612	4455
865.743	4599
865.875	4459
866.006	4424
866.137	4470
866.269	4485
866.4	4390
866.531	4398
866.662	4428
866.793	4424
866.924	4386
867.055	4478
867.186	4459
867.317	4379
867.448	4329
867.579	4360
867.71	4440
867.841	4341
867.972	4500
868.103	4466
868.233	4459
868.364	4436
868.495	4569
868.625	4664
868.756	4752
868.886	4523
869.017	4634
869.147	4790
869.278	4771
869.408	4637
869.539	4618
869.669	4740
869.799	4710
869.929	4748
870.06	4717
870.19	4934
870.32	4949
870.45	4965
870.58	5022
870.71	5090
870.84	5109
870.97	4976
871.1	4915
871.23	5185
871.36	5094
871.489	4999
871.619	5094
871.749	5098
871.879	5105
872.008	5136
872.138	5033
872.267	5029
872.397	4831
872.526	4835
872.656	4736
872.785	4790
872.915	4881
873.044	5014
873.173	4972
873.303	4968
873.432	4987
873.561	4984
873.69	4847
873.819	4839
873.948	4946
874.077	4786
874.206	4793
874.335	4767
874.464	4961
874.593	5094
874.722	4942
874.851	5136
874.979	5041
875.108	5052
875.237	4858
875.365	4824
875.494	4889
875.623	5014
875.751	4828
875.88	4889
876.008	4980
876.136	5094
876.265	5189
876.393	5330
876.521	5250
876.65	5204
876.778	5178
876.906	5060
877.034	5018
877.162	5025
877.29	4957
877.418	5048
877.546	5052
877.674	5064
877.802	5067
877.93	5029
878.058	4930
878.185	4881
878.313	4961
878.441	4938
878.568	4820
878.696	4877
878.824	4965
878.951	5045
879.079	5143
879.206	5307
879.333	5109
879.461	4987
879.588	4984
879.715	5121
879.842	5265
879.97	5041
880.097	4759
880.224	4710
880.351	4870
880.478	4854
880.605	4778
880.732	4816
880.859	5079
880.986	4889
881.112	4915
881.239	4820
881.366	4706
881.493	4599
881.619	4580
881.746	4577
881.872	4611
881.999	4630
882.125	4706
882.252	4786
882.378	4820
882.505	4968
882.631	4782
882.757	4698
882.883	4691
883.01	4729
883.136	4752
883.262	4577
883.388	4607
883.514	4820
883.64	4854
883.766	4771
883.892	4664
884.018	4702
884.143	4881
884.269	4991
884.395	4641
884.52	4618
884.646	4588
884.772	4584
884.897	4504
885.023	4691
885.148	4797
885.274	4831
885.399	4828
885.524	4759
885.65	4698
885.775	4733
885.9	4675
886.025	4885
886.15	4812
886.275	4679
886.4	4675
886.525	4725
886.65	4687
886.775	4694
886.9	4949
887.025	5041
887.149	4801
887.274	4603
887.399	4596
887.523	4630
887.648	4554
887.773	4550
887.897	4740
888.021	4793
888.146	4694
888.27	4801
888.395	4915
888.519	4767
888.643	4831
888.767	4816
888.891	4664
889.015	4558
889.139	4630
889.263	4550
889.387	4714
889.511	4885
889.635	4782
889.759	4607
889.883	4615
890.006	4698
890.13	4797
890.254	4660
890.377	4691
890.501	4558
890.624	4519
890.748	4634
890.871	4485
890.995	4390
891.118	4390
891.241	4535
891.364	4542
891.488	4675
891.611	4443
891.734	4527
891.857	4615
891.98	4607
892.103	4584
892.226	4577
892.349	4550
892.471	4436
892.594	4516
892.717	4592
892.839	4542
892.962	4558
893.085	4626
893.207	4592
893.33	4451
893.452	4504
893.575	4637
893.697	4588
893.819	4797
893.941	4835
894.064	4740
894.186	4538
894.308	4569
894.43	4717
894.552	4778
894.674	4729
894.796	4573
894.918	4580
895.04	4538
895.161	4706
895.283	4618
895.405	4577
895.526	4596
895.648	4683
895.769	4675
895.891	4672
896.012	4797
896.134	4744
896.255	4675
896.376	4637
896.498	4622
896.619	4660
896.74	4599
896.861	4641
896.982	4934
897.103	5045
897.224	4809
897.345	4763
897.466	4721
897.587	4714
897.708	4839
897.828	4847
897.949	4622
898.07	4550
898.19	4634
898.311	4793
898.431	4672
898.552	4714
898.672	4816
898.792	4828
898.913	4748
899.033	4603
899.153	4508
899.273	4428
899.393	4481
899.513	4516
899.633	4561
899.753	4554
899.873	4508
899.993	4588
900.113	4516
900.232	4569
900.352	4550
900.472	4455
900.591	4383
900.711	4516
900.83	4428
900.95	4618
901.069	4603
901.189	4535
901.308	4360
901.427	4322
901.546	4333
901.665	4409
901.784	4516
901.904	4325
902.023	4402
902.141	4181
902.26	4154
902.379	4295
902.498	4253
902.617	4230
902.735	4352
902.854	4352
902.973	4360
903.091	4215
903.21	4223
903.328	4287
903.446	4242
903.565	4287
903.683	4325
903.801	4295
903.919	4371
904.038	4367
904.156	4295
904.274	4405
904.392	4356
904.51	4371
904.627	4440
904.745	4561
904.863	4611
904.981	4344
905.098	4329
905.216	4341
905.334	4432
905.451	4443
905.569	4421
905.686	4527
905.803	4535
905.921	4417
906.038	4519
906.155	4447
906.272	4341
906.389	4462
906.506	4310
906.623	4356
906.74	4383
906.857	4272
906.974	4352
907.091	4546
907.208	4672
907.324	4611
907.441	4451
907.557	4333
907.674	4371
907.79	4303
907.907	4398
908.023	4455
908.139	4451
908.256	4367
908.372	4443
908.488	4432
908.604	4333
908.72	4322
908.836	4394
908.952	4379
909.068	4451
909.184	4565
909.3	4462
909.415	4611
909.531	4538
909.647	4363
909.762	4379
909.878	4360
909.993	4421
910.108	4413
910.224	4352
910.339	4474
910.454	4413
910.57	4390
910.685	4322
910.8	4656
910.915	4615
911.03	4508
911.145	4325
911.259	4371
911.374	4379
911.489	4352
911.604	4310
911.718	4192
911.833	4227
911.947	4109
912.062	4063
912.176	4242
912.291	4322
912.405	4306
912.519	4504
912.633	4542
912.748	4413
912.862	4318
912.976	4219
913.09	4166
913.204	4192
913.318	4268
913.431	4367
913.545	4371
913.659	4478
913.772	4390
913.886	4253
914	4261
914.113	4413
914.226	4508
914.34	4421
914.453	4249
914.566	4500
914.68	4306
914.793	4371
914.906	4207
915.019	4112
915.132	4128
915.245	4242
915.358	4257
915.47	4325
915.583	4322
915.696	4337
915.809	4478
915.921	4497
916.034	4329
916.146	4280
916.259	4238
916.371	4424
916.483	4371
916.595	4268
916.708	4424
916.82	4379
916.932	4344
917.044	4337
917.156	4390
917.268	4295
917.38	4310
917.491	4333
917.603	4394
917.715	4447
917.826	4481
917.938	4390
918.049	4291
918.161	4413
918.272	4565
918.384	4573
918.495	4459
918.606	4318
918.717	4363
918.828	4344
918.939	4394
919.05	4322
919.161	4371
919.272	4177
919.383	4276
919.494	4512
919.604	4702
919.715	4485
919.826	4405
919.936	4424
920.047	4573
920.157	4519
920.267	4744
920.378	4538
920.488	4573
920.598	4714
920.708	4885
920.818	4801
920.928	4778
921.038	4934
921.148	4904
921.258	4664
921.368	4596
921.477	4523
921.587	4478
921.697	4421
921.806	4596
921.916	4466
922.025	4348
922.134	4276
922.244	4265
922.353	4375
922.462	4188
922.571	4173
922.68	4029
922.789	4032
922.898	4078
923.007	4006
923.116	4120
923.224	4109
923.333	4040
923.442	4097
923.55	3968
923.659	4067
923.767	4162
923.876	4059
923.984	4139
924.092	3991
924.201	4120
924.309	4147
924.417	4162
924.525	4082
924.633	4181
924.741	5067
924.849	3907
924.956	4192
925.064	3991
925.172	3926
925.279	3979
925.387	4086
925.494	4135
925.602	4272
925.709	4173
925.816	4093
925.924	4135
926.031	4219
926.138	4188
926.245	4253
926.352	4128
926.459	4341
926.566	4363
926.673	4173
926.779	4131
926.886	4135
926.993	3983
927.099	3945
927.206	3968
927.312	3960
927.419	4055
927.525	4032
927.631	4120
927.737	4010
927.843	3968
927.95	3838
928.056	3975
928.162	4002
928.267	4086
928.373	4599
928.479	4143
928.585	3907
928.69	4017
928.796	4112
928.901	4021
929.007	3812
929.112	4013
929.218	4051
929.323	4006
929.428	3968
929.533	4135
929.638	3941
929.743	3998
929.848	4067
929.953	4021
930.058	3934
930.163	3854
930.267	3846
930.372	4017
930.477	3850
930.581	4112
930.685	3998
930.79	3876
930.894	3915
930.998	3896
931.103	4067
931.207	3785
931.311	3720
931.415	3709
931.519	3545
931.623	3606
