Data from test_V78500241_39.txt Node
Date: Fri Mar 25 16:49:16 CST 2022
User: usil
Spectrometer: V785-0024
Trigger mode: 0
Integration Time (sec): 4.000000E-1
Scans to average: 1
Nonlinearity correction enabled: false
Boxcar width: 0
Storing dark spectrum: false
XAxis mode: Wavelengths
Number of Pixels in Spectrum: 1024
>>>>>Begin Spectral Data<<<<<
801.071	8081
801.214	8107
801.356	7955
801.499	8001
801.641	7944
801.783	7883
801.926	8035
802.068	8058
802.211	8039
802.353	8092
802.496	8012
802.638	8020
802.78	7982
802.923	7982
803.065	7906
803.208	7879
803.35	8069
803.492	8145
803.635	8195
803.777	8031
803.919	8130
804.061	8442
804.204	8172
804.346	8107
804.488	8088
804.63	8187
804.773	8043
804.915	8092
805.057	8313
805.199	8210
805.341	8336
805.483	8343
805.626	8240
805.768	8157
805.91	8263
806.052	8271
806.194	8138
806.336	8339
806.478	8180
806.62	8183
806.762	8191
806.904	8328
807.046	8461
807.188	8408
807.33	8396
807.472	8374
807.614	8199
807.756	8168
807.898	8134
808.04	7982
808.182	8005
808.324	7944
808.465	7906
808.607	8100
808.749	8107
808.891	8206
809.033	8313
809.174	8256
809.316	8054
809.458	8084
809.6	8016
809.741	8054
809.883	7974
810.025	8031
810.166	8111
810.308	8084
810.45	8081
810.591	7932
810.733	7826
810.875	7715
811.016	7533
811.158	7499
811.299	7609
811.441	7803
811.582	7776
811.724	7624
811.865	7597
812.007	7674
812.148	7674
812.29	7677
812.431	7746
812.573	7955
812.714	7951
812.855	8199
812.997	8248
813.138	8290
813.279	8256
813.421	8195
813.562	8035
813.703	7921
813.845	7784
813.986	7483
814.127	7305
814.268	7285
814.41	7339
814.551	7259
814.692	7213
814.833	7107
814.974	7118
815.115	7145
815.256	7004
815.397	6981
815.539	6954
815.68	6795
815.821	6821
815.962	6890
816.103	6825
816.244	6779
816.385	6665
816.526	6677
816.666	6536
816.807	6437
816.948	6521
817.089	6513
817.23	6483
817.371	6513
817.512	6433
817.653	6479
817.793	6399
817.934	6407
818.075	6479
818.216	6513
818.356	6467
818.497	6300
818.638	6133
818.778	6171
818.919	6213
819.06	6216
819.2	6334
819.341	6414
819.481	6475
819.622	6604
819.762	6856
819.903	6806
820.043	6635
820.184	6608
820.324	6631
820.465	6726
820.605	6745
820.746	6719
820.886	6547
821.026	6722
821.167	6825
821.307	6867
821.447	6802
821.588	6696
821.728	6658
821.868	6509
822.008	6372
822.149	6479
822.289	6418
822.429	6178
822.569	6068
822.709	6163
822.849	5992
822.99	5973
823.13	5999
823.27	5965
823.41	5836
823.55	5840
823.69	5882
823.83	5840
823.97	5798
824.11	5570
824.25	5524
824.389	5585
824.529	5688
824.669	5551
824.809	5699
824.949	5729
825.089	5707
825.228	5627
825.368	5459
825.508	5440
825.648	5410
825.787	5417
825.927	5444
826.067	5360
826.206	5368
826.346	5383
826.485	5459
826.625	5459
826.765	5589
826.904	5505
827.044	5322
827.183	5246
827.323	5246
827.462	5235
827.601	5269
827.741	5231
827.88	5284
828.02	5121
828.159	5303
828.298	5296
828.437	5376
828.577	5318
828.716	5585
828.855	5444
828.994	5220
829.134	5227
829.273	5231
829.412	5155
829.551	5185
829.69	5223
829.829	5311
829.968	5417
830.107	5318
830.246	5341
830.385	5220
830.524	5220
830.663	5098
830.802	5037
830.941	4942
831.08	4904
831.219	4999
831.357	5045
831.496	5204
831.635	5029
831.774	4873
831.913	4904
832.051	4793
832.19	4801
832.329	4892
832.467	4786
832.606	4717
832.744	4752
832.883	4763
833.022	4786
833.16	4839
833.299	4877
833.437	4877
833.576	4843
833.714	4919
833.852	4923
833.991	4942
834.129	4965
834.267	4991
834.406	4965
834.544	5037
834.682	5014
834.821	5052
834.959	5250
835.097	5071
835.235	5204
835.373	5090
835.511	5185
835.65	5037
835.788	5109
835.926	4972
836.064	4896
836.202	4953
836.34	5197
836.478	5269
836.615	5197
836.753	5258
836.891	5383
837.029	5326
837.167	5212
837.305	5204
837.443	5155
837.58	5155
837.718	5303
837.856	5208
837.993	5235
838.131	5280
838.269	5280
838.406	5269
838.544	5212
838.681	5071
838.819	5045
838.956	4961
839.094	4972
839.231	5060
839.369	5121
839.506	5425
839.643	5322
839.781	5071
839.918	5090
840.055	5113
840.193	5124
840.33	5155
840.467	5181
840.604	5284
840.742	5474
840.879	5102
841.016	5178
841.153	5166
841.29	5440
841.427	5391
841.564	5387
841.701	5368
841.838	5280
841.975	5311
842.112	5326
842.249	5227
842.385	5143
842.522	5395
842.659	5178
842.796	5201
842.933	5246
843.069	5197
843.206	5208
843.343	5315
843.479	5318
843.616	5280
843.752	5083
843.889	5071
844.025	5284
844.162	5029
844.298	5265
844.435	5132
844.571	5140
844.708	5220
844.844	5368
844.98	5357
845.117	5322
845.253	5162
845.389	5102
845.525	5223
845.661	5193
845.798	5079
845.934	5181
846.07	5075
846.206	5265
846.342	5273
846.478	5208
846.614	5102
846.75	5014
846.886	4961
847.022	5197
847.158	5128
847.294	5064
847.429	5128
847.565	5079
847.701	5360
847.837	4927
847.972	4843
848.108	5018
848.244	4999
848.379	4774
848.515	4771
848.65	4748
848.786	4774
848.921	4786
849.057	4873
849.192	4911
849.328	4809
849.463	4892
849.598	4839
849.734	4786
849.869	4755
850.004	4687
850.14	4710
850.275	4672
850.41	4577
850.545	4664
850.68	4641
850.815	4622
850.95	4714
851.085	4873
851.22	4771
851.355	4736
851.49	4626
851.625	4710
851.76	4714
851.895	4599
852.03	4588
852.165	4740
852.299	4786
852.434	4824
852.569	4733
852.703	4809
852.838	4881
852.973	4972
853.107	4957
853.242	4782
853.376	4694
853.511	4622
853.645	4660
853.78	4774
853.914	4744
854.048	4702
854.183	4668
854.317	4729
854.451	4858
854.585	4706
854.72	4725
854.854	4816
854.988	4675
855.122	4721
855.256	4554
855.39	4706
855.524	4843
855.658	4759
855.792	4714
855.926	4736
856.06	4805
856.194	4812
856.327	4767
856.461	4660
856.595	4691
856.729	4675
856.862	4759
856.996	4714
857.13	4790
857.263	4801
857.397	4801
857.53	4706
857.664	4744
857.797	4790
857.931	4805
858.064	4717
858.197	4797
858.331	4675
858.464	4694
858.597	4580
858.731	4679
858.864	4637
858.997	4630
859.13	4668
859.263	4679
859.396	4736
859.529	4645
859.662	4622
859.795	4577
859.928	4668
860.061	4850
860.194	4763
860.327	4668
860.46	4618
860.592	4748
860.725	4767
860.858	4736
860.99	4611
861.123	4588
861.256	4535
861.388	4645
861.521	5440
861.653	4527
861.786	4493
861.918	4550
862.05	4611
862.183	4603
862.315	4622
862.447	4752
862.58	4558
862.712	4451
862.844	4386
862.976	4481
863.108	4538
863.24	4961
863.372	4348
863.504	4478
863.636	4424
863.768	4569
863.9	4531
864.032	4428
864.164	4421
864.296	4500
864.428	4615
864.559	4596
864.691	4580
864.823	4584
864.954	4554
865.086	4504
865.217	4493
865.349	4462
865.48	4538
865.612	4523
865.743	4729
865.875	4519
866.006	4478
866.137	4481
866.269	4504
866.4	4531
866.531	4443
866.662	4447
866.793	4409
866.924	4474
867.055	4565
867.186	4493
867.317	4485
867.448	4447
867.579	4424
867.71	4462
867.841	4432
867.972	4523
868.103	4546
868.233	4459
868.364	4508
868.495	4493
868.625	4744
868.756	4755
868.886	4626
869.017	4664
869.147	4797
869.278	4786
869.408	4714
869.539	4694
869.669	4786
869.799	4694
869.929	4759
870.06	4759
870.19	4991
870.32	5033
870.45	4915
870.58	5075
870.71	5132
870.84	5117
870.97	4984
871.1	4987
871.23	5254
871.36	5197
871.489	5105
871.619	5117
871.749	5155
871.879	5159
872.008	5265
872.138	5105
872.267	5018
872.397	4870
872.526	4862
872.656	4752
872.785	4835
872.915	5025
873.044	5018
873.173	4991
873.303	5014
873.432	4972
873.561	4991
873.69	4911
873.819	4866
873.948	4980
874.077	4816
874.206	4801
874.335	4881
874.464	4953
874.593	5128
874.722	5033
874.851	5048
874.979	5048
875.108	5075
875.237	4946
875.365	4900
875.494	4904
875.623	5022
875.751	4896
875.88	4919
876.008	5064
876.136	5067
876.265	5250
876.393	5387
876.521	5273
876.65	5288
876.778	5193
876.906	5071
877.034	5075
877.162	5098
877.29	5079
877.418	5102
877.546	5090
877.674	5045
877.802	5105
877.93	5029
878.058	4995
878.185	4923
878.313	4976
878.441	4934
878.568	4790
878.696	4915
878.824	4961
878.951	5067
879.079	5193
879.206	5357
879.333	5155
879.461	5029
879.588	5010
879.715	5162
879.842	5311
879.97	5048
880.097	4873
880.224	4801
880.351	4793
880.478	4858
880.605	4824
880.732	4809
880.859	5140
880.986	4923
881.112	4946
881.239	4774
881.366	4698
881.493	4664
881.619	4675
881.746	4649
881.872	4710
881.999	4706
882.125	4714
882.252	4805
882.378	4892
882.505	4999
882.631	4881
882.757	4683
882.883	4755
883.01	4759
883.136	4668
883.262	4656
883.388	4664
883.514	4881
883.64	4946
883.766	4797
883.892	4710
884.018	4725
884.143	4949
884.269	5052
884.395	4710
884.52	4672
884.646	4702
884.772	4596
884.897	4637
885.023	4714
885.148	4767
885.274	4930
885.399	4835
885.524	4740
885.65	4736
885.775	4824
885.9	4740
886.025	4911
886.15	4824
886.275	4759
886.4	4694
886.525	4805
886.65	4733
886.775	4740
886.9	4915
887.025	5067
887.149	4843
887.274	4687
887.399	4641
887.523	4687
887.648	4618
887.773	4637
887.897	4771
888.021	4816
888.146	4710
888.27	4866
888.395	4927
888.519	4790
888.643	4858
888.767	4877
888.891	4706
889.015	4653
889.139	4687
889.263	4698
889.387	4740
889.511	4850
889.635	4850
889.759	4691
889.883	4679
890.006	4835
890.13	4850
890.254	4641
890.377	4733
890.501	4599
890.624	4519
890.748	4672
890.871	4565
890.995	4474
891.118	4428
891.241	4573
891.364	4588
891.488	4668
891.611	4523
891.734	4599
891.857	4675
891.98	4599
892.103	4675
892.226	4641
892.349	4588
892.471	4493
892.594	4603
892.717	4641
892.839	4630
892.962	4649
893.085	4698
893.207	4622
893.33	4500
893.452	4538
893.575	4736
893.697	4596
893.819	4828
893.941	4896
894.064	4839
894.186	4615
894.308	4622
894.43	4805
894.552	4831
894.674	4801
894.796	4577
894.918	4607
895.04	4611
895.161	4763
895.283	4714
895.405	4592
895.526	4675
895.648	4736
895.769	4767
895.891	4740
896.012	4752
896.134	4767
896.255	4717
896.376	4672
896.498	4645
896.619	4714
896.74	4607
896.861	4714
896.982	4919
897.103	5086
897.224	4873
897.345	4774
897.466	4702
897.587	4740
897.708	4904
897.828	4828
897.949	4710
898.07	4596
898.19	4664
898.311	4866
898.431	4706
898.552	4831
898.672	4870
898.792	4828
898.913	4774
899.033	4710
899.153	4565
899.273	4451
899.393	4538
899.513	4554
899.633	4626
899.753	4584
899.873	4569
899.993	4599
900.113	4577
900.232	4615
900.352	4550
900.472	4580
900.591	4451
900.711	4535
900.83	4474
900.95	4664
901.069	4729
901.189	4565
901.308	4409
901.427	4329
901.546	4417
901.665	4550
901.784	4523
901.904	4462
902.023	4367
902.141	4215
902.26	4200
902.379	4352
902.498	4265
902.617	4227
902.735	4440
902.854	4405
902.973	4386
903.091	4272
903.21	4242
903.328	4341
903.446	4295
903.565	4341
903.683	4390
903.801	4337
903.919	4436
904.038	4451
904.156	4371
904.274	4459
904.392	4398
904.51	4466
904.627	4542
904.745	4611
904.863	4672
904.981	4421
905.098	4356
905.216	4360
905.334	4485
905.451	4493
905.569	4485
905.686	4641
905.803	4565
905.921	4451
906.038	4584
906.155	4523
906.272	4409
906.389	4508
906.506	4363
906.623	4447
906.74	4447
906.857	4310
906.974	4432
907.091	4603
907.208	4790
907.324	4672
907.441	4565
907.557	4371
907.674	4402
907.79	4360
907.907	4417
908.023	4531
908.139	4481
908.256	4474
908.372	4493
908.488	4516
908.604	4341
908.72	4337
908.836	4390
908.952	4436
909.068	4451
909.184	4599
909.3	4504
909.415	4603
909.531	4569
909.647	4390
909.762	4402
909.878	4405
909.993	4493
910.108	4478
910.224	4462
910.339	4565
910.454	4459
910.57	4413
910.685	4333
910.8	4675
910.915	4664
911.03	4500
911.145	4291
911.259	4341
911.374	4413
911.489	4337
911.604	4325
911.718	4196
911.833	4234
911.947	4116
912.062	4067
912.176	4272
912.291	4257
912.405	4299
912.519	4508
912.633	4519
912.748	4413
912.862	4371
912.976	4257
913.09	4120
913.204	4207
913.318	4257
913.431	4466
913.545	4417
913.659	4512
913.772	4462
913.886	4284
914	4310
914.113	4405
914.226	4485
914.34	4394
914.453	4265
914.566	4432
914.68	4371
914.793	4363
914.906	4150
915.019	4173
915.132	4112
915.245	4268
915.358	4303
915.47	4257
915.583	4261
915.696	4344
915.809	4470
915.921	4489
916.034	4314
916.146	4261
916.259	4280
916.371	4447
916.483	4405
916.595	4276
916.708	4352
916.82	4333
916.932	4386
917.044	4348
917.156	4386
917.268	4280
917.38	4291
917.491	4303
917.603	4405
917.715	4428
917.826	4500
917.938	4413
918.049	4284
918.161	4432
918.272	4588
918.384	4535
918.495	4474
918.606	4310
918.717	4299
918.828	4363
918.939	4440
919.05	4333
919.161	4333
919.272	4162
919.383	4242
919.494	4478
919.604	4668
919.715	4459
919.826	4459
919.936	4440
920.047	4523
920.157	4531
920.267	4736
920.378	4592
920.488	4535
920.598	4744
920.708	4938
920.818	4793
920.928	4858
921.038	5006
921.148	4957
921.258	4702
921.368	4596
921.477	4546
921.587	4519
921.697	4375
921.806	4603
921.916	4462
922.025	4272
922.134	4306
922.244	4272
922.353	4341
922.462	4234
922.571	4181
922.68	4093
922.789	4021
922.898	4071
923.007	4029
923.116	4154
923.224	4128
923.333	4082
923.442	4025
923.55	3998
923.659	4086
923.767	4185
923.876	4097
923.984	4166
924.092	4040
924.201	4120
924.309	4120
924.417	4169
924.525	4082
924.633	4181
924.741	5140
924.849	3983
924.956	4192
925.064	4002
925.172	3956
925.279	4006
925.387	4093
925.494	4109
925.602	4207
925.709	4261
925.816	4131
925.924	4158
926.031	4234
926.138	4150
926.245	4242
926.352	4139
926.459	4249
926.566	4367
926.673	4158
926.779	4074
926.886	4150
926.993	4006
927.099	4010
927.206	3987
927.312	3987
927.419	4105
927.525	4059
927.631	4131
927.737	4006
927.843	3960
927.95	3918
928.056	3998
928.162	4017
928.267	4071
928.373	4630
928.479	4124
928.585	3896
928.69	4051
928.796	4143
928.901	3991
929.007	3907
929.112	4071
929.218	4036
929.323	3972
929.428	3937
929.533	4101
929.638	3949
929.743	3968
929.848	4006
929.953	4029
930.058	3960
930.163	3808
930.267	3819
930.372	3979
930.477	3854
930.581	4128
930.685	4006
930.79	3797
930.894	3945
930.998	3873
931.103	4017
931.207	3766
931.311	3736
931.415	3713
931.519	3595
931.623	3591
