Data from test_V78500241_522.txt Node
Date: Fri Mar 25 16:52:37 CST 2022
User: usil
Spectrometer: V785-0024
Trigger mode: 0
Integration Time (sec): 4.000000E-1
Scans to average: 1
Nonlinearity correction enabled: false
Boxcar width: 0
Storing dark spectrum: false
XAxis mode: Wavelengths
Number of Pixels in Spectrum: 1024
>>>>>Begin Spectral Data<<<<<
801.071	8012
801.214	7967
801.356	7871
801.499	7761
801.641	7833
801.783	7826
801.926	8065
802.068	7982
802.211	8035
802.353	8062
802.496	7947
802.638	7951
802.78	7963
802.923	7898
803.065	7849
803.208	7913
803.35	7913
803.492	8100
803.635	8107
803.777	8005
803.919	8069
804.061	8393
804.204	8180
804.346	8005
804.488	8016
804.63	8058
804.773	7951
804.915	8073
805.057	8225
805.199	8142
805.341	8267
805.483	8305
805.626	8279
805.768	8062
805.91	8103
806.052	8161
806.194	8096
806.336	8263
806.478	8096
806.62	8119
806.762	8153
806.904	8229
807.046	8438
807.188	8259
807.33	8218
807.472	8301
807.614	8157
807.756	8062
807.898	7997
808.04	7833
808.182	7917
808.324	7856
808.465	7906
808.607	8062
808.749	8096
808.891	8176
809.033	8240
809.174	8180
809.316	8054
809.458	8062
809.6	7951
809.741	7970
809.883	8062
810.025	8062
810.166	8073
810.308	8016
810.45	8027
810.591	7833
810.733	7685
810.875	7582
811.016	7544
811.158	7556
811.299	7578
811.441	7776
811.582	7655
811.724	7582
811.865	7487
812.007	7651
812.148	7510
812.29	7636
812.431	7765
812.573	7856
812.714	7978
812.855	8172
812.997	8259
813.138	8400
813.279	8199
813.421	8138
813.562	8111
813.703	7898
813.845	7803
813.986	7476
814.127	7312
814.268	7293
814.41	7247
814.551	7149
814.692	7156
814.833	7072
814.974	7114
815.115	7149
815.256	6958
815.397	6920
815.539	6970
815.68	6905
815.821	6738
815.962	6837
816.103	6814
816.244	6791
816.385	6662
816.526	6574
816.666	6490
816.807	6277
816.948	6464
817.089	6467
817.23	6433
817.371	6410
817.512	6395
817.653	6350
817.793	6319
817.934	6433
818.075	6433
818.216	6414
818.356	6338
818.497	6232
818.638	6159
818.778	6144
818.919	6106
819.06	6125
819.2	6342
819.341	6308
819.481	6388
819.622	6494
819.762	6722
819.903	6703
820.043	6551
820.184	6517
820.324	6589
820.465	6646
820.605	6650
820.746	6642
820.886	6479
821.026	6669
821.167	6642
821.307	6779
821.447	6650
821.588	6646
821.728	6540
821.868	6433
822.008	6243
822.149	6315
822.289	6407
822.429	6167
822.569	6041
822.709	6060
822.849	5897
822.99	5874
823.13	5942
823.27	5908
823.41	5790
823.55	5828
823.69	5745
823.83	5783
823.97	5668
824.11	5482
824.25	5414
824.389	5528
824.529	5589
824.669	5539
824.809	5604
824.949	5642
825.089	5600
825.228	5535
825.368	5406
825.508	5318
825.648	5318
825.787	5349
825.927	5376
826.067	5318
826.206	5330
826.346	5372
826.485	5383
826.625	5406
826.765	5516
826.904	5478
827.044	5178
827.183	5140
827.323	5086
827.462	5216
827.601	5216
827.741	5162
827.88	5178
828.02	5094
828.159	5239
828.298	5322
828.437	5360
828.577	5254
828.716	5471
828.855	5315
828.994	5159
829.134	5151
829.273	5185
829.412	5124
829.551	5105
829.69	5178
829.829	5223
829.968	5353
830.107	5299
830.246	5315
830.385	5155
830.524	5071
830.663	5086
830.802	4908
830.941	4881
831.08	4862
831.219	4980
831.357	5006
831.496	5166
831.635	4995
831.774	4805
831.913	4892
832.051	4752
832.19	4721
832.329	4885
832.467	4641
832.606	4664
832.744	4740
832.883	4740
833.022	4714
833.16	4774
833.299	4820
833.437	4892
833.576	4793
833.714	4858
833.852	4892
833.991	4866
834.129	4911
834.267	4923
834.406	4854
834.544	4995
834.682	4968
834.821	4953
834.959	5155
835.097	4953
835.235	5128
835.373	5064
835.511	5060
835.65	5033
835.788	4999
835.926	4877
836.064	4854
836.202	4934
836.34	5113
836.478	5208
836.615	5143
836.753	5170
836.891	5265
837.029	5220
837.167	5197
837.305	5132
837.443	5151
837.58	5064
837.718	5227
837.856	5117
837.993	5098
838.131	5242
838.269	5166
838.406	5166
838.544	5159
838.681	4995
838.819	5010
838.956	4908
839.094	4942
839.231	5003
839.369	5056
839.506	5425
839.643	5246
839.781	5048
839.918	4991
840.055	5105
840.193	5067
840.33	5094
840.467	5124
840.604	5208
840.742	5414
840.879	5060
841.016	5090
841.153	5094
841.29	5318
841.427	5379
841.564	5322
841.701	5334
841.838	5261
841.975	5227
842.112	5246
842.249	5109
842.385	5105
842.522	5311
842.659	5166
842.796	5132
842.933	5178
843.069	5105
843.206	5151
843.343	5322
843.479	5197
843.616	5239
843.752	5025
843.889	4991
844.025	5193
844.162	5048
844.298	5216
844.435	5090
844.571	5029
844.708	5159
844.844	5326
844.98	5379
845.117	5223
845.253	5189
845.389	5098
845.525	5147
845.661	5071
845.798	5064
845.934	5117
846.07	5048
846.206	5155
846.342	5250
846.478	5143
846.614	4976
846.75	4991
846.886	4908
847.022	5162
847.158	4987
847.294	5109
847.429	5067
847.565	5033
847.701	5288
847.837	4862
847.972	4801
848.108	4957
848.244	4911
848.379	4744
848.515	4714
848.65	4714
848.786	4729
848.921	4725
849.057	4885
849.192	4881
849.328	4850
849.463	4862
849.598	4748
849.734	4774
849.869	4717
850.004	4607
850.14	4683
850.275	4630
850.41	4546
850.545	4561
850.68	4630
850.815	4565
850.95	4622
851.085	4839
851.22	4733
851.355	4634
851.49	4641
851.625	4634
851.76	4637
851.895	4550
852.03	4493
852.165	4626
852.299	4702
852.434	4774
852.569	4729
852.703	4790
852.838	4797
852.973	4923
853.107	4908
853.242	4759
853.376	4721
853.511	4554
853.645	4622
853.78	4873
853.914	4679
854.048	4653
854.183	4649
854.317	4721
854.451	4820
854.585	4683
854.72	4618
854.854	4755
854.988	4584
855.122	4565
855.256	4538
855.39	4664
855.524	4786
855.658	4740
855.792	4664
855.926	4702
856.06	4725
856.194	4820
856.327	4717
856.461	4611
856.595	4630
856.729	4653
856.862	4748
856.996	4733
857.13	4729
857.263	4736
857.397	4774
857.53	4577
857.664	4755
857.797	4774
857.931	4801
858.064	4725
858.197	4801
858.331	4645
858.464	4622
858.597	4531
858.731	4618
858.864	4599
858.997	4573
859.13	4653
859.263	4645
859.396	4649
859.529	4592
859.662	4516
859.795	4573
859.928	4653
860.061	4733
860.194	4759
860.327	4592
860.46	4580
860.592	4679
860.725	4683
860.858	4729
860.99	4538
861.123	4531
861.256	4508
861.388	4637
861.521	5414
861.653	4432
861.786	4413
861.918	4447
862.05	4516
862.183	4516
862.315	4531
862.447	4637
862.58	4493
862.712	4352
862.844	4341
862.976	4440
863.108	4424
863.24	4866
863.372	4348
863.504	4379
863.636	4409
863.768	4481
863.9	4421
864.032	4413
864.164	4375
864.296	4455
864.428	4527
864.559	4550
864.691	4523
864.823	4531
864.954	4508
865.086	4428
865.217	4493
865.349	4360
865.48	4470
865.612	4481
865.743	4546
865.875	4462
866.006	4421
866.137	4417
866.269	4447
866.4	4440
866.531	4413
866.662	4413
866.793	4394
866.924	4485
867.055	4481
867.186	4447
867.317	4367
867.448	4379
867.579	4402
867.71	4371
867.841	4352
867.972	4451
868.103	4455
868.233	4440
868.364	4451
868.495	4531
868.625	4603
868.756	4710
868.886	4542
869.017	4603
869.147	4816
869.278	4767
869.408	4683
869.539	4672
869.669	4687
869.799	4668
869.929	4725
870.06	4702
870.19	4938
870.32	4896
870.45	4942
870.58	5006
870.71	5083
870.84	5086
870.97	4968
871.1	4915
871.23	5105
871.36	5132
871.489	5025
871.619	5075
871.749	5083
871.879	5098
872.008	5178
872.138	5029
872.267	4934
872.397	4828
872.526	4782
872.656	4710
872.785	4778
872.915	4946
873.044	5060
873.173	4953
873.303	4946
873.432	4946
873.561	4953
873.69	4896
873.819	4843
873.948	4881
874.077	4850
874.206	4767
874.335	4809
874.464	4911
874.593	5094
874.722	4976
874.851	5117
874.979	5090
875.108	5048
875.237	4938
875.365	4835
875.494	4927
875.623	5006
875.751	4873
875.88	4885
876.008	4995
876.136	5045
876.265	5174
876.393	5330
876.521	5223
876.65	5204
876.778	5212
876.906	5056
877.034	5033
877.162	5048
877.29	4965
877.418	5033
877.546	5052
877.674	5033
877.802	4980
877.93	4991
878.058	4911
878.185	4923
878.313	4942
878.441	4984
878.568	4767
878.696	4858
878.824	4934
878.951	4987
879.079	5140
879.206	5292
879.333	5102
879.461	4972
879.588	4961
879.715	5094
879.842	5288
879.97	4991
880.097	4771
880.224	4763
880.351	4801
880.478	4831
880.605	4763
880.732	4812
880.859	5056
880.986	4881
881.112	4850
881.239	4771
881.366	4645
881.493	4603
881.619	4538
881.746	4618
881.872	4653
881.999	4637
882.125	4668
882.252	4748
882.378	4854
882.505	4953
882.631	4786
882.757	4672
882.883	4748
883.01	4714
883.136	4618
883.262	4592
883.388	4634
883.514	4793
883.64	4809
883.766	4752
883.892	4729
884.018	4714
884.143	4908
884.269	4999
884.395	4691
884.52	4573
884.646	4630
884.772	4603
884.897	4546
885.023	4672
885.148	4782
885.274	4835
885.399	4805
885.524	4717
885.65	4698
885.775	4706
885.9	4691
886.025	4812
886.15	4858
886.275	4736
886.4	4672
886.525	4786
886.65	4656
886.775	4759
886.9	4877
887.025	5071
887.149	4828
887.274	4675
887.399	4603
887.523	4656
887.648	4622
887.773	4584
887.897	4763
888.021	4812
888.146	4664
888.27	4809
888.395	4919
888.519	4793
888.643	4854
888.767	4820
888.891	4698
889.015	4694
889.139	4668
889.263	4664
889.387	4782
889.511	4847
889.635	4831
889.759	4717
889.883	4687
890.006	4759
890.13	4854
890.254	4615
890.377	4717
890.501	4588
890.624	4580
890.748	4714
890.871	4596
890.995	4470
891.118	4462
891.241	4542
891.364	4588
891.488	4668
891.611	4626
891.734	4550
891.857	4679
891.98	4558
892.103	4653
892.226	4656
892.349	4535
892.471	4451
892.594	4550
892.717	4660
892.839	4626
892.962	4664
893.085	4698
893.207	4611
893.33	4546
893.452	4546
893.575	4664
893.697	4592
893.819	4889
893.941	4870
894.064	4828
894.186	4599
894.308	4626
894.43	4771
894.552	4915
894.674	4801
894.796	4546
894.918	4664
895.04	4603
895.161	4702
895.283	4714
895.405	4626
895.526	4691
895.648	4710
895.769	4767
895.891	4763
896.012	4733
896.134	4782
896.255	4710
896.376	4683
896.498	4630
896.619	4683
896.74	4729
896.861	4694
896.982	4999
897.103	5090
897.224	4816
897.345	4755
897.466	4736
897.587	4782
897.708	4930
897.828	4816
897.949	4714
898.07	4626
898.19	4679
898.311	4824
898.431	4729
898.552	4782
898.672	4831
898.792	4850
898.913	4736
899.033	4637
899.153	4546
899.273	4466
899.393	4535
899.513	4561
899.633	4577
899.753	4573
899.873	4550
899.993	4618
900.113	4596
900.232	4611
900.352	4561
900.472	4500
900.591	4466
900.711	4573
900.83	4451
900.95	4683
901.069	4710
901.189	4561
901.308	4436
901.427	4367
901.546	4379
901.665	4531
901.784	4523
901.904	4417
902.023	4356
902.141	4200
902.26	4196
902.379	4310
902.498	4337
902.617	4268
902.735	4432
902.854	4405
902.973	4337
903.091	4280
903.21	4257
903.328	4337
903.446	4322
903.565	4280
903.683	4360
903.801	4310
903.919	4489
904.038	4443
904.156	4337
904.274	4485
904.392	4459
904.51	4440
904.627	4500
904.745	4615
904.863	4706
904.981	4383
905.098	4314
905.216	4417
905.334	4466
905.451	4424
905.569	4440
905.686	4596
905.803	4588
905.921	4459
906.038	4550
906.155	4538
906.272	4409
906.389	4500
906.506	4398
906.623	4424
906.74	4432
906.857	4390
906.974	4428
907.091	4626
907.208	4702
907.324	4592
907.441	4561
907.557	4379
907.674	4322
907.79	4352
907.907	4455
908.023	4565
908.139	4516
908.256	4466
908.372	4481
908.488	4489
908.604	4356
908.72	4375
908.836	4402
908.952	4390
909.068	4466
909.184	4634
909.3	4516
909.415	4630
909.531	4596
909.647	4394
909.762	4424
909.878	4360
909.993	4481
910.108	4432
910.224	4436
910.339	4516
910.454	4443
910.57	4379
910.685	4295
910.8	4763
910.915	4641
911.03	4565
911.145	4356
911.259	4405
911.374	4375
911.489	4394
911.604	4329
911.718	4192
911.833	4261
911.947	4185
912.062	4074
912.176	4295
912.291	4291
912.405	4261
912.519	4523
912.633	4580
912.748	4428
912.862	4356
912.976	4223
913.09	4185
913.204	4204
913.318	4272
913.431	4417
913.545	4428
913.659	4497
913.772	4443
913.886	4291
914	4268
914.113	4413
914.226	4500
914.34	4379
914.453	4261
914.566	4481
914.68	4363
914.793	4371
914.906	4177
915.019	4135
915.132	4109
915.245	4196
915.358	4204
915.47	4234
915.583	4295
915.696	4291
915.809	4432
915.921	4459
916.034	4299
916.146	4291
916.259	4204
916.371	4421
916.483	4386
916.595	4291
916.708	4367
916.82	4333
916.932	4325
917.044	4367
917.156	4344
917.268	4257
917.38	4360
917.491	4284
917.603	4398
917.715	4424
917.826	4474
917.938	4432
918.049	4299
918.161	4432
918.272	4550
918.384	4603
918.495	4447
918.606	4306
918.717	4310
918.828	4344
918.939	4428
919.05	4306
919.161	4367
919.272	4147
919.383	4242
919.494	4424
919.604	4691
919.715	4478
919.826	4337
919.936	4413
920.047	4523
920.157	4527
920.267	4675
920.378	4603
920.488	4558
920.598	4767
920.708	4961
920.818	4790
920.928	4763
921.038	4976
921.148	4976
921.258	4668
921.368	4580
921.477	4508
921.587	4440
921.697	4390
921.806	4622
921.916	4493
922.025	4314
922.134	4303
922.244	4287
922.353	4341
922.462	4223
922.571	4173
922.68	4025
922.789	3979
922.898	4059
923.007	4002
923.116	4105
923.224	4044
923.333	4071
923.442	4059
923.55	4010
923.659	4059
923.767	4150
923.876	4048
923.984	4173
924.092	3991
924.201	4116
924.309	4112
924.417	4162
924.525	4067
924.633	4139
924.741	5083
924.849	3960
924.956	4169
925.064	4010
925.172	3949
925.279	4010
925.387	4059
925.494	4040
925.602	4287
925.709	4181
925.816	4067
925.924	4135
926.031	4306
926.138	4211
926.245	4242
926.352	4112
926.459	4261
926.566	4325
926.673	4177
926.779	4082
926.886	4101
926.993	4010
927.099	3968
927.206	3972
927.312	3964
927.419	4082
927.525	4063
927.631	4124
927.737	3979
927.843	3998
927.95	3869
928.056	3968
928.162	4044
928.267	4055
928.373	4668
928.479	4147
928.585	3945
928.69	4051
928.796	4044
928.901	3991
929.007	3861
929.112	4013
929.218	3960
929.323	3941
929.428	3941
929.533	4120
929.638	3918
929.743	3998
929.848	4082
929.953	4036
930.058	3949
930.163	3766
930.267	3857
930.372	4021
930.477	3850
930.581	4143
930.685	3979
930.79	3854
930.894	3907
930.998	3876
931.103	4090
931.207	3713
931.311	3698
931.415	3701
931.519	3599
931.623	3553
