Data from test_V78500241_2752.txt Node
Date: Fri Mar 25 17:08:08 CST 2022
User: usil
Spectrometer: V785-0024
Trigger mode: 0
Integration Time (sec): 4.000000E-1
Scans to average: 1
Nonlinearity correction enabled: false
Boxcar width: 0
Storing dark spectrum: false
XAxis mode: Wavelengths
Number of Pixels in Spectrum: 1024
>>>>>Begin Spectral Data<<<<<
801.071	8062
801.214	8024
801.356	7936
801.499	7906
801.641	7841
801.783	7871
801.926	7982
802.068	7959
802.211	7986
802.353	8069
802.496	7871
802.638	7894
802.78	7944
802.923	7993
803.065	7906
803.208	7864
803.35	7902
803.492	8103
803.635	8168
803.777	8050
803.919	8134
804.061	8419
804.204	8172
804.346	8134
804.488	7959
804.63	8153
804.773	8077
804.915	8153
805.057	8259
805.199	8176
805.341	8218
805.483	8237
805.626	8180
805.768	8107
805.91	8256
806.052	8134
806.194	8123
806.336	8328
806.478	8126
806.62	8084
806.762	8149
806.904	8206
807.046	8446
807.188	8366
807.33	8320
807.472	8355
807.614	8187
807.756	8126
807.898	7967
808.04	7936
808.182	7917
808.324	7894
808.465	7967
808.607	8062
808.749	8172
808.891	8263
809.033	8313
809.174	8221
809.316	8092
809.458	8081
809.6	7997
809.741	8039
809.883	7993
810.025	8142
810.166	8126
810.308	8005
810.45	8035
810.591	7909
810.733	7639
810.875	7674
811.016	7601
811.158	7491
811.299	7636
811.441	7753
811.582	7738
811.724	7605
811.865	7540
812.007	7632
812.148	7620
812.29	7594
812.431	7753
812.573	7871
812.714	7947
812.855	8210
812.997	8195
813.138	8305
813.279	8134
813.421	8134
813.562	8012
813.703	7970
813.845	7776
813.986	7441
814.127	7259
814.268	7247
814.41	7187
814.551	7099
814.692	7187
814.833	7088
814.974	7057
815.115	7164
815.256	6928
815.397	6970
815.539	6913
815.68	6840
815.821	6783
815.962	6810
816.103	6833
816.244	6669
816.385	6658
816.526	6639
816.666	6502
816.807	6300
816.948	6464
817.089	6506
817.23	6471
817.371	6403
817.512	6429
817.653	6384
817.793	6353
817.934	6395
818.075	6471
818.216	6426
818.356	6388
818.497	6289
818.638	6117
818.778	6155
818.919	6076
819.06	6159
819.2	6323
819.341	6361
819.481	6365
819.622	6570
819.762	6677
819.903	6730
820.043	6639
820.184	6616
820.324	6559
820.465	6700
820.605	6669
820.746	6642
820.886	6551
821.026	6650
821.167	6658
821.307	6802
821.447	6779
821.588	6681
821.728	6578
821.868	6448
822.008	6376
822.149	6357
822.289	6315
822.429	6155
822.569	6117
822.709	6167
822.849	5885
822.99	5931
823.13	5954
823.27	5954
823.41	5710
823.55	5733
823.69	5726
823.83	5790
823.97	5615
824.11	5573
824.25	5551
824.389	5596
824.529	5608
824.669	5516
824.809	5634
824.949	5623
825.089	5646
825.228	5570
825.368	5376
825.508	5307
825.648	5383
825.787	5334
825.927	5376
826.067	5318
826.206	5326
826.346	5406
826.485	5383
826.625	5387
826.765	5566
826.904	5467
827.044	5273
827.183	5208
827.323	5117
827.462	5220
827.601	5162
827.741	5174
827.88	5185
828.02	5090
828.159	5254
828.298	5258
828.437	5414
828.577	5349
828.716	5493
828.855	5299
828.994	5174
829.134	5132
829.273	5174
829.412	5136
829.551	5128
829.69	5174
829.829	5265
829.968	5357
830.107	5311
830.246	5330
830.385	5212
830.524	5128
830.663	5045
830.802	5025
830.941	4923
831.08	4885
831.219	4938
831.357	4995
831.496	5117
831.635	4892
831.774	4835
831.913	4831
832.051	4740
832.19	4729
832.329	4866
832.467	4687
832.606	4626
832.744	4725
832.883	4714
833.022	4721
833.16	4767
833.299	4820
833.437	4839
833.576	4790
833.714	4866
833.852	4866
833.991	4911
834.129	4976
834.267	4938
834.406	4885
834.544	4930
834.682	4946
834.821	4930
834.959	5102
835.097	4965
835.235	5117
835.373	5075
835.511	5117
835.65	5060
835.788	4987
835.926	4889
836.064	4885
836.202	4862
836.34	5166
836.478	5220
836.615	5102
836.753	5261
836.891	5284
837.029	5246
837.167	5166
837.305	5143
837.443	5143
837.58	5102
837.718	5235
837.856	5147
837.993	5109
838.131	5258
838.269	5258
838.406	5143
838.544	5181
838.681	5071
838.819	4984
838.956	4881
839.094	4873
839.231	4957
839.369	5048
839.506	5387
839.643	5143
839.781	5037
839.918	5033
840.055	5124
840.193	5079
840.33	5041
840.467	5170
840.604	5204
840.742	5440
840.879	5132
841.016	5147
841.153	5166
841.29	5360
841.427	5303
841.564	5307
841.701	5337
841.838	5296
841.975	5220
842.112	5250
842.249	5151
842.385	5128
842.522	5337
842.659	5170
842.796	5083
842.933	5220
843.069	5105
843.206	5147
843.343	5311
843.479	5250
843.616	5254
843.752	5064
843.889	5025
844.025	5178
844.162	4972
844.298	5239
844.435	5090
844.571	5018
844.708	5155
844.844	5303
844.98	5379
845.117	5269
845.253	5147
845.389	5052
845.525	5128
845.661	5113
845.798	5006
845.934	5105
846.07	5025
846.206	5166
846.342	5258
846.478	5178
846.614	5033
846.75	4995
846.886	4942
847.022	5121
847.158	5029
847.294	5090
847.429	5132
847.565	5060
847.701	5299
847.837	4850
847.972	4816
848.108	4957
848.244	4911
848.379	4812
848.515	4736
848.65	4714
848.786	4778
848.921	4774
849.057	4870
849.192	4942
849.328	4774
849.463	4866
849.598	4797
849.734	4774
849.869	4691
850.004	4645
850.14	4687
850.275	4588
850.41	4516
850.545	4626
850.68	4584
850.815	4618
850.95	4645
851.085	4812
851.22	4752
851.355	4672
851.49	4637
851.625	4634
851.76	4637
851.895	4577
852.03	4550
852.165	4683
852.299	4706
852.434	4809
852.569	4683
852.703	4771
852.838	4866
852.973	4949
853.107	4923
853.242	4744
853.376	4679
853.511	4577
853.645	4577
853.78	4820
853.914	4672
854.048	4649
854.183	4649
854.317	4679
854.451	4839
854.585	4679
854.72	4618
854.854	4809
854.988	4569
855.122	4626
855.256	4523
855.39	4626
855.524	4847
855.658	4748
855.792	4721
855.926	4721
856.06	4774
856.194	4828
856.327	4672
856.461	4569
856.595	4634
856.729	4607
856.862	4748
856.996	4702
857.13	4729
857.263	4714
857.397	4809
857.53	4672
857.664	4687
857.797	4763
857.931	4786
858.064	4687
858.197	4748
858.331	4675
858.464	4603
858.597	4542
858.731	4634
858.864	4615
858.997	4649
859.13	4702
859.263	4641
859.396	4694
859.529	4596
859.662	4531
859.795	4618
859.928	4634
860.061	4702
860.194	4733
860.327	4645
860.46	4561
860.592	4721
860.725	4714
860.858	4729
860.99	4558
861.123	4519
861.256	4497
861.388	4580
861.521	5318
861.653	4485
861.786	4459
861.918	4451
862.05	4481
862.183	4573
862.315	4573
862.447	4694
862.58	4565
862.712	4402
862.844	4306
862.976	4462
863.108	4421
863.24	4790
863.372	4314
863.504	4428
863.636	4462
863.768	4516
863.9	4417
864.032	4379
864.164	4409
864.296	4459
864.428	4550
864.559	4535
864.691	4592
864.823	4504
864.954	4531
865.086	4523
865.217	4470
865.349	4447
865.48	4455
865.612	4481
865.743	4675
865.875	4485
866.006	4470
866.137	4470
866.269	4428
866.4	4455
866.531	4390
866.662	4394
866.793	4398
866.924	4417
867.055	4443
867.186	4443
867.317	4493
867.448	4405
867.579	4367
867.71	4379
867.841	4440
867.972	4409
868.103	4451
868.233	4447
868.364	4462
868.495	4481
868.625	4630
868.756	4729
868.886	4569
869.017	4668
869.147	4778
869.278	4748
869.408	4626
869.539	4615
869.669	4706
869.799	4634
869.929	4702
870.06	4755
870.19	5006
870.32	4889
870.45	4976
870.58	5060
870.71	5147
870.84	5105
870.97	4923
871.1	4911
871.23	5105
871.36	5079
871.489	5045
871.619	5083
871.749	5094
871.879	5090
872.008	5204
872.138	5060
872.267	4995
872.397	4870
872.526	4771
872.656	4710
872.785	4790
872.915	4919
873.044	5041
873.173	4881
873.303	4957
873.432	4930
873.561	4965
873.69	4889
873.819	4847
873.948	4908
874.077	4843
874.206	4797
874.335	4820
874.464	4938
874.593	5052
874.722	4938
874.851	5136
874.979	5048
875.108	5060
875.237	4889
875.365	4858
875.494	4885
875.623	4995
875.751	4870
875.88	4862
876.008	4984
876.136	5045
876.265	5220
876.393	5318
876.521	5216
876.65	5223
876.778	5143
876.906	5086
877.034	5003
877.162	5071
877.29	4995
877.418	5098
877.546	5045
877.674	4995
877.802	5075
877.93	5018
878.058	4923
878.185	4873
878.313	4946
878.441	5025
878.568	4771
878.696	4820
878.824	4976
878.951	4949
879.079	5083
879.206	5284
879.333	5109
879.461	4976
879.588	5033
879.715	5113
879.842	5231
879.97	4991
880.097	4774
880.224	4740
880.351	4786
880.478	4812
880.605	4771
880.732	4767
880.859	5079
880.986	4896
881.112	4968
881.239	4755
881.366	4637
881.493	4538
881.619	4569
881.746	4630
881.872	4672
881.999	4664
882.125	4660
882.252	4824
882.378	4847
882.505	4991
882.631	4809
882.757	4702
882.883	4778
883.01	4759
883.136	4706
883.262	4599
883.388	4664
883.514	4778
883.64	4866
883.766	4786
883.892	4687
884.018	4710
884.143	4870
884.269	5025
884.395	4672
884.52	4641
884.646	4664
884.772	4588
884.897	4565
885.023	4679
885.148	4801
885.274	4862
885.399	4782
885.524	4725
885.65	4687
885.775	4748
885.9	4675
886.025	4828
886.15	4710
886.275	4691
886.4	4641
886.525	4721
886.65	4717
886.775	4653
886.9	4892
887.025	4999
887.149	4812
887.274	4691
887.399	4599
887.523	4611
887.648	4584
887.773	4569
887.897	4759
888.021	4786
888.146	4656
888.27	4763
888.395	4915
888.519	4774
888.643	4778
888.767	4824
888.891	4641
889.015	4607
889.139	4660
889.263	4618
889.387	4786
889.511	4809
889.635	4778
889.759	4618
889.883	4672
890.006	4733
890.13	4820
890.254	4611
890.377	4649
890.501	4546
890.624	4508
890.748	4630
890.871	4535
890.995	4421
891.118	4417
891.241	4500
891.364	4554
891.488	4721
891.611	4527
891.734	4500
891.857	4588
891.98	4573
892.103	4637
892.226	4622
892.349	4542
892.471	4455
892.594	4466
892.717	4588
892.839	4550
892.962	4649
893.085	4675
893.207	4592
893.33	4497
893.452	4497
893.575	4691
893.697	4561
893.819	4816
893.941	4828
894.064	4771
894.186	4550
894.308	4592
894.43	4755
894.552	4809
894.674	4721
894.796	4538
894.918	4599
895.04	4580
895.161	4702
895.283	4656
895.405	4580
895.526	4626
895.648	4660
895.769	4691
895.891	4782
896.012	4733
896.134	4736
896.255	4683
896.376	4675
896.498	4634
896.619	4706
896.74	4603
896.861	4664
896.982	4877
897.103	5075
897.224	4805
897.345	4793
897.466	4668
897.587	4706
897.708	4824
897.828	4782
897.949	4653
898.07	4592
898.19	4626
898.311	4843
898.431	4660
898.552	4733
898.672	4850
898.792	4790
898.913	4782
899.033	4641
899.153	4485
899.273	4421
899.393	4474
899.513	4527
899.633	4508
899.753	4565
899.873	4497
899.993	4611
900.113	4500
900.232	4596
900.352	4508
900.472	4516
900.591	4428
900.711	4485
900.83	4428
900.95	4580
901.069	4736
901.189	4569
901.308	4337
901.427	4344
901.546	4379
901.665	4466
901.784	4516
901.904	4394
902.023	4325
902.141	4219
902.26	4181
902.379	4314
902.498	4249
902.617	4227
902.735	4383
902.854	4375
902.973	4344
903.091	4173
903.21	4261
903.328	4318
903.446	4261
903.565	4280
903.683	4337
903.801	4268
903.919	4379
904.038	4413
904.156	4318
904.274	4424
904.392	4363
904.51	4424
904.627	4428
904.745	4569
904.863	4615
904.981	4390
905.098	4306
905.216	4337
905.334	4443
905.451	4451
905.569	4466
905.686	4561
905.803	4580
905.921	4409
906.038	4527
906.155	4508
906.272	4409
906.389	4485
906.506	4284
906.623	4379
906.74	4386
906.857	4322
906.974	4405
907.091	4596
907.208	4641
907.324	4622
907.441	4546
907.557	4318
907.674	4325
907.79	4303
907.907	4371
908.023	4413
908.139	4459
908.256	4417
908.372	4447
908.488	4386
908.604	4352
908.72	4318
908.836	4409
908.952	4360
909.068	4421
909.184	4554
909.3	4516
909.415	4565
909.531	4550
909.647	4333
909.762	4394
909.878	4329
909.993	4443
910.108	4409
910.224	4409
910.339	4546
910.454	4371
910.57	4375
910.685	4272
910.8	4634
910.915	4596
911.03	4512
911.145	4333
911.259	4325
911.374	4417
911.489	4287
911.604	4257
911.718	4177
911.833	4166
911.947	4139
912.062	4048
912.176	4204
912.291	4185
912.405	4265
912.519	4466
912.633	4466
912.748	4383
912.862	4329
912.976	4238
913.09	4116
913.204	4200
913.318	4265
913.431	4367
913.545	4333
913.659	4478
913.772	4344
913.886	4207
914	4238
914.113	4413
914.226	4402
914.34	4360
914.453	4181
914.566	4436
914.68	4310
914.793	4329
914.906	4150
915.019	4067
915.132	4051
915.245	4185
915.358	4196
915.47	4234
915.583	4246
915.696	4291
915.809	4466
915.921	4424
916.034	4261
916.146	4280
916.259	4215
916.371	4363
916.483	4341
916.595	4284
916.708	4337
916.82	4367
916.932	4306
917.044	4276
917.156	4329
917.268	4211
917.38	4253
917.491	4287
917.603	4348
917.715	4398
917.826	4436
917.938	4379
918.049	4280
918.161	4363
918.272	4535
918.384	4519
918.495	4440
918.606	4284
918.717	4234
918.828	4367
918.939	4329
919.05	4257
919.161	4318
919.272	4090
919.383	4207
919.494	4447
919.604	4592
919.715	4455
919.826	4379
919.936	4405
920.047	4519
920.157	4436
920.267	4729
920.378	4531
920.488	4485
920.598	4710
920.708	4919
920.818	4759
920.928	4790
921.038	4927
921.148	4904
921.258	4622
921.368	4565
921.477	4523
921.587	4474
921.697	4402
921.806	4497
921.916	4417
922.025	4284
922.134	4295
922.244	4234
922.353	4299
922.462	4139
922.571	4082
922.68	4036
922.789	4010
922.898	4051
923.007	3998
923.116	4128
923.224	4090
923.333	4090
923.442	4036
923.55	3945
923.659	4013
923.767	4150
923.876	3994
923.984	4128
924.092	4025
924.201	4082
924.309	4082
924.417	4101
924.525	4086
924.633	4093
924.741	4889
924.849	3937
924.956	4154
925.064	3979
925.172	3941
925.279	4010
925.387	4067
925.494	4032
925.602	4211
925.709	4185
925.816	4025
925.924	4090
926.031	4238
926.138	4150
926.245	4166
926.352	4074
926.459	4200
926.566	4310
926.673	4150
926.779	4105
926.886	4059
926.993	4040
927.099	3941
927.206	3926
927.312	3937
927.419	4040
927.525	3994
927.631	4074
927.737	3987
927.843	3922
927.95	3816
928.056	3911
928.162	3994
928.267	4048
928.373	4656
928.479	4173
928.585	3899
928.69	4013
928.796	4078
928.901	3911
929.007	3857
929.112	4002
929.218	3941
929.323	3934
929.428	3930
929.533	4112
929.638	3922
929.743	4006
929.848	4013
929.953	3983
930.058	3915
930.163	3778
930.267	3842
930.372	3953
930.477	3857
930.581	4082
930.685	3953
930.79	3857
930.894	3884
930.998	3842
931.103	4036
931.207	3755
931.311	3694
931.415	3694
931.519	3507
931.623	3553
