Data from test_V78500241_555.txt Node
Date: Fri Mar 25 16:52:51 CST 2022
User: usil
Spectrometer: V785-0024
Trigger mode: 0
Integration Time (sec): 4.000000E-1
Scans to average: 1
Nonlinearity correction enabled: false
Boxcar width: 0
Storing dark spectrum: false
XAxis mode: Wavelengths
Number of Pixels in Spectrum: 1024
>>>>>Begin Spectral Data<<<<<
801.071	8020
801.214	7955
801.356	7845
801.499	7807
801.641	7792
801.783	7807
801.926	8001
802.068	7982
802.211	7974
802.353	7997
802.496	7890
802.638	7898
802.78	7894
802.923	7947
803.065	7814
803.208	7795
803.35	7970
803.492	8073
803.635	8149
803.777	8035
803.919	8096
804.061	8362
804.204	8065
804.346	8016
804.488	7860
804.63	8107
804.773	7989
804.915	8081
805.057	8279
805.199	8172
805.341	8275
805.483	8282
805.626	8191
805.768	8092
805.91	8145
806.052	8138
806.194	8100
806.336	8313
806.478	8096
806.62	8031
806.762	8111
806.904	8233
807.046	8473
807.188	8317
807.33	8221
807.472	8202
807.614	8195
807.756	8065
807.898	7917
808.04	7932
808.182	7986
808.324	7909
808.465	7879
808.607	7982
808.749	8119
808.891	8191
809.033	8343
809.174	8172
809.316	8016
809.458	7982
809.6	7940
809.741	8024
809.883	7993
810.025	8111
810.166	8005
810.308	8005
810.45	7928
810.591	7894
810.733	7799
810.875	7639
811.016	7567
811.158	7464
811.299	7643
811.441	7811
811.582	7666
811.724	7563
811.865	7529
812.007	7616
812.148	7594
812.29	7616
812.431	7662
812.573	7928
812.714	8008
812.855	8180
812.997	8206
813.138	8423
813.279	8225
813.421	8103
813.562	8073
813.703	7917
813.845	7849
813.986	7518
814.127	7331
814.268	7346
814.41	7301
814.551	7110
814.692	7187
814.833	7080
814.974	7080
815.115	7107
815.256	7008
815.397	6932
815.539	6996
815.68	6856
815.821	6814
815.962	6924
816.103	6795
816.244	6726
816.385	6608
816.526	6654
816.666	6471
816.807	6277
816.948	6441
817.089	6494
817.23	6399
817.371	6357
817.512	6384
817.653	6403
817.793	6357
817.934	6460
818.075	6506
818.216	6448
818.356	6414
818.497	6247
818.638	6068
818.778	6152
818.919	6102
819.06	6186
819.2	6277
819.341	6319
819.481	6361
819.622	6555
819.762	6730
819.903	6677
820.043	6593
820.184	6570
820.324	6525
820.465	6582
820.605	6597
820.746	6631
820.886	6414
821.026	6658
821.167	6711
821.307	6795
821.447	6741
821.588	6681
821.728	6578
821.868	6452
822.008	6289
822.149	6372
822.289	6346
822.429	6182
822.569	6064
822.709	6136
822.849	5935
822.99	5939
823.13	5927
823.27	5882
823.41	5783
823.55	5764
823.69	5752
823.83	5699
823.97	5630
824.11	5524
824.25	5539
824.389	5592
824.529	5543
824.669	5516
824.809	5615
824.949	5649
825.089	5615
825.228	5547
825.368	5376
825.508	5318
825.648	5349
825.787	5391
825.927	5383
826.067	5258
826.206	5284
826.346	5395
826.485	5368
826.625	5421
826.765	5532
826.904	5471
827.044	5246
827.183	5239
827.323	5147
827.462	5235
827.601	5136
827.741	5159
827.88	5181
828.02	5128
828.159	5307
828.298	5318
828.437	5345
828.577	5299
828.716	5459
828.855	5303
828.994	5174
829.134	5136
829.273	5128
829.412	5136
829.551	5136
829.69	5128
829.829	5197
829.968	5376
830.107	5258
830.246	5246
830.385	5140
830.524	5105
830.663	5071
830.802	4968
830.941	4850
831.08	4881
831.219	4892
831.357	4984
831.496	5140
831.635	4927
831.774	4828
831.913	4835
832.051	4714
832.19	4786
832.329	4816
832.467	4702
832.606	4653
832.744	4691
832.883	4748
833.022	4793
833.16	4778
833.299	4843
833.437	4828
833.576	4797
833.714	4809
833.852	4873
833.991	4866
834.129	4923
834.267	4934
834.406	4881
834.544	4991
834.682	4999
834.821	4980
834.959	5143
835.097	4995
835.235	5140
835.373	5109
835.511	5045
835.65	5018
835.788	5006
835.926	4915
836.064	4839
836.202	4915
836.34	5166
836.478	5220
836.615	5140
836.753	5193
836.891	5296
837.029	5193
837.167	5185
837.305	5056
837.443	5223
837.58	5098
837.718	5254
837.856	5185
837.993	5132
838.131	5189
838.269	5197
838.406	5197
838.544	5208
838.681	5037
838.819	5003
838.956	4870
839.094	4896
839.231	4934
839.369	5090
839.506	5417
839.643	5242
839.781	5113
839.918	5025
840.055	5098
840.193	5105
840.33	5155
840.467	5170
840.604	5178
840.742	5463
840.879	5090
841.016	5052
841.153	5174
841.29	5337
841.427	5322
841.564	5273
841.701	5330
841.838	5208
841.975	5246
842.112	5292
842.249	5121
842.385	5128
842.522	5322
842.659	5189
842.796	5102
842.933	5181
843.069	5121
843.206	5155
843.343	5269
843.479	5216
843.616	5277
843.752	5033
843.889	5056
844.025	5212
844.162	5060
844.298	5189
844.435	5067
844.571	5086
844.708	5140
844.844	5261
844.98	5341
845.117	5277
845.253	5143
845.389	5067
845.525	5128
845.661	5113
845.798	5079
845.934	5151
846.07	5037
846.206	5212
846.342	5223
846.478	5178
846.614	5025
846.75	4946
846.886	4961
847.022	5143
847.158	5033
847.294	5094
847.429	5079
847.565	5067
847.701	5311
847.837	4915
847.972	4809
848.108	4976
848.244	4927
848.379	4824
848.515	4748
848.65	4714
848.786	4748
848.921	4786
849.057	4900
849.192	4892
849.328	4782
849.463	4828
849.598	4786
849.734	4752
849.869	4679
850.004	4622
850.14	4660
850.275	4618
850.41	4500
850.545	4588
850.68	4546
850.815	4668
850.95	4637
851.085	4831
851.22	4740
851.355	4702
851.49	4645
851.625	4592
851.76	4637
851.895	4512
852.03	4481
852.165	4660
852.299	4702
852.434	4733
852.569	4752
852.703	4771
852.838	4835
852.973	4904
853.107	4900
853.242	4740
853.376	4622
853.511	4538
853.645	4637
853.78	4790
853.914	4702
854.048	4687
854.183	4607
854.317	4698
854.451	4854
854.585	4649
854.72	4630
854.854	4767
854.988	4584
855.122	4656
855.256	4569
855.39	4691
855.524	4771
855.658	4694
855.792	4668
855.926	4683
856.06	4729
856.194	4786
856.327	4637
856.461	4611
856.595	4554
856.729	4641
856.862	4721
856.996	4672
857.13	4714
857.263	4828
857.397	4782
857.53	4672
857.664	4721
857.797	4812
857.931	4793
858.064	4694
858.197	4706
858.331	4634
858.464	4611
858.597	4497
858.731	4599
858.864	4672
858.997	4637
859.13	4599
859.263	4634
859.396	4626
859.529	4565
859.662	4546
859.795	4611
859.928	4675
860.061	4744
860.194	4744
860.327	4622
860.46	4554
860.592	4748
860.725	4748
860.858	4767
860.99	4550
861.123	4504
861.256	4474
861.388	4645
861.521	5410
861.653	4470
861.786	4474
861.918	4443
862.05	4485
862.183	4535
862.315	4584
862.447	4634
862.58	4558
862.712	4417
862.844	4280
862.976	4508
863.108	4432
863.24	4892
863.372	4367
863.504	4421
863.636	4413
863.768	4466
863.9	4424
864.032	4344
864.164	4386
864.296	4440
864.428	4546
864.559	4531
864.691	4485
864.823	4550
864.954	4493
865.086	4497
865.217	4489
865.349	4428
865.48	4470
865.612	4500
865.743	4668
865.875	4504
866.006	4424
866.137	4474
866.269	4405
866.4	4440
866.531	4470
866.662	4436
866.793	4421
866.924	4447
867.055	4474
867.186	4462
867.317	4394
867.448	4348
867.579	4402
867.71	4375
867.841	4375
867.972	4432
868.103	4424
868.233	4447
868.364	4455
868.495	4443
868.625	4630
868.756	4771
868.886	4561
869.017	4641
869.147	4759
869.278	4778
869.408	4698
869.539	4634
869.669	4706
869.799	4649
869.929	4729
870.06	4721
870.19	4904
870.32	4896
870.45	4946
870.58	4980
870.71	5079
870.84	5086
870.97	4961
871.1	4866
871.23	5159
871.36	5079
871.489	4972
871.619	5060
871.749	5109
871.879	5113
872.008	5185
872.138	5025
872.267	4999
872.397	4843
872.526	4820
872.656	4710
872.785	4793
872.915	4957
873.044	5014
873.173	4938
873.303	4987
873.432	4930
873.561	4923
873.69	4885
873.819	4885
873.948	4877
874.077	4812
874.206	4771
874.335	4858
874.464	4908
874.593	5071
874.722	4991
874.851	5052
874.979	5033
875.108	4999
875.237	4896
875.365	4847
875.494	4866
875.623	4984
875.751	4763
875.88	4877
876.008	4961
876.136	5090
876.265	5204
876.393	5357
876.521	5246
876.65	5246
876.778	5121
876.906	5098
877.034	5048
877.162	5006
877.29	4980
877.418	5067
877.546	5064
877.674	5029
877.802	5029
877.93	5064
878.058	5014
878.185	4881
878.313	5022
878.441	4919
878.568	4778
878.696	4889
878.824	4980
878.951	4984
879.079	5113
879.206	5231
879.333	5113
879.461	4949
879.588	4987
879.715	5128
879.842	5258
879.97	4999
880.097	4816
880.224	4694
880.351	4793
880.478	4755
880.605	4774
880.732	4778
880.859	5041
880.986	4953
881.112	4946
881.239	4793
881.366	4634
881.493	4580
881.619	4573
881.746	4660
881.872	4637
881.999	4615
882.125	4656
882.252	4778
882.378	4908
882.505	4946
882.631	4793
882.757	4679
882.883	4759
883.01	4733
883.136	4634
883.262	4588
883.388	4596
883.514	4786
883.64	4862
883.766	4774
883.892	4691
884.018	4710
884.143	4892
884.269	4953
884.395	4672
884.52	4637
884.646	4653
884.772	4565
884.897	4561
885.023	4683
885.148	4786
885.274	4809
885.399	4797
885.524	4744
885.65	4729
885.775	4717
885.9	4721
886.025	4892
886.15	4812
886.275	4729
886.4	4656
886.525	4755
886.65	4664
886.775	4698
886.9	4915
887.025	5018
887.149	4755
887.274	4664
887.399	4596
887.523	4592
887.648	4569
887.773	4569
887.897	4744
888.021	4793
888.146	4679
888.27	4820
888.395	5006
888.519	4805
888.643	4763
888.767	4812
888.891	4656
889.015	4618
889.139	4672
889.263	4565
889.387	4748
889.511	4854
889.635	4793
889.759	4653
889.883	4603
890.006	4740
890.13	4820
890.254	4626
890.377	4694
890.501	4550
890.624	4558
890.748	4645
890.871	4538
890.995	4432
891.118	4383
891.241	4508
891.364	4535
891.488	4630
891.611	4455
891.734	4577
891.857	4634
891.98	4542
892.103	4664
892.226	4603
892.349	4542
892.471	4409
892.594	4554
892.717	4611
892.839	4615
892.962	4615
893.085	4618
893.207	4584
893.33	4421
893.452	4485
893.575	4668
893.697	4653
893.819	4812
893.941	4847
894.064	4786
894.186	4561
894.308	4546
894.43	4710
894.552	4839
894.674	4763
894.796	4584
894.918	4599
895.04	4550
895.161	4645
895.283	4714
895.405	4607
895.526	4611
895.648	4672
895.769	4706
895.891	4679
896.012	4656
896.134	4698
896.255	4641
896.376	4603
896.498	4626
896.619	4710
896.74	4611
896.861	4618
896.982	4877
897.103	5090
897.224	4858
897.345	4759
897.466	4672
897.587	4752
897.708	4870
897.828	4778
897.949	4675
898.07	4565
898.19	4672
898.311	4786
898.431	4664
898.552	4717
898.672	4793
898.792	4812
898.913	4736
899.033	4626
899.153	4527
899.273	4405
899.393	4508
899.513	4508
899.633	4497
899.753	4569
899.873	4470
899.993	4596
900.113	4512
900.232	4615
900.352	4565
900.472	4470
900.591	4443
900.711	4466
900.83	4466
900.95	4603
901.069	4717
901.189	4519
901.308	4394
901.427	4352
901.546	4360
901.665	4493
901.784	4504
901.904	4394
902.023	4363
902.141	4215
902.26	4200
902.379	4287
902.498	4246
902.617	4204
902.735	4348
902.854	4443
902.973	4402
903.091	4215
903.21	4223
903.328	4276
903.446	4280
903.565	4238
903.683	4390
903.801	4230
903.919	4440
904.038	4417
904.156	4352
904.274	4421
904.392	4398
904.51	4440
904.627	4462
904.745	4580
904.863	4656
904.981	4402
905.098	4306
905.216	4363
905.334	4432
905.451	4440
905.569	4409
905.686	4573
905.803	4592
905.921	4386
906.038	4554
906.155	4459
906.272	4363
906.389	4462
906.506	4352
906.623	4402
906.74	4375
906.857	4325
906.974	4379
907.091	4554
907.208	4698
907.324	4599
907.441	4531
907.557	4325
907.674	4322
907.79	4375
907.907	4367
908.023	4512
908.139	4424
908.256	4443
908.372	4455
908.488	4455
908.604	4360
908.72	4344
908.836	4352
908.952	4344
909.068	4421
909.184	4558
909.3	4443
909.415	4573
909.531	4561
909.647	4371
909.762	4405
909.878	4333
909.993	4440
910.108	4394
910.224	4440
910.339	4493
910.454	4443
910.57	4375
910.685	4314
910.8	4679
910.915	4558
911.03	4527
911.145	4325
911.259	4310
911.374	4329
911.489	4306
911.604	4253
911.718	4162
911.833	4162
911.947	4074
912.062	4082
912.176	4246
912.291	4215
912.405	4246
912.519	4493
912.633	4485
912.748	4390
912.862	4352
912.976	4188
913.09	4120
913.204	4131
913.318	4306
913.431	4352
913.545	4375
913.659	4504
913.772	4375
913.886	4211
914	4200
914.113	4402
914.226	4405
914.34	4390
914.453	4230
914.566	4424
914.68	4333
914.793	4333
914.906	4120
915.019	4112
915.132	4051
915.245	4249
915.358	4215
915.47	4242
915.583	4246
915.696	4280
915.809	4363
915.921	4428
916.034	4272
916.146	4223
916.259	4188
916.371	4344
916.483	4314
916.595	4249
916.708	4303
916.82	4310
916.932	4303
917.044	4348
917.156	4352
917.268	4188
917.38	4303
917.491	4295
917.603	4344
917.715	4417
917.826	4440
917.938	4360
918.049	4211
918.161	4394
918.272	4538
918.384	4519
918.495	4451
918.606	4287
918.717	4272
918.828	4344
918.939	4322
919.05	4249
919.161	4306
919.272	4112
919.383	4242
919.494	4455
919.604	4611
919.715	4466
919.826	4394
919.936	4405
920.047	4512
920.157	4474
920.267	4672
920.378	4527
920.488	4535
920.598	4759
920.708	4908
920.818	4752
920.928	4752
921.038	4889
921.148	4942
921.258	4622
921.368	4565
921.477	4474
921.587	4447
921.697	4348
921.806	4577
921.916	4413
922.025	4246
922.134	4272
922.244	4196
922.353	4306
922.462	4120
922.571	4071
922.68	4017
922.789	3998
922.898	4017
923.007	3998
923.116	4131
923.224	4112
923.333	4063
923.442	3998
923.55	3972
923.659	4044
923.767	4090
923.876	4025
923.984	4143
924.092	3956
924.201	4109
924.309	4071
924.417	4143
924.525	4071
924.633	4105
924.741	5037
924.849	3918
924.956	4166
925.064	3960
925.172	3918
925.279	3934
925.387	4071
925.494	4086
925.602	4234
925.709	4143
925.816	4044
925.924	4131
926.031	4204
926.138	4162
926.245	4166
926.352	4097
926.459	4249
926.566	4329
926.673	4139
926.779	4116
926.886	4090
926.993	3956
927.099	3964
927.206	3991
927.312	3949
927.419	4067
927.525	4017
927.631	4078
927.737	3953
927.843	3941
927.95	3812
928.056	3941
928.162	4006
928.267	4048
928.373	4683
928.479	4124
928.585	3915
928.69	3991
928.796	4082
928.901	3953
929.007	3846
929.112	3964
929.218	3975
929.323	3926
929.428	3941
929.533	4147
929.638	3926
929.743	3911
929.848	4044
929.953	3975
930.058	3903
930.163	3789
930.267	3808
930.372	3956
930.477	3850
930.581	4086
930.685	3930
930.79	3800
930.894	3896
930.998	3873
931.103	3998
931.207	3762
931.311	3698
931.415	3629
931.519	3515
931.623	3564
