Data from test_V78500241_95.txt Node
Date: Fri Mar 25 16:49:39 CST 2022
User: usil
Spectrometer: V785-0024
Trigger mode: 0
Integration Time (sec): 4.000000E-1
Scans to average: 1
Nonlinearity correction enabled: false
Boxcar width: 0
Storing dark spectrum: false
XAxis mode: Wavelengths
Number of Pixels in Spectrum: 1024
>>>>>Begin Spectral Data<<<<<
801.071	8073
801.214	8073
801.356	7928
801.499	7917
801.641	7875
801.783	7909
801.926	8024
802.068	8005
802.211	8008
802.353	8088
802.496	7860
802.638	7947
802.78	8001
802.923	7940
803.065	7947
803.208	7928
803.35	7967
803.492	8096
803.635	8142
803.777	8016
803.919	8088
804.061	8415
804.204	8142
804.346	8073
804.488	7902
804.63	8187
804.773	7967
804.915	8062
805.057	8290
805.199	8138
805.341	8221
805.483	8267
805.626	8256
805.768	8107
805.91	8126
806.052	8153
806.194	8134
806.336	8339
806.478	8130
806.62	8081
806.762	8199
806.904	8259
807.046	8476
807.188	8332
807.33	8370
807.472	8393
807.614	8195
807.756	8157
807.898	8039
808.04	7868
808.182	7978
808.324	7925
808.465	7909
808.607	8043
808.749	8161
808.891	8218
809.033	8313
809.174	8210
809.316	8031
809.458	7989
809.6	8058
809.741	8043
809.883	8043
810.025	8134
810.166	8161
810.308	8062
810.45	7970
810.591	7959
810.733	7792
810.875	7685
811.016	7609
811.158	7518
811.299	7636
811.441	7803
811.582	7788
811.724	7636
811.865	7655
812.007	7719
812.148	7643
812.29	7715
812.431	7849
812.573	7967
812.714	8024
812.855	8149
812.997	8301
813.138	8427
813.279	8267
813.421	8187
813.562	8050
813.703	7951
813.845	7792
813.986	7491
814.127	7255
814.268	7293
814.41	7297
814.551	7263
814.692	7255
814.833	7129
814.974	7171
815.115	7187
815.256	7008
815.397	6958
815.539	6966
815.68	6848
815.821	6871
815.962	6958
816.103	6848
816.244	6779
816.385	6642
816.526	6688
816.666	6570
816.807	6403
816.948	6506
817.089	6517
817.23	6483
817.371	6437
817.512	6426
817.653	6448
817.793	6395
817.934	6460
818.075	6528
818.216	6403
818.356	6509
818.497	6277
818.638	6178
818.778	6167
818.919	6194
819.06	6163
819.2	6380
819.341	6361
819.481	6426
819.622	6597
819.762	6753
819.903	6730
820.043	6650
820.184	6688
820.324	6631
820.465	6753
820.605	6711
820.746	6707
820.886	6540
821.026	6707
821.167	6779
821.307	6920
821.447	6859
821.588	6719
821.728	6578
821.868	6620
822.008	6315
822.149	6403
822.289	6403
822.429	6197
822.569	6144
822.709	6125
822.849	5977
822.99	5931
823.13	5935
823.27	5977
823.41	5824
823.55	5821
823.69	5840
823.83	5840
823.97	5745
824.11	5539
824.25	5562
824.389	5611
824.529	5554
824.669	5543
824.809	5699
824.949	5718
825.089	5680
825.228	5577
825.368	5406
825.508	5372
825.648	5414
825.787	5402
825.927	5474
826.067	5330
826.206	5311
826.346	5433
826.485	5440
826.625	5478
826.765	5585
826.904	5509
827.044	5265
827.183	5212
827.323	5212
827.462	5235
827.601	5235
827.741	5220
827.88	5265
828.02	5143
828.159	5303
828.298	5307
828.437	5376
828.577	5265
828.716	5539
828.855	5398
828.994	5185
829.134	5223
829.273	5250
829.412	5197
829.551	5128
829.69	5216
829.829	5284
829.968	5421
830.107	5318
830.246	5334
830.385	5193
830.524	5166
830.663	5143
830.802	5041
830.941	4949
831.08	4927
831.219	5018
831.357	5048
831.496	5197
831.635	4991
831.774	4896
831.913	4870
832.051	4790
832.19	4790
832.329	4843
832.467	4736
832.606	4622
832.744	4698
832.883	4774
833.022	4778
833.16	4858
833.299	4873
833.437	4828
833.576	4831
833.714	4908
833.852	4828
833.991	4911
834.129	4957
834.267	4949
834.406	4968
834.544	4965
834.682	5003
834.821	5010
834.959	5181
835.097	5045
835.235	5178
835.373	5147
835.511	5155
835.65	5037
835.788	5105
835.926	4949
836.064	4881
836.202	4972
836.34	5223
836.478	5250
836.615	5204
836.753	5204
836.891	5334
837.029	5284
837.167	5239
837.305	5155
837.443	5212
837.58	5140
837.718	5292
837.856	5235
837.993	5204
838.131	5265
838.269	5227
838.406	5201
838.544	5227
838.681	5075
838.819	5071
838.956	4972
839.094	4915
839.231	4999
839.369	5147
839.506	5455
839.643	5315
839.781	5079
839.918	5045
840.055	5155
840.193	5170
840.33	5185
840.467	5170
840.604	5159
840.742	5471
840.879	5109
841.016	5136
841.153	5201
841.29	5357
841.427	5303
841.564	5345
841.701	5318
841.838	5322
841.975	5318
842.112	5288
842.249	5185
842.385	5151
842.522	5330
842.659	5261
842.796	5162
842.933	5250
843.069	5143
843.206	5193
843.343	5337
843.479	5261
843.616	5223
843.752	5060
843.889	5060
844.025	5227
844.162	5006
844.298	5231
844.435	5117
844.571	5067
844.708	5185
844.844	5303
844.98	5341
845.117	5357
845.253	5155
845.389	5159
845.525	5204
845.661	5197
845.798	5071
845.934	5140
846.07	5094
846.206	5227
846.342	5315
846.478	5201
846.614	5102
846.75	4999
846.886	4949
847.022	5155
847.158	5060
847.294	5090
847.429	5124
847.565	5102
847.701	5406
847.837	4870
847.972	4862
848.108	5033
848.244	4984
848.379	4831
848.515	4763
848.65	4691
848.786	4710
848.921	4831
849.057	4873
849.192	4946
849.328	4854
849.463	4870
849.598	4824
849.734	4771
849.869	4714
850.004	4630
850.14	4698
850.275	4668
850.41	4565
850.545	4561
850.68	4630
850.815	4683
850.95	4653
851.085	4877
851.22	4790
851.355	4710
851.49	4592
851.625	4656
851.76	4622
851.895	4519
852.03	4573
852.165	4675
852.299	4748
852.434	4801
852.569	4790
852.703	4824
852.838	4854
852.973	5003
853.107	4991
853.242	4774
853.376	4721
853.511	4565
853.645	4649
853.78	4824
853.914	4725
854.048	4694
854.183	4637
854.317	4748
854.451	4866
854.585	4668
854.72	4649
854.854	4763
854.988	4580
855.122	4675
855.256	4558
855.39	4706
855.524	4850
855.658	4793
855.792	4725
855.926	4774
856.06	4752
856.194	4847
856.327	4683
856.461	4641
856.595	4649
856.729	4634
856.862	4752
856.996	4733
857.13	4763
857.263	4752
857.397	4816
857.53	4649
857.664	4824
857.797	4786
857.931	4786
858.064	4714
858.197	4755
858.331	4714
858.464	4653
858.597	4580
858.731	4622
858.864	4675
858.997	4630
859.13	4634
859.263	4694
859.396	4736
859.529	4626
859.662	4596
859.795	4588
859.928	4649
860.061	4854
860.194	4744
860.327	4634
860.46	4626
860.592	4748
860.725	4759
860.858	4763
860.99	4611
861.123	4577
861.256	4615
861.388	4675
861.521	5315
861.653	4489
861.786	4512
861.918	4478
862.05	4577
862.183	4546
862.315	4672
862.447	4683
862.58	4630
862.712	4398
862.844	4394
862.976	4470
863.108	4470
863.24	4930
863.372	4371
863.504	4443
863.636	4466
863.768	4523
863.9	4459
864.032	4383
864.164	4459
864.296	4443
864.428	4550
864.559	4634
864.691	4580
864.823	4577
864.954	4531
865.086	4493
865.217	4481
865.349	4451
865.48	4470
865.612	4500
865.743	4672
865.875	4508
866.006	4459
866.137	4462
866.269	4462
866.4	4413
866.531	4417
866.662	4440
866.793	4424
866.924	4447
867.055	4500
867.186	4485
867.317	4428
867.448	4424
867.579	4428
867.71	4402
867.841	4409
867.972	4481
868.103	4508
868.233	4474
868.364	4512
868.495	4485
868.625	4664
868.756	4805
868.886	4599
869.017	4679
869.147	4790
869.278	4771
869.408	4679
869.539	4611
869.669	4710
869.799	4694
869.929	4763
870.06	4767
870.19	4957
870.32	4930
870.45	4930
870.58	5033
870.71	5159
870.84	5086
870.97	5003
871.1	4900
871.23	5181
871.36	5170
871.489	5113
871.619	5098
871.749	5136
871.879	5128
872.008	5242
872.138	5117
872.267	5006
872.397	4858
872.526	4816
872.656	4763
872.785	4881
872.915	4953
873.044	5029
873.173	4961
873.303	4980
873.432	5010
873.561	4987
873.69	4923
873.819	4892
873.948	4927
874.077	4881
874.206	4809
874.335	4828
874.464	4987
874.593	5071
874.722	5018
874.851	5105
874.979	5117
875.108	5060
875.237	4961
875.365	4896
875.494	4900
875.623	4984
875.751	4797
875.88	4915
876.008	4968
876.136	5056
876.265	5254
876.393	5376
876.521	5273
876.65	5280
876.778	5204
876.906	5132
877.034	5045
877.162	5067
877.29	4987
877.418	5022
877.546	5071
877.674	5071
877.802	5094
877.93	4995
878.058	4953
878.185	4904
878.313	5029
878.441	4923
878.568	4831
878.696	4877
878.824	5010
878.951	4995
879.079	5170
879.206	5299
879.333	5143
879.461	4976
879.588	5029
879.715	5136
879.842	5261
879.97	5018
880.097	4801
880.224	4786
880.351	4786
880.478	4866
880.605	4805
880.732	4866
880.859	5090
880.986	4953
881.112	4923
881.239	4793
881.366	4706
881.493	4618
881.619	4596
881.746	4679
881.872	4596
881.999	4687
882.125	4691
882.252	4824
882.378	4839
882.505	5025
882.631	4812
882.757	4740
882.883	4729
883.01	4767
883.136	4702
883.262	4672
883.388	4577
883.514	4847
883.64	4866
883.766	4820
883.892	4729
884.018	4752
884.143	4919
884.269	5064
884.395	4706
884.52	4675
884.646	4683
884.772	4637
884.897	4565
885.023	4664
885.148	4797
885.274	4847
885.399	4820
885.524	4706
885.65	4706
885.775	4790
885.9	4759
886.025	4843
886.15	4828
886.275	4706
886.4	4675
886.525	4763
886.65	4702
886.775	4714
886.9	4892
887.025	5033
887.149	4847
887.274	4656
887.399	4596
887.523	4626
887.648	4550
887.773	4596
887.897	4748
888.021	4793
888.146	4698
888.27	4839
888.395	4881
888.519	4847
888.643	4843
888.767	4889
888.891	4714
889.015	4641
889.139	4698
889.263	4626
889.387	4812
889.511	4885
889.635	4854
889.759	4660
889.883	4626
890.006	4786
890.13	4831
890.254	4611
890.377	4679
890.501	4550
890.624	4550
890.748	4622
890.871	4531
890.995	4432
891.118	4424
891.241	4577
891.364	4565
891.488	4672
891.611	4519
891.734	4538
891.857	4622
891.98	4580
892.103	4660
892.226	4649
892.349	4565
892.471	4417
892.594	4527
892.717	4618
892.839	4546
892.962	4611
893.085	4679
893.207	4687
893.33	4523
893.452	4542
893.575	4694
893.697	4588
893.819	4843
893.941	4843
894.064	4767
894.186	4599
894.308	4599
894.43	4778
894.552	4892
894.674	4752
894.796	4584
894.918	4569
895.04	4603
895.161	4702
895.283	4679
895.405	4573
895.526	4672
895.648	4694
895.769	4733
895.891	4710
896.012	4771
896.134	4729
896.255	4755
896.376	4599
896.498	4622
896.619	4710
896.74	4634
896.861	4691
896.982	4889
897.103	5105
897.224	4877
897.345	4744
897.466	4653
897.587	4740
897.708	4858
897.828	4805
897.949	4672
898.07	4588
898.19	4645
898.311	4839
898.431	4710
898.552	4801
898.672	4850
898.792	4793
898.913	4729
899.033	4679
899.153	4508
899.273	4447
899.393	4527
899.513	4512
899.633	4546
899.753	4558
899.873	4558
899.993	4656
900.113	4550
900.232	4592
900.352	4569
900.472	4542
900.591	4402
900.711	4512
900.83	4546
900.95	4607
901.069	4698
901.189	4584
901.308	4417
901.427	4329
901.546	4421
901.665	4485
901.784	4580
901.904	4417
902.023	4337
902.141	4188
902.26	4268
902.379	4272
902.498	4291
902.617	4234
902.735	4409
902.854	4390
902.973	4413
903.091	4230
903.21	4242
903.328	4325
903.446	4333
903.565	4291
903.683	4367
903.801	4287
903.919	4424
904.038	4459
904.156	4325
904.274	4485
904.392	4451
904.51	4443
904.627	4516
904.745	4584
904.863	4664
904.981	4428
905.098	4352
905.216	4375
905.334	4481
905.451	4481
905.569	4497
905.686	4565
905.803	4588
905.921	4462
906.038	4580
906.155	4523
906.272	4462
906.389	4493
906.506	4344
906.623	4398
906.74	4436
906.857	4375
906.974	4390
907.091	4546
907.208	4702
907.324	4588
907.441	4538
907.557	4432
907.674	4363
907.79	4360
907.907	4402
908.023	4516
908.139	4504
908.256	4459
908.372	4466
908.488	4481
908.604	4394
908.72	4383
908.836	4394
908.952	4379
909.068	4421
909.184	4592
909.3	4508
909.415	4596
909.531	4603
909.647	4398
909.762	4379
909.878	4363
909.993	4489
910.108	4405
910.224	4409
910.339	4508
910.454	4447
910.57	4383
910.685	4344
910.8	4694
910.915	4656
911.03	4527
911.145	4310
911.259	4337
911.374	4421
911.489	4306
911.604	4333
911.718	4169
911.833	4272
911.947	4139
912.062	4074
912.176	4265
912.291	4295
912.405	4242
912.519	4512
912.633	4531
912.748	4383
912.862	4310
912.976	4227
913.09	4120
913.204	4211
913.318	4314
913.431	4413
913.545	4409
913.659	4451
913.772	4421
913.886	4265
914	4268
914.113	4402
914.226	4466
914.34	4383
914.453	4242
914.566	4493
914.68	4314
914.793	4333
914.906	4188
915.019	4166
915.132	4074
915.245	4169
915.358	4234
915.47	4291
915.583	4295
915.696	4386
915.809	4459
915.921	4383
916.034	4314
916.146	4257
916.259	4299
916.371	4390
916.483	4356
916.595	4268
916.708	4306
916.82	4299
916.932	4348
917.044	4383
917.156	4379
917.268	4276
917.38	4314
917.491	4299
917.603	4371
917.715	4455
917.826	4493
917.938	4371
918.049	4299
918.161	4466
918.272	4550
918.384	4546
918.495	4512
918.606	4318
918.717	4249
918.828	4360
918.939	4405
919.05	4268
919.161	4394
919.272	4128
919.383	4272
919.494	4474
919.604	4668
919.715	4459
919.826	4402
919.936	4459
920.047	4531
920.157	4519
920.267	4672
920.378	4565
920.488	4569
920.598	4752
920.708	4900
920.818	4790
920.928	4774
921.038	4961
921.148	4987
921.258	4660
921.368	4558
921.477	4504
921.587	4462
921.697	4417
921.806	4554
921.916	4462
922.025	4303
922.134	4284
922.244	4295
922.353	4352
922.462	4188
922.571	4139
922.68	4051
922.789	3987
922.898	4093
923.007	4017
923.116	4177
923.224	4086
923.333	4101
923.442	4002
923.55	3945
923.659	4044
923.767	4086
923.876	4029
923.984	4135
924.092	4051
924.201	4105
924.309	4181
924.417	4135
924.525	4048
924.633	4150
924.741	4927
924.849	3979
924.956	4150
925.064	3945
925.172	3937
925.279	4006
925.387	4112
925.494	4093
925.602	4265
925.709	4169
925.816	4071
925.924	4162
926.031	4265
926.138	4200
926.245	4219
926.352	4059
926.459	4265
926.566	4303
926.673	4158
926.779	4135
926.886	4071
926.993	3960
927.099	3968
927.206	3972
927.312	3956
927.419	4101
927.525	4063
927.631	4109
927.737	4029
927.843	3975
927.95	3831
928.056	3987
928.162	4013
928.267	4086
928.373	4603
928.479	4162
928.585	3876
928.69	4010
928.796	4120
928.901	3983
929.007	3838
929.112	4044
929.218	3983
929.323	3975
929.428	3960
929.533	4150
929.638	3896
929.743	4021
929.848	4078
929.953	4032
930.058	3987
930.163	3781
930.267	3888
930.372	3972
930.477	3827
930.581	4097
930.685	3960
930.79	3816
930.894	3892
930.998	3857
931.103	4074
931.207	3728
931.311	3720
931.415	3679
931.519	3572
931.623	3538
