Data from test_V78500241_1322.txt Node
Date: Fri Mar 25 16:58:11 CST 2022
User: usil
Spectrometer: V785-0024
Trigger mode: 0
Integration Time (sec): 4.000000E-1
Scans to average: 1
Nonlinearity correction enabled: false
Boxcar width: 0
Storing dark spectrum: false
XAxis mode: Wavelengths
Number of Pixels in Spectrum: 1024
>>>>>Begin Spectral Data<<<<<
801.071	8035
801.214	8035
801.356	7841
801.499	7875
801.641	7772
801.783	7734
801.926	7967
802.068	7970
802.211	7955
802.353	7978
802.496	7860
802.638	7875
802.78	7890
802.923	7940
803.065	7898
803.208	7898
803.35	7921
803.492	8073
803.635	8225
803.777	8016
803.919	8210
804.061	8473
804.204	8168
804.346	8107
804.488	7986
804.63	8123
804.773	7993
804.915	8100
805.057	8313
805.199	8180
805.341	8229
805.483	8252
805.626	8244
805.768	8073
805.91	8130
806.052	8210
806.194	8161
806.336	8294
806.478	8016
806.62	8008
806.762	8092
806.904	8263
807.046	8431
807.188	8377
807.33	8290
807.472	8279
807.614	8142
807.756	8035
807.898	7986
808.04	7947
808.182	7925
808.324	7974
808.465	7928
808.607	8138
808.749	8164
808.891	8252
809.033	8301
809.174	8180
809.316	8062
809.458	8012
809.6	8035
809.741	8043
809.883	8058
810.025	8138
810.166	8081
810.308	8084
810.45	8005
810.591	7879
810.733	7772
810.875	7601
811.016	7499
811.158	7483
811.299	7594
811.441	7666
811.582	7750
811.724	7658
811.865	7472
812.007	7525
812.148	7552
812.29	7674
812.431	7792
812.573	7940
812.714	7909
812.855	8126
812.997	8157
813.138	8305
813.279	8305
813.421	8176
813.562	7986
813.703	7845
813.845	7788
813.986	7518
814.127	7251
814.268	7266
814.41	7251
814.551	7152
814.692	7213
814.833	7095
814.974	7072
815.115	7072
815.256	6977
815.397	6928
815.539	6935
815.68	6875
815.821	6821
815.962	6833
816.103	6802
816.244	6734
816.385	6631
816.526	6662
816.666	6513
816.807	6323
816.948	6437
817.089	6498
817.23	6456
817.371	6376
817.512	6384
817.653	6338
817.793	6365
817.934	6467
818.075	6448
818.216	6429
818.356	6445
818.497	6228
818.638	6117
818.778	6148
818.919	6140
819.06	6163
819.2	6346
819.341	6270
819.481	6369
819.622	6559
819.762	6715
819.903	6631
820.043	6612
820.184	6563
820.324	6589
820.465	6722
820.605	6642
820.746	6631
820.886	6486
821.026	6646
821.167	6696
821.307	6764
821.447	6757
821.588	6654
821.728	6544
821.868	6494
822.008	6334
822.149	6361
822.289	6331
822.429	6110
822.569	6114
822.709	6083
822.849	5893
822.99	5908
823.13	5935
823.27	5870
823.41	5722
823.55	5813
823.69	5752
823.83	5783
823.97	5684
824.11	5543
824.25	5512
824.389	5512
824.529	5562
824.669	5535
824.809	5600
824.949	5688
825.089	5570
825.228	5562
825.368	5391
825.508	5368
825.648	5269
825.787	5398
825.927	5322
826.067	5318
826.206	5299
826.346	5345
826.485	5398
826.625	5383
826.765	5512
826.904	5490
827.044	5239
827.183	5185
827.323	5151
827.462	5254
827.601	5124
827.741	5178
827.88	5261
828.02	5117
828.159	5227
828.298	5269
828.437	5406
828.577	5273
828.716	5471
828.855	5341
828.994	5113
829.134	5128
829.273	5174
829.412	5159
829.551	5113
829.69	5178
829.829	5261
829.968	5398
830.107	5242
830.246	5315
830.385	5216
830.524	5136
830.663	5033
830.802	4949
830.941	4858
831.08	4885
831.219	4987
831.357	4995
831.496	5155
831.635	4923
831.774	4858
831.913	4850
832.051	4702
832.19	4736
832.329	4847
832.467	4698
832.606	4630
832.744	4664
832.883	4668
833.022	4698
833.16	4767
833.299	4782
833.437	4812
833.576	4839
833.714	4843
833.852	4839
833.991	4889
834.129	4942
834.267	5010
834.406	4881
834.544	5003
834.682	4919
834.821	4908
834.959	5181
835.097	4972
835.235	5155
835.373	5067
835.511	5075
835.65	5025
835.788	4984
835.926	4892
836.064	4896
836.202	4904
836.34	5166
836.478	5166
836.615	5136
836.753	5220
836.891	5315
837.029	5299
837.167	5220
837.305	5105
837.443	5147
837.58	5102
837.718	5227
837.856	5193
837.993	5136
838.131	5273
838.269	5166
838.406	5174
838.544	5181
838.681	5048
838.819	5045
838.956	4847
839.094	4908
839.231	4946
839.369	5067
839.506	5391
839.643	5239
839.781	5060
839.918	4995
840.055	5060
840.193	5090
840.33	5124
840.467	5098
840.604	5159
840.742	5410
840.879	5124
841.016	5090
841.153	5143
841.29	5383
841.427	5307
841.564	5322
841.701	5296
841.838	5280
841.975	5261
842.112	5239
842.249	5109
842.385	5056
842.522	5368
842.659	5185
842.796	5162
842.933	5128
843.069	5113
843.206	5121
843.343	5296
843.479	5284
843.616	5273
843.752	5014
843.889	5006
844.025	5178
844.162	4984
844.298	5181
844.435	5094
844.571	4999
844.708	5178
844.844	5235
844.98	5330
845.117	5288
845.253	5162
845.389	5052
845.525	5155
845.661	5113
845.798	5006
845.934	5166
846.07	5033
846.206	5223
846.342	5269
846.478	5159
846.614	5010
846.75	4980
846.886	4915
847.022	5181
847.158	5037
847.294	5014
847.429	5052
847.565	5086
847.701	5288
847.837	4843
847.972	4782
848.108	4942
848.244	4919
848.379	4774
848.515	4736
848.65	4687
848.786	4755
848.921	4786
849.057	4870
849.192	4923
849.328	4801
849.463	4812
849.598	4771
849.734	4744
849.869	4668
850.004	4611
850.14	4645
850.275	4577
850.41	4519
850.545	4550
850.68	4596
850.815	4611
850.95	4615
851.085	4793
851.22	4729
851.355	4679
851.49	4599
851.625	4588
851.76	4637
851.895	4588
852.03	4512
852.165	4660
852.299	4702
852.434	4801
852.569	4767
852.703	4740
852.838	4828
852.973	4858
853.107	4911
853.242	4752
853.376	4683
853.511	4512
853.645	4618
853.78	4820
853.914	4694
854.048	4717
854.183	4615
854.317	4729
854.451	4744
854.585	4691
854.72	4630
854.854	4721
854.988	4580
855.122	4634
855.256	4523
855.39	4630
855.524	4767
855.658	4763
855.792	4664
855.926	4672
856.06	4774
856.194	4805
856.327	4694
856.461	4615
856.595	4603
856.729	4637
856.862	4710
856.996	4668
857.13	4736
857.263	4717
857.397	4816
857.53	4660
857.664	4725
857.797	4752
857.931	4740
858.064	4721
858.197	4679
858.331	4656
858.464	4664
858.597	4531
858.731	4622
858.864	4634
858.997	4622
859.13	4645
859.263	4702
859.396	4687
859.529	4573
859.662	4561
859.795	4546
859.928	4634
860.061	4759
860.194	4782
860.327	4630
860.46	4546
860.592	4668
860.725	4725
860.858	4763
860.99	4580
861.123	4493
861.256	4565
861.388	4577
861.521	5166
861.653	4470
861.786	4409
861.918	4462
862.05	4519
862.183	4558
862.315	4588
862.447	4656
862.58	4569
862.712	4459
862.844	4322
862.976	4519
863.108	4504
863.24	4889
863.372	4344
863.504	4348
863.636	4386
863.768	4451
863.9	4462
864.032	4352
864.164	4390
864.296	4440
864.428	4558
864.559	4538
864.691	4516
864.823	4500
864.954	4466
865.086	4527
865.217	4409
865.349	4383
865.48	4424
865.612	4500
865.743	4637
865.875	4440
866.006	4421
866.137	4474
866.269	4466
866.4	4432
866.531	4360
866.662	4363
866.793	4390
866.924	4432
867.055	4481
867.186	4447
867.317	4421
867.448	4318
867.579	4398
867.71	4344
867.841	4394
867.972	4459
868.103	4447
868.233	4409
868.364	4470
868.495	4485
868.625	4660
868.756	4786
868.886	4569
869.017	4626
869.147	4790
869.278	4763
869.408	4634
869.539	4649
869.669	4714
869.799	4645
869.929	4790
870.06	4702
870.19	4900
870.32	4915
870.45	4904
870.58	5037
870.71	5056
870.84	5083
870.97	4923
871.1	4885
871.23	5090
871.36	5098
871.489	5014
871.619	5102
871.749	5083
871.879	5090
872.008	5204
872.138	5056
872.267	4942
872.397	4793
872.526	4744
872.656	4668
872.785	4793
872.915	4965
873.044	5022
873.173	4999
873.303	4991
873.432	4949
873.561	4976
873.69	4862
873.819	4797
873.948	4889
874.077	4805
874.206	4687
874.335	4759
874.464	4904
874.593	5014
874.722	4968
874.851	5105
874.979	5079
875.108	4972
875.237	4850
875.365	4873
875.494	4854
875.623	5006
875.751	4828
875.88	4881
876.008	5006
876.136	5041
876.265	5162
876.393	5353
876.521	5242
876.65	5227
876.778	5189
876.906	5067
877.034	5018
877.162	4972
877.29	4995
877.418	5022
877.546	5029
877.674	5064
877.802	4999
877.93	5037
878.058	4946
878.185	4885
878.313	4942
878.441	4919
878.568	4752
878.696	4900
878.824	4972
878.951	4968
879.079	5151
879.206	5303
879.333	5102
879.461	4965
879.588	5003
879.715	5098
879.842	5220
879.97	4976
880.097	4809
880.224	4725
880.351	4797
880.478	4816
880.605	4812
880.732	4771
880.859	5102
880.986	4908
881.112	4866
881.239	4824
881.366	4649
881.493	4569
881.619	4584
881.746	4634
881.872	4660
881.999	4672
882.125	4679
882.252	4801
882.378	4793
882.505	4961
882.631	4752
882.757	4645
882.883	4698
883.01	4706
883.136	4622
883.262	4607
883.388	4656
883.514	4847
883.64	4771
883.766	4778
883.892	4668
884.018	4736
884.143	4870
884.269	4999
884.395	4702
884.52	4596
884.646	4668
884.772	4573
884.897	4554
885.023	4687
885.148	4759
885.274	4850
885.399	4816
885.524	4691
885.65	4691
885.775	4755
885.9	4710
886.025	4839
886.15	4763
886.275	4740
886.4	4580
886.525	4675
886.65	4672
886.775	4694
886.9	4911
887.025	4999
887.149	4790
887.274	4645
887.399	4611
887.523	4607
887.648	4573
887.773	4603
887.897	4767
888.021	4763
888.146	4622
888.27	4782
888.395	4866
888.519	4790
888.643	4801
888.767	4786
888.891	4649
889.015	4592
889.139	4649
889.263	4630
889.387	4752
889.511	4847
889.635	4805
889.759	4618
889.883	4618
890.006	4744
890.13	4812
890.254	4584
890.377	4664
890.501	4538
890.624	4531
890.748	4656
890.871	4500
890.995	4424
891.118	4375
891.241	4508
891.364	4569
891.488	4622
891.611	4493
891.734	4588
891.857	4615
891.98	4554
892.103	4618
892.226	4535
892.349	4516
892.471	4443
892.594	4504
892.717	4622
892.839	4561
892.962	4580
893.085	4664
893.207	4565
893.33	4421
893.452	4481
893.575	4603
893.697	4550
893.819	4748
893.941	4816
894.064	4744
894.186	4565
894.308	4573
894.43	4736
894.552	4824
894.674	4752
894.796	4569
894.918	4592
895.04	4584
895.161	4683
895.283	4641
895.405	4550
895.526	4615
895.648	4653
895.769	4622
895.891	4641
896.012	4736
896.134	4698
896.255	4729
896.376	4584
896.498	4603
896.619	4645
896.74	4577
896.861	4622
896.982	4934
897.103	5025
897.224	4816
897.345	4717
897.466	4641
897.587	4698
897.708	4790
897.828	4809
897.949	4675
898.07	4527
898.19	4656
898.311	4816
898.431	4611
898.552	4725
898.672	4797
898.792	4820
898.913	4774
899.033	4668
899.153	4481
899.273	4386
899.393	4497
899.513	4542
899.633	4561
899.753	4504
899.873	4550
899.993	4554
900.113	4459
900.232	4584
900.352	4554
900.472	4447
900.591	4348
900.711	4474
900.83	4413
900.95	4577
901.069	4687
901.189	4527
901.308	4344
901.427	4341
901.546	4417
901.665	4512
901.784	4459
901.904	4371
902.023	4303
902.141	4162
902.26	4188
902.379	4333
902.498	4249
902.617	4200
902.735	4371
902.854	4405
902.973	4352
903.091	4196
903.21	4200
903.328	4287
903.446	4265
903.565	4257
903.683	4360
903.801	4238
903.919	4394
904.038	4428
904.156	4318
904.274	4371
904.392	4428
904.51	4409
904.627	4459
904.745	4630
904.863	4649
904.981	4383
905.098	4276
905.216	4371
905.334	4459
905.451	4451
905.569	4402
905.686	4516
905.803	4565
905.921	4421
906.038	4508
906.155	4451
906.272	4436
906.389	4432
906.506	4341
906.623	4363
906.74	4409
906.857	4291
906.974	4390
907.091	4596
907.208	4637
907.324	4569
907.441	4466
907.557	4333
907.674	4299
907.79	4322
907.907	4337
908.023	4478
908.139	4459
908.256	4451
908.372	4478
908.488	4394
908.604	4356
908.72	4322
908.836	4375
908.952	4356
909.068	4390
909.184	4554
909.3	4485
909.415	4569
909.531	4580
909.647	4348
909.762	4367
909.878	4386
909.993	4462
910.108	4402
910.224	4413
910.339	4428
910.454	4405
910.57	4356
910.685	4341
910.8	4622
910.915	4577
911.03	4462
911.145	4291
911.259	4299
911.374	4356
911.489	4249
911.604	4287
911.718	4169
911.833	4207
911.947	4078
912.062	4040
912.176	4219
912.291	4211
912.405	4257
912.519	4443
912.633	4493
912.748	4322
912.862	4261
912.976	4173
913.09	4082
913.204	4185
913.318	4268
913.431	4390
913.545	4337
913.659	4417
913.772	4371
913.886	4265
914	4211
914.113	4379
914.226	4451
914.34	4371
914.453	4211
914.566	4478
914.68	4322
914.793	4322
914.906	4177
915.019	4109
915.132	4109
915.245	4169
915.358	4207
915.47	4272
915.583	4238
915.696	4253
915.809	4398
915.921	4390
916.034	4299
916.146	4276
916.259	4188
916.371	4375
916.483	4363
916.595	4219
916.708	4344
916.82	4287
916.932	4303
917.044	4360
917.156	4310
917.268	4200
917.38	4238
917.491	4261
917.603	4303
917.715	4413
917.826	4455
917.938	4333
918.049	4242
918.161	4421
918.272	4546
918.384	4531
918.495	4405
918.606	4272
918.717	4207
918.828	4325
918.939	4325
919.05	4234
919.161	4284
919.272	4166
919.383	4230
919.494	4424
919.604	4630
919.715	4409
919.826	4337
919.936	4383
920.047	4546
920.157	4474
920.267	4679
920.378	4500
920.488	4489
920.598	4687
920.708	4877
920.818	4778
920.928	4740
921.038	4900
921.148	4892
921.258	4588
921.368	4554
921.477	4493
921.587	4447
921.697	4394
921.806	4580
921.916	4447
922.025	4261
922.134	4238
922.244	4211
922.353	4356
922.462	4162
922.571	4128
922.68	4029
922.789	4029
922.898	4029
923.007	3979
923.116	4101
923.224	4082
923.333	4093
923.442	3975
923.55	3949
923.659	4002
923.767	4082
923.876	3956
923.984	4147
924.092	3991
924.201	4059
924.309	4082
924.417	4074
924.525	4006
924.633	4086
924.741	5064
924.849	3888
924.956	4139
925.064	3975
925.172	3884
925.279	3953
925.387	4040
925.494	4067
925.602	4204
925.709	4188
925.816	4078
925.924	4109
926.031	4192
926.138	4128
926.245	4181
926.352	4090
926.459	4261
926.566	4310
926.673	4147
926.779	4128
926.886	4074
926.993	3972
927.099	3960
927.206	3941
927.312	3926
927.419	4032
927.525	4017
927.631	4044
927.737	3972
927.843	3896
927.95	3831
928.056	3918
928.162	3983
928.267	4044
928.373	4660
928.479	4124
928.585	3838
928.69	4025
928.796	4109
928.901	3964
929.007	3838
929.112	3941
929.218	3968
929.323	3968
929.428	3941
929.533	4086
929.638	3907
929.743	3941
929.848	3979
929.953	4002
930.058	3941
930.163	3774
930.267	3819
930.372	3998
930.477	3827
930.581	4093
930.685	3907
930.79	3831
930.894	3876
930.998	3854
931.103	4002
931.207	3728
931.311	3679
931.415	3660
931.519	3523
931.623	3542
