Data from test_V78500241_1153.txt Node
Date: Fri Mar 25 16:57:01 CST 2022
User: usil
Spectrometer: V785-0024
Trigger mode: 0
Integration Time (sec): 4.000000E-1
Scans to average: 1
Nonlinearity correction enabled: false
Boxcar width: 0
Storing dark spectrum: false
XAxis mode: Wavelengths
Number of Pixels in Spectrum: 1024
>>>>>Begin Spectral Data<<<<<
801.071	8084
801.214	8100
801.356	7955
801.499	7879
801.641	7795
801.783	7826
801.926	7951
802.068	7997
802.211	7883
802.353	7963
802.496	7822
802.638	7799
802.78	7921
802.923	7932
803.065	7894
803.208	7845
803.35	8005
803.492	8081
803.635	8199
803.777	8054
803.919	8126
804.061	8476
804.204	8187
804.346	8039
804.488	7978
804.63	8088
804.773	8043
804.915	8062
805.057	8309
805.199	8183
805.341	8195
805.483	8275
805.626	8195
805.768	8142
805.91	8153
806.052	8229
806.194	8054
806.336	8229
806.478	8164
806.62	8050
806.762	8103
806.904	8210
807.046	8499
807.188	8385
807.33	8252
807.472	8256
807.614	8142
807.756	8138
807.898	7932
808.04	7875
808.182	7921
808.324	7898
808.465	7909
808.607	8123
808.749	8100
808.891	8134
809.033	8252
809.174	8168
809.316	8005
809.458	8005
809.6	7936
809.741	8016
809.883	8027
810.025	8020
810.166	8077
810.308	8024
810.45	7913
810.591	7868
810.733	7753
810.875	7670
811.016	7499
811.158	7537
811.299	7632
811.441	7647
811.582	7719
811.724	7578
811.865	7495
812.007	7582
812.148	7578
812.29	7578
812.431	7719
812.573	7887
812.714	7951
812.855	8119
812.997	8153
813.138	8298
813.279	8195
813.421	8126
813.562	8050
813.703	7849
813.845	7761
813.986	7457
814.127	7206
814.268	7266
814.41	7145
814.551	7149
814.692	7168
814.833	6996
814.974	7061
815.115	7110
815.256	6970
815.397	6875
815.539	6966
815.68	6814
815.821	6787
815.962	6837
816.103	6814
816.244	6722
816.385	6593
816.526	6631
816.666	6448
816.807	6258
816.948	6380
817.089	6437
817.23	6418
817.371	6376
817.512	6357
817.653	6437
817.793	6384
817.934	6414
818.075	6426
818.216	6388
818.356	6384
818.497	6247
818.638	6140
818.778	6121
818.919	6155
819.06	6144
819.2	6281
819.341	6353
819.481	6388
819.622	6604
819.762	6738
819.903	6707
820.043	6585
820.184	6559
820.324	6582
820.465	6688
820.605	6711
820.746	6608
820.886	6483
821.026	6642
821.167	6623
821.307	6768
821.447	6764
821.588	6620
821.728	6559
821.868	6494
822.008	6289
822.149	6372
822.289	6323
822.429	6129
822.569	6102
822.709	6129
822.849	5870
822.99	5893
823.13	5878
823.27	5954
823.41	5798
823.55	5756
823.69	5813
823.83	5771
823.97	5672
824.11	5478
824.25	5520
824.389	5520
824.529	5638
824.669	5486
824.809	5615
824.949	5619
825.089	5630
825.228	5589
825.368	5364
825.508	5383
825.648	5315
825.787	5383
825.927	5357
826.067	5353
826.206	5269
826.346	5395
826.485	5364
826.625	5379
826.765	5509
826.904	5467
827.044	5258
827.183	5193
827.323	5098
827.462	5220
827.601	5086
827.741	5212
827.88	5216
828.02	5109
828.159	5227
828.298	5273
828.437	5379
828.577	5315
828.716	5467
828.855	5311
828.994	5178
829.134	5147
829.273	5220
829.412	5132
829.551	5147
829.69	5136
829.829	5223
829.968	5402
830.107	5277
830.246	5223
830.385	5174
830.524	5128
830.663	5025
830.802	4984
830.941	4892
831.08	4812
831.219	4949
831.357	4972
831.496	5140
831.635	4930
831.774	4858
831.913	4862
832.051	4710
832.19	4740
832.329	4843
832.467	4706
832.606	4588
832.744	4702
832.883	4694
833.022	4729
833.16	4771
833.299	4793
833.437	4805
833.576	4809
833.714	4831
833.852	4850
833.991	4843
834.129	4938
834.267	4927
834.406	4930
834.544	4984
834.682	4923
834.821	4976
834.959	5151
835.097	4995
835.235	5132
835.373	5105
835.511	5094
835.65	5003
835.788	5003
835.926	4904
836.064	4877
836.202	4885
836.34	5197
836.478	5254
836.615	5079
836.753	5189
836.891	5269
837.029	5265
837.167	5250
837.305	5159
837.443	5094
837.58	5045
837.718	5189
837.856	5178
837.993	5140
838.131	5159
838.269	5193
838.406	5223
838.544	5147
838.681	5014
838.819	4987
838.956	4858
839.094	4946
839.231	4953
839.369	5075
839.506	5444
839.643	5242
839.781	5029
839.918	5060
840.055	5033
840.193	5071
840.33	5098
840.467	5132
840.604	5170
840.742	5444
840.879	5045
841.016	5052
841.153	5155
841.29	5376
841.427	5341
841.564	5318
841.701	5364
841.838	5235
841.975	5227
842.112	5311
842.249	5132
842.385	5109
842.522	5318
842.659	5155
842.796	5113
842.933	5181
843.069	5170
843.206	5170
843.343	5311
843.479	5181
843.616	5254
843.752	4991
843.889	5006
844.025	5201
844.162	5033
844.298	5197
844.435	5102
844.571	5075
844.708	5235
844.844	5307
844.98	5357
845.117	5296
845.253	5155
845.389	5086
845.525	5117
845.661	5083
845.798	5006
845.934	5140
846.07	5006
846.206	5155
846.342	5292
846.478	5147
846.614	4995
846.75	4965
846.886	4862
847.022	5128
847.158	5010
847.294	5045
847.429	5086
847.565	5052
847.701	5326
847.837	4824
847.972	4847
848.108	4987
848.244	4915
848.379	4755
848.515	4733
848.65	4694
848.786	4748
848.921	4729
849.057	4881
849.192	4900
849.328	4759
849.463	4797
849.598	4782
849.734	4771
849.869	4630
850.004	4656
850.14	4664
850.275	4603
850.41	4478
850.545	4558
850.68	4565
850.815	4622
850.95	4622
851.085	4847
851.22	4729
851.355	4683
851.49	4596
851.625	4596
851.76	4615
851.895	4546
852.03	4538
852.165	4618
852.299	4687
852.434	4748
852.569	4733
852.703	4771
852.838	4839
852.973	4942
853.107	4938
853.242	4675
853.376	4626
853.511	4519
853.645	4641
853.78	4793
853.914	4664
854.048	4672
854.183	4596
854.317	4714
854.451	4820
854.585	4634
854.72	4596
854.854	4717
854.988	4580
855.122	4672
855.256	4512
855.39	4706
855.524	4740
855.658	4744
855.792	4683
855.926	4706
856.06	4733
856.194	4816
856.327	4683
856.461	4634
856.595	4580
856.729	4656
856.862	4763
856.996	4698
857.13	4683
857.263	4752
857.397	4767
857.53	4622
857.664	4710
857.797	4774
857.931	4786
858.064	4679
858.197	4748
858.331	4611
858.464	4569
858.597	4508
858.731	4611
858.864	4611
858.997	4615
859.13	4660
859.263	4607
859.396	4706
859.529	4531
859.662	4512
859.795	4561
859.928	4615
860.061	4706
860.194	4740
860.327	4611
860.46	4565
860.592	4660
860.725	4702
860.858	4702
860.99	4519
861.123	4451
861.256	4519
861.388	4607
861.521	5250
861.653	4474
861.786	4451
861.918	4459
862.05	4466
862.183	4554
862.315	4565
862.447	4664
862.58	4531
862.712	4371
862.844	4356
862.976	4432
863.108	4459
863.24	4828
863.372	4325
863.504	4405
863.636	4356
863.768	4440
863.9	4447
864.032	4367
864.164	4424
864.296	4455
864.428	4542
864.559	4554
864.691	4516
864.823	4493
864.954	4519
865.086	4474
865.217	4436
865.349	4409
865.48	4409
865.612	4481
865.743	4653
865.875	4455
866.006	4459
866.137	4436
866.269	4413
866.4	4417
866.531	4390
866.662	4413
866.793	4417
866.924	4367
867.055	4500
867.186	4379
867.317	4398
867.448	4394
867.579	4367
867.71	4329
867.841	4386
867.972	4447
868.103	4481
868.233	4466
868.364	4436
868.495	4447
868.625	4664
868.756	4752
868.886	4538
869.017	4558
869.147	4702
869.278	4771
869.408	4588
869.539	4626
869.669	4698
869.799	4660
869.929	4721
870.06	4725
870.19	4923
870.32	4900
870.45	4881
870.58	4957
870.71	5086
870.84	5064
870.97	4991
871.1	4904
871.23	5132
871.36	5113
871.489	5033
871.619	5117
871.749	5060
871.879	5124
872.008	5124
872.138	5052
872.267	4976
872.397	4843
872.526	4755
872.656	4725
872.785	4755
872.915	4858
873.044	4984
873.173	4900
873.303	4942
873.432	4934
873.561	4942
873.69	4858
873.819	4835
873.948	4831
874.077	4801
874.206	4706
874.335	4778
874.464	4850
874.593	5048
874.722	4949
874.851	5086
874.979	5037
875.108	5067
875.237	4889
875.365	4790
875.494	4870
875.623	4953
875.751	4797
875.88	4850
876.008	4949
876.136	5014
876.265	5170
876.393	5292
876.521	5261
876.65	5189
876.778	5132
876.906	5006
877.034	4999
877.162	5037
877.29	4965
877.418	5064
877.546	5006
877.674	5010
877.802	5010
877.93	4976
878.058	4885
878.185	4870
878.313	4953
878.441	4904
878.568	4763
878.696	4881
878.824	4934
878.951	4972
879.079	5064
879.206	5296
879.333	5083
879.461	4968
879.588	4972
879.715	5113
879.842	5201
879.97	5006
880.097	4706
880.224	4748
880.351	4820
880.478	4858
880.605	4816
880.732	4828
880.859	5102
880.986	4835
881.112	4866
881.239	4782
881.366	4694
881.493	4615
881.619	4637
881.746	4634
881.872	4641
881.999	4706
882.125	4683
882.252	4824
882.378	4892
882.505	4957
882.631	4755
882.757	4714
882.883	4763
883.01	4660
883.136	4656
883.262	4637
883.388	4672
883.514	4835
883.64	4896
883.766	4797
883.892	4740
884.018	4763
884.143	4923
884.269	5010
884.395	4687
884.52	4664
884.646	4729
884.772	4626
884.897	4561
885.023	4668
885.148	4839
885.274	4908
885.399	4850
885.524	4721
885.65	4736
885.775	4740
885.9	4706
886.025	4885
886.15	4816
886.275	4771
886.4	4691
886.525	4740
886.65	4717
886.775	4725
886.9	4908
887.025	5105
887.149	4820
887.274	4660
887.399	4588
887.523	4660
887.648	4637
887.773	4622
887.897	4782
888.021	4801
888.146	4653
888.27	4866
888.395	4923
888.519	4820
888.643	4862
888.767	4877
888.891	4725
889.015	4637
889.139	4679
889.263	4637
889.387	4801
889.511	4915
889.635	4820
889.759	4675
889.883	4679
890.006	4774
890.13	4885
890.254	4641
890.377	4679
890.501	4535
890.624	4573
890.748	4675
890.871	4523
890.995	4466
891.118	4413
891.241	4554
891.364	4592
891.488	4702
891.611	4527
891.734	4588
891.857	4630
891.98	4554
892.103	4683
892.226	4630
892.349	4535
892.471	4470
892.594	4577
892.717	4664
892.839	4603
892.962	4618
893.085	4702
893.207	4668
893.33	4485
893.452	4573
893.575	4744
893.697	4580
893.819	4778
893.941	4812
894.064	4801
894.186	4577
894.308	4565
894.43	4755
894.552	4870
894.674	4816
894.796	4531
894.918	4656
895.04	4607
895.161	4748
895.283	4706
895.405	4565
895.526	4672
895.648	4660
895.769	4687
895.891	4725
896.012	4763
896.134	4790
896.255	4653
896.376	4660
896.498	4599
896.619	4702
896.74	4683
896.861	4656
896.982	4927
897.103	5159
897.224	4873
897.345	4797
897.466	4691
897.587	4736
897.708	4911
897.828	4763
897.949	4683
898.07	4554
898.19	4725
898.311	4870
898.431	4721
898.552	4793
898.672	4843
898.792	4828
898.913	4797
899.033	4599
899.153	4493
899.273	4440
899.393	4542
899.513	4577
899.633	4546
899.753	4561
899.873	4516
899.993	4573
900.113	4538
900.232	4596
900.352	4508
900.472	4542
900.591	4405
900.711	4527
900.83	4489
900.95	4611
901.069	4717
901.189	4584
901.308	4394
901.427	4322
901.546	4413
901.665	4478
901.784	4580
901.904	4409
902.023	4329
902.141	4238
902.26	4188
902.379	4375
902.498	4234
902.617	4242
902.735	4440
902.854	4436
902.973	4394
903.091	4242
903.21	4272
903.328	4322
903.446	4265
903.565	4299
903.683	4405
903.801	4261
903.919	4432
904.038	4459
904.156	4344
904.274	4478
904.392	4417
904.51	4508
904.627	4504
904.745	4592
904.863	4672
904.981	4413
905.098	4306
905.216	4356
905.334	4500
905.451	4459
905.569	4519
905.686	4577
905.803	4573
905.921	4451
906.038	4584
906.155	4538
906.272	4421
906.389	4455
906.506	4383
906.623	4402
906.74	4383
906.857	4333
906.974	4356
907.091	4596
907.208	4717
907.324	4592
907.441	4508
907.557	4352
907.674	4398
907.79	4394
907.907	4409
908.023	4508
908.139	4500
908.256	4405
908.372	4478
908.488	4531
908.604	4333
908.72	4363
908.836	4405
908.952	4352
909.068	4462
909.184	4599
909.3	4508
909.415	4592
909.531	4584
909.647	4371
909.762	4383
909.878	4360
909.993	4459
910.108	4394
910.224	4440
910.339	4489
910.454	4455
910.57	4405
910.685	4310
910.8	4721
910.915	4618
911.03	4516
911.145	4341
911.259	4371
911.374	4386
911.489	4310
911.604	4295
911.718	4135
911.833	4230
911.947	4090
912.062	4086
912.176	4246
912.291	4306
912.405	4261
912.519	4447
912.633	4485
912.748	4394
912.862	4325
912.976	4257
913.09	4124
913.204	4200
913.318	4246
913.431	4443
913.545	4394
913.659	4455
913.772	4424
913.886	4249
914	4246
914.113	4390
914.226	4402
914.34	4386
914.453	4257
914.566	4481
914.68	4344
914.793	4394
914.906	4158
915.019	4120
915.132	4112
915.245	4196
915.358	4211
915.47	4249
915.583	4242
915.696	4291
915.809	4447
915.921	4451
916.034	4280
916.146	4272
916.259	4303
916.371	4405
916.483	4360
916.595	4265
916.708	4348
916.82	4306
916.932	4367
917.044	4341
917.156	4352
917.268	4253
917.38	4291
917.491	4284
917.603	4322
917.715	4481
917.826	4443
917.938	4432
918.049	4268
918.161	4371
918.272	4535
918.384	4577
918.495	4485
918.606	4299
918.717	4299
918.828	4356
918.939	4367
919.05	4272
919.161	4352
919.272	4158
919.383	4261
919.494	4447
919.604	4672
919.715	4440
919.826	4344
919.936	4424
920.047	4577
920.157	4481
920.267	4721
920.378	4592
920.488	4497
920.598	4733
920.708	4885
920.818	4774
920.928	4809
921.038	4942
921.148	4919
921.258	4675
921.368	4561
921.477	4535
921.587	4443
921.697	4409
921.806	4538
921.916	4466
922.025	4295
922.134	4295
922.244	4234
922.353	4314
922.462	4188
922.571	4150
922.68	4086
922.789	3975
922.898	4021
923.007	3956
923.116	4128
923.224	4074
923.333	4086
923.442	4051
923.55	3983
923.659	4071
923.767	4139
923.876	4006
923.984	4143
924.092	4051
924.201	4101
924.309	4105
924.417	4139
924.525	4059
924.633	4097
924.741	5094
924.849	3922
924.956	4173
925.064	4002
925.172	3918
925.279	3964
925.387	4074
925.494	4040
925.602	4215
925.709	4234
925.816	4051
925.924	4177
926.031	4249
926.138	4196
926.245	4253
926.352	4101
926.459	4280
926.566	4303
926.673	4200
926.779	4143
926.886	4139
926.993	4040
927.099	4017
927.206	3953
927.312	3975
927.419	4032
927.525	4010
927.631	4086
927.737	3964
927.843	3994
927.95	3876
928.056	3994
928.162	3987
928.267	4093
928.373	4653
928.479	4063
928.585	3903
928.69	4036
928.796	4082
928.901	3998
929.007	3899
929.112	3968
929.218	3994
929.323	3953
929.428	3941
929.533	4105
929.638	3873
929.743	4006
929.848	4109
929.953	4051
930.058	3987
930.163	3850
930.267	3865
930.372	4002
930.477	3823
930.581	4105
930.685	3911
930.79	3827
930.894	3926
930.998	3842
931.103	4048
931.207	3732
931.311	3740
931.415	3671
931.519	3523
931.623	3572
