Data from test_V78500241_2581.txt Node
Date: Fri Mar 25 17:06:56 CST 2022
User: usil
Spectrometer: V785-0024
Trigger mode: 0
Integration Time (sec): 4.000000E-1
Scans to average: 1
Nonlinearity correction enabled: false
Boxcar width: 0
Storing dark spectrum: false
XAxis mode: Wavelengths
Number of Pixels in Spectrum: 1024
>>>>>Begin Spectral Data<<<<<
801.071	8073
801.214	7967
801.356	7864
801.499	7841
801.641	7784
801.783	7807
801.926	7928
802.068	7947
802.211	7974
802.353	7989
802.496	7887
802.638	7925
802.78	7932
802.923	7879
803.065	7898
803.208	7841
803.35	7947
803.492	8119
803.635	8199
803.777	8027
803.919	8134
804.061	8438
804.204	8126
804.346	8096
804.488	7982
804.63	8092
804.773	7986
804.915	8077
805.057	8309
805.199	8180
805.341	8210
805.483	8244
805.626	8229
805.768	8202
805.91	8168
806.052	8142
806.194	8119
806.336	8301
806.478	8081
806.62	7997
806.762	8062
806.904	8202
807.046	8442
807.188	8454
807.33	8282
807.472	8336
807.614	8077
807.756	8134
807.898	8027
808.04	7879
808.182	7849
808.324	7822
808.465	7947
808.607	8081
808.749	8119
808.891	8191
809.033	8313
809.174	8176
809.316	8081
809.458	8039
809.6	8039
809.741	8012
809.883	8012
810.025	7993
810.166	8031
810.308	8012
810.45	7963
810.591	7845
810.733	7715
810.875	7689
811.016	7552
811.158	7521
811.299	7594
811.441	7761
811.582	7731
811.724	7567
811.865	7571
812.007	7655
812.148	7613
812.29	7594
812.431	7742
812.573	7776
812.714	7974
812.855	8149
812.997	8134
813.138	8271
813.279	8096
813.421	8016
813.562	8031
813.703	7852
813.845	7750
813.986	7453
814.127	7308
814.268	7225
814.41	7221
814.551	7198
814.692	7194
814.833	7099
814.974	7015
815.115	7107
815.256	6966
815.397	6935
815.539	6939
815.68	6798
815.821	6753
815.962	6863
816.103	6878
816.244	6692
816.385	6582
816.526	6646
816.666	6498
816.807	6319
816.948	6418
817.089	6422
817.23	6479
817.371	6395
817.512	6353
817.653	6395
817.793	6338
817.934	6448
818.075	6494
818.216	6448
818.356	6448
818.497	6262
818.638	6178
818.778	6159
818.919	6133
819.06	6163
819.2	6315
819.341	6372
819.481	6372
819.622	6509
819.762	6776
819.903	6700
820.043	6620
820.184	6620
820.324	6612
820.465	6673
820.605	6684
820.746	6601
820.886	6464
821.026	6684
821.167	6703
821.307	6791
821.447	6711
821.588	6681
821.728	6623
821.868	6517
822.008	6361
822.149	6357
822.289	6346
822.429	6182
822.569	6125
822.709	6213
822.849	5958
822.99	5885
823.13	5927
823.27	5904
823.41	5836
823.55	5760
823.69	5805
823.83	5764
823.97	5676
824.11	5554
824.25	5501
824.389	5547
824.529	5604
824.669	5524
824.809	5661
824.949	5661
825.089	5676
825.228	5554
825.368	5395
825.508	5345
825.648	5326
825.787	5391
825.927	5349
826.067	5292
826.206	5258
826.346	5368
826.485	5337
826.625	5398
826.765	5562
826.904	5478
827.044	5284
827.183	5201
827.323	5102
827.462	5265
827.601	5166
827.741	5216
827.88	5220
828.02	5102
828.159	5269
828.298	5326
828.437	5349
828.577	5326
828.716	5486
828.855	5303
828.994	5162
829.134	5143
829.273	5216
829.412	5174
829.551	5117
829.69	5151
829.829	5299
829.968	5341
830.107	5288
830.246	5273
830.385	5193
830.524	5151
830.663	5048
830.802	4961
830.941	4881
831.08	4957
831.219	4995
831.357	4946
831.496	5113
831.635	4949
831.774	4866
831.913	4809
832.051	4729
832.19	4736
832.329	4828
832.467	4672
832.606	4641
832.744	4702
832.883	4702
833.022	4801
833.16	4812
833.299	4843
833.437	4801
833.576	4831
833.714	4812
833.852	4866
833.991	4885
834.129	4942
834.267	4930
834.406	4911
834.544	5014
834.682	4987
834.821	4961
834.959	5185
835.097	4957
835.235	5155
835.373	5067
835.511	5121
835.65	5033
835.788	4961
835.926	4946
836.064	4873
836.202	4991
836.34	5159
836.478	5181
836.615	5132
836.753	5208
836.891	5223
837.029	5258
837.167	5193
837.305	5109
837.443	5216
837.58	5056
837.718	5220
837.856	5151
837.993	5151
838.131	5231
838.269	5185
838.406	5208
838.544	5185
838.681	5056
838.819	5006
838.956	4881
839.094	4908
839.231	4957
839.369	5052
839.506	5448
839.643	5239
839.781	5064
839.918	5029
840.055	5121
840.193	5037
840.33	5086
840.467	5109
840.604	5212
840.742	5459
840.879	5075
841.016	5090
841.153	5143
841.29	5376
841.427	5379
841.564	5337
841.701	5357
841.838	5227
841.975	5265
842.112	5280
842.249	5143
842.385	5105
842.522	5341
842.659	5143
842.796	5151
842.933	5216
843.069	5098
843.206	5155
843.343	5322
843.479	5258
843.616	5212
843.752	5075
843.889	4991
844.025	5193
844.162	4961
844.298	5235
844.435	5075
844.571	5022
844.708	5220
844.844	5307
844.98	5341
845.117	5299
845.253	5140
845.389	5090
845.525	5109
845.661	5109
845.798	5025
845.934	5140
846.07	5071
846.206	5185
846.342	5265
846.478	5178
846.614	4957
846.75	5006
846.886	4942
847.022	5124
847.158	5025
847.294	5079
847.429	5086
847.565	4984
847.701	5303
847.837	4839
847.972	4835
848.108	4946
848.244	4946
848.379	4820
848.515	4733
848.65	4725
848.786	4740
848.921	4771
849.057	4809
849.192	4915
849.328	4831
849.463	4850
849.598	4828
849.734	4763
849.869	4668
850.004	4622
850.14	4641
850.275	4603
850.41	4577
850.545	4584
850.68	4607
850.815	4596
850.95	4607
851.085	4881
851.22	4752
851.355	4645
851.49	4641
851.625	4649
851.76	4653
851.895	4550
852.03	4531
852.165	4660
852.299	4706
852.434	4793
852.569	4748
852.703	4774
852.838	4801
852.973	4972
853.107	4927
853.242	4710
853.376	4714
853.511	4546
853.645	4573
853.78	4801
853.914	4664
854.048	4714
854.183	4637
854.317	4675
854.451	4870
854.585	4679
854.72	4618
854.854	4782
854.988	4569
855.122	4603
855.256	4535
855.39	4698
855.524	4790
855.658	4729
855.792	4683
855.926	4668
856.06	4725
856.194	4790
856.327	4660
856.461	4615
856.595	4626
856.729	4592
856.862	4782
856.996	4683
857.13	4710
857.263	4714
857.397	4801
857.53	4622
857.664	4672
857.797	4786
857.931	4774
858.064	4649
858.197	4759
858.331	4714
858.464	4622
858.597	4527
858.731	4618
858.864	4634
858.997	4592
859.13	4660
859.263	4615
859.396	4691
859.529	4588
859.662	4603
859.795	4592
859.928	4626
860.061	4763
860.194	4694
860.327	4618
860.46	4607
860.592	4698
860.725	4725
860.858	4675
860.99	4577
861.123	4519
861.256	4493
861.388	4599
861.521	5273
861.653	4447
861.786	4451
861.918	4462
862.05	4493
862.183	4569
862.315	4596
862.447	4637
862.58	4554
862.712	4386
862.844	4375
862.976	4402
863.108	4447
863.24	4706
863.372	4303
863.504	4344
863.636	4421
863.768	4531
863.9	4455
864.032	4371
864.164	4352
864.296	4497
864.428	4538
864.559	4538
864.691	4470
864.823	4565
864.954	4474
865.086	4497
865.217	4432
865.349	4440
865.48	4462
865.612	4481
865.743	4641
865.875	4436
866.006	4436
866.137	4459
866.269	4447
866.4	4432
866.531	4432
866.662	4394
866.793	4455
866.924	4398
867.055	4481
867.186	4485
867.317	4405
867.448	4375
867.579	4383
867.71	4386
867.841	4360
867.972	4455
868.103	4508
868.233	4398
868.364	4481
868.495	4466
868.625	4672
868.756	4759
868.886	4588
869.017	4622
869.147	4725
869.278	4786
869.408	4664
869.539	4694
869.669	4687
869.799	4683
869.929	4744
870.06	4721
870.19	4904
870.32	4873
870.45	4923
870.58	4987
870.71	5128
870.84	5064
870.97	4930
871.1	4915
871.23	5140
871.36	5117
871.489	5014
871.619	5052
871.749	5109
871.879	5128
872.008	5121
872.138	5094
872.267	5003
872.397	4816
872.526	4831
872.656	4717
872.785	4790
872.915	4900
873.044	5037
873.173	4927
873.303	4968
873.432	4976
873.561	5018
873.69	4847
873.819	4824
873.948	4904
874.077	4805
874.206	4721
874.335	4820
874.464	4927
874.593	5079
874.722	4938
874.851	5098
874.979	5045
875.108	5022
875.237	4946
875.365	4904
875.494	4889
875.623	4946
875.751	4801
875.88	4896
876.008	5010
876.136	5041
876.265	5242
876.393	5315
876.521	5273
876.65	5261
876.778	5132
876.906	5075
877.034	5056
877.162	5067
877.29	4961
877.418	5064
877.546	5041
877.674	5086
877.802	5041
877.93	5052
878.058	4915
878.185	4923
878.313	4927
878.441	4934
878.568	4801
878.696	4904
878.824	4923
878.951	5022
879.079	5140
879.206	5288
879.333	5071
879.461	4957
879.588	4957
879.715	5155
879.842	5235
879.97	4995
880.097	4733
880.224	4778
880.351	4805
880.478	4831
880.605	4805
880.732	4812
880.859	5075
880.986	4881
881.112	4862
881.239	4771
881.366	4637
881.493	4645
881.619	4580
881.746	4599
881.872	4694
881.999	4668
882.125	4694
882.252	4801
882.378	4793
882.505	4984
882.631	4824
882.757	4637
882.883	4691
883.01	4733
883.136	4691
883.262	4607
883.388	4569
883.514	4771
883.64	4850
883.766	4767
883.892	4687
884.018	4752
884.143	4885
884.269	4999
884.395	4683
884.52	4615
884.646	4626
884.772	4561
884.897	4569
885.023	4691
885.148	4782
885.274	4824
885.399	4790
885.524	4744
885.65	4702
885.775	4721
885.9	4683
886.025	4881
886.15	4790
886.275	4759
886.4	4691
886.525	4733
886.65	4687
886.775	4725
886.9	4927
887.025	5010
887.149	4801
887.274	4622
887.399	4592
887.523	4577
887.648	4599
887.773	4535
887.897	4778
888.021	4801
888.146	4645
888.27	4801
888.395	4927
888.519	4805
888.643	4820
888.767	4858
888.891	4637
889.015	4596
889.139	4672
889.263	4611
889.387	4752
889.511	4908
889.635	4793
889.759	4626
889.883	4664
890.006	4729
890.13	4805
890.254	4656
890.377	4656
890.501	4535
890.624	4500
890.748	4660
890.871	4531
890.995	4424
891.118	4356
891.241	4523
891.364	4569
891.488	4622
891.611	4508
891.734	4508
891.857	4634
891.98	4561
892.103	4599
892.226	4599
892.349	4516
892.471	4428
892.594	4580
892.717	4584
892.839	4573
892.962	4569
893.085	4668
893.207	4626
893.33	4432
893.452	4546
893.575	4641
893.697	4580
893.819	4755
893.941	4812
894.064	4752
894.186	4630
894.308	4580
894.43	4748
894.552	4805
894.674	4778
894.796	4573
894.918	4607
895.04	4577
895.161	4675
895.283	4679
895.405	4558
895.526	4615
895.648	4725
895.769	4698
895.891	4752
896.012	4702
896.134	4706
896.255	4656
896.376	4615
896.498	4622
896.619	4626
896.74	4599
896.861	4717
896.982	4896
897.103	5098
897.224	4801
897.345	4744
897.466	4653
897.587	4683
897.708	4877
897.828	4771
897.949	4683
898.07	4558
898.19	4637
898.311	4843
898.431	4702
898.552	4748
898.672	4778
898.792	4790
898.913	4725
899.033	4592
899.153	4531
899.273	4436
899.393	4523
899.513	4531
899.633	4500
899.753	4500
899.873	4531
899.993	4554
900.113	4512
900.232	4622
900.352	4531
900.472	4462
900.591	4409
900.711	4481
900.83	4447
900.95	4596
901.069	4694
901.189	4550
901.308	4394
901.427	4284
901.546	4371
901.665	4497
901.784	4550
901.904	4375
902.023	4337
902.141	4188
902.26	4150
902.379	4284
902.498	4249
902.617	4249
902.735	4356
902.854	4390
902.973	4360
903.091	4158
903.21	4188
903.328	4371
903.446	4242
903.565	4238
903.683	4333
903.801	4238
903.919	4424
904.038	4455
904.156	4356
904.274	4466
904.392	4398
904.51	4413
904.627	4466
904.745	4573
904.863	4645
904.981	4424
905.098	4318
905.216	4383
905.334	4413
905.451	4447
905.569	4428
905.686	4542
905.803	4569
905.921	4447
906.038	4504
906.155	4459
906.272	4405
906.389	4466
906.506	4352
906.623	4405
906.74	4421
906.857	4322
906.974	4379
907.091	4558
907.208	4706
907.324	4626
907.441	4519
907.557	4341
907.674	4337
907.79	4310
907.907	4383
908.023	4447
908.139	4481
908.256	4409
908.372	4512
908.488	4424
908.604	4402
908.72	4310
908.836	4383
908.952	4329
909.068	4398
909.184	4561
909.3	4436
909.415	4599
909.531	4489
909.647	4360
909.762	4394
909.878	4348
909.993	4398
910.108	4375
910.224	4390
910.339	4474
910.454	4383
910.57	4348
910.685	4310
910.8	4634
910.915	4611
911.03	4481
911.145	4303
911.259	4348
911.374	4341
911.489	4310
911.604	4280
911.718	4131
911.833	4196
911.947	4063
912.062	4017
912.176	4177
912.291	4249
912.405	4280
912.519	4455
912.633	4478
912.748	4398
912.862	4299
912.976	4162
913.09	4078
913.204	4143
913.318	4284
913.431	4325
913.545	4314
913.659	4440
913.772	4333
913.886	4318
914	4215
914.113	4352
914.226	4474
914.34	4383
914.453	4223
914.566	4405
914.68	4310
914.793	4356
914.906	4169
915.019	4090
915.132	4090
915.245	4162
915.358	4200
915.47	4230
915.583	4299
915.696	4253
915.809	4386
915.921	4405
916.034	4234
916.146	4238
916.259	4211
916.371	4371
916.483	4394
916.595	4280
916.708	4310
916.82	4318
916.932	4329
917.044	4356
917.156	4348
917.268	4219
917.38	4280
917.491	4215
917.603	4352
917.715	4402
917.826	4428
917.938	4363
918.049	4261
918.161	4379
918.272	4561
918.384	4538
918.495	4428
918.606	4287
918.717	4265
918.828	4337
918.939	4375
919.05	4257
919.161	4291
919.272	4090
919.383	4204
919.494	4436
919.604	4622
919.715	4462
919.826	4341
919.936	4394
920.047	4516
920.157	4485
920.267	4675
920.378	4550
920.488	4508
920.598	4717
920.708	4862
920.818	4702
920.928	4706
921.038	4896
921.148	4892
921.258	4672
921.368	4550
921.477	4497
921.587	4455
921.697	4371
921.806	4542
921.916	4436
922.025	4261
922.134	4291
922.244	4173
922.353	4329
922.462	4181
922.571	4093
922.68	4017
922.789	3945
922.898	4040
923.007	3998
923.116	4067
923.224	4040
923.333	4032
923.442	3998
923.55	3991
923.659	3994
923.767	4082
923.876	4002
923.984	4120
924.092	3987
924.201	4071
924.309	4074
924.417	4139
924.525	4071
924.633	4074
924.741	5079
924.849	3899
924.956	4124
925.064	3964
925.172	3888
925.279	3960
925.387	4040
925.494	4032
925.602	4154
925.709	4177
925.816	4055
925.924	4128
926.031	4215
926.138	4177
926.245	4169
926.352	4090
926.459	4227
926.566	4333
926.673	4200
926.779	4086
926.886	4013
926.993	3987
927.099	3918
927.206	3915
927.312	3888
927.419	4040
927.525	3991
927.631	4074
927.737	3903
927.843	3953
927.95	3823
928.056	3915
928.162	3983
928.267	4086
928.373	4603
928.479	4131
928.585	3861
928.69	4032
928.796	4101
928.901	3975
929.007	3838
929.112	3968
929.218	3983
929.323	3918
929.428	3918
929.533	4086
929.638	3869
929.743	4002
929.848	4059
929.953	4002
930.058	3907
930.163	3762
930.267	3835
930.372	3960
930.477	3819
930.581	4067
930.685	3934
930.79	3819
930.894	3884
930.998	3896
931.103	4017
931.207	3667
931.311	3701
931.415	3656
931.519	3504
931.623	3530
