Data from test_V78500241_37.txt Node
Date: Fri Mar 25 16:49:15 CST 2022
User: usil
Spectrometer: V785-0024
Trigger mode: 0
Integration Time (sec): 4.000000E-1
Scans to average: 1
Nonlinearity correction enabled: false
Boxcar width: 0
Storing dark spectrum: false
XAxis mode: Wavelengths
Number of Pixels in Spectrum: 1024
>>>>>Begin Spectral Data<<<<<
801.071	8027
801.214	8077
801.356	7967
801.499	7947
801.641	7887
801.783	7887
801.926	7970
802.068	8001
802.211	8005
802.353	8092
802.496	7970
802.638	7986
802.78	7944
802.923	7925
803.065	7906
803.208	7875
803.35	8058
803.492	8168
803.635	8168
803.777	8043
803.919	8176
804.061	8488
804.204	8187
804.346	8065
804.488	8001
804.63	8138
804.773	8069
804.915	8088
805.057	8351
805.199	8180
805.341	8271
805.483	8336
805.626	8248
805.768	8206
805.91	8263
806.052	8221
806.194	8145
806.336	8240
806.478	8157
806.62	8153
806.762	8248
806.904	8252
807.046	8514
807.188	8419
807.33	8343
807.472	8404
807.614	8168
807.756	8134
807.898	8031
808.04	7951
808.182	7887
808.324	7879
808.465	7947
808.607	8077
808.749	8168
808.891	8252
809.033	8370
809.174	8218
809.316	8069
809.458	8088
809.6	7982
809.741	7978
809.883	8065
810.025	8130
810.166	8088
810.308	8043
810.45	8069
810.591	7951
810.733	7788
810.875	7715
811.016	7582
811.158	7563
811.299	7662
811.441	7818
811.582	7769
811.724	7613
811.865	7624
812.007	7624
812.148	7616
812.29	7647
812.431	7799
812.573	7894
812.714	8043
812.855	8161
812.997	8248
813.138	8374
813.279	8202
813.421	8172
813.562	8035
813.703	7887
813.845	7807
813.986	7468
814.127	7324
814.268	7228
814.41	7202
814.551	7198
814.692	7301
814.833	7175
814.974	7137
815.115	7217
815.256	7046
815.397	6958
815.539	6985
815.68	6856
815.821	6749
815.962	6894
816.103	6897
816.244	6741
816.385	6684
816.526	6646
816.666	6544
816.807	6372
816.948	6475
817.089	6513
817.23	6521
817.371	6448
817.512	6414
817.653	6429
817.793	6422
817.934	6509
818.075	6464
818.216	6494
818.356	6540
818.497	6365
818.638	6190
818.778	6220
818.919	6209
819.06	6235
819.2	6361
819.341	6445
819.481	6433
819.622	6574
819.762	6692
819.903	6688
820.043	6673
820.184	6669
820.324	6639
820.465	6738
820.605	6703
820.746	6669
820.886	6498
821.026	6753
821.167	6829
821.307	6791
821.447	6848
821.588	6741
821.728	6639
821.868	6544
822.008	6350
822.149	6399
822.289	6418
822.429	6159
822.569	6155
822.709	6201
822.849	5969
822.99	5980
823.13	5946
823.27	5927
823.41	5851
823.55	5817
823.69	5847
823.83	5783
823.97	5752
824.11	5577
824.25	5608
824.389	5600
824.529	5619
824.669	5581
824.809	5642
824.949	5707
825.089	5672
825.228	5604
825.368	5478
825.508	5414
825.648	5395
825.787	5410
825.927	5440
826.067	5357
826.206	5372
826.346	5448
826.485	5490
826.625	5414
826.765	5604
826.904	5509
827.044	5322
827.183	5239
827.323	5174
827.462	5280
827.601	5189
827.741	5239
827.88	5265
828.02	5155
828.159	5261
828.298	5288
828.437	5425
828.577	5387
828.716	5535
828.855	5402
828.994	5254
829.134	5231
829.273	5216
829.412	5155
829.551	5159
829.69	5201
829.829	5296
829.968	5433
830.107	5311
830.246	5299
830.385	5223
830.524	5136
830.663	5094
830.802	5018
830.941	4930
831.08	4900
831.219	4980
831.357	4987
831.496	5174
831.635	4949
831.774	4904
831.913	4930
832.051	4736
832.19	4797
832.329	4870
832.467	4736
832.606	4653
832.744	4740
832.883	4755
833.022	4820
833.16	4820
833.299	4850
833.437	4870
833.576	4850
833.714	4870
833.852	4850
833.991	4957
834.129	5018
834.267	5003
834.406	4942
834.544	4995
834.682	5025
834.821	4991
834.959	5193
835.097	5006
835.235	5216
835.373	5151
835.511	5155
835.65	5075
835.788	5052
835.926	4934
836.064	4942
836.202	4957
836.34	5189
836.478	5220
836.615	5136
836.753	5269
836.891	5322
837.029	5242
837.167	5235
837.305	5193
837.443	5181
837.58	5105
837.718	5337
837.856	5231
837.993	5193
838.131	5239
838.269	5280
838.406	5220
838.544	5193
838.681	5075
838.819	5079
838.956	4908
839.094	4934
839.231	5003
839.369	5143
839.506	5471
839.643	5292
839.781	5098
839.918	5029
840.055	5178
840.193	5121
840.33	5132
840.467	5132
840.604	5212
840.742	5505
840.879	5140
841.016	5105
841.153	5204
841.29	5429
841.427	5364
841.564	5364
841.701	5376
841.838	5265
841.975	5280
842.112	5288
842.249	5181
842.385	5090
842.522	5360
842.659	5227
842.796	5166
842.933	5201
843.069	5174
843.206	5223
843.343	5341
843.479	5292
843.616	5265
843.752	5048
843.889	5067
844.025	5258
844.162	5086
844.298	5254
844.435	5048
844.571	5064
844.708	5212
844.844	5357
844.98	5398
845.117	5334
845.253	5143
845.389	5124
845.525	5147
845.661	5193
845.798	5132
845.934	5185
846.07	5128
846.206	5246
846.342	5387
846.478	5223
846.614	5056
846.75	5056
846.886	4953
847.022	5170
847.158	5071
847.294	5132
847.429	5155
847.565	5117
847.701	5406
847.837	4946
847.972	4850
848.108	5025
848.244	4953
848.379	4782
848.515	4763
848.65	4786
848.786	4782
848.921	4843
849.057	4900
849.192	4911
849.328	4900
849.463	4839
849.598	4805
849.734	4839
849.869	4805
850.004	4729
850.14	4698
850.275	4645
850.41	4561
850.545	4599
850.68	4599
850.815	4729
850.95	4679
851.085	4858
851.22	4790
851.355	4710
851.49	4634
851.625	4656
851.76	4687
851.895	4611
852.03	4618
852.165	4641
852.299	4752
852.434	4801
852.569	4847
852.703	4824
852.838	4847
852.973	5048
853.107	4927
853.242	4755
853.376	4729
853.511	4637
853.645	4622
853.78	4854
853.914	4706
854.048	4752
854.183	4691
854.317	4755
854.451	4885
854.585	4691
854.72	4725
854.854	4786
854.988	4649
855.122	4664
855.256	4550
855.39	4694
855.524	4828
855.658	4774
855.792	4748
855.926	4771
856.06	4748
856.194	4858
856.327	4748
856.461	4664
856.595	4626
856.729	4668
856.862	4812
856.996	4740
857.13	4733
857.263	4797
857.397	4809
857.53	4714
857.664	4786
857.797	4786
857.931	4767
858.064	4702
858.197	4752
858.331	4714
858.464	4637
858.597	4512
858.731	4656
858.864	4729
858.997	4618
859.13	4725
859.263	4733
859.396	4641
859.529	4626
859.662	4580
859.795	4649
859.928	4634
860.061	4797
860.194	4786
860.327	4637
860.46	4577
860.592	4782
860.725	4759
860.858	4729
860.99	4630
861.123	4538
861.256	4554
861.388	4645
861.521	5467
861.653	4523
861.786	4466
861.918	4478
862.05	4554
862.183	4561
862.315	4637
862.447	4706
862.58	4611
862.712	4432
862.844	4394
862.976	4519
863.108	4504
863.24	4949
863.372	4383
863.504	4440
863.636	4386
863.768	4542
863.9	4466
864.032	4432
864.164	4402
864.296	4527
864.428	4599
864.559	4637
864.691	4561
864.823	4618
864.954	4538
865.086	4577
865.217	4500
865.349	4436
865.48	4462
865.612	4523
865.743	4641
865.875	4527
866.006	4500
866.137	4512
866.269	4466
866.4	4478
866.531	4447
866.662	4455
866.793	4440
866.924	4428
867.055	4550
867.186	4573
867.317	4455
867.448	4386
867.579	4478
867.71	4394
867.841	4390
867.972	4500
868.103	4523
868.233	4474
868.364	4485
868.495	4508
868.625	4702
868.756	4809
868.886	4607
869.017	4641
869.147	4755
869.278	4767
869.408	4656
869.539	4641
869.669	4721
869.799	4630
869.929	4797
870.06	4786
870.19	5010
870.32	4961
870.45	4968
870.58	5025
870.71	5098
870.84	5102
870.97	5014
871.1	4919
871.23	5239
871.36	5185
871.489	5098
871.619	5174
871.749	5113
871.879	5185
872.008	5208
872.138	5064
872.267	5060
872.397	4923
872.526	4839
872.656	4778
872.785	4854
872.915	5025
873.044	5105
873.173	4957
873.303	5029
873.432	5003
873.561	4980
873.69	4930
873.819	4930
873.948	4980
874.077	4839
874.206	4824
874.335	4843
874.464	4995
874.593	5128
874.722	5029
874.851	5121
874.979	5132
875.108	5109
875.237	4991
875.365	4915
875.494	4953
875.623	4999
875.751	4862
875.88	4911
876.008	5052
876.136	5102
876.265	5261
876.393	5341
876.521	5334
876.65	5292
876.778	5197
876.906	5151
877.034	5094
877.162	5048
877.29	5052
877.418	5102
877.546	5105
877.674	5079
877.802	5086
877.93	5045
878.058	4915
878.185	4930
878.313	4991
878.441	5014
878.568	4877
878.696	4942
878.824	5006
878.951	5060
879.079	5162
879.206	5318
879.333	5128
879.461	5056
879.588	5079
879.715	5155
879.842	5231
879.97	5052
880.097	4866
880.224	4850
880.351	4850
880.478	4904
880.605	4843
880.732	4862
880.859	5147
880.986	4915
881.112	4961
881.239	4828
881.366	4733
881.493	4622
881.619	4634
881.746	4634
881.872	4714
881.999	4725
882.125	4752
882.252	4812
882.378	4889
882.505	5056
882.631	4839
882.757	4759
882.883	4752
883.01	4801
883.136	4752
883.262	4618
883.388	4641
883.514	4889
883.64	4858
883.766	4828
883.892	4725
884.018	4733
884.143	4919
884.269	5037
884.395	4645
884.52	4660
884.646	4675
884.772	4607
884.897	4592
885.023	4694
885.148	4793
885.274	4885
885.399	4835
885.524	4774
885.65	4755
885.775	4812
885.9	4767
886.025	4900
886.15	4828
886.275	4797
886.4	4698
886.525	4759
886.65	4736
886.775	4744
886.9	4923
887.025	5094
887.149	4839
887.274	4702
887.399	4618
887.523	4615
887.648	4653
887.773	4615
887.897	4778
888.021	4873
888.146	4702
888.27	4866
888.395	4927
888.519	4805
888.643	4862
888.767	4892
888.891	4725
889.015	4603
889.139	4702
889.263	4637
889.387	4839
889.511	4881
889.635	4892
889.759	4694
889.883	4687
890.006	4790
890.13	4850
890.254	4660
890.377	4748
890.501	4618
890.624	4565
890.748	4706
890.871	4523
890.995	4493
891.118	4421
891.241	4531
891.364	4565
891.488	4710
891.611	4546
891.734	4596
891.857	4649
891.98	4573
892.103	4710
892.226	4630
892.349	4573
892.471	4474
892.594	4607
892.717	4618
892.839	4641
892.962	4637
893.085	4721
893.207	4668
893.33	4489
893.452	4603
893.575	4721
893.697	4603
893.819	4854
893.941	4877
894.064	4820
894.186	4645
894.308	4599
894.43	4763
894.552	4873
894.674	4839
894.796	4592
894.918	4634
895.04	4588
895.161	4714
895.283	4710
895.405	4603
895.526	4656
895.648	4702
895.769	4729
895.891	4752
896.012	4793
896.134	4740
896.255	4721
896.376	4691
896.498	4611
896.619	4740
896.74	4656
896.861	4683
896.982	4885
897.103	5128
897.224	4919
897.345	4793
897.466	4759
897.587	4729
897.708	4877
897.828	4831
897.949	4721
898.07	4599
898.19	4702
898.311	4873
898.431	4710
898.552	4816
898.672	4831
898.792	4839
898.913	4793
899.033	4679
899.153	4584
899.273	4504
899.393	4580
899.513	4546
899.633	4596
899.753	4607
899.873	4573
899.993	4615
900.113	4584
900.232	4615
900.352	4596
900.472	4519
900.591	4455
900.711	4508
900.83	4443
900.95	4649
901.069	4717
901.189	4561
901.308	4424
901.427	4405
901.546	4413
901.665	4500
901.784	4531
901.904	4409
902.023	4329
902.141	4219
902.26	4204
902.379	4325
902.498	4280
902.617	4238
902.735	4405
902.854	4440
902.973	4356
903.091	4242
903.21	4223
903.328	4333
903.446	4303
903.565	4280
903.683	4421
903.801	4295
903.919	4432
904.038	4489
904.156	4344
904.274	4497
904.392	4436
904.51	4497
904.627	4481
904.745	4588
904.863	4710
904.981	4413
905.098	4303
905.216	4421
905.334	4478
905.451	4489
905.569	4459
905.686	4630
905.803	4607
905.921	4470
906.038	4588
906.155	4569
906.272	4421
906.389	4512
906.506	4428
906.623	4424
906.74	4478
906.857	4303
906.974	4363
907.091	4592
907.208	4733
907.324	4637
907.441	4550
907.557	4383
907.674	4348
907.79	4390
907.907	4432
908.023	4523
908.139	4542
908.256	4466
908.372	4565
908.488	4481
908.604	4348
908.72	4379
908.836	4451
908.952	4451
909.068	4451
909.184	4649
909.3	4489
909.415	4603
909.531	4618
909.647	4443
909.762	4386
909.878	4371
909.993	4481
910.108	4500
910.224	4462
910.339	4535
910.454	4432
910.57	4436
910.685	4360
910.8	4717
910.915	4611
911.03	4573
911.145	4375
911.259	4367
911.374	4421
911.489	4375
911.604	4337
911.718	4276
911.833	4200
911.947	4116
912.062	4036
912.176	4299
912.291	4314
912.405	4295
912.519	4497
912.633	4561
912.748	4363
912.862	4367
912.976	4253
913.09	4147
913.204	4211
913.318	4295
913.431	4440
913.545	4413
913.659	4493
913.772	4398
913.886	4306
914	4253
914.113	4417
914.226	4474
914.34	4432
914.453	4325
914.566	4470
914.68	4375
914.793	4360
914.906	4215
915.019	4162
915.132	4166
915.245	4219
915.358	4314
915.47	4284
915.583	4325
915.696	4371
915.809	4455
915.921	4489
916.034	4333
916.146	4265
916.259	4249
916.371	4383
916.483	4428
916.595	4360
916.708	4352
916.82	4360
916.932	4371
917.044	4352
917.156	4348
917.268	4318
917.38	4303
917.491	4299
917.603	4421
917.715	4455
917.826	4413
917.938	4360
918.049	4265
918.161	4421
918.272	4588
918.384	4588
918.495	4462
918.606	4295
918.717	4306
918.828	4360
918.939	4409
919.05	4352
919.161	4375
919.272	4196
919.383	4306
919.494	4497
919.604	4649
919.715	4455
919.826	4371
919.936	4470
920.047	4573
920.157	4573
920.267	4725
920.378	4580
920.488	4538
920.598	4809
920.708	4923
920.818	4801
920.928	4797
921.038	5056
921.148	4972
921.258	4687
921.368	4569
921.477	4527
921.587	4474
921.697	4447
921.806	4599
921.916	4478
922.025	4303
922.134	4276
922.244	4268
922.353	4398
922.462	4219
922.571	4188
922.68	4040
922.789	3983
922.898	4116
923.007	4006
923.116	4158
923.224	4128
923.333	4124
923.442	4032
923.55	4055
923.659	4067
923.767	4162
923.876	4029
923.984	4147
924.092	4071
924.201	4067
924.309	4116
924.417	4154
924.525	4112
924.633	4139
924.741	5064
924.849	3964
924.956	4200
925.064	4048
925.172	3945
925.279	4002
925.387	4093
925.494	4074
925.602	4257
925.709	4246
925.816	4059
925.924	4169
926.031	4303
926.138	4181
926.245	4246
926.352	4109
926.459	4322
926.566	4402
926.673	4173
926.779	4086
926.886	4093
926.993	4032
927.099	3972
927.206	3964
927.312	3964
927.419	4105
927.525	4078
927.631	4128
927.737	4044
927.843	4021
927.95	3899
928.056	3975
928.162	4055
928.267	4105
928.373	4679
928.479	4158
928.585	3930
928.69	4078
928.796	4105
928.901	4017
929.007	3865
929.112	4055
929.218	3998
929.323	3991
929.428	3983
929.533	4143
929.638	3896
929.743	4010
929.848	4059
929.953	4006
930.058	3994
930.163	3850
930.267	3865
930.372	4025
930.477	3831
930.581	4090
930.685	3991
930.79	3861
930.894	3926
930.998	3842
931.103	4025
931.207	3728
931.311	3762
931.415	3724
931.519	3557
931.623	3591
