Data from test_V78500241_1319.txt Node
Date: Fri Mar 25 16:58:10 CST 2022
User: usil
Spectrometer: V785-0024
Trigger mode: 0
Integration Time (sec): 4.000000E-1
Scans to average: 1
Nonlinearity correction enabled: false
Boxcar width: 0
Storing dark spectrum: false
XAxis mode: Wavelengths
Number of Pixels in Spectrum: 1024
>>>>>Begin Spectral Data<<<<<
801.071	8016
801.214	8058
801.356	7902
801.499	7803
801.641	7780
801.783	7761
801.926	7951
802.068	7955
802.211	7906
802.353	7944
802.496	7864
802.638	7909
802.78	7909
802.923	7909
803.065	7925
803.208	7879
803.35	7928
803.492	8096
803.635	8225
803.777	7989
803.919	8168
804.061	8412
804.204	8107
804.346	8054
804.488	8008
804.63	8050
804.773	8012
804.915	8119
805.057	8320
805.199	8123
805.341	8168
805.483	8259
805.626	8221
805.768	8180
805.91	8191
806.052	8172
806.194	8065
806.336	8298
806.478	8073
806.62	8092
806.762	8096
806.904	8290
807.046	8488
807.188	8294
807.33	8301
807.472	8267
807.614	8161
807.756	8138
807.898	7997
808.04	7879
808.182	7982
808.324	7890
808.465	7955
808.607	8065
808.749	8069
808.891	8233
809.033	8282
809.174	8157
809.316	8115
809.458	8024
809.6	8062
809.741	8046
809.883	8020
810.025	8073
810.166	8050
810.308	8027
810.45	7970
810.591	7898
810.733	7723
810.875	7708
811.016	7510
811.158	7487
811.299	7632
811.441	7681
811.582	7700
811.724	7655
811.865	7422
812.007	7518
812.148	7548
812.29	7632
812.431	7681
812.573	7887
812.714	7993
812.855	8138
812.997	8256
813.138	8351
813.279	8240
813.421	8100
813.562	8005
813.703	7879
813.845	7723
813.986	7430
814.127	7225
814.268	7236
814.41	7183
814.551	7179
814.692	7103
814.833	7034
814.974	7110
815.115	7099
815.256	6905
815.397	6905
815.539	6943
815.68	6779
815.821	6768
815.962	6878
816.103	6829
816.244	6696
816.385	6616
816.526	6623
816.666	6464
816.807	6277
816.948	6403
817.089	6460
817.23	6395
817.371	6323
817.512	6391
817.653	6418
817.793	6380
817.934	6403
818.075	6445
818.216	6422
818.356	6376
818.497	6247
818.638	6106
818.778	6125
818.919	6140
819.06	6129
819.2	6281
819.341	6296
819.481	6319
819.622	6547
819.762	6749
819.903	6711
820.043	6585
820.184	6582
820.324	6544
820.465	6662
820.605	6711
820.746	6620
820.886	6502
821.026	6616
821.167	6726
821.307	6764
821.447	6738
821.588	6677
821.728	6597
821.868	6521
822.008	6319
822.149	6384
822.289	6350
822.429	6171
822.569	6079
822.709	6106
822.849	5916
822.99	5901
823.13	5939
823.27	5901
823.41	5805
823.55	5756
823.69	5729
823.83	5760
823.97	5672
824.11	5562
824.25	5535
824.389	5630
824.529	5562
824.669	5501
824.809	5646
824.949	5646
825.089	5611
825.228	5570
825.368	5406
825.508	5364
825.648	5379
825.787	5402
825.927	5364
826.067	5322
826.206	5284
826.346	5421
826.485	5387
826.625	5414
826.765	5573
826.904	5505
827.044	5250
827.183	5227
827.323	5136
827.462	5296
827.601	5239
827.741	5212
827.88	5227
828.02	5147
828.159	5239
828.298	5345
828.437	5364
828.577	5307
828.716	5532
828.855	5376
828.994	5246
829.134	5204
829.273	5212
829.412	5132
829.551	5185
829.69	5185
829.829	5288
829.968	5398
830.107	5334
830.246	5322
830.385	5265
830.524	5204
830.663	5098
830.802	4991
830.941	4980
831.08	4961
831.219	5052
831.357	5014
831.496	5204
831.635	4908
831.774	4881
831.913	4911
832.051	4771
832.19	4778
832.329	4870
832.467	4706
832.606	4653
832.744	4744
832.883	4744
833.022	4793
833.16	4843
833.299	4892
833.437	4873
833.576	4847
833.714	4873
833.852	4908
833.991	4953
834.129	4938
834.267	4999
834.406	4934
834.544	5022
834.682	5014
834.821	5014
834.959	5212
835.097	4991
835.235	5208
835.373	5140
835.511	5067
835.65	5067
835.788	5064
835.926	4957
836.064	4938
836.202	4972
836.34	5185
836.478	5280
836.615	5170
836.753	5242
836.891	5315
837.029	5284
837.167	5181
837.305	5189
837.443	5155
837.58	5090
837.718	5261
837.856	5201
837.993	5170
838.131	5220
838.269	5220
838.406	5223
838.544	5246
838.681	5056
838.819	5048
838.956	4919
839.094	4934
839.231	4987
839.369	5098
839.506	5463
839.643	5258
839.781	5117
839.918	5067
840.055	5098
840.193	5064
840.33	5155
840.467	5166
840.604	5280
840.742	5463
840.879	5102
841.016	5094
841.153	5151
841.29	5391
841.427	5360
841.564	5307
841.701	5406
841.838	5315
841.975	5292
842.112	5311
842.249	5151
842.385	5166
842.522	5318
842.659	5170
842.796	5140
842.933	5223
843.069	5151
843.206	5197
843.343	5337
843.479	5280
843.616	5258
843.752	5071
843.889	5067
844.025	5288
844.162	5048
844.298	5273
844.435	5121
844.571	5067
844.708	5208
844.844	5326
844.98	5337
845.117	5337
845.253	5159
845.389	5136
845.525	5178
845.661	5189
845.798	5079
845.934	5151
846.07	5060
846.206	5162
846.342	5296
846.478	5273
846.614	5006
846.75	5014
846.886	4934
847.022	5140
847.158	5052
847.294	5071
847.429	5109
847.565	5098
847.701	5372
847.837	4839
847.972	4835
848.108	4968
848.244	4942
848.379	4820
848.515	4755
848.65	4744
848.786	4790
848.921	4835
849.057	4908
849.192	4953
849.328	4824
849.463	4881
849.598	4809
849.734	4793
849.869	4694
850.004	4653
850.14	4725
850.275	4607
850.41	4561
850.545	4607
850.68	4599
850.815	4649
850.95	4630
851.085	4828
851.22	4736
851.355	4714
851.49	4687
851.625	4668
851.76	4714
851.895	4535
852.03	4596
852.165	4672
852.299	4748
852.434	4801
852.569	4714
852.703	4740
852.838	4873
852.973	4957
853.107	4946
853.242	4801
853.376	4691
853.511	4546
853.645	4706
853.78	4843
853.914	4748
854.048	4714
854.183	4664
854.317	4725
854.451	4896
854.585	4714
854.72	4649
854.854	4816
854.988	4611
855.122	4672
855.256	4565
855.39	4668
855.524	4809
855.658	4763
855.792	4752
855.926	4801
856.06	4755
856.194	4797
856.327	4733
856.461	4679
856.595	4660
856.729	4664
856.862	4793
856.996	4672
857.13	4778
857.263	4767
857.397	4854
857.53	4691
857.664	4797
857.797	4812
857.931	4831
858.064	4729
858.197	4801
858.331	4668
858.464	4653
858.597	4558
858.731	4630
858.864	4672
858.997	4618
859.13	4672
859.263	4611
859.396	4721
859.529	4611
859.662	4561
859.795	4558
859.928	4637
860.061	4801
860.194	4790
860.327	4664
860.46	4637
860.592	4714
860.725	4733
860.858	4782
860.99	4584
861.123	4558
861.256	4569
861.388	4668
861.521	5212
861.653	4497
861.786	4459
861.918	4432
862.05	4493
862.183	4569
862.315	4656
862.447	4645
862.58	4607
862.712	4386
862.844	4352
862.976	4500
863.108	4443
863.24	4938
863.372	4363
863.504	4489
863.636	4402
863.768	4474
863.9	4402
864.032	4394
864.164	4421
864.296	4538
864.428	4508
864.559	4569
864.691	4531
864.823	4504
864.954	4485
865.086	4508
865.217	4508
865.349	4424
865.48	4478
865.612	4470
865.743	4622
865.875	4538
866.006	4417
866.137	4474
866.269	4440
866.4	4500
866.531	4470
866.662	4424
866.793	4421
866.924	4409
867.055	4516
867.186	4466
867.317	4447
867.448	4363
867.579	4402
867.71	4436
867.841	4383
867.972	4504
868.103	4497
868.233	4512
868.364	4455
868.495	4447
868.625	4694
868.756	4767
868.886	4603
869.017	4641
869.147	4782
869.278	4763
869.408	4649
869.539	4668
869.669	4755
869.799	4675
869.929	4774
870.06	4740
870.19	4984
870.32	4965
870.45	4915
870.58	5086
870.71	5098
870.84	5140
870.97	4957
871.1	4900
871.23	5189
871.36	5140
871.489	5037
871.619	5060
871.749	5064
871.879	5143
872.008	5197
872.138	5048
872.267	4984
872.397	4896
872.526	4828
872.656	4706
872.785	4786
872.915	4961
873.044	5086
873.173	4961
873.303	4976
873.432	5010
873.561	4949
873.69	4915
873.819	4854
873.948	4946
874.077	4843
874.206	4755
874.335	4835
874.464	4915
874.593	5056
874.722	4999
874.851	5117
874.979	5060
875.108	5064
875.237	4946
875.365	4873
875.494	4885
875.623	4961
875.751	4782
875.88	4892
876.008	5010
876.136	5029
876.265	5239
876.393	5322
876.521	5284
876.65	5239
876.778	5189
876.906	5060
877.034	5067
877.162	5045
877.29	4968
877.418	5048
877.546	5052
877.674	5121
877.802	5029
877.93	5060
878.058	4946
878.185	4885
878.313	4991
878.441	4949
878.568	4820
878.696	4934
878.824	4965
878.951	5041
879.079	5201
879.206	5258
879.333	5136
879.461	5010
879.588	5037
879.715	5159
879.842	5311
879.97	5006
880.097	4790
880.224	4755
880.351	4839
880.478	4847
880.605	4820
880.732	4816
880.859	5067
880.986	4919
881.112	4961
881.239	4820
881.366	4649
881.493	4596
881.619	4615
881.746	4653
881.872	4656
881.999	4592
882.125	4675
882.252	4843
882.378	4797
882.505	4915
882.631	4809
882.757	4714
882.883	4771
883.01	4725
883.136	4683
883.262	4637
883.388	4622
883.514	4835
883.64	4904
883.766	4824
883.892	4698
884.018	4755
884.143	4862
884.269	5033
884.395	4717
884.52	4611
884.646	4672
884.772	4607
884.897	4569
885.023	4656
885.148	4801
885.274	4843
885.399	4824
885.524	4767
885.65	4725
885.775	4736
885.9	4702
886.025	4892
886.15	4839
886.275	4706
886.4	4622
886.525	4759
886.65	4698
886.775	4755
886.9	4911
887.025	5045
887.149	4873
887.274	4668
887.399	4592
887.523	4618
887.648	4573
887.773	4622
887.897	4744
888.021	4809
888.146	4679
888.27	4820
888.395	4923
888.519	4835
888.643	4797
888.767	4786
888.891	4675
889.015	4611
889.139	4649
889.263	4558
889.387	4759
889.511	4828
889.635	4793
889.759	4691
889.883	4660
890.006	4691
890.13	4835
890.254	4702
890.377	4725
890.501	4584
890.624	4580
890.748	4618
890.871	4531
890.995	4421
891.118	4383
891.241	4516
891.364	4497
891.488	4683
891.611	4470
891.734	4512
891.857	4611
891.98	4550
892.103	4679
892.226	4561
892.349	4504
892.471	4451
892.594	4527
892.717	4584
892.839	4611
892.962	4569
893.085	4714
893.207	4618
893.33	4455
893.452	4512
893.575	4664
893.697	4580
893.819	4755
893.941	4870
894.064	4771
894.186	4561
894.308	4592
894.43	4721
894.552	4824
894.674	4752
894.796	4565
894.918	4626
895.04	4558
895.161	4736
895.283	4634
895.405	4558
895.526	4653
895.648	4706
895.769	4637
895.891	4733
896.012	4744
896.134	4706
896.255	4634
896.376	4622
896.498	4599
896.619	4660
896.74	4637
896.861	4660
896.982	4972
897.103	5075
897.224	4767
897.345	4729
897.466	4672
897.587	4755
897.708	4862
897.828	4782
897.949	4675
898.07	4550
898.19	4577
898.311	4805
898.431	4694
898.552	4759
898.672	4805
898.792	4793
898.913	4755
899.033	4615
899.153	4493
899.273	4440
899.393	4535
899.513	4558
899.633	4523
899.753	4558
899.873	4516
899.993	4615
900.113	4538
900.232	4596
900.352	4527
900.472	4493
900.591	4405
900.711	4519
900.83	4409
900.95	4622
901.069	4683
901.189	4546
901.308	4398
901.427	4291
901.546	4379
901.665	4493
901.784	4531
901.904	4390
902.023	4299
902.141	4219
902.26	4158
902.379	4310
902.498	4268
902.617	4246
902.735	4402
902.854	4421
902.973	4356
903.091	4215
903.21	4265
903.328	4291
903.446	4276
903.565	4249
903.683	4398
903.801	4261
903.919	4424
904.038	4447
904.156	4310
904.274	4436
904.392	4379
904.51	4443
904.627	4493
904.745	4615
904.863	4584
904.981	4379
905.098	4344
905.216	4363
905.334	4466
905.451	4398
905.569	4424
905.686	4607
905.803	4538
905.921	4462
906.038	4554
906.155	4451
906.272	4424
906.389	4497
906.506	4337
906.623	4379
906.74	4386
906.857	4333
906.974	4409
907.091	4577
907.208	4660
907.324	4607
907.441	4531
907.557	4303
907.674	4337
907.79	4360
907.907	4417
908.023	4421
908.139	4478
908.256	4440
908.372	4447
908.488	4417
908.604	4352
908.72	4287
908.836	4413
908.952	4360
909.068	4409
909.184	4569
909.3	4470
909.415	4596
909.531	4527
909.647	4386
909.762	4367
909.878	4367
909.993	4383
910.108	4421
910.224	4443
910.339	4455
910.454	4428
910.57	4341
910.685	4333
910.8	4679
910.915	4603
911.03	4519
911.145	4303
911.259	4367
911.374	4356
911.489	4291
911.604	4268
911.718	4200
911.833	4268
911.947	4063
912.062	4074
912.176	4192
912.291	4253
912.405	4219
912.519	4455
912.633	4485
912.748	4367
912.862	4310
912.976	4200
913.09	4051
913.204	4154
913.318	4253
913.431	4367
913.545	4379
913.659	4493
913.772	4337
913.886	4230
914	4227
914.113	4409
914.226	4436
914.34	4371
914.453	4253
914.566	4398
914.68	4276
914.793	4325
914.906	4154
915.019	4124
915.132	4078
915.245	4215
915.358	4188
915.47	4261
915.583	4242
915.696	4261
915.809	4386
915.921	4432
916.034	4299
916.146	4272
916.259	4246
916.371	4413
916.483	4379
916.595	4253
916.708	4303
916.82	4325
916.932	4356
917.044	4287
917.156	4367
917.268	4234
917.38	4253
917.491	4272
917.603	4325
917.715	4367
917.826	4451
917.938	4329
918.049	4265
918.161	4348
918.272	4561
918.384	4523
918.495	4466
918.606	4291
918.717	4196
918.828	4337
918.939	4371
919.05	4261
919.161	4341
919.272	4131
919.383	4238
919.494	4470
919.604	4622
919.715	4352
919.826	4363
919.936	4363
920.047	4550
920.157	4512
920.267	4702
920.378	4554
920.488	4554
920.598	4702
920.708	4854
920.818	4774
920.928	4672
921.038	4976
921.148	4934
921.258	4645
921.368	4573
921.477	4447
921.587	4451
921.697	4428
921.806	4546
921.916	4447
922.025	4234
922.134	4318
922.244	4185
922.353	4390
922.462	4166
922.571	4093
922.68	4010
922.789	3960
922.898	4067
923.007	3994
923.116	4101
923.224	4082
923.333	4112
923.442	3983
923.55	3949
923.659	4044
923.767	4090
923.876	3994
923.984	4090
924.092	3964
924.201	4074
924.309	4071
924.417	4105
924.525	4059
924.633	4082
924.741	4999
924.849	3930
924.956	4120
925.064	3994
925.172	3892
925.279	3899
925.387	4029
925.494	4059
925.602	4238
925.709	4173
925.816	3987
925.924	4120
926.031	4223
926.138	4147
926.245	4223
926.352	4063
926.459	4249
926.566	4314
926.673	4158
926.779	4090
926.886	4082
926.993	3949
927.099	3941
927.206	3945
927.312	3949
927.419	4067
927.525	4002
927.631	4105
927.737	3979
927.843	3903
927.95	3861
928.056	3960
928.162	3991
928.267	4078
928.373	4675
928.479	4147
928.585	3884
928.69	4021
928.796	4082
928.901	3983
929.007	3831
929.112	4002
929.218	3937
929.323	3941
929.428	3941
929.533	4109
929.638	3968
929.743	3945
929.848	4055
929.953	4017
930.058	3892
930.163	3793
930.267	3781
930.372	3975
930.477	3808
930.581	4078
930.685	3941
930.79	3846
930.894	3880
930.998	3831
931.103	4013
931.207	3709
931.311	3667
931.415	3660
931.519	3557
931.623	3568
