Data from test_V78500241_1818.txt Node
Date: Fri Mar 25 17:01:38 CST 2022
User: usil
Spectrometer: V785-0024
Trigger mode: 0
Integration Time (sec): 4.000000E-1
Scans to average: 1
Nonlinearity correction enabled: false
Boxcar width: 0
Storing dark spectrum: false
XAxis mode: Wavelengths
Number of Pixels in Spectrum: 1024
>>>>>Begin Spectral Data<<<<<
801.071	8043
801.214	7974
801.356	7921
801.499	7852
801.641	7799
801.783	7890
801.926	7982
802.068	7974
802.211	8035
802.353	7978
802.496	7849
802.638	7822
802.78	7856
802.923	7940
803.065	7833
803.208	7879
803.35	7944
803.492	8001
803.635	8229
803.777	8001
803.919	8107
804.061	8476
804.204	8123
804.346	8012
804.488	7986
804.63	8191
804.773	7997
804.915	8130
805.057	8305
805.199	8142
805.341	8157
805.483	8290
805.626	8172
805.768	8035
805.91	8256
806.052	8267
806.194	8100
806.336	8328
806.478	8134
806.62	8073
806.762	8111
806.904	8328
807.046	8480
807.188	8355
807.33	8214
807.472	8301
807.614	8130
807.756	8153
807.898	7940
808.04	7860
808.182	7925
808.324	7909
808.465	7909
808.607	8024
808.749	8103
808.891	8138
809.033	8298
809.174	8199
809.316	8126
809.458	8016
809.6	7970
809.741	8050
809.883	8027
810.025	8161
810.166	8069
810.308	7940
810.45	7963
810.591	7826
810.733	7772
810.875	7677
811.016	7506
811.158	7468
811.299	7616
811.441	7704
811.582	7643
811.724	7575
811.865	7559
812.007	7575
812.148	7559
812.29	7594
812.431	7753
812.573	7928
812.714	8001
812.855	8100
812.997	8237
813.138	8286
813.279	8214
813.421	8065
813.562	7986
813.703	7906
813.845	7757
813.986	7354
814.127	7278
814.268	7217
814.41	7206
814.551	7206
814.692	7297
814.833	7114
814.974	7202
815.115	7141
815.256	7027
815.397	6958
815.539	6962
815.68	6798
815.821	6810
815.962	6897
816.103	6776
816.244	6726
816.385	6627
816.526	6604
816.666	6445
816.807	6365
816.948	6410
817.089	6506
817.23	6426
817.371	6353
817.512	6334
817.653	6338
817.793	6338
817.934	6426
818.075	6479
818.216	6433
818.356	6403
818.497	6251
818.638	6117
818.778	6125
818.919	6136
819.06	6148
819.2	6331
819.341	6292
819.481	6365
819.622	6555
819.762	6749
819.903	6783
820.043	6593
820.184	6559
820.324	6532
820.465	6722
820.605	6703
820.746	6681
820.886	6486
821.026	6642
821.167	6722
821.307	6798
821.447	6863
821.588	6688
821.728	6578
821.868	6437
822.008	6380
822.149	6346
822.289	6391
822.429	6159
822.569	6019
822.709	6129
822.849	5958
822.99	5863
823.13	5866
823.27	5954
823.41	5817
823.55	5783
823.69	5821
823.83	5775
823.97	5638
824.11	5516
824.25	5566
824.389	5589
824.529	5573
824.669	5505
824.809	5615
824.949	5707
825.089	5600
825.228	5600
825.368	5395
825.508	5345
825.648	5379
825.787	5341
825.927	5376
826.067	5299
826.206	5288
826.346	5421
826.485	5406
826.625	5452
826.765	5554
826.904	5467
827.044	5273
827.183	5204
827.323	5083
827.462	5246
827.601	5105
827.741	5174
827.88	5201
828.02	5090
828.159	5231
828.298	5254
828.437	5307
828.577	5322
828.716	5448
828.855	5277
828.994	5162
829.134	5174
829.273	5280
829.412	5102
829.551	5086
829.69	5140
829.829	5273
829.968	5349
830.107	5261
830.246	5261
830.385	5136
830.524	5136
830.663	5029
830.802	4930
830.941	4915
831.08	4877
831.219	4965
831.357	4991
831.496	5098
831.635	4991
831.774	4828
831.913	4862
832.051	4729
832.19	4774
832.329	4850
832.467	4698
832.606	4611
832.744	4702
832.883	4736
833.022	4706
833.16	4809
833.299	4752
833.437	4828
833.576	4862
833.714	4843
833.852	4858
833.991	4870
834.129	4991
834.267	4908
834.406	4908
834.544	5010
834.682	5006
834.821	4965
834.959	5159
835.097	4923
835.235	5132
835.373	5098
835.511	5086
835.65	4999
835.788	4965
835.926	4953
836.064	4915
836.202	4896
836.34	5223
836.478	5178
836.615	5086
836.753	5162
836.891	5284
837.029	5258
837.167	5143
837.305	5181
837.443	5105
837.58	5079
837.718	5265
837.856	5208
837.993	5162
838.131	5201
838.269	5204
838.406	5216
838.544	5239
838.681	5037
838.819	4999
838.956	4919
839.094	4965
839.231	4938
839.369	5090
839.506	5421
839.643	5239
839.781	5060
839.918	5010
840.055	5075
840.193	5090
840.33	5075
840.467	5159
840.604	5124
840.742	5395
840.879	5056
841.016	5113
841.153	5117
841.29	5334
841.427	5349
841.564	5318
841.701	5341
841.838	5254
841.975	5242
842.112	5231
842.249	5124
842.385	5113
842.522	5250
842.659	5155
842.796	5128
842.933	5140
843.069	5132
843.206	5117
843.343	5280
843.479	5197
843.616	5303
843.752	5018
843.889	4965
844.025	5254
844.162	4984
844.298	5201
844.435	5056
844.571	5079
844.708	5181
844.844	5330
844.98	5334
845.117	5299
845.253	5151
845.389	5098
845.525	5166
845.661	5178
845.798	5094
845.934	5178
846.07	5075
846.206	5170
846.342	5227
846.478	5143
846.614	5064
846.75	4919
846.886	4942
847.022	5128
847.158	5056
847.294	5075
847.429	5086
847.565	5018
847.701	5296
847.837	4870
847.972	4816
848.108	4961
848.244	4946
848.379	4793
848.515	4710
848.65	4714
848.786	4778
848.921	4748
849.057	4877
849.192	4885
849.328	4774
849.463	4839
849.598	4767
849.734	4790
849.869	4714
850.004	4599
850.14	4641
850.275	4596
850.41	4554
850.545	4584
850.68	4618
850.815	4622
850.95	4569
851.085	4828
851.22	4714
851.355	4668
851.49	4599
851.625	4603
851.76	4618
851.895	4558
852.03	4516
852.165	4679
852.299	4710
852.434	4774
852.569	4755
852.703	4736
852.838	4881
852.973	4949
853.107	4923
853.242	4725
853.376	4714
853.511	4542
853.645	4588
853.78	4771
853.914	4691
854.048	4660
854.183	4672
854.317	4691
854.451	4854
854.585	4641
854.72	4615
854.854	4752
854.988	4592
855.122	4611
855.256	4497
855.39	4691
855.524	4801
855.658	4752
855.792	4702
855.926	4752
856.06	4771
856.194	4820
856.327	4622
856.461	4588
856.595	4603
856.729	4588
856.862	4733
856.996	4698
857.13	4744
857.263	4805
857.397	4812
857.53	4618
857.664	4740
857.797	4744
857.931	4744
858.064	4702
858.197	4733
858.331	4637
858.464	4592
858.597	4512
858.731	4656
858.864	4656
858.997	4538
859.13	4683
859.263	4656
859.396	4683
859.529	4558
859.662	4577
859.795	4500
859.928	4611
860.061	4721
860.194	4774
860.327	4573
860.46	4561
860.592	4683
860.725	4778
860.858	4721
860.99	4569
861.123	4535
861.256	4546
861.388	4611
861.521	5372
861.653	4489
861.786	4436
861.918	4481
862.05	4519
862.183	4538
862.315	4546
862.447	4683
862.58	4523
862.712	4390
862.844	4348
862.976	4474
863.108	4459
863.24	4847
863.372	4329
863.504	4413
863.636	4428
863.768	4455
863.9	4436
864.032	4375
864.164	4432
864.296	4447
864.428	4546
864.559	4584
864.691	4538
864.823	4512
864.954	4451
865.086	4466
865.217	4470
865.349	4390
865.48	4470
865.612	4516
865.743	4641
865.875	4485
866.006	4428
866.137	4459
866.269	4424
866.4	4436
866.531	4451
866.662	4383
866.793	4443
866.924	4413
867.055	4451
867.186	4481
867.317	4470
867.448	4363
867.579	4398
867.71	4363
867.841	4394
867.972	4481
868.103	4455
868.233	4451
868.364	4443
868.495	4474
868.625	4596
868.756	4752
868.886	4565
869.017	4611
869.147	4740
869.278	4778
869.408	4649
869.539	4580
869.669	4748
869.799	4649
869.929	4771
870.06	4729
870.19	4930
870.32	4946
870.45	4938
870.58	5029
870.71	5079
870.84	5064
870.97	4995
871.1	4877
871.23	5109
871.36	5094
871.489	5025
871.619	5086
871.749	5045
871.879	5109
872.008	5151
872.138	5029
872.267	4942
872.397	4900
872.526	4835
872.656	4725
872.785	4835
872.915	4927
873.044	5045
873.173	4900
873.303	4984
873.432	4946
873.561	4938
873.69	4820
873.819	4854
873.948	4911
874.077	4759
874.206	4744
874.335	4778
874.464	4892
874.593	5086
874.722	4976
874.851	5086
874.979	5052
875.108	5003
875.237	4839
875.365	4862
875.494	4949
875.623	4987
875.751	4862
875.88	4885
876.008	4976
876.136	4953
876.265	5178
876.393	5353
876.521	5250
876.65	5223
876.778	5166
876.906	5079
877.034	5014
877.162	5025
877.29	4953
877.418	5060
877.546	5075
877.674	5086
877.802	5045
877.93	5045
878.058	4919
878.185	4858
878.313	4919
878.441	4972
878.568	4786
878.696	4854
878.824	4953
878.951	4949
879.079	5079
879.206	5288
879.333	5071
879.461	4961
879.588	5014
879.715	5159
879.842	5242
879.97	5010
880.097	4759
880.224	4740
880.351	4809
880.478	4782
880.605	4797
880.732	4755
880.859	5041
880.986	4892
881.112	4923
881.239	4759
881.366	4683
881.493	4626
881.619	4603
881.746	4626
881.872	4649
881.999	4653
882.125	4668
882.252	4812
882.378	4824
882.505	4949
882.631	4797
882.757	4618
882.883	4694
883.01	4729
883.136	4687
883.262	4577
883.388	4626
883.514	4782
883.64	4824
883.766	4816
883.892	4729
884.018	4717
884.143	4904
884.269	4984
884.395	4637
884.52	4622
884.646	4653
884.772	4592
884.897	4546
885.023	4630
885.148	4812
885.274	4866
885.399	4771
885.524	4698
885.65	4672
885.775	4721
885.9	4694
886.025	4889
886.15	4778
886.275	4717
886.4	4683
886.525	4729
886.65	4660
886.775	4687
886.9	4866
887.025	5003
887.149	4805
887.274	4607
887.399	4565
887.523	4618
887.648	4569
887.773	4561
887.897	4786
888.021	4816
888.146	4656
888.27	4801
888.395	4904
888.519	4774
888.643	4778
888.767	4786
888.891	4664
889.015	4649
889.139	4668
889.263	4580
889.387	4725
889.511	4927
889.635	4790
889.759	4618
889.883	4660
890.006	4763
890.13	4835
890.254	4649
890.377	4710
890.501	4546
890.624	4519
890.748	4611
890.871	4516
890.995	4417
891.118	4352
891.241	4550
891.364	4546
891.488	4641
891.611	4493
891.734	4542
891.857	4622
891.98	4565
892.103	4634
892.226	4561
892.349	4512
892.471	4440
892.594	4554
892.717	4596
892.839	4607
892.962	4538
893.085	4668
893.207	4577
893.33	4489
893.452	4470
893.575	4634
893.697	4611
893.819	4763
893.941	4839
894.064	4714
894.186	4569
894.308	4535
894.43	4710
894.552	4793
894.674	4763
894.796	4531
894.918	4573
895.04	4569
895.161	4763
895.283	4653
895.405	4592
895.526	4596
895.648	4691
895.769	4691
895.891	4691
896.012	4698
896.134	4733
896.255	4664
896.376	4653
896.498	4611
896.619	4706
896.74	4607
896.861	4668
896.982	4870
897.103	5086
897.224	4850
897.345	4767
897.466	4679
897.587	4702
897.708	4816
897.828	4740
897.949	4626
898.07	4569
898.19	4615
898.311	4786
898.431	4702
898.552	4744
898.672	4835
898.792	4778
898.913	4714
899.033	4596
899.153	4538
899.273	4409
899.393	4500
899.513	4527
899.633	4519
899.753	4546
899.873	4554
899.993	4554
900.113	4531
900.232	4554
900.352	4561
900.472	4493
900.591	4421
900.711	4466
900.83	4424
900.95	4596
901.069	4687
901.189	4546
901.308	4352
901.427	4284
901.546	4386
901.665	4466
901.784	4489
901.904	4363
902.023	4322
902.141	4219
902.26	4185
902.379	4291
902.498	4230
902.617	4227
902.735	4371
902.854	4409
902.973	4344
903.091	4207
903.21	4166
903.328	4306
903.446	4272
903.565	4253
903.683	4310
903.801	4265
903.919	4390
904.038	4424
904.156	4367
904.274	4436
904.392	4379
904.51	4417
904.627	4538
904.745	4538
904.863	4626
904.981	4367
905.098	4295
905.216	4325
905.334	4432
905.451	4451
905.569	4447
905.686	4542
905.803	4577
905.921	4443
906.038	4523
906.155	4436
906.272	4428
906.389	4478
906.506	4333
906.623	4371
906.74	4398
906.857	4333
906.974	4394
907.091	4569
907.208	4675
907.324	4554
907.441	4527
907.557	4375
907.674	4352
907.79	4329
907.907	4356
908.023	4493
908.139	4481
908.256	4432
908.372	4443
908.488	4466
908.604	4402
908.72	4306
908.836	4360
908.952	4363
909.068	4390
909.184	4580
909.3	4485
909.415	4573
909.531	4523
909.647	4386
909.762	4363
909.878	4318
909.993	4440
910.108	4455
910.224	4402
910.339	4489
910.454	4421
910.57	4341
910.685	4295
910.8	4660
910.915	4592
911.03	4512
911.145	4299
911.259	4318
911.374	4367
911.489	4314
911.604	4284
911.718	4185
911.833	4196
911.947	4071
912.062	3998
912.176	4207
912.291	4219
912.405	4234
912.519	4493
912.633	4558
912.748	4344
912.862	4314
912.976	4227
913.09	4124
913.204	4124
913.318	4219
913.431	4386
913.545	4379
913.659	4413
913.772	4333
913.886	4230
914	4227
914.113	4363
914.226	4436
914.34	4363
914.453	4299
914.566	4432
914.68	4314
914.793	4322
914.906	4158
915.019	4101
915.132	4051
915.245	4185
915.358	4219
915.47	4246
915.583	4265
915.696	4280
915.809	4402
915.921	4398
916.034	4280
916.146	4272
916.259	4268
916.371	4363
916.483	4333
916.595	4249
916.708	4322
916.82	4322
916.932	4272
917.044	4291
917.156	4280
917.268	4246
917.38	4227
917.491	4249
917.603	4291
917.715	4375
917.826	4405
917.938	4314
918.049	4246
918.161	4447
918.272	4531
918.384	4546
918.495	4459
918.606	4306
918.717	4249
918.828	4265
918.939	4371
919.05	4257
919.161	4344
919.272	4131
919.383	4234
919.494	4466
919.604	4630
919.715	4424
919.826	4417
919.936	4413
920.047	4508
920.157	4455
920.267	4649
920.378	4493
920.488	4466
920.598	4714
920.708	4866
920.818	4679
920.928	4774
921.038	4968
921.148	4866
921.258	4645
921.368	4542
921.477	4497
921.587	4436
921.697	4344
921.806	4584
921.916	4413
922.025	4268
922.134	4268
922.244	4215
922.353	4322
922.462	4135
922.571	4131
922.68	4021
922.789	3953
922.898	4021
923.007	3953
923.116	4067
923.224	4036
923.333	4071
923.442	4013
923.55	3979
923.659	3998
923.767	4112
923.876	4021
923.984	4143
924.092	3994
924.201	4082
924.309	4055
924.417	4131
924.525	4071
924.633	4128
924.741	5045
924.849	3956
924.956	4101
925.064	3949
925.172	3896
925.279	3972
925.387	4036
925.494	4021
925.602	4192
925.709	4154
925.816	4040
925.924	4093
926.031	4238
926.138	4154
926.245	4230
926.352	4105
926.459	4249
926.566	4291
926.673	4154
926.779	4071
926.886	4074
926.993	3915
927.099	3937
927.206	3930
927.312	3956
927.419	4059
927.525	4055
927.631	4067
927.737	3964
927.843	3945
927.95	3827
928.056	3918
928.162	3953
928.267	4036
928.373	4588
928.479	4147
928.585	3869
928.69	4048
928.796	4025
928.901	3983
929.007	3838
929.112	4010
929.218	3945
929.323	3869
929.428	3934
929.533	4078
929.638	3892
929.743	3953
929.848	4040
929.953	3964
930.058	3945
930.163	3800
930.267	3816
930.372	3953
930.477	3812
930.581	4093
930.685	3918
930.79	3831
930.894	3884
930.998	3873
931.103	4017
931.207	3701
931.311	3675
931.415	3660
931.519	3549
931.623	3545
