Data from test_V78500241_1518.txt Node
Date: Fri Mar 25 16:59:33 CST 2022
User: usil
Spectrometer: V785-0024
Trigger mode: 0
Integration Time (sec): 4.000000E-1
Scans to average: 1
Nonlinearity correction enabled: false
Boxcar width: 0
Storing dark spectrum: false
XAxis mode: Wavelengths
Number of Pixels in Spectrum: 1024
>>>>>Begin Spectral Data<<<<<
801.071	7944
801.214	8001
801.356	7860
801.499	7818
801.641	7738
801.783	7799
801.926	7986
802.068	7906
802.211	7986
802.353	7917
802.496	7849
802.638	7792
802.78	7932
802.923	7879
803.065	7902
803.208	7879
803.35	7974
803.492	8092
803.635	8134
803.777	7963
803.919	8081
804.061	8434
804.204	8138
804.346	7940
804.488	7944
804.63	8054
804.773	7978
804.915	8039
805.057	8282
805.199	8142
805.341	8252
805.483	8271
805.626	8225
805.768	8123
805.91	8168
806.052	8191
806.194	8123
806.336	8267
806.478	8065
806.62	8043
806.762	8134
806.904	8279
807.046	8518
807.188	8279
807.33	8271
807.472	8294
807.614	8119
807.756	8168
807.898	8024
808.04	7879
808.182	7906
808.324	7818
808.465	7944
808.607	8065
808.749	8107
808.891	8164
809.033	8233
809.174	8221
809.316	8069
809.458	8016
809.6	7963
809.741	8001
809.883	8039
810.025	8046
810.166	8123
810.308	7974
810.45	8039
810.591	7875
810.733	7746
810.875	7704
811.016	7529
811.158	7518
811.299	7616
811.441	7799
811.582	7700
811.724	7643
811.865	7571
812.007	7639
812.148	7636
812.29	7655
812.431	7742
812.573	7890
812.714	7944
812.855	8130
812.997	8240
813.138	8290
813.279	8248
813.421	8138
813.562	8062
813.703	7799
813.845	7750
813.986	7422
814.127	7247
814.268	7225
814.41	7247
814.551	7179
814.692	7225
814.833	7118
814.974	7164
815.115	7076
815.256	7012
815.397	6947
815.539	6977
815.68	6863
815.821	6791
815.962	6829
816.103	6894
816.244	6726
816.385	6635
816.526	6601
816.666	6525
816.807	6262
816.948	6471
817.089	6506
817.23	6456
817.371	6372
817.512	6403
817.653	6414
817.793	6376
817.934	6426
818.075	6464
818.216	6437
818.356	6414
818.497	6308
818.638	6152
818.778	6159
818.919	6182
819.06	6194
819.2	6384
819.341	6353
819.481	6372
819.622	6525
819.762	6783
819.903	6654
820.043	6639
820.184	6589
820.324	6639
820.465	6730
820.605	6662
820.746	6589
820.886	6551
821.026	6673
821.167	6738
821.307	6795
821.447	6795
821.588	6696
821.728	6593
821.868	6555
822.008	6331
822.149	6410
822.289	6372
822.429	6163
822.569	6171
822.709	6159
822.849	5935
822.99	5885
823.13	5939
823.27	5969
823.41	5790
823.55	5840
823.69	5729
823.83	5828
823.97	5661
824.11	5558
824.25	5520
824.389	5535
824.529	5611
824.669	5535
824.809	5714
824.949	5680
825.089	5623
825.228	5573
825.368	5436
825.508	5360
825.648	5364
825.787	5364
825.927	5368
826.067	5322
826.206	5284
826.346	5330
826.485	5425
826.625	5493
826.765	5661
826.904	5455
827.044	5311
827.183	5189
827.323	5143
827.462	5292
827.601	5193
827.741	5208
827.88	5220
828.02	5181
828.159	5265
828.298	5345
828.437	5357
828.577	5280
828.716	5497
828.855	5307
828.994	5155
829.134	5132
829.273	5208
829.412	5155
829.551	5143
829.69	5181
829.829	5227
829.968	5379
830.107	5269
830.246	5284
830.385	5208
830.524	5159
830.663	5094
830.802	5025
830.941	4919
831.08	4870
831.219	5006
831.357	4999
831.496	5166
831.635	4911
831.774	4866
831.913	4824
832.051	4729
832.19	4809
832.329	4831
832.467	4729
832.606	4664
832.744	4771
832.883	4793
833.022	4740
833.16	4809
833.299	4816
833.437	4805
833.576	4809
833.714	4839
833.852	4911
833.991	4946
834.129	4987
834.267	4957
834.406	4949
834.544	4976
834.682	4980
834.821	5003
834.959	5174
835.097	5029
835.235	5105
835.373	5109
835.511	5086
835.65	5045
835.788	5052
835.926	4953
836.064	4915
836.202	4927
836.34	5185
836.478	5265
836.615	5151
836.753	5265
836.891	5273
837.029	5258
837.167	5261
837.305	5204
837.443	5178
837.58	5121
837.718	5246
837.856	5181
837.993	5174
838.131	5288
838.269	5288
838.406	5208
838.544	5231
838.681	5075
838.819	5018
838.956	4927
839.094	4870
839.231	5003
839.369	5037
839.506	5410
839.643	5284
839.781	5086
839.918	5025
840.055	5128
840.193	5105
840.33	5113
840.467	5132
840.604	5143
840.742	5398
840.879	5086
841.016	5102
841.153	5204
841.29	5402
841.427	5341
841.564	5307
841.701	5395
841.838	5303
841.975	5239
842.112	5284
842.249	5143
842.385	5151
842.522	5368
842.659	5242
842.796	5105
842.933	5239
843.069	5124
843.206	5155
843.343	5315
843.479	5288
843.616	5258
843.752	5018
843.889	5052
844.025	5239
844.162	5018
844.298	5242
844.435	5052
844.571	5041
844.708	5140
844.844	5292
844.98	5357
845.117	5307
845.253	5166
845.389	5075
845.525	5132
845.661	5193
845.798	4987
845.934	5128
846.07	5060
846.206	5197
846.342	5315
846.478	5197
846.614	5014
846.75	4987
846.886	4930
847.022	5124
847.158	5045
847.294	5064
847.429	5140
847.565	5067
847.701	5349
847.837	4873
847.972	4812
848.108	4976
848.244	4968
848.379	4824
848.515	4755
848.65	4729
848.786	4797
848.921	4759
849.057	4881
849.192	4923
849.328	4816
849.463	4881
849.598	4793
849.734	4771
849.869	4740
850.004	4653
850.14	4694
850.275	4611
850.41	4535
850.545	4573
850.68	4653
850.815	4626
850.95	4660
851.085	4812
851.22	4793
851.355	4740
851.49	4626
851.625	4687
851.76	4603
851.895	4546
852.03	4558
852.165	4653
852.299	4733
852.434	4812
852.569	4797
852.703	4752
852.838	4850
852.973	4930
853.107	4930
853.242	4778
853.376	4649
853.511	4538
853.645	4679
853.78	4824
853.914	4717
854.048	4721
854.183	4580
854.317	4725
854.451	4835
854.585	4687
854.72	4683
854.854	4740
854.988	4637
855.122	4702
855.256	4512
855.39	4664
855.524	4797
855.658	4714
855.792	4725
855.926	4740
856.06	4748
856.194	4839
856.327	4706
856.461	4645
856.595	4653
856.729	4615
856.862	4786
856.996	4736
857.13	4782
857.263	4748
857.397	4828
857.53	4664
857.664	4740
857.797	4733
857.931	4763
858.064	4729
858.197	4767
858.331	4702
858.464	4603
858.597	4531
858.731	4698
858.864	4656
858.997	4645
859.13	4645
859.263	4645
859.396	4683
859.529	4580
859.662	4573
859.795	4599
859.928	4622
860.061	4752
860.194	4805
860.327	4607
860.46	4615
860.592	4755
860.725	4752
860.858	4740
860.99	4607
861.123	4565
861.256	4516
861.388	4630
861.521	5345
861.653	4538
861.786	4462
861.918	4455
862.05	4504
862.183	4561
862.315	4592
862.447	4679
862.58	4561
862.712	4440
862.844	4333
862.976	4443
863.108	4481
863.24	4801
863.372	4379
863.504	4470
863.636	4432
863.768	4512
863.9	4440
864.032	4344
864.164	4379
864.296	4504
864.428	4523
864.559	4569
864.691	4508
864.823	4523
864.954	4508
865.086	4508
865.217	4489
865.349	4432
865.48	4443
865.612	4542
865.743	4622
865.875	4493
866.006	4462
866.137	4493
866.269	4421
866.4	4443
866.531	4459
866.662	4398
866.793	4390
866.924	4432
867.055	4489
867.186	4455
867.317	4428
867.448	4375
867.579	4402
867.71	4405
867.841	4413
867.972	4474
868.103	4443
868.233	4481
868.364	4470
868.495	4508
868.625	4649
868.756	4778
868.886	4569
869.017	4618
869.147	4752
869.278	4790
869.408	4649
869.539	4596
869.669	4721
869.799	4653
869.929	4816
870.06	4771
870.19	4995
870.32	4908
870.45	4965
870.58	5025
870.71	5128
870.84	5067
870.97	4961
871.1	4923
871.23	5113
871.36	5105
871.489	5029
871.619	5083
871.749	5071
871.879	5109
872.008	5166
872.138	5094
872.267	4957
872.397	4866
872.526	4831
872.656	4675
872.785	4740
872.915	4900
873.044	4984
873.173	4949
873.303	4980
873.432	4930
873.561	4946
873.69	4927
873.819	4843
873.948	4877
874.077	4866
874.206	4752
874.335	4824
874.464	4957
874.593	5064
874.722	5022
874.851	5105
874.979	5105
875.108	4991
875.237	4892
875.365	4923
875.494	4847
875.623	4961
875.751	4854
875.88	4934
876.008	4984
876.136	4995
876.265	5178
876.393	5322
876.521	5239
876.65	5265
876.778	5235
876.906	5094
877.034	5018
877.162	5037
877.29	4980
877.418	5022
877.546	5079
877.674	5067
877.802	5052
877.93	5033
878.058	4957
878.185	4854
878.313	4961
878.441	4980
878.568	4839
878.696	4866
878.824	4991
878.951	5018
879.079	5102
879.206	5239
879.333	5105
879.461	4972
879.588	5056
879.715	5178
879.842	5208
879.97	5041
880.097	4828
880.224	4767
880.351	4839
880.478	4873
880.605	4809
880.732	4873
880.859	5121
880.986	4892
881.112	4965
881.239	4847
881.366	4740
881.493	4634
881.619	4664
881.746	4660
881.872	4698
881.999	4645
882.125	4687
882.252	4793
882.378	4892
882.505	5029
882.631	4835
882.757	4736
882.883	4736
883.01	4729
883.136	4748
883.262	4641
883.388	4656
883.514	4831
883.64	4908
883.766	4816
883.892	4710
884.018	4782
884.143	4908
884.269	5025
884.395	4736
884.52	4683
884.646	4668
884.772	4634
884.897	4599
885.023	4683
885.148	4831
885.274	4904
885.399	4850
885.524	4755
885.65	4767
885.775	4733
885.9	4740
886.025	4900
886.15	4797
886.275	4717
886.4	4733
886.525	4736
886.65	4744
886.775	4736
886.9	4900
887.025	5048
887.149	4820
887.274	4710
887.399	4630
887.523	4645
887.648	4615
887.773	4618
887.897	4782
888.021	4790
888.146	4717
888.27	4881
888.395	4976
888.519	4828
888.643	4847
888.767	4839
888.891	4729
889.015	4637
889.139	4710
889.263	4637
889.387	4801
889.511	4881
889.635	4870
889.759	4702
889.883	4660
890.006	4778
890.13	4812
890.254	4691
890.377	4714
890.501	4584
890.624	4599
890.748	4637
890.871	4519
890.995	4481
891.118	4371
891.241	4542
891.364	4584
891.488	4698
891.611	4580
891.734	4538
891.857	4641
891.98	4584
892.103	4702
892.226	4664
892.349	4561
892.471	4432
892.594	4599
892.717	4645
892.839	4580
892.962	4615
893.085	4675
893.207	4615
893.33	4516
893.452	4565
893.575	4694
893.697	4592
893.819	4828
893.941	4889
894.064	4782
894.186	4622
894.308	4573
894.43	4782
894.552	4824
894.674	4824
894.796	4599
894.918	4664
895.04	4649
895.161	4736
895.283	4660
895.405	4649
895.526	4698
895.648	4694
895.769	4698
895.891	4771
896.012	4778
896.134	4755
896.255	4660
896.376	4687
896.498	4664
896.619	4687
896.74	4622
896.861	4706
896.982	4965
897.103	5075
897.224	4854
897.345	4812
897.466	4687
897.587	4778
897.708	4885
897.828	4816
897.949	4702
898.07	4615
898.19	4641
898.311	4881
898.431	4672
898.552	4752
898.672	4828
898.792	4866
898.913	4786
899.033	4641
899.153	4512
899.273	4432
899.393	4535
899.513	4535
899.633	4558
899.753	4554
899.873	4531
899.993	4569
900.113	4599
900.232	4577
900.352	4569
900.472	4497
900.591	4432
900.711	4538
900.83	4443
900.95	4698
901.069	4744
901.189	4569
901.308	4402
901.427	4348
901.546	4398
901.665	4512
901.784	4565
901.904	4417
902.023	4314
902.141	4227
902.26	4204
902.379	4341
902.498	4265
902.617	4230
902.735	4371
902.854	4428
902.973	4383
903.091	4265
903.21	4268
903.328	4306
903.446	4257
903.565	4268
903.683	4383
903.801	4318
903.919	4413
904.038	4459
904.156	4333
904.274	4489
904.392	4386
904.51	4455
904.627	4554
904.745	4569
904.863	4634
904.981	4474
905.098	4390
905.216	4375
905.334	4462
905.451	4485
905.569	4432
905.686	4584
905.803	4668
905.921	4440
906.038	4542
906.155	4538
906.272	4459
906.389	4497
906.506	4325
906.623	4405
906.74	4432
906.857	4276
906.974	4432
907.091	4538
907.208	4683
907.324	4603
907.441	4516
907.557	4367
907.674	4371
907.79	4322
907.907	4379
908.023	4504
908.139	4485
908.256	4432
908.372	4500
908.488	4451
908.604	4363
908.72	4337
908.836	4432
908.952	4390
909.068	4455
909.184	4603
909.3	4527
909.415	4634
909.531	4599
909.647	4360
909.762	4348
909.878	4318
909.993	4455
910.108	4474
910.224	4436
910.339	4500
910.454	4421
910.57	4394
910.685	4325
910.8	4645
910.915	4630
911.03	4508
911.145	4371
911.259	4329
911.374	4337
911.489	4314
911.604	4303
911.718	4188
911.833	4219
911.947	4101
912.062	4051
912.176	4246
912.291	4272
912.405	4276
912.519	4519
912.633	4519
912.748	4333
912.862	4329
912.976	4207
913.09	4128
913.204	4200
913.318	4303
913.431	4356
913.545	4390
913.659	4459
913.772	4402
913.886	4280
914	4261
914.113	4405
914.226	4466
914.34	4379
914.453	4280
914.566	4478
914.68	4303
914.793	4303
914.906	4169
915.019	4139
915.132	4109
915.245	4246
915.358	4219
915.47	4238
915.583	4314
915.696	4318
915.809	4409
915.921	4485
916.034	4318
916.146	4253
916.259	4253
916.371	4424
916.483	4383
916.595	4261
916.708	4341
916.82	4363
916.932	4352
917.044	4310
917.156	4341
917.268	4272
917.38	4341
917.491	4310
917.603	4394
917.715	4470
917.826	4436
917.938	4363
918.049	4268
918.161	4459
918.272	4538
918.384	4577
918.495	4462
918.606	4371
918.717	4265
918.828	4337
918.939	4371
919.05	4295
919.161	4375
919.272	4135
919.383	4238
919.494	4421
919.604	4668
919.715	4455
919.826	4375
919.936	4455
920.047	4523
920.157	4474
920.267	4694
920.378	4535
920.488	4508
920.598	4790
920.708	4892
920.818	4733
920.928	4801
921.038	5025
921.148	4938
921.258	4660
921.368	4531
921.477	4516
921.587	4470
921.697	4390
921.806	4577
921.916	4402
922.025	4352
922.134	4276
922.244	4230
922.353	4367
922.462	4204
922.571	4120
922.68	4021
922.789	4006
922.898	4051
923.007	3998
923.116	4120
923.224	4063
923.333	4101
923.442	4006
923.55	4048
923.659	4082
923.767	4150
923.876	4025
923.984	4166
924.092	3975
924.201	4124
924.309	4109
924.417	4120
924.525	4082
924.633	4162
924.741	4881
924.849	3953
924.956	4124
925.064	3964
925.172	3945
925.279	3979
925.387	4051
925.494	4025
925.602	4242
925.709	4181
925.816	3998
925.924	4116
926.031	4238
926.138	4200
926.245	4211
926.352	4082
926.459	4242
926.566	4348
926.673	4162
926.779	4086
926.886	4074
926.993	3991
927.099	3979
927.206	3937
927.312	3991
927.419	4078
927.525	4040
927.631	4078
927.737	3983
927.843	3949
927.95	3880
928.056	3953
928.162	3975
928.267	4067
928.373	4599
928.479	4185
928.585	3880
928.69	4017
928.796	4109
928.901	3945
929.007	3869
929.112	4032
929.218	3994
929.323	3941
929.428	3937
929.533	4162
929.638	3926
929.743	3979
929.848	4010
929.953	4032
930.058	3964
930.163	3797
930.267	3823
930.372	4010
930.477	3819
930.581	4090
930.685	3987
930.79	3869
930.894	3922
930.998	3903
931.103	4013
931.207	3728
931.311	3694
931.415	3686
931.519	3549
931.623	3580
