Data from test_V78500241_637.txt Node
Date: Fri Mar 25 16:53:25 CST 2022
User: usil
Spectrometer: V785-0024
Trigger mode: 0
Integration Time (sec): 4.000000E-1
Scans to average: 1
Nonlinearity correction enabled: false
Boxcar width: 0
Storing dark spectrum: false
XAxis mode: Wavelengths
Number of Pixels in Spectrum: 1024
>>>>>Begin Spectral Data<<<<<
801.071	8005
801.214	8046
801.356	7879
801.499	7807
801.641	7792
801.783	7822
801.926	7963
802.068	8027
802.211	8027
802.353	7993
802.496	7883
802.638	7921
802.78	7982
802.923	7906
803.065	7807
803.208	7841
803.35	7887
803.492	8119
803.635	8176
803.777	7986
803.919	8084
804.061	8427
804.204	8092
804.346	7993
804.488	7925
804.63	8107
804.773	8016
804.915	8138
805.057	8298
805.199	8111
805.341	8145
805.483	8305
805.626	8199
805.768	8157
805.91	8225
806.052	8229
806.194	8077
806.336	8336
806.478	8103
806.62	8081
806.762	8138
806.904	8279
807.046	8454
807.188	8336
807.33	8381
807.472	8396
807.614	8115
807.756	8142
807.898	7944
808.04	7909
808.182	7982
808.324	7864
808.465	7852
808.607	8058
808.749	8096
808.891	8252
809.033	8305
809.174	8195
809.316	8111
809.458	8077
809.6	8005
809.741	8126
809.883	8073
810.025	8145
810.166	8077
810.308	8031
810.45	7993
810.591	7879
810.733	7784
810.875	7700
811.016	7533
811.158	7460
811.299	7613
811.441	7833
811.582	7704
811.724	7582
811.865	7548
812.007	7582
812.148	7605
812.29	7681
812.431	7731
812.573	7871
812.714	8035
812.855	8088
812.997	8187
813.138	8263
813.279	8248
813.421	8176
813.562	7986
813.703	7932
813.845	7723
813.986	7540
814.127	7381
814.268	7312
814.41	7228
814.551	7149
814.692	7156
814.833	7023
814.974	7050
815.115	7080
815.256	6977
815.397	6954
815.539	6973
815.68	6886
815.821	6768
815.962	6886
816.103	6814
816.244	6722
816.385	6646
816.526	6604
816.666	6502
816.807	6251
816.948	6429
817.089	6479
817.23	6494
817.371	6429
817.512	6399
817.653	6448
817.793	6399
817.934	6441
818.075	6384
818.216	6498
818.356	6353
818.497	6209
818.638	6110
818.778	6133
818.919	6125
819.06	6167
819.2	6308
819.341	6304
819.481	6376
819.622	6559
819.762	6764
819.903	6700
820.043	6627
820.184	6544
820.324	6585
820.465	6623
820.605	6642
820.746	6631
820.886	6506
821.026	6627
821.167	6639
821.307	6837
821.447	6745
821.588	6654
821.728	6464
821.868	6414
822.008	6380
822.149	6300
822.289	6331
822.429	6171
822.569	6064
822.709	6076
822.849	5942
822.99	5901
823.13	5920
823.27	5950
823.41	5760
823.55	5790
823.69	5741
823.83	5786
823.97	5638
824.11	5509
824.25	5482
824.389	5520
824.529	5589
824.669	5467
824.809	5634
824.949	5672
825.089	5611
825.228	5558
825.368	5410
825.508	5349
825.648	5315
825.787	5364
825.927	5376
826.067	5376
826.206	5284
826.346	5391
826.485	5402
826.625	5433
826.765	5505
826.904	5429
827.044	5239
827.183	5216
827.323	5067
827.462	5299
827.601	5231
827.741	5197
827.88	5235
828.02	5102
828.159	5231
828.298	5311
828.437	5410
828.577	5242
828.716	5455
828.855	5334
828.994	5185
829.134	5136
829.273	5193
829.412	5143
829.551	5075
829.69	5083
829.829	5201
829.968	5364
830.107	5292
830.246	5288
830.385	5231
830.524	5117
830.663	5098
830.802	5003
830.941	4877
831.08	4873
831.219	4938
831.357	4984
831.496	5098
831.635	4942
831.774	4915
831.913	4793
832.051	4755
832.19	4736
832.329	4866
832.467	4675
832.606	4637
832.744	4679
832.883	4759
833.022	4774
833.16	4755
833.299	4850
833.437	4820
833.576	4870
833.714	4858
833.852	4831
833.991	4873
834.129	4946
834.267	4957
834.406	4900
834.544	4991
834.682	4961
834.821	4942
834.959	5185
835.097	4957
835.235	5155
835.373	5094
835.511	5143
835.65	5056
835.788	5006
835.926	4938
836.064	4858
836.202	4923
836.34	5166
836.478	5258
836.615	5117
836.753	5216
836.891	5258
837.029	5246
837.167	5204
837.305	5151
837.443	5094
837.58	5083
837.718	5250
837.856	5189
837.993	5128
838.131	5239
838.269	5193
838.406	5216
838.544	5212
838.681	5010
838.819	4991
838.956	4904
839.094	4885
839.231	4995
839.369	5071
839.506	5459
839.643	5284
839.781	5090
839.918	5022
840.055	5090
840.193	5124
840.33	5060
840.467	5132
840.604	5181
840.742	5425
840.879	5052
841.016	5056
841.153	5140
841.29	5337
841.427	5349
841.564	5330
841.701	5368
841.838	5284
841.975	5159
842.112	5242
842.249	5159
842.385	5121
842.522	5315
842.659	5223
842.796	5166
842.933	5159
843.069	5143
843.206	5189
843.343	5292
843.479	5231
843.616	5258
843.752	5010
843.889	4980
844.025	5250
844.162	5018
844.298	5242
844.435	5140
844.571	5064
844.708	5193
844.844	5296
844.98	5341
845.117	5273
845.253	5109
845.389	5086
845.525	5151
845.661	5140
845.798	5003
845.934	5143
846.07	5033
846.206	5193
846.342	5246
846.478	5170
846.614	5048
846.75	4949
846.886	4961
847.022	5121
847.158	4999
847.294	5071
847.429	5094
847.565	5083
847.701	5322
847.837	4850
847.972	4820
848.108	5018
848.244	4938
848.379	4778
848.515	4755
848.65	4702
848.786	4774
848.921	4752
849.057	4885
849.192	4919
849.328	4816
849.463	4843
849.598	4812
849.734	4797
849.869	4656
850.004	4675
850.14	4656
850.275	4607
850.41	4527
850.545	4588
850.68	4577
850.815	4596
850.95	4645
851.085	4820
851.22	4771
851.355	4645
851.49	4630
851.625	4630
851.76	4641
851.895	4588
852.03	4500
852.165	4637
852.299	4752
852.434	4736
852.569	4755
852.703	4767
852.838	4835
852.973	4934
853.107	4942
853.242	4683
853.376	4687
853.511	4546
853.645	4611
853.78	4790
853.914	4649
854.048	4679
854.183	4660
854.317	4634
854.451	4809
854.585	4660
854.72	4641
854.854	4782
854.988	4637
855.122	4615
855.256	4535
855.39	4637
855.524	4729
855.658	4664
855.792	4683
855.926	4714
856.06	4759
856.194	4782
856.327	4679
856.461	4607
856.595	4634
856.729	4599
856.862	4755
856.996	4679
857.13	4721
857.263	4767
857.397	4797
857.53	4664
857.664	4729
857.797	4793
857.931	4752
858.064	4664
858.197	4771
858.331	4645
858.464	4607
858.597	4512
858.731	4634
858.864	4592
858.997	4596
859.13	4683
859.263	4653
859.396	4653
859.529	4577
859.662	4603
859.795	4519
859.928	4660
860.061	4782
860.194	4729
860.327	4599
860.46	4573
860.592	4660
860.725	4679
860.858	4694
860.99	4615
861.123	4512
861.256	4565
861.388	4626
861.521	5345
861.653	4497
861.786	4436
861.918	4455
862.05	4519
862.183	4535
862.315	4649
862.447	4687
862.58	4535
862.712	4417
862.844	4310
862.976	4500
863.108	4466
863.24	4858
863.372	4344
863.504	4447
863.636	4402
863.768	4485
863.9	4424
864.032	4314
864.164	4459
864.296	4478
864.428	4527
864.559	4573
864.691	4565
864.823	4478
864.954	4523
865.086	4497
865.217	4470
865.349	4409
865.48	4398
865.612	4497
865.743	4660
865.875	4451
866.006	4413
866.137	4428
866.269	4466
866.4	4478
866.531	4386
866.662	4428
866.793	4390
866.924	4432
867.055	4474
867.186	4474
867.317	4405
867.448	4390
867.579	4409
867.71	4379
867.841	4379
867.972	4447
868.103	4485
868.233	4447
868.364	4413
868.495	4459
868.625	4672
868.756	4752
868.886	4573
869.017	4626
869.147	4793
869.278	4782
869.408	4714
869.539	4698
869.669	4721
869.799	4630
869.929	4767
870.06	4733
870.19	4946
870.32	4908
870.45	4927
870.58	5003
870.71	5075
870.84	5109
870.97	4889
871.1	4889
871.23	5159
871.36	5132
871.489	5056
871.619	5105
871.749	5109
871.879	5109
872.008	5204
872.138	5022
872.267	4972
872.397	4824
872.526	4805
872.656	4744
872.785	4790
872.915	4938
873.044	5014
873.173	4953
873.303	5014
873.432	4946
873.561	5052
873.69	4839
873.819	4904
873.948	4892
874.077	4801
874.206	4729
874.335	4752
874.464	4927
874.593	5052
874.722	4972
874.851	5109
874.979	5094
875.108	4999
875.237	4923
875.365	4881
875.494	4900
875.623	4995
875.751	4843
875.88	4892
876.008	4930
876.136	5079
876.265	5193
876.393	5296
876.521	5208
876.65	5223
876.778	5117
876.906	5090
877.034	5056
877.162	5018
877.29	4957
877.418	5033
877.546	5041
877.674	4961
877.802	5052
877.93	5003
878.058	4934
878.185	4858
878.313	4991
878.441	4896
878.568	4767
878.696	4885
878.824	4946
878.951	4934
879.079	5090
879.206	5311
879.333	5102
879.461	4991
879.588	5010
879.715	5109
879.842	5223
879.97	5022
880.097	4763
880.224	4721
880.351	4809
880.478	4812
880.605	4774
880.732	4824
880.859	5098
880.986	4873
881.112	4946
881.239	4755
881.366	4679
881.493	4615
881.619	4573
881.746	4622
881.872	4645
881.999	4668
882.125	4717
882.252	4755
882.378	4812
882.505	4976
882.631	4828
882.757	4672
882.883	4748
883.01	4740
883.136	4668
883.262	4592
883.388	4637
883.514	4850
883.64	4843
883.766	4790
883.892	4645
884.018	4733
884.143	4889
884.269	5022
884.395	4736
884.52	4656
884.646	4611
884.772	4596
884.897	4596
885.023	4649
885.148	4790
885.274	4915
885.399	4809
885.524	4694
885.65	4748
885.775	4710
885.9	4714
886.025	4870
886.15	4782
886.275	4706
886.4	4679
886.525	4736
886.65	4660
886.775	4706
886.9	4892
887.025	5056
887.149	4835
887.274	4679
887.399	4561
887.523	4611
887.648	4618
887.773	4615
887.897	4771
888.021	4801
888.146	4702
888.27	4759
888.395	4892
888.519	4824
888.643	4820
888.767	4812
888.891	4694
889.015	4603
889.139	4653
889.263	4596
889.387	4733
889.511	4892
889.635	4790
889.759	4656
889.883	4672
890.006	4694
890.13	4870
890.254	4596
890.377	4649
890.501	4519
890.624	4565
890.748	4645
890.871	4535
890.995	4421
891.118	4409
891.241	4527
891.364	4554
891.488	4637
891.611	4493
891.734	4527
891.857	4626
891.98	4569
892.103	4622
892.226	4584
892.349	4538
892.471	4421
892.594	4531
892.717	4554
892.839	4615
892.962	4580
893.085	4641
893.207	4596
893.33	4436
893.452	4538
893.575	4645
893.697	4588
893.819	4767
893.941	4824
894.064	4824
894.186	4554
894.308	4573
894.43	4714
894.552	4801
894.674	4744
894.796	4538
894.918	4656
895.04	4542
895.161	4691
895.283	4672
895.405	4565
895.526	4649
895.648	4698
895.769	4691
895.891	4679
896.012	4694
896.134	4755
896.255	4664
896.376	4618
896.498	4618
896.619	4675
896.74	4577
896.861	4668
896.982	4946
897.103	5075
897.224	4839
897.345	4714
897.466	4675
897.587	4736
897.708	4805
897.828	4790
897.949	4653
898.07	4550
898.19	4664
898.311	4805
898.431	4694
898.552	4710
898.672	4786
898.792	4778
898.913	4714
899.033	4645
899.153	4474
899.273	4459
899.393	4493
899.513	4512
899.633	4504
899.753	4565
899.873	4493
899.993	4641
900.113	4538
900.232	4596
900.352	4523
900.472	4485
900.591	4432
900.711	4512
900.83	4428
900.95	4641
901.069	4679
901.189	4538
901.308	4356
901.427	4341
901.546	4329
901.665	4466
901.784	4481
901.904	4390
902.023	4314
902.141	4211
902.26	4166
902.379	4337
902.498	4280
902.617	4246
902.735	4348
902.854	4379
902.973	4375
903.091	4238
903.21	4211
903.328	4287
903.446	4284
903.565	4215
903.683	4379
903.801	4249
903.919	4409
904.038	4432
904.156	4299
904.274	4470
904.392	4417
904.51	4443
904.627	4550
904.745	4538
904.863	4626
904.981	4421
905.098	4352
905.216	4322
905.334	4440
905.451	4493
905.569	4413
905.686	4542
905.803	4558
905.921	4413
906.038	4527
906.155	4443
906.272	4413
906.389	4394
906.506	4379
906.623	4371
906.74	4398
906.857	4341
906.974	4383
907.091	4577
907.208	4694
907.324	4573
907.441	4538
907.557	4360
907.674	4356
907.79	4295
907.907	4394
908.023	4451
908.139	4497
908.256	4443
908.372	4478
908.488	4497
908.604	4375
908.72	4356
908.836	4398
908.952	4352
909.068	4443
909.184	4565
909.3	4504
909.415	4596
909.531	4554
909.647	4337
909.762	4367
909.878	4375
909.993	4470
910.108	4405
910.224	4424
910.339	4470
910.454	4409
910.57	4386
910.685	4257
910.8	4672
910.915	4596
911.03	4519
911.145	4333
911.259	4329
911.374	4379
911.489	4299
911.604	4333
911.718	4158
911.833	4192
911.947	4063
912.062	4055
912.176	4177
912.291	4215
912.405	4257
912.519	4516
912.633	4481
912.748	4356
912.862	4360
912.976	4253
913.09	4055
913.204	4143
913.318	4265
913.431	4398
913.545	4428
913.659	4440
913.772	4402
913.886	4265
914	4249
914.113	4386
914.226	4470
914.34	4413
914.453	4253
914.566	4432
914.68	4356
914.793	4356
914.906	4173
915.019	4112
915.132	4112
915.245	4185
915.358	4204
915.47	4238
915.583	4249
915.696	4261
915.809	4363
915.921	4405
916.034	4287
916.146	4265
916.259	4207
916.371	4341
916.483	4363
916.595	4280
916.708	4360
916.82	4287
916.932	4287
917.044	4314
917.156	4360
917.268	4234
917.38	4265
917.491	4291
917.603	4325
917.715	4409
917.826	4413
917.938	4341
918.049	4261
918.161	4390
918.272	4558
918.384	4542
918.495	4470
918.606	4280
918.717	4253
918.828	4371
918.939	4363
919.05	4272
919.161	4299
919.272	4120
919.383	4234
919.494	4462
919.604	4622
919.715	4443
919.826	4352
919.936	4405
920.047	4531
920.157	4478
920.267	4691
920.378	4550
920.488	4500
920.598	4725
920.708	4892
920.818	4744
920.928	4721
921.038	4896
921.148	4927
921.258	4683
921.368	4546
921.477	4489
921.587	4428
921.697	4402
921.806	4512
921.916	4459
922.025	4257
922.134	4276
922.244	4200
922.353	4341
922.462	4131
922.571	4147
922.68	4025
922.789	3945
922.898	4017
923.007	3975
923.116	4093
923.224	4116
923.333	4071
923.442	4006
923.55	3979
923.659	4002
923.767	4112
923.876	4010
923.984	4101
924.092	3994
924.201	4048
924.309	4116
924.417	4109
924.525	4074
924.633	4147
924.741	5018
924.849	3884
924.956	4105
925.064	3994
925.172	3949
925.279	3949
925.387	4032
925.494	4063
925.602	4192
925.709	4177
925.816	4021
925.924	4150
926.031	4219
926.138	4169
926.245	4261
926.352	4105
926.459	4207
926.566	4325
926.673	4143
926.779	4097
926.886	4082
926.993	3991
927.099	4002
927.206	3949
927.312	3960
927.419	4086
927.525	4013
927.631	4067
927.737	3983
927.843	3953
927.95	3823
928.056	3953
928.162	3994
928.267	4059
928.373	4714
928.479	4124
928.585	3873
928.69	3994
928.796	4071
928.901	3975
929.007	3854
929.112	4002
929.218	3991
929.323	3907
929.428	3930
929.533	4105
929.638	3911
929.743	3987
929.848	4067
929.953	4017
930.058	3873
930.163	3789
930.267	3827
930.372	3972
930.477	3823
930.581	4090
930.685	3926
930.79	3842
930.894	3884
930.998	3861
931.103	4006
931.207	3671
931.311	3679
931.415	3663
931.519	3530
931.623	3557
