Data from test_V78500241_657.txt Node
Date: Fri Mar 25 16:53:34 CST 2022
User: usil
Spectrometer: V785-0024
Trigger mode: 0
Integration Time (sec): 4.000000E-1
Scans to average: 1
Nonlinearity correction enabled: false
Boxcar width: 0
Storing dark spectrum: false
XAxis mode: Wavelengths
Number of Pixels in Spectrum: 1024
>>>>>Begin Spectral Data<<<<<
801.071	8107
801.214	8008
801.356	7871
801.499	7906
801.641	7849
801.783	7906
801.926	8058
802.068	7967
802.211	8001
802.353	7951
802.496	7921
802.638	7879
802.78	7917
802.923	7970
803.065	7875
803.208	7871
803.35	8050
803.492	8138
803.635	8240
803.777	8016
803.919	8180
804.061	8419
804.204	8123
804.346	8008
804.488	7967
804.63	8145
804.773	8039
804.915	8081
805.057	8271
805.199	8275
805.341	8301
805.483	8332
805.626	8161
805.768	8149
805.91	8248
806.052	8267
806.194	8035
806.336	8351
806.478	8183
806.62	8084
806.762	8180
806.904	8271
807.046	8484
807.188	8393
807.33	8343
807.472	8358
807.614	8229
807.756	8142
807.898	8050
808.04	7902
808.182	7864
808.324	7841
808.465	7921
808.607	8058
808.749	8084
808.891	8199
809.033	8328
809.174	8153
809.316	8024
809.458	8054
809.6	8035
809.741	8054
809.883	8054
810.025	8092
810.166	8069
810.308	8054
810.45	8073
810.591	7947
810.733	7776
810.875	7727
811.016	7525
811.158	7529
811.299	7578
811.441	7799
811.582	7681
811.724	7636
811.865	7578
812.007	7605
812.148	7594
812.29	7582
812.431	7704
812.573	7795
812.714	7970
812.855	8153
812.997	8218
813.138	8343
813.279	8218
813.421	8191
813.562	8050
813.703	7936
813.845	7830
813.986	7502
814.127	7407
814.268	7251
814.41	7232
814.551	7149
814.692	7156
814.833	7050
814.974	7114
815.115	7118
815.256	7042
815.397	6935
815.539	7027
815.68	6867
815.821	6818
815.962	6939
816.103	6776
816.244	6776
816.385	6620
816.526	6673
816.666	6486
816.807	6342
816.948	6460
817.089	6467
817.23	6506
817.371	6399
817.512	6460
817.653	6388
817.793	6403
817.934	6418
818.075	6445
818.216	6426
818.356	6369
818.497	6232
818.638	6163
818.778	6167
818.919	6106
819.06	6136
819.2	6376
819.341	6369
819.481	6346
819.622	6585
819.762	6760
819.903	6738
820.043	6635
820.184	6574
820.324	6608
820.465	6772
820.605	6688
820.746	6589
820.886	6532
821.026	6665
821.167	6722
821.307	6783
821.447	6741
821.588	6593
821.728	6555
821.868	6486
822.008	6289
822.149	6353
822.289	6429
822.429	6190
822.569	6068
822.709	6167
822.849	5920
822.99	5935
823.13	5942
823.27	5958
823.41	5809
823.55	5779
823.69	5786
823.83	5821
823.97	5699
824.11	5611
824.25	5516
824.389	5589
824.529	5615
824.669	5535
824.809	5680
824.949	5691
825.089	5566
825.228	5573
825.368	5368
825.508	5353
825.648	5337
825.787	5372
825.927	5417
826.067	5360
826.206	5284
826.346	5436
826.485	5406
826.625	5440
826.765	5551
826.904	5459
827.044	5277
827.183	5204
827.323	5162
827.462	5246
827.601	5098
827.741	5197
827.88	5178
828.02	5094
828.159	5242
828.298	5303
828.437	5368
828.577	5235
828.716	5482
828.855	5277
828.994	5143
829.134	5151
829.273	5254
829.412	5140
829.551	5155
829.69	5159
829.829	5261
829.968	5353
830.107	5296
830.246	5303
830.385	5162
830.524	5170
830.663	5033
830.802	4995
830.941	4953
831.08	4904
831.219	5033
831.357	4961
831.496	5132
831.635	4919
831.774	4862
831.913	4847
832.051	4752
832.19	4774
832.329	4843
832.467	4698
832.606	4664
832.744	4736
832.883	4744
833.022	4748
833.16	4843
833.299	4801
833.437	4801
833.576	4889
833.714	4816
833.852	4839
833.991	4881
834.129	4949
834.267	4930
834.406	4889
834.544	5014
834.682	4991
834.821	4965
834.959	5143
835.097	5003
835.235	5151
835.373	5048
835.511	5117
835.65	4991
835.788	5018
835.926	4934
836.064	4911
836.202	4946
836.34	5136
836.478	5204
836.615	5159
836.753	5155
836.891	5261
837.029	5246
837.167	5197
837.305	5121
837.443	5201
837.58	5052
837.718	5220
837.856	5143
837.993	5140
838.131	5220
838.269	5162
838.406	5242
838.544	5174
838.681	5071
838.819	5022
838.956	4927
839.094	4946
839.231	4953
839.369	5094
839.506	5455
839.643	5303
839.781	5045
839.918	5025
840.055	5113
840.193	5147
840.33	5094
840.467	5124
840.604	5212
840.742	5471
840.879	5090
841.016	5117
841.153	5109
841.29	5318
841.427	5334
841.564	5360
841.701	5337
841.838	5258
841.975	5269
842.112	5273
842.249	5083
842.385	5121
842.522	5303
842.659	5197
842.796	5147
842.933	5151
843.069	5136
843.206	5159
843.343	5284
843.479	5269
843.616	5315
843.752	5045
843.889	5060
844.025	5204
844.162	5006
844.298	5204
844.435	5128
844.571	5067
844.708	5185
844.844	5326
844.98	5349
845.117	5292
845.253	5155
845.389	5083
845.525	5094
845.661	5151
845.798	5056
845.934	5147
846.07	5052
846.206	5166
846.342	5258
846.478	5204
846.614	5060
846.75	4999
846.886	4968
847.022	5143
847.158	5048
847.294	5052
847.429	5121
847.565	5071
847.701	5299
847.837	4908
847.972	4862
848.108	4953
848.244	4934
848.379	4759
848.515	4702
848.65	4687
848.786	4736
848.921	4786
849.057	4866
849.192	4900
849.328	4831
849.463	4835
849.598	4809
849.734	4771
849.869	4668
850.004	4649
850.14	4656
850.275	4630
850.41	4527
850.545	4588
850.68	4634
850.815	4622
850.95	4630
851.085	4854
851.22	4752
851.355	4721
851.49	4565
851.625	4603
851.76	4649
851.895	4584
852.03	4481
852.165	4664
852.299	4691
852.434	4790
852.569	4714
852.703	4774
852.838	4847
852.973	4938
853.107	4908
853.242	4771
853.376	4664
853.511	4546
853.645	4603
853.78	4782
853.914	4725
854.048	4672
854.183	4653
854.317	4679
854.451	4793
854.585	4698
854.72	4649
854.854	4721
854.988	4611
855.122	4645
855.256	4531
855.39	4637
855.524	4759
855.658	4683
855.792	4679
855.926	4740
856.06	4736
856.194	4793
856.327	4694
856.461	4554
856.595	4630
856.729	4660
856.862	4744
856.996	4641
857.13	4755
857.263	4729
857.397	4793
857.53	4649
857.664	4755
857.797	4755
857.931	4729
858.064	4679
858.197	4790
858.331	4660
858.464	4634
858.597	4512
858.731	4634
858.864	4626
858.997	4565
859.13	4645
859.263	4637
859.396	4683
859.529	4592
859.662	4561
859.795	4531
859.928	4626
860.061	4752
860.194	4767
860.327	4603
860.46	4546
860.592	4694
860.725	4694
860.858	4748
860.99	4569
861.123	4531
861.256	4500
861.388	4580
861.521	5334
861.653	4443
861.786	4432
861.918	4481
862.05	4607
862.183	4512
862.315	4615
862.447	4698
862.58	4584
862.712	4421
862.844	4306
862.976	4500
863.108	4470
863.24	4850
863.372	4299
863.504	4432
863.636	4367
863.768	4504
863.9	4436
864.032	4386
864.164	4383
864.296	4462
864.428	4561
864.559	4554
864.691	4546
864.823	4546
864.954	4508
865.086	4504
865.217	4443
865.349	4447
865.48	4474
865.612	4485
865.743	4603
865.875	4497
866.006	4409
866.137	4497
866.269	4413
866.4	4413
866.531	4462
866.662	4383
866.793	4451
866.924	4402
867.055	4489
867.186	4455
867.317	4398
867.448	4383
867.579	4333
867.71	4360
867.841	4352
867.972	4447
868.103	4428
868.233	4462
868.364	4455
868.495	4466
868.625	4664
868.756	4683
868.886	4584
869.017	4596
869.147	4805
869.278	4809
869.408	4626
869.539	4596
869.669	4714
869.799	4656
869.929	4752
870.06	4717
870.19	4892
870.32	4934
870.45	4946
870.58	5010
870.71	5117
870.84	5143
870.97	4995
871.1	4908
871.23	5132
871.36	5113
871.489	5022
871.619	5075
871.749	5121
871.879	5109
872.008	5162
872.138	5067
872.267	4934
872.397	4797
872.526	4831
872.656	4714
872.785	4782
872.915	4923
873.044	5033
873.173	4938
873.303	4953
873.432	4938
873.561	4900
873.69	4843
873.819	4831
873.948	4881
874.077	4797
874.206	4767
874.335	4774
874.464	4919
874.593	5048
874.722	4938
874.851	5094
874.979	5060
875.108	5006
875.237	4896
875.365	4873
875.494	4908
875.623	4957
875.751	4816
875.88	4904
876.008	4987
876.136	5010
876.265	5208
876.393	5337
876.521	5223
876.65	5273
876.778	5075
876.906	5079
877.034	5018
877.162	5029
877.29	4991
877.418	5060
877.546	5048
877.674	5037
877.802	5083
877.93	5041
878.058	4927
878.185	4908
878.313	4938
878.441	4915
878.568	4797
878.696	4847
878.824	4972
878.951	4968
879.079	5117
879.206	5265
879.333	5124
879.461	4995
879.588	4953
879.715	5166
879.842	5197
879.97	5006
880.097	4850
880.224	4710
880.351	4812
880.478	4805
880.605	4847
880.732	4755
880.859	5109
880.986	4927
881.112	4911
881.239	4778
881.366	4653
881.493	4584
881.619	4626
881.746	4630
881.872	4611
881.999	4656
882.125	4675
882.252	4839
882.378	4816
882.505	4984
882.631	4793
882.757	4672
882.883	4714
883.01	4736
883.136	4664
883.262	4573
883.388	4653
883.514	4820
883.64	4877
883.766	4755
883.892	4653
884.018	4763
884.143	4858
884.269	5003
884.395	4710
884.52	4618
884.646	4611
884.772	4588
884.897	4596
885.023	4645
885.148	4782
885.274	4885
885.399	4824
885.524	4725
885.65	4653
885.775	4729
885.9	4691
886.025	4801
886.15	4797
886.275	4733
886.4	4675
886.525	4679
886.65	4706
886.775	4698
886.9	4923
887.025	5048
887.149	4828
887.274	4717
887.399	4607
887.523	4569
887.648	4584
887.773	4577
887.897	4774
888.021	4767
888.146	4664
888.27	4805
888.395	4892
888.519	4790
888.643	4809
888.767	4835
888.891	4660
889.015	4596
889.139	4649
889.263	4656
889.387	4748
889.511	4892
889.635	4797
889.759	4622
889.883	4672
890.006	4763
890.13	4824
890.254	4645
890.377	4687
890.501	4504
890.624	4497
890.748	4675
890.871	4504
890.995	4447
891.118	4337
891.241	4565
891.364	4550
891.488	4664
891.611	4478
891.734	4542
891.857	4615
891.98	4500
892.103	4710
892.226	4618
892.349	4527
892.471	4459
892.594	4550
892.717	4550
892.839	4588
892.962	4577
893.085	4611
893.207	4634
893.33	4500
893.452	4504
893.575	4653
893.697	4512
893.819	4733
893.941	4847
894.064	4774
894.186	4546
894.308	4603
894.43	4694
894.552	4835
894.674	4767
894.796	4569
894.918	4622
895.04	4519
895.161	4675
895.283	4649
895.405	4561
895.526	4615
895.648	4706
895.769	4702
895.891	4786
896.012	4733
896.134	4721
896.255	4687
896.376	4603
896.498	4599
896.619	4679
896.74	4649
896.861	4656
896.982	4908
897.103	5071
897.224	4862
897.345	4710
897.466	4672
897.587	4736
897.708	4877
897.828	4801
897.949	4653
898.07	4592
898.19	4641
898.311	4824
898.431	4694
898.552	4733
898.672	4850
898.792	4736
898.913	4744
899.033	4584
899.153	4523
899.273	4409
899.393	4531
899.513	4497
899.633	4554
899.753	4561
899.873	4500
899.993	4584
900.113	4523
900.232	4565
900.352	4550
900.472	4535
900.591	4371
900.711	4470
900.83	4443
900.95	4599
901.069	4660
901.189	4569
901.308	4375
901.427	4394
901.546	4405
901.665	4455
901.784	4535
901.904	4394
902.023	4299
902.141	4215
902.26	4124
902.379	4299
902.498	4238
902.617	4265
902.735	4375
902.854	4398
902.973	4356
903.091	4223
903.21	4253
903.328	4310
903.446	4287
903.565	4242
903.683	4322
903.801	4261
903.919	4367
904.038	4432
904.156	4363
904.274	4432
904.392	4405
904.51	4409
904.627	4512
904.745	4565
904.863	4641
904.981	4394
905.098	4314
905.216	4371
905.334	4402
905.451	4500
905.569	4440
905.686	4550
905.803	4607
905.921	4478
906.038	4512
906.155	4462
906.272	4379
906.389	4466
906.506	4367
906.623	4390
906.74	4405
906.857	4337
906.974	4356
907.091	4519
907.208	4691
907.324	4607
907.441	4538
907.557	4360
907.674	4348
907.79	4344
907.907	4383
908.023	4493
908.139	4519
908.256	4428
908.372	4459
908.488	4436
908.604	4375
908.72	4341
908.836	4352
908.952	4367
909.068	4440
909.184	4561
909.3	4478
909.415	4542
909.531	4550
909.647	4348
909.762	4356
909.878	4383
909.993	4512
910.108	4356
910.224	4428
910.339	4459
910.454	4383
910.57	4371
910.685	4329
910.8	4611
910.915	4588
911.03	4523
911.145	4360
911.259	4383
911.374	4363
911.489	4268
911.604	4276
911.718	4162
911.833	4234
911.947	4059
912.062	4040
912.176	4211
912.291	4280
912.405	4268
912.519	4470
912.633	4493
912.748	4417
912.862	4329
912.976	4181
913.09	4093
913.204	4215
913.318	4242
913.431	4383
913.545	4344
913.659	4409
913.772	4310
913.886	4238
914	4219
914.113	4341
914.226	4371
914.34	4333
914.453	4257
914.566	4470
914.68	4303
914.793	4356
914.906	4150
915.019	4158
915.132	4063
915.245	4177
915.358	4196
915.47	4249
915.583	4257
915.696	4291
915.809	4428
915.921	4390
916.034	4242
916.146	4207
916.259	4227
916.371	4360
916.483	4333
916.595	4276
916.708	4314
916.82	4325
916.932	4310
917.044	4360
917.156	4295
917.268	4234
917.38	4268
917.491	4265
917.603	4348
917.715	4337
917.826	4398
917.938	4341
918.049	4238
918.161	4348
918.272	4584
918.384	4527
918.495	4474
918.606	4314
918.717	4265
918.828	4383
918.939	4360
919.05	4242
919.161	4314
919.272	4147
919.383	4246
919.494	4451
919.604	4634
919.715	4405
919.826	4337
919.936	4405
920.047	4512
920.157	4459
920.267	4694
920.378	4500
920.488	4531
920.598	4763
920.708	4889
920.818	4755
920.928	4717
921.038	4930
921.148	4976
921.258	4618
921.368	4561
921.477	4470
921.587	4436
921.697	4379
921.806	4500
921.916	4421
922.025	4272
922.134	4284
922.244	4246
922.353	4371
922.462	4177
922.571	4116
922.68	4013
922.789	3960
922.898	4063
923.007	3983
923.116	4071
923.224	4082
923.333	4055
923.442	4044
923.55	3987
923.659	4036
923.767	4124
923.876	4013
923.984	4090
924.092	3930
924.201	4086
924.309	4101
924.417	4116
924.525	4109
924.633	4086
924.741	5109
924.849	3907
924.956	4150
925.064	3926
925.172	3861
925.279	3983
925.387	4032
925.494	4044
925.602	4188
925.709	4192
925.816	4021
925.924	4162
926.031	4211
926.138	4150
926.245	4215
926.352	4112
926.459	4223
926.566	4295
926.673	4166
926.779	4044
926.886	4086
926.993	4013
927.099	3945
927.206	3949
927.312	3918
927.419	4036
927.525	4055
927.631	4013
927.737	4006
927.843	3934
927.95	3797
928.056	3899
928.162	3987
928.267	4051
928.373	4660
928.479	4158
928.585	3873
928.69	4040
928.796	4082
928.901	3991
929.007	3850
929.112	3945
929.218	3968
929.323	3930
929.428	3975
929.533	4101
929.638	3899
929.743	3953
929.848	4025
929.953	3979
930.058	3934
930.163	3747
930.267	3819
930.372	3998
930.477	3823
930.581	4044
930.685	3964
930.79	3785
930.894	3888
930.998	3861
931.103	4010
931.207	3717
931.311	3728
931.415	3675
931.519	3572
931.623	3549
