Data from test_V78500241_475.txt Node
Date: Fri Mar 25 16:52:18 CST 2022
User: usil
Spectrometer: V785-0024
Trigger mode: 0
Integration Time (sec): 4.000000E-1
Scans to average: 1
Nonlinearity correction enabled: false
Boxcar width: 0
Storing dark spectrum: false
XAxis mode: Wavelengths
Number of Pixels in Spectrum: 1024
>>>>>Begin Spectral Data<<<<<
801.071	8043
801.214	7993
801.356	7841
801.499	7868
801.641	7818
801.783	7906
801.926	8024
802.068	7959
802.211	7978
802.353	7993
802.496	7917
802.638	7913
802.78	7989
802.923	7890
803.065	7864
803.208	7852
803.35	7951
803.492	8054
803.635	8103
803.777	8005
803.919	8123
804.061	8434
804.204	8103
804.346	8016
804.488	7936
804.63	8107
804.773	7940
804.915	8088
805.057	8301
805.199	8229
805.341	8237
805.483	8259
805.626	8237
805.768	8031
805.91	8183
806.052	8176
806.194	8050
806.336	8324
806.478	8199
806.62	8157
806.762	8107
806.904	8309
807.046	8442
807.188	8358
807.33	8244
807.472	8355
807.614	8123
807.756	8084
807.898	8027
808.04	7947
808.182	7978
808.324	7989
808.465	7898
808.607	8012
808.749	8073
808.891	8229
809.033	8248
809.174	8161
809.316	8039
809.458	8077
809.6	8043
809.741	8065
809.883	8077
810.025	8115
810.166	8092
810.308	8058
810.45	7921
810.591	7868
810.733	7757
810.875	7681
811.016	7521
811.158	7468
811.299	7605
811.441	7799
811.582	7799
811.724	7601
811.865	7594
812.007	7628
812.148	7620
812.29	7674
812.431	7765
812.573	7894
812.714	8016
812.855	8145
812.997	8199
813.138	8347
813.279	8294
813.421	8210
813.562	8020
813.703	7932
813.845	7849
813.986	7487
814.127	7358
814.268	7263
814.41	7236
814.551	7168
814.692	7190
814.833	7057
814.974	7126
815.115	7118
815.256	7000
815.397	6928
815.539	6928
815.68	6863
815.821	6814
815.962	6890
816.103	6844
816.244	6768
816.385	6658
816.526	6574
816.666	6532
816.807	6304
816.948	6445
817.089	6525
817.23	6414
817.371	6445
817.512	6369
817.653	6445
817.793	6376
817.934	6384
818.075	6452
818.216	6506
818.356	6391
818.497	6262
818.638	6136
818.778	6159
818.919	6117
819.06	6098
819.2	6315
819.341	6327
819.481	6357
819.622	6467
819.762	6757
819.903	6658
820.043	6570
820.184	6578
820.324	6585
820.465	6654
820.605	6665
820.746	6654
820.886	6521
821.026	6665
821.167	6681
821.307	6768
821.447	6719
821.588	6623
821.728	6486
821.868	6486
822.008	6334
822.149	6365
822.289	6357
822.429	6155
822.569	6163
822.709	6144
822.849	5946
822.99	5908
823.13	5950
823.27	5904
823.41	5764
823.55	5821
823.69	5809
823.83	5779
823.97	5691
824.11	5566
824.25	5516
824.389	5581
824.529	5566
824.669	5505
824.809	5657
824.949	5688
825.089	5642
825.228	5592
825.368	5391
825.508	5391
825.648	5341
825.787	5387
825.927	5410
826.067	5334
826.206	5258
826.346	5391
826.485	5467
826.625	5402
826.765	5577
826.904	5478
827.044	5280
827.183	5220
827.323	5162
827.462	5261
827.601	5155
827.741	5189
827.88	5250
828.02	5132
828.159	5220
828.298	5277
828.437	5364
828.577	5299
828.716	5467
828.855	5364
828.994	5235
829.134	5170
829.273	5201
829.412	5162
829.551	5121
829.69	5197
829.829	5261
829.968	5372
830.107	5261
830.246	5265
830.385	5189
830.524	5189
830.663	5086
830.802	4949
830.941	4934
831.08	4866
831.219	5010
831.357	4984
831.496	5181
831.635	5006
831.774	4862
831.913	4873
832.051	4763
832.19	4740
832.329	4866
832.467	4675
832.606	4683
832.744	4714
832.883	4736
833.022	4714
833.16	4816
833.299	4824
833.437	4805
833.576	4797
833.714	4877
833.852	4881
833.991	4934
834.129	4923
834.267	4961
834.406	4923
834.544	5029
834.682	5014
834.821	4965
834.959	5166
835.097	4999
835.235	5143
835.373	5105
835.511	5132
835.65	5014
835.788	5003
835.926	4923
836.064	4896
836.202	4927
836.34	5250
836.478	5235
836.615	5197
836.753	5235
836.891	5322
837.029	5246
837.167	5223
837.305	5166
837.443	5147
837.58	5098
837.718	5258
837.856	5170
837.993	5151
838.131	5235
838.269	5170
838.406	5162
838.544	5239
838.681	5003
838.819	5048
838.956	4866
839.094	4896
839.231	4961
839.369	5113
839.506	5455
839.643	5261
839.781	5064
839.918	5014
840.055	5094
840.193	5109
840.33	5121
840.467	5124
840.604	5166
840.742	5417
840.879	5067
841.016	5086
841.153	5166
841.29	5353
841.427	5368
841.564	5307
841.701	5345
841.838	5258
841.975	5254
842.112	5284
842.249	5166
842.385	5151
842.522	5318
842.659	5185
842.796	5105
842.933	5178
843.069	5140
843.206	5181
843.343	5277
843.479	5292
843.616	5299
843.752	5018
843.889	5014
844.025	5220
844.162	4999
844.298	5212
844.435	5124
844.571	5052
844.708	5239
844.844	5277
844.98	5330
845.117	5284
845.253	5128
845.389	5086
845.525	5193
845.661	5162
845.798	5022
845.934	5174
846.07	5098
846.206	5132
846.342	5277
846.478	5151
846.614	5010
846.75	4949
846.886	4953
847.022	5143
847.158	5064
847.294	5060
847.429	5109
847.565	5037
847.701	5349
847.837	4839
847.972	4771
848.108	4980
848.244	4919
848.379	4797
848.515	4717
848.65	4698
848.786	4736
848.921	4816
849.057	4862
849.192	4934
849.328	4809
849.463	4873
849.598	4782
849.734	4805
849.869	4683
850.004	4660
850.14	4660
850.275	4611
850.41	4500
850.545	4546
850.68	4607
850.815	4592
850.95	4584
851.085	4873
851.22	4710
851.355	4656
851.49	4599
851.625	4626
851.76	4622
851.895	4546
852.03	4535
852.165	4672
852.299	4733
852.434	4805
852.569	4763
852.703	4721
852.838	4850
852.973	4908
853.107	4946
853.242	4805
853.376	4656
853.511	4554
853.645	4626
853.78	4778
853.914	4698
854.048	4694
854.183	4637
854.317	4702
854.451	4831
854.585	4672
854.72	4630
854.854	4748
854.988	4588
855.122	4626
855.256	4508
855.39	4660
855.524	4774
855.658	4740
855.792	4675
855.926	4706
856.06	4786
856.194	4774
856.327	4675
856.461	4649
856.595	4645
856.729	4660
856.862	4740
856.996	4664
857.13	4717
857.263	4774
857.397	4778
857.53	4653
857.664	4725
857.797	4790
857.931	4774
858.064	4630
858.197	4736
858.331	4672
858.464	4558
858.597	4554
858.731	4622
858.864	4656
858.997	4584
859.13	4698
859.263	4721
859.396	4702
859.529	4573
859.662	4584
859.795	4523
859.928	4668
860.061	4698
860.194	4805
860.327	4592
860.46	4561
860.592	4706
860.725	4714
860.858	4710
860.99	4577
861.123	4485
861.256	4558
861.388	4622
861.521	5307
861.653	4516
861.786	4424
861.918	4462
862.05	4481
862.183	4523
862.315	4577
862.447	4672
862.58	4485
862.712	4363
862.844	4348
862.976	4466
863.108	4481
863.24	4778
863.372	4310
863.504	4462
863.636	4371
863.768	4516
863.9	4398
864.032	4360
864.164	4398
864.296	4489
864.428	4546
864.559	4550
864.691	4550
864.823	4535
864.954	4500
865.086	4500
865.217	4405
865.349	4443
865.48	4485
865.612	4508
865.743	4611
865.875	4432
866.006	4455
866.137	4424
866.269	4447
866.4	4516
866.531	4428
866.662	4363
866.793	4409
866.924	4394
867.055	4500
867.186	4436
867.317	4443
867.448	4390
867.579	4443
867.71	4455
867.841	4417
867.972	4424
868.103	4451
868.233	4451
868.364	4428
868.495	4508
868.625	4649
868.756	4733
868.886	4573
869.017	4618
869.147	4774
869.278	4755
869.408	4634
869.539	4611
869.669	4714
869.799	4687
869.929	4786
870.06	4721
870.19	4984
870.32	4957
870.45	4934
870.58	5041
870.71	5140
870.84	5113
870.97	4968
871.1	4911
871.23	5174
871.36	5155
871.489	4991
871.619	5117
871.749	5113
871.879	5140
872.008	5170
872.138	5105
872.267	4976
872.397	4904
872.526	4809
872.656	4748
872.785	4820
872.915	4972
873.044	5018
873.173	4946
873.303	4999
873.432	4957
873.561	4961
873.69	4839
873.819	4824
873.948	4904
874.077	4824
874.206	4759
874.335	4843
874.464	4927
874.593	5052
874.722	4946
874.851	5128
874.979	5102
875.108	5041
875.237	4934
875.365	4870
875.494	4873
875.623	4980
875.751	4812
875.88	4862
876.008	5006
876.136	5094
876.265	5235
876.393	5360
876.521	5265
876.65	5220
876.778	5197
876.906	5056
877.034	5052
877.162	5029
877.29	4995
877.418	5071
877.546	5014
877.674	5025
877.802	5052
877.93	5010
878.058	4976
878.185	4862
878.313	4972
878.441	4987
878.568	4812
878.696	4881
878.824	5010
878.951	5025
879.079	5086
879.206	5292
879.333	5117
879.461	4949
879.588	4984
879.715	5083
879.842	5231
879.97	5018
880.097	4790
880.224	4759
880.351	4774
880.478	4801
880.605	4824
880.732	4847
880.859	5128
880.986	4938
881.112	4938
881.239	4790
881.366	4668
881.493	4615
881.619	4656
881.746	4664
881.872	4641
881.999	4675
882.125	4698
882.252	4759
882.378	4885
882.505	4991
882.631	4755
882.757	4714
882.883	4778
883.01	4710
883.136	4694
883.262	4569
883.388	4630
883.514	4809
883.64	4862
883.766	4801
883.892	4645
884.018	4710
884.143	4911
884.269	5014
884.395	4656
884.52	4569
884.646	4637
884.772	4630
884.897	4550
885.023	4660
885.148	4778
885.274	4873
885.399	4812
885.524	4710
885.65	4668
885.775	4774
885.9	4729
886.025	4892
886.15	4755
886.275	4698
886.4	4698
886.525	4717
886.65	4694
886.775	4744
886.9	4900
887.025	5064
887.149	4805
887.274	4645
887.399	4565
887.523	4580
887.648	4599
887.773	4596
887.897	4698
888.021	4744
888.146	4687
888.27	4824
888.395	4949
888.519	4839
888.643	4854
888.767	4797
888.891	4653
889.015	4618
889.139	4653
889.263	4630
889.387	4759
889.511	4858
889.635	4797
889.759	4637
889.883	4645
890.006	4759
890.13	4812
890.254	4584
890.377	4702
890.501	4554
890.624	4497
890.748	4626
890.871	4542
890.995	4466
891.118	4402
891.241	4519
891.364	4527
891.488	4656
891.611	4516
891.734	4527
891.857	4588
891.98	4569
892.103	4615
892.226	4573
892.349	4523
892.471	4443
892.594	4535
892.717	4550
892.839	4558
892.962	4565
893.085	4679
893.207	4660
893.33	4466
893.452	4538
893.575	4706
893.697	4584
893.819	4854
893.941	4847
894.064	4721
894.186	4592
894.308	4550
894.43	4675
894.552	4820
894.674	4748
894.796	4565
894.918	4599
895.04	4599
895.161	4755
895.283	4668
895.405	4607
895.526	4660
895.648	4664
895.769	4687
895.891	4675
896.012	4702
896.134	4744
896.255	4672
896.376	4630
896.498	4573
896.619	4687
896.74	4634
896.861	4637
896.982	4923
897.103	5075
897.224	4858
897.345	4763
897.466	4694
897.587	4752
897.708	4896
897.828	4797
897.949	4683
898.07	4542
898.19	4626
898.311	4790
898.431	4694
898.552	4782
898.672	4816
898.792	4809
898.913	4744
899.033	4618
899.153	4489
899.273	4428
899.393	4478
899.513	4485
899.633	4489
899.753	4554
899.873	4508
899.993	4542
900.113	4550
900.232	4550
900.352	4523
900.472	4466
900.591	4386
900.711	4558
900.83	4440
900.95	4603
901.069	4668
901.189	4565
901.308	4409
901.427	4310
901.546	4424
901.665	4500
901.784	4561
901.904	4398
902.023	4325
902.141	4192
902.26	4150
902.379	4333
902.498	4303
902.617	4223
902.735	4383
902.854	4398
902.973	4394
903.091	4215
903.21	4219
903.328	4268
903.446	4257
903.565	4261
903.683	4325
903.801	4306
903.919	4428
904.038	4398
904.156	4371
904.274	4394
904.392	4436
904.51	4451
904.627	4451
904.745	4558
904.863	4577
904.981	4402
905.098	4337
905.216	4341
905.334	4402
905.451	4432
905.569	4440
905.686	4554
905.803	4573
905.921	4402
906.038	4538
906.155	4493
906.272	4413
906.389	4417
906.506	4367
906.623	4409
906.74	4405
906.857	4291
906.974	4367
907.091	4554
907.208	4660
907.324	4577
907.441	4489
907.557	4386
907.674	4348
907.79	4341
907.907	4390
908.023	4455
908.139	4489
908.256	4402
908.372	4466
908.488	4497
908.604	4337
908.72	4310
908.836	4390
908.952	4402
909.068	4424
909.184	4542
909.3	4459
909.415	4573
909.531	4565
909.647	4341
909.762	4402
909.878	4329
909.993	4478
910.108	4417
910.224	4436
910.339	4508
910.454	4413
910.57	4306
910.685	4322
910.8	4664
910.915	4637
911.03	4466
911.145	4344
911.259	4390
911.374	4322
911.489	4291
911.604	4295
911.718	4143
911.833	4219
911.947	4074
912.062	4044
912.176	4219
912.291	4196
912.405	4268
912.519	4443
912.633	4478
912.748	4375
912.862	4314
912.976	4215
913.09	4120
913.204	4166
913.318	4280
913.431	4386
913.545	4322
913.659	4459
913.772	4375
913.886	4287
914	4280
914.113	4409
914.226	4440
914.34	4394
914.453	4257
914.566	4459
914.68	4303
914.793	4375
914.906	4185
915.019	4097
915.132	4105
915.245	4169
915.358	4219
915.47	4268
915.583	4272
915.696	4318
915.809	4421
915.921	4386
916.034	4268
916.146	4318
916.259	4234
916.371	4432
916.483	4367
916.595	4257
916.708	4306
916.82	4325
916.932	4310
917.044	4341
917.156	4344
917.268	4291
917.38	4287
917.491	4242
917.603	4371
917.715	4432
917.826	4474
917.938	4363
918.049	4261
918.161	4386
918.272	4531
918.384	4474
918.495	4459
918.606	4318
918.717	4253
918.828	4341
918.939	4363
919.05	4265
919.161	4367
919.272	4120
919.383	4238
919.494	4436
919.604	4592
919.715	4432
919.826	4337
919.936	4394
920.047	4512
920.157	4504
920.267	4733
920.378	4519
920.488	4478
920.598	4687
920.708	4866
920.818	4755
920.928	4736
921.038	4892
921.148	4938
921.258	4622
921.368	4584
921.477	4474
921.587	4462
921.697	4386
921.806	4554
921.916	4424
922.025	4276
922.134	4284
922.244	4207
922.353	4306
922.462	4162
922.571	4139
922.68	4059
922.789	3991
922.898	4051
923.007	3983
923.116	4112
923.224	4051
923.333	4067
923.442	3998
923.55	3983
923.659	4006
923.767	4086
923.876	4006
923.984	4120
924.092	3994
924.201	4097
924.309	4078
924.417	4131
924.525	4090
924.633	4082
924.741	5045
924.849	3915
924.956	4105
925.064	3968
925.172	3899
925.279	3964
925.387	4112
925.494	4055
925.602	4169
925.709	4238
925.816	4006
925.924	4154
926.031	4242
926.138	4196
926.245	4211
926.352	4112
926.459	4253
926.566	4325
926.673	4162
926.779	4055
926.886	4063
926.993	4029
927.099	3934
927.206	3949
927.312	3953
927.419	4097
927.525	4002
927.631	4078
927.737	4002
927.843	3949
927.95	3865
928.056	3975
928.162	3979
928.267	4071
928.373	4679
928.479	4101
928.585	3880
928.69	3979
928.796	4082
928.901	3937
929.007	3827
929.112	4025
929.218	3972
929.323	3911
929.428	3972
929.533	4131
929.638	3937
929.743	3991
929.848	3991
929.953	4010
930.058	3922
930.163	3778
930.267	3850
930.372	3994
930.477	3819
930.581	4128
930.685	3964
930.79	3838
930.894	3945
930.998	3911
931.103	4067
931.207	3743
931.311	3732
931.415	3686
931.519	3523
931.623	3580
