Data from test_V78500241_1049.txt Node
Date: Fri Mar 25 16:56:17 CST 2022
User: usil
Spectrometer: V785-0024
Trigger mode: 0
Integration Time (sec): 4.000000E-1
Scans to average: 1
Nonlinearity correction enabled: false
Boxcar width: 0
Storing dark spectrum: false
XAxis mode: Wavelengths
Number of Pixels in Spectrum: 1024
>>>>>Begin Spectral Data<<<<<
801.071	7997
801.214	8001
801.356	7811
801.499	7887
801.641	7833
801.783	7742
801.926	7906
802.068	7887
802.211	8016
802.353	7913
802.496	7841
802.638	7826
802.78	7917
802.923	7917
803.065	7868
803.208	7928
803.35	7989
803.492	8164
803.635	8202
803.777	8005
803.919	8084
804.061	8473
804.204	8134
804.346	8096
804.488	8008
804.63	8119
804.773	8046
804.915	8073
805.057	8320
805.199	8164
805.341	8263
805.483	8225
805.626	8229
805.768	8054
805.91	8252
806.052	8153
806.194	8024
806.336	8275
806.478	8126
806.62	8058
806.762	8153
806.904	8267
807.046	8423
807.188	8362
807.33	8332
807.472	8313
807.614	8149
807.756	8138
807.898	8008
808.04	7879
808.182	7963
808.324	7921
808.465	8005
808.607	8084
808.749	8115
808.891	8168
809.033	8358
809.174	8180
809.316	8111
809.458	8062
809.6	8027
809.741	8103
809.883	8024
810.025	8077
810.166	8088
810.308	8096
810.45	8031
810.591	7894
810.733	7830
810.875	7681
811.016	7533
811.158	7468
811.299	7696
811.441	7681
811.582	7708
811.724	7586
811.865	7578
812.007	7609
812.148	7636
812.29	7643
812.431	7750
812.573	7913
812.714	7967
812.855	8195
812.997	8183
813.138	8358
813.279	8214
813.421	8161
813.562	8012
813.703	7871
813.845	7814
813.986	7502
814.127	7285
814.268	7285
814.41	7187
814.551	7126
814.692	7274
814.833	7069
814.974	7137
815.115	7126
815.256	7031
815.397	6916
815.539	6966
815.68	6848
815.821	6787
815.962	6894
816.103	6905
816.244	6795
816.385	6654
816.526	6665
816.666	6521
816.807	6319
816.948	6422
817.089	6536
817.23	6471
817.371	6403
817.512	6429
817.653	6448
817.793	6460
817.934	6433
818.075	6399
818.216	6403
818.356	6376
818.497	6273
818.638	6102
818.778	6220
818.919	6167
819.06	6175
819.2	6350
819.341	6285
819.481	6426
819.622	6506
819.762	6787
819.903	6745
820.043	6597
820.184	6650
820.324	6555
820.465	6688
820.605	6673
820.746	6616
820.886	6601
821.026	6650
821.167	6684
821.307	6787
821.447	6734
821.588	6681
821.728	6536
821.868	6475
822.008	6251
822.149	6357
822.289	6357
822.429	6121
822.569	6125
822.709	6095
822.849	6015
822.99	5935
823.13	5912
823.27	5935
823.41	5813
823.55	5813
823.69	5771
823.83	5794
823.97	5642
824.11	5516
824.25	5570
824.389	5551
824.529	5619
824.669	5539
824.809	5627
824.949	5623
825.089	5661
825.228	5627
825.368	5402
825.508	5322
825.648	5372
825.787	5429
825.927	5395
826.067	5360
826.206	5296
826.346	5383
826.485	5414
826.625	5440
826.765	5532
826.904	5512
827.044	5231
827.183	5189
827.323	5113
827.462	5201
827.601	5197
827.741	5227
827.88	5261
828.02	5155
828.159	5296
828.298	5330
828.437	5353
828.577	5311
828.716	5471
828.855	5376
828.994	5185
829.134	5216
829.273	5220
829.412	5201
829.551	5143
829.69	5162
829.829	5265
829.968	5402
830.107	5364
830.246	5265
830.385	5174
830.524	5151
830.663	5117
830.802	4942
830.941	4927
831.08	4892
831.219	4999
831.357	4976
831.496	5178
831.635	5010
831.774	4908
831.913	4850
832.051	4774
832.19	4736
832.329	4896
832.467	4702
832.606	4660
832.744	4733
832.883	4733
833.022	4748
833.16	4786
833.299	4873
833.437	4843
833.576	4850
833.714	4881
833.852	4889
833.991	4900
834.129	4934
834.267	4946
834.406	4908
834.544	4987
834.682	5037
834.821	4965
834.959	5159
835.097	5033
835.235	5143
835.373	5105
835.511	5124
835.65	5071
835.788	5033
835.926	4896
836.064	4881
836.202	4968
836.34	5227
836.478	5242
836.615	5174
836.753	5258
836.891	5330
837.029	5250
837.167	5216
837.305	5174
837.443	5143
837.58	5083
837.718	5273
837.856	5193
837.993	5189
838.131	5212
838.269	5212
838.406	5212
838.544	5181
838.681	5041
838.819	4995
838.956	4911
839.094	4946
839.231	5018
839.369	5102
839.506	5448
839.643	5235
839.781	5060
839.918	5018
840.055	5094
840.193	5128
840.33	5117
840.467	5140
840.604	5189
840.742	5395
840.879	5140
841.016	5117
841.153	5151
841.29	5364
841.427	5391
841.564	5360
841.701	5395
841.838	5330
841.975	5265
842.112	5303
842.249	5090
842.385	5056
842.522	5349
842.659	5166
842.796	5147
842.933	5155
843.069	5162
843.206	5140
843.343	5353
843.479	5258
843.616	5311
843.752	5056
843.889	4995
844.025	5220
844.162	4980
844.298	5189
844.435	5098
844.571	5048
844.708	5193
844.844	5326
844.98	5406
845.117	5299
845.253	5170
845.389	5136
845.525	5185
845.661	5166
845.798	5067
845.934	5185
846.07	5056
846.206	5201
846.342	5280
846.478	5197
846.614	5048
846.75	4987
846.886	4968
847.022	5166
847.158	5029
847.294	5060
847.429	5052
847.565	5056
847.701	5318
847.837	4862
847.972	4778
848.108	4942
848.244	4984
848.379	4759
848.515	4763
848.65	4790
848.786	4816
848.921	4847
849.057	4904
849.192	4854
849.328	4805
849.463	4824
849.598	4801
849.734	4786
849.869	4706
850.004	4641
850.14	4675
850.275	4573
850.41	4527
850.545	4584
850.68	4599
850.815	4675
850.95	4653
851.085	4839
851.22	4736
851.355	4622
851.49	4599
851.625	4618
851.76	4660
851.895	4538
852.03	4561
852.165	4683
852.299	4672
852.434	4778
852.569	4744
852.703	4812
852.838	4835
852.973	4930
853.107	4961
853.242	4740
853.376	4672
853.511	4538
853.645	4679
853.78	4835
853.914	4721
854.048	4664
854.183	4611
854.317	4717
854.451	4839
854.585	4664
854.72	4668
854.854	4752
854.988	4615
855.122	4641
855.256	4523
855.39	4664
855.524	4816
855.658	4736
855.792	4725
855.926	4706
856.06	4771
856.194	4793
856.327	4725
856.461	4603
856.595	4645
856.729	4630
856.862	4778
856.996	4672
857.13	4744
857.263	4752
857.397	4790
857.53	4641
857.664	4733
857.797	4786
857.931	4797
858.064	4721
858.197	4786
858.331	4691
858.464	4580
858.597	4592
858.731	4649
858.864	4653
858.997	4634
859.13	4660
859.263	4683
859.396	4733
859.529	4615
859.662	4626
859.795	4538
859.928	4637
860.061	4729
860.194	4729
860.327	4615
860.46	4599
860.592	4744
860.725	4733
860.858	4725
860.99	4607
861.123	4554
861.256	4550
861.388	4630
861.521	5269
861.653	4508
861.786	4413
861.918	4470
862.05	4478
862.183	4519
862.315	4668
862.447	4664
862.58	4580
862.712	4383
862.844	4314
862.976	4500
863.108	4428
863.24	4911
863.372	4363
863.504	4417
863.636	4367
863.768	4455
863.9	4455
864.032	4375
864.164	4356
864.296	4470
864.428	4569
864.559	4558
864.691	4516
864.823	4546
864.954	4508
865.086	4489
865.217	4470
865.349	4455
865.48	4432
865.612	4474
865.743	4618
865.875	4462
866.006	4455
866.137	4459
866.269	4443
866.4	4455
866.531	4428
866.662	4348
866.793	4398
866.924	4485
867.055	4474
867.186	4443
867.317	4409
867.448	4371
867.579	4413
867.71	4436
867.841	4363
867.972	4485
868.103	4440
868.233	4489
868.364	4466
868.495	4493
868.625	4725
868.756	4736
868.886	4569
869.017	4596
869.147	4793
869.278	4805
869.408	4641
869.539	4645
869.669	4672
869.799	4656
869.929	4809
870.06	4729
870.19	4980
870.32	4942
870.45	4949
870.58	5048
870.71	5128
870.84	5064
870.97	4942
871.1	4934
871.23	5113
871.36	5090
871.489	5048
871.619	5067
871.749	5075
871.879	5124
872.008	5204
872.138	5052
872.267	4991
872.397	4835
872.526	4812
872.656	4721
872.785	4816
872.915	4946
873.044	5025
873.173	4930
873.303	4987
873.432	4930
873.561	4987
873.69	4889
873.819	4881
873.948	4904
874.077	4828
874.206	4763
874.335	4824
874.464	4968
874.593	5071
874.722	4968
874.851	5060
874.979	5086
875.108	5006
875.237	4976
875.365	4835
875.494	4866
875.623	4991
875.751	4801
875.88	4843
876.008	4927
876.136	5048
876.265	5193
876.393	5364
876.521	5258
876.65	5216
876.778	5181
876.906	5033
877.034	4999
877.162	5041
877.29	4953
877.418	5071
877.546	5060
877.674	5006
877.802	5029
877.93	5003
878.058	4908
878.185	4850
878.313	4934
878.441	4968
878.568	4816
878.696	4881
878.824	4919
878.951	5003
879.079	5132
879.206	5299
879.333	5136
879.461	4946
879.588	4999
879.715	5121
879.842	5227
879.97	5056
880.097	4835
880.224	4782
880.351	4843
880.478	4862
880.605	4790
880.732	4866
880.859	5197
880.986	4930
881.112	4953
881.239	4831
881.366	4752
881.493	4641
881.619	4679
881.746	4679
881.872	4637
881.999	4637
882.125	4744
882.252	4790
882.378	4889
882.505	4968
882.631	4889
882.757	4698
882.883	4752
883.01	4763
883.136	4706
883.262	4653
883.388	4683
883.514	4911
883.64	4870
883.766	4866
883.892	4752
884.018	4748
884.143	4877
884.269	5075
884.395	4733
884.52	4702
884.646	4725
884.772	4683
884.897	4615
885.023	4687
885.148	4843
885.274	4946
885.399	4828
885.524	4767
885.65	4736
885.775	4816
885.9	4706
886.025	4908
886.15	4843
886.275	4805
886.4	4748
886.525	4752
886.65	4679
886.775	4721
886.9	4923
887.025	5003
887.149	4881
887.274	4714
887.399	4569
887.523	4611
887.648	4645
887.773	4596
887.897	4805
888.021	4847
888.146	4698
888.27	4862
888.395	4919
888.519	4805
888.643	4854
888.767	4877
888.891	4733
889.015	4607
889.139	4675
889.263	4649
889.387	4786
889.511	4900
889.635	4816
889.759	4694
889.883	4679
890.006	4733
890.13	4858
890.254	4637
890.377	4698
890.501	4512
890.624	4569
890.748	4637
890.871	4554
890.995	4485
891.118	4413
891.241	4550
891.364	4607
891.488	4672
891.611	4542
891.734	4588
891.857	4615
891.98	4603
892.103	4698
892.226	4634
892.349	4554
892.471	4417
892.594	4573
892.717	4622
892.839	4596
892.962	4622
893.085	4687
893.207	4664
893.33	4527
893.452	4588
893.575	4687
893.697	4611
893.819	4835
893.941	4850
894.064	4831
894.186	4626
894.308	4588
894.43	4786
894.552	4809
894.674	4736
894.796	4577
894.918	4645
895.04	4561
895.161	4736
895.283	4691
895.405	4634
895.526	4641
895.648	4698
895.769	4721
895.891	4714
896.012	4790
896.134	4721
896.255	4683
896.376	4691
896.498	4615
896.619	4714
896.74	4668
896.861	4683
896.982	4946
897.103	5124
897.224	4835
897.345	4793
897.466	4702
897.587	4752
897.708	4866
897.828	4778
897.949	4687
898.07	4615
898.19	4694
898.311	4892
898.431	4736
898.552	4717
898.672	4843
898.792	4786
898.913	4774
899.033	4630
899.153	4546
899.273	4459
899.393	4523
899.513	4527
899.633	4550
899.753	4569
899.873	4527
899.993	4611
900.113	4558
900.232	4603
900.352	4584
900.472	4459
900.591	4466
900.711	4497
900.83	4451
900.95	4637
901.069	4679
901.189	4519
901.308	4402
901.427	4337
901.546	4451
901.665	4508
901.784	4527
901.904	4432
902.023	4322
902.141	4249
902.26	4246
902.379	4337
902.498	4280
902.617	4291
902.735	4363
902.854	4451
902.973	4352
903.091	4238
903.21	4207
903.328	4310
903.446	4348
903.565	4299
903.683	4390
903.801	4306
903.919	4478
904.038	4447
904.156	4367
904.274	4440
904.392	4409
904.51	4527
904.627	4478
904.745	4626
904.863	4660
904.981	4432
905.098	4344
905.216	4367
905.334	4455
905.451	4478
905.569	4489
905.686	4535
905.803	4565
905.921	4436
906.038	4542
906.155	4443
906.272	4447
906.389	4500
906.506	4360
906.623	4436
906.74	4428
906.857	4318
906.974	4367
907.091	4569
907.208	4702
907.324	4615
907.441	4512
907.557	4402
907.674	4402
907.79	4318
907.907	4398
908.023	4535
908.139	4497
908.256	4474
908.372	4504
908.488	4497
908.604	4367
908.72	4383
908.836	4417
908.952	4405
909.068	4459
909.184	4565
909.3	4481
909.415	4641
909.531	4580
909.647	4390
909.762	4367
909.878	4379
909.993	4462
910.108	4402
910.224	4398
910.339	4455
910.454	4489
910.57	4371
910.685	4348
910.8	4653
910.915	4622
911.03	4516
911.145	4318
911.259	4348
911.374	4398
911.489	4329
911.604	4299
911.718	4147
911.833	4227
911.947	4116
912.062	4055
912.176	4303
912.291	4238
912.405	4268
912.519	4466
912.633	4558
912.748	4398
912.862	4341
912.976	4188
913.09	4173
913.204	4196
913.318	4276
913.431	4413
913.545	4417
913.659	4432
913.772	4367
913.886	4238
914	4246
914.113	4398
914.226	4428
914.34	4421
914.453	4230
914.566	4459
914.68	4337
914.793	4333
914.906	4181
915.019	4135
915.132	4105
915.245	4204
915.358	4223
915.47	4200
915.583	4219
915.696	4356
915.809	4436
915.921	4447
916.034	4272
916.146	4257
916.259	4215
916.371	4371
916.483	4352
916.595	4227
916.708	4348
916.82	4360
916.932	4352
917.044	4306
917.156	4303
917.268	4261
917.38	4276
917.491	4249
917.603	4348
917.715	4424
917.826	4462
917.938	4360
918.049	4257
918.161	4394
918.272	4561
918.384	4569
918.495	4497
918.606	4314
918.717	4234
918.828	4333
918.939	4402
919.05	4280
919.161	4344
919.272	4147
919.383	4261
919.494	4512
919.604	4615
919.715	4432
919.826	4383
919.936	4428
920.047	4519
920.157	4478
920.267	4729
920.378	4508
920.488	4527
920.598	4744
920.708	4900
920.818	4809
920.928	4793
921.038	4968
921.148	4927
921.258	4679
921.368	4535
921.477	4542
921.587	4478
921.697	4329
921.806	4550
921.916	4489
922.025	4276
922.134	4329
922.244	4246
922.353	4348
922.462	4185
922.571	4147
922.68	4055
922.789	3983
922.898	4032
923.007	4029
923.116	4116
923.224	4086
923.333	4086
923.442	4010
923.55	3968
923.659	4021
923.767	4116
923.876	3994
923.984	4120
924.092	4082
924.201	4067
924.309	4112
924.417	4162
924.525	4059
924.633	4116
924.741	5033
924.849	3949
924.956	4177
925.064	3998
925.172	3918
925.279	4040
925.387	4040
925.494	4086
925.602	4207
925.709	4219
925.816	4032
925.924	4131
926.031	4211
926.138	4188
926.245	4192
926.352	4105
926.459	4230
926.566	4306
926.673	4158
926.779	4059
926.886	4124
926.993	3934
927.099	3956
927.206	3956
927.312	3987
927.419	4051
927.525	4067
927.631	4143
927.737	3964
927.843	3987
927.95	3850
928.056	3968
928.162	3991
928.267	4090
928.373	4698
928.479	4120
928.585	3880
928.69	4036
928.796	4116
928.901	3975
929.007	3812
929.112	4029
929.218	4017
929.323	3975
929.428	3987
929.533	4124
929.638	3892
929.743	3934
929.848	4086
929.953	4010
930.058	3949
930.163	3816
930.267	3838
930.372	4029
930.477	3831
930.581	4040
930.685	3983
930.79	3835
930.894	3876
930.998	3922
931.103	4048
931.207	3755
931.311	3709
931.415	3671
931.519	3519
931.623	3580
