Data from test_V78500241_1146.txt Node
Date: Fri Mar 25 16:56:58 CST 2022
User: usil
Spectrometer: V785-0024
Trigger mode: 0
Integration Time (sec): 4.000000E-1
Scans to average: 1
Nonlinearity correction enabled: false
Boxcar width: 0
Storing dark spectrum: false
XAxis mode: Wavelengths
Number of Pixels in Spectrum: 1024
>>>>>Begin Spectral Data<<<<<
801.071	8008
801.214	7993
801.356	7894
801.499	7883
801.641	7761
801.783	7750
801.926	7986
802.068	7955
802.211	7974
802.353	7963
802.496	7898
802.638	7826
802.78	7925
802.923	7967
803.065	7837
803.208	7879
803.35	7982
803.492	8039
803.635	8164
803.777	8046
803.919	8176
804.061	8450
804.204	8062
804.346	8005
804.488	7955
804.63	8107
804.773	8024
804.915	8134
805.057	8298
805.199	8195
805.341	8191
805.483	8252
805.626	8259
805.768	8157
805.91	8161
806.052	8225
806.194	8073
806.336	8343
806.478	8081
806.62	8054
806.762	8145
806.904	8256
807.046	8431
807.188	8294
807.33	8187
807.472	8279
807.614	8130
807.756	8130
807.898	8016
808.04	7932
808.182	7879
808.324	7852
808.465	7921
808.607	8073
808.749	8100
808.891	8149
809.033	8271
809.174	8191
809.316	8088
809.458	8024
809.6	7951
809.741	8073
809.883	8050
810.025	8054
810.166	8039
810.308	7989
810.45	8039
810.591	7898
810.733	7670
810.875	7609
811.016	7487
811.158	7495
811.299	7575
811.441	7689
811.582	7655
811.724	7582
811.865	7537
812.007	7594
812.148	7613
812.29	7616
812.431	7712
812.573	7875
812.714	8020
812.855	8130
812.997	8206
813.138	8259
813.279	8225
813.421	8084
813.562	8058
813.703	7792
813.845	7738
813.986	7426
814.127	7266
814.268	7168
814.41	7160
814.551	7175
814.692	7160
814.833	7076
814.974	7133
815.115	7065
815.256	6966
815.397	6856
815.539	6943
815.68	6795
815.821	6795
815.962	6825
816.103	6795
816.244	6677
816.385	6620
816.526	6601
816.666	6498
816.807	6361
816.948	6445
817.089	6483
817.23	6380
817.371	6391
817.512	6410
817.653	6399
817.793	6304
817.934	6391
818.075	6479
818.216	6365
818.356	6388
818.497	6178
818.638	6155
818.778	6098
818.919	6144
819.06	6125
819.2	6327
819.341	6334
819.481	6441
819.622	6551
819.762	6776
819.903	6665
820.043	6631
820.184	6608
820.324	6578
820.465	6696
820.605	6692
820.746	6601
820.886	6456
821.026	6631
821.167	6696
821.307	6810
821.447	6738
821.588	6642
821.728	6513
821.868	6407
822.008	6277
822.149	6311
822.289	6308
822.429	6144
822.569	6053
822.709	6110
822.849	5916
822.99	5878
823.13	5920
823.27	5859
823.41	5805
823.55	5771
823.69	5764
823.83	5718
823.97	5657
824.11	5524
824.25	5490
824.389	5512
824.529	5554
824.669	5505
824.809	5543
824.949	5619
825.089	5604
825.228	5566
825.368	5383
825.508	5330
825.648	5334
825.787	5368
825.927	5376
826.067	5299
826.206	5242
826.346	5330
826.485	5398
826.625	5387
826.765	5528
826.904	5455
827.044	5284
827.183	5216
827.323	5143
827.462	5246
827.601	5124
827.741	5204
827.88	5246
828.02	5075
828.159	5212
828.298	5299
828.437	5296
828.577	5242
828.716	5474
828.855	5299
828.994	5197
829.134	5162
829.273	5159
829.412	5128
829.551	5162
829.69	5086
829.829	5220
829.968	5345
830.107	5208
830.246	5227
830.385	5159
830.524	5090
830.663	5079
830.802	4946
830.941	4885
831.08	4862
831.219	4987
831.357	4984
831.496	5140
831.635	4911
831.774	4831
831.913	4881
832.051	4748
832.19	4759
832.329	4797
832.467	4634
832.606	4622
832.744	4729
832.883	4675
833.022	4702
833.16	4782
833.299	4755
833.437	4820
833.576	4847
833.714	4850
833.852	4847
833.991	4896
834.129	4976
834.267	4968
834.406	4877
834.544	4972
834.682	4968
834.821	4942
834.959	5113
835.097	5006
835.235	5121
835.373	5064
835.511	5102
835.65	4987
835.788	5018
835.926	4873
836.064	4881
836.202	4850
836.34	5109
836.478	5193
836.615	5128
836.753	5189
836.891	5273
837.029	5185
837.167	5181
837.305	5181
837.443	5151
837.58	5075
837.718	5235
837.856	5181
837.993	5174
838.131	5227
838.269	5155
838.406	5162
838.544	5185
838.681	5033
838.819	4949
838.956	4828
839.094	4892
839.231	4965
839.369	5060
839.506	5417
839.643	5185
839.781	5041
839.918	5022
840.055	5037
840.193	5086
840.33	5029
840.467	5140
840.604	5162
840.742	5463
840.879	5064
841.016	5067
841.153	5121
841.29	5315
841.427	5357
841.564	5288
841.701	5337
841.838	5242
841.975	5246
842.112	5250
842.249	5071
842.385	5109
842.522	5330
842.659	5109
842.796	5143
842.933	5197
843.069	5162
843.206	5147
843.343	5242
843.479	5231
843.616	5258
843.752	4999
843.889	4976
844.025	5216
844.162	5003
844.298	5170
844.435	5083
844.571	5029
844.708	5185
844.844	5296
844.98	5311
845.117	5246
845.253	5094
845.389	5079
845.525	5159
845.661	5128
845.798	5006
845.934	5143
846.07	5071
846.206	5162
846.342	5273
846.478	5132
846.614	4976
846.75	4908
846.886	4953
847.022	5136
847.158	4999
847.294	5041
847.429	5079
847.565	5041
847.701	5280
847.837	4854
847.972	4793
848.108	4892
848.244	4934
848.379	4797
848.515	4710
848.65	4679
848.786	4717
848.921	4793
849.057	4831
849.192	4904
849.328	4778
849.463	4828
849.598	4774
849.734	4736
849.869	4694
850.004	4599
850.14	4637
850.275	4573
850.41	4538
850.545	4565
850.68	4584
850.815	4550
850.95	4584
851.085	4831
851.22	4717
851.355	4675
851.49	4599
851.625	4656
851.76	4607
851.895	4546
852.03	4535
852.165	4649
852.299	4748
852.434	4763
852.569	4744
852.703	4752
852.838	4797
852.973	4919
853.107	4889
853.242	4706
853.376	4634
853.511	4599
853.645	4577
853.78	4847
853.914	4675
854.048	4687
854.183	4603
854.317	4637
854.451	4801
854.585	4694
854.72	4577
854.854	4683
854.988	4573
855.122	4599
855.256	4478
855.39	4622
855.524	4733
855.658	4721
855.792	4706
855.926	4717
856.06	4767
856.194	4729
856.327	4664
856.461	4558
856.595	4558
856.729	4603
856.862	4725
856.996	4706
857.13	4702
857.263	4721
857.397	4778
857.53	4626
857.664	4691
857.797	4736
857.931	4771
858.064	4618
858.197	4717
858.331	4618
858.464	4603
858.597	4459
858.731	4645
858.864	4626
858.997	4558
859.13	4626
859.263	4664
859.396	4714
859.529	4584
859.662	4550
859.795	4531
859.928	4626
860.061	4721
860.194	4740
860.327	4630
860.46	4538
860.592	4694
860.725	4702
860.858	4714
860.99	4535
861.123	4546
861.256	4504
861.388	4603
861.521	5239
861.653	4485
861.786	4417
861.918	4440
862.05	4527
862.183	4489
862.315	4607
862.447	4618
862.58	4535
862.712	4398
862.844	4272
862.976	4481
863.108	4394
863.24	4839
863.372	4303
863.504	4405
863.636	4383
863.768	4462
863.9	4417
864.032	4344
864.164	4371
864.296	4451
864.428	4440
864.559	4546
864.691	4485
864.823	4493
864.954	4455
865.086	4504
865.217	4398
865.349	4405
865.48	4417
865.612	4478
865.743	4577
865.875	4436
866.006	4398
866.137	4474
866.269	4386
866.4	4432
866.531	4443
866.662	4402
866.793	4356
866.924	4413
867.055	4481
867.186	4386
867.317	4417
867.448	4379
867.579	4394
867.71	4341
867.841	4352
867.972	4451
868.103	4443
868.233	4390
868.364	4447
868.495	4474
868.625	4717
868.756	4790
868.886	4550
869.017	4596
869.147	4759
869.278	4744
869.408	4672
869.539	4675
869.669	4698
869.799	4630
869.929	4725
870.06	4717
870.19	4942
870.32	4923
870.45	4923
870.58	4961
870.71	5037
870.84	5086
870.97	4953
871.1	4873
871.23	5140
871.36	5124
871.489	5029
871.619	5060
871.749	5060
871.879	5105
872.008	5117
872.138	5071
872.267	4968
872.397	4809
872.526	4767
872.656	4683
872.785	4771
872.915	4938
873.044	5029
873.173	4915
873.303	4927
873.432	4911
873.561	4934
873.69	4900
873.819	4877
873.948	4843
874.077	4828
874.206	4740
874.335	4729
874.464	4934
874.593	5048
874.722	4938
874.851	5064
874.979	5071
875.108	5014
875.237	4885
875.365	4850
875.494	4858
875.623	4930
875.751	4858
875.88	4858
876.008	4976
876.136	5006
876.265	5136
876.393	5284
876.521	5204
876.65	5250
876.778	5178
876.906	5041
877.034	5025
877.162	4987
877.29	4999
877.418	5060
877.546	5037
877.674	5052
877.802	5041
877.93	5033
878.058	4904
878.185	4900
878.313	4934
878.441	4923
878.568	4729
878.696	4862
878.824	4904
878.951	4980
879.079	5105
879.206	5242
879.333	5098
879.461	4934
879.588	5010
879.715	5113
879.842	5174
879.97	4976
880.097	4771
880.224	4725
880.351	4782
880.478	4809
880.605	4793
880.732	4759
880.859	5052
880.986	4839
881.112	4839
881.239	4702
881.366	4649
881.493	4554
881.619	4588
881.746	4584
881.872	4634
881.999	4660
882.125	4710
882.252	4733
882.378	4759
882.505	4896
882.631	4782
882.757	4653
882.883	4733
883.01	4714
883.136	4626
883.262	4599
883.388	4599
883.514	4782
883.64	4892
883.766	4786
883.892	4626
884.018	4687
884.143	4839
884.269	4991
884.395	4679
884.52	4596
884.646	4607
884.772	4561
884.897	4523
885.023	4672
885.148	4767
885.274	4835
885.399	4809
885.524	4752
885.65	4653
885.775	4736
885.9	4672
886.025	4862
886.15	4759
886.275	4710
886.4	4630
886.525	4710
886.65	4706
886.775	4645
886.9	4877
887.025	5018
887.149	4801
887.274	4615
887.399	4538
887.523	4630
887.648	4603
887.773	4588
887.897	4778
888.021	4778
888.146	4668
888.27	4797
888.395	4934
888.519	4809
888.643	4828
888.767	4816
888.891	4721
889.015	4603
889.139	4668
889.263	4611
889.387	4809
889.511	4896
889.635	4805
889.759	4683
889.883	4691
890.006	4725
890.13	4900
890.254	4645
890.377	4694
890.501	4611
890.624	4546
890.748	4691
890.871	4550
890.995	4485
891.118	4440
891.241	4531
891.364	4542
891.488	4637
891.611	4497
891.734	4569
891.857	4546
891.98	4527
892.103	4649
892.226	4607
892.349	4561
892.471	4424
892.594	4565
892.717	4618
892.839	4641
892.962	4622
893.085	4634
893.207	4649
893.33	4466
893.452	4546
893.575	4664
893.697	4630
893.819	4850
893.941	4862
894.064	4774
894.186	4592
894.308	4607
894.43	4740
894.552	4850
894.674	4786
894.796	4607
894.918	4645
895.04	4626
895.161	4725
895.283	4675
895.405	4622
895.526	4679
895.648	4691
895.769	4744
895.891	4790
896.012	4771
896.134	4771
896.255	4714
896.376	4645
896.498	4668
896.619	4710
896.74	4645
896.861	4675
896.982	4949
897.103	5117
897.224	4843
897.345	4782
897.466	4733
897.587	4748
897.708	4835
897.828	4816
897.949	4740
898.07	4588
898.19	4645
898.311	4835
898.431	4733
898.552	4748
898.672	4809
898.792	4854
898.913	4809
899.033	4615
899.153	4546
899.273	4459
899.393	4569
899.513	4554
899.633	4558
899.753	4588
899.873	4596
899.993	4618
900.113	4523
900.232	4626
900.352	4546
900.472	4523
900.591	4455
900.711	4500
900.83	4459
900.95	4599
901.069	4714
901.189	4558
901.308	4409
901.427	4344
901.546	4390
901.665	4443
901.784	4546
901.904	4447
902.023	4360
902.141	4257
902.26	4219
902.379	4314
902.498	4238
902.617	4261
902.735	4440
902.854	4436
902.973	4363
903.091	4215
903.21	4265
903.328	4352
903.446	4276
903.565	4280
903.683	4371
903.801	4333
903.919	4440
904.038	4481
904.156	4356
904.274	4459
904.392	4394
904.51	4462
904.627	4485
904.745	4630
904.863	4710
904.981	4417
905.098	4310
905.216	4375
905.334	4470
905.451	4462
905.569	4466
905.686	4538
905.803	4573
905.921	4424
906.038	4554
906.155	4558
906.272	4413
906.389	4451
906.506	4440
906.623	4432
906.74	4432
906.857	4299
906.974	4413
907.091	4580
907.208	4683
907.324	4649
907.441	4489
907.557	4329
907.674	4379
907.79	4348
907.907	4474
908.023	4497
908.139	4474
908.256	4493
908.372	4493
908.488	4424
908.604	4375
908.72	4367
908.836	4371
908.952	4363
909.068	4436
909.184	4588
909.3	4504
909.415	4645
909.531	4573
909.647	4409
909.762	4402
909.878	4386
909.993	4470
910.108	4421
910.224	4409
910.339	4493
910.454	4447
910.57	4428
910.685	4314
910.8	4634
910.915	4615
911.03	4558
911.145	4360
911.259	4402
911.374	4394
911.489	4337
911.604	4325
911.718	4219
911.833	4207
911.947	4086
912.062	4013
912.176	4234
912.291	4310
912.405	4276
912.519	4447
912.633	4481
912.748	4363
912.862	4356
912.976	4227
913.09	4139
913.204	4158
913.318	4295
913.431	4409
913.545	4386
913.659	4470
913.772	4417
913.886	4303
914	4230
914.113	4394
914.226	4443
914.34	4409
914.453	4265
914.566	4409
914.68	4284
914.793	4306
914.906	4200
915.019	4120
915.132	4139
915.245	4227
915.358	4211
915.47	4227
915.583	4303
915.696	4325
915.809	4413
915.921	4478
916.034	4295
916.146	4234
916.259	4284
916.371	4436
916.483	4421
916.595	4310
916.708	4363
916.82	4348
916.932	4318
917.044	4333
917.156	4341
917.268	4249
917.38	4284
917.491	4280
917.603	4386
917.715	4413
917.826	4451
917.938	4344
918.049	4242
918.161	4398
918.272	4542
918.384	4603
918.495	4428
918.606	4287
918.717	4242
918.828	4356
918.939	4337
919.05	4291
919.161	4325
919.272	4162
919.383	4299
919.494	4436
919.604	4683
919.715	4451
919.826	4383
919.936	4363
920.047	4542
920.157	4516
920.267	4714
920.378	4558
920.488	4546
920.598	4736
920.708	4900
920.818	4721
920.928	4759
921.038	4927
921.148	4927
921.258	4622
921.368	4550
921.477	4546
921.587	4470
921.697	4424
921.806	4542
921.916	4447
922.025	4287
922.134	4249
922.244	4242
922.353	4360
922.462	4188
922.571	4177
922.68	3987
922.789	3964
922.898	4078
923.007	4017
923.116	4131
923.224	4135
923.333	4086
923.442	4032
923.55	4040
923.659	4025
923.767	4120
923.876	4032
923.984	4090
924.092	4013
924.201	4082
924.309	4093
924.417	4109
924.525	4086
924.633	4097
924.741	5010
924.849	3907
924.956	4154
925.064	3994
925.172	3934
925.279	3937
925.387	4013
925.494	4071
925.602	4192
925.709	4207
925.816	4067
925.924	4120
926.031	4257
926.138	4230
926.245	4253
926.352	4074
926.459	4253
926.566	4314
926.673	4192
926.779	4120
926.886	4128
926.993	4006
927.099	3960
927.206	3918
927.312	3972
927.419	4093
927.525	4063
927.631	4090
927.737	3991
927.843	3983
927.95	3907
928.056	3979
928.162	4010
928.267	4074
928.373	4694
928.479	4112
928.585	3911
928.69	4048
928.796	4131
928.901	3968
929.007	3816
929.112	4029
929.218	3991
929.323	4006
929.428	3953
929.533	4181
929.638	3922
929.743	3968
929.848	4032
929.953	4036
930.058	3922
930.163	3842
930.267	3880
930.372	4040
930.477	3869
930.581	4097
930.685	3960
930.79	3823
930.894	3873
930.998	3911
931.103	4105
931.207	3774
931.311	3740
931.415	3709
931.519	3553
931.623	3603
