Data from test_V78500241_82.txt Node
Date: Fri Mar 25 16:49:34 CST 2022
User: usil
Spectrometer: V785-0024
Trigger mode: 0
Integration Time (sec): 4.000000E-1
Scans to average: 1
Nonlinearity correction enabled: false
Boxcar width: 0
Storing dark spectrum: false
XAxis mode: Wavelengths
Number of Pixels in Spectrum: 1024
>>>>>Begin Spectral Data<<<<<
801.071	8012
801.214	8024
801.356	7944
801.499	7841
801.641	7852
801.783	7883
801.926	8024
802.068	7944
802.211	7944
802.353	8024
802.496	7970
802.638	7951
802.78	7909
802.923	7986
803.065	7913
803.208	7864
803.35	7959
803.492	8024
803.635	8123
803.777	7967
803.919	8119
804.061	8465
804.204	8138
804.346	8016
804.488	7982
804.63	8100
804.773	7955
804.915	8153
805.057	8271
805.199	8111
805.341	8229
805.483	8309
805.626	8221
805.768	8107
805.91	8206
806.052	8210
806.194	8107
806.336	8263
806.478	8130
806.62	8126
806.762	8164
806.904	8225
807.046	8457
807.188	8370
807.33	8343
807.472	8298
807.614	8130
807.756	8206
807.898	8035
808.04	7982
808.182	7883
808.324	7894
808.465	7852
808.607	7928
808.749	8016
808.891	8199
809.033	8271
809.174	8206
809.316	7989
809.458	7928
809.6	8008
809.741	8111
809.883	8020
810.025	8077
810.166	8039
810.308	8073
810.45	8050
810.591	7860
810.733	7799
810.875	7666
811.016	7544
811.158	7460
811.299	7677
811.441	7788
811.582	7738
811.724	7624
811.865	7643
812.007	7609
812.148	7636
812.29	7700
812.431	7811
812.573	7959
812.714	8039
812.855	8214
812.997	8290
813.138	8313
813.279	8225
813.421	8157
813.562	7997
813.703	7909
813.845	7757
813.986	7457
814.127	7308
814.268	7247
814.41	7305
814.551	7232
814.692	7259
814.833	7118
814.974	7129
815.115	7255
815.256	7046
815.397	6935
815.539	6935
815.68	6818
815.821	6776
815.962	6863
816.103	6844
816.244	6684
816.385	6627
816.526	6620
816.666	6532
816.807	6350
816.948	6433
817.089	6448
817.23	6418
817.371	6433
817.512	6418
817.653	6410
817.793	6441
817.934	6490
818.075	6525
818.216	6494
818.356	6479
818.497	6258
818.638	6152
818.778	6175
818.919	6175
819.06	6144
819.2	6331
819.341	6365
819.481	6388
819.622	6563
819.762	6711
819.903	6730
820.043	6627
820.184	6623
820.324	6566
820.465	6665
820.605	6688
820.746	6612
820.886	6563
821.026	6700
821.167	6715
821.307	6890
821.447	6837
821.588	6589
821.728	6654
821.868	6490
822.008	6365
822.149	6464
822.289	6391
822.429	6209
822.569	6129
822.709	6133
822.849	5984
822.99	5950
823.13	5923
823.27	5916
823.41	5805
823.55	5798
823.69	5745
823.83	5813
823.97	5684
824.11	5619
824.25	5577
824.389	5611
824.529	5649
824.669	5516
824.809	5638
824.949	5726
825.089	5642
825.228	5566
825.368	5463
825.508	5433
825.648	5391
825.787	5421
825.927	5402
826.067	5341
826.206	5311
826.346	5436
826.485	5425
826.625	5425
826.765	5581
826.904	5524
827.044	5246
827.183	5258
827.323	5121
827.462	5277
827.601	5204
827.741	5208
827.88	5246
828.02	5140
828.159	5250
828.298	5292
828.437	5417
828.577	5292
828.716	5486
828.855	5318
828.994	5189
829.134	5162
829.273	5235
829.412	5132
829.551	5143
829.69	5143
829.829	5292
829.968	5349
830.107	5315
830.246	5349
830.385	5178
830.524	5166
830.663	5109
830.802	4991
830.941	4934
831.08	4847
831.219	4980
831.357	4946
831.496	5181
831.635	4961
831.774	4877
831.913	4866
832.051	4744
832.19	4801
832.329	4850
832.467	4725
832.606	4649
832.744	4740
832.883	4733
833.022	4717
833.16	4820
833.299	4812
833.437	4839
833.576	4877
833.714	4889
833.852	4847
833.991	4911
834.129	4961
834.267	4980
834.406	4946
834.544	4984
834.682	4957
834.821	4961
834.959	5170
835.097	4972
835.235	5174
835.373	5128
835.511	5151
835.65	5033
835.788	5064
835.926	4934
836.064	4930
836.202	4949
836.34	5212
836.478	5239
836.615	5193
836.753	5299
836.891	5311
837.029	5269
837.167	5227
837.305	5159
837.443	5189
837.58	5098
837.718	5269
837.856	5239
837.993	5223
838.131	5273
838.269	5239
838.406	5235
838.544	5181
838.681	5067
838.819	5098
838.956	4892
839.094	4938
839.231	5037
839.369	5128
839.506	5376
839.643	5296
839.781	5083
839.918	5018
840.055	5132
840.193	5162
840.33	5109
840.467	5162
840.604	5227
840.742	5425
840.879	5105
841.016	5105
841.153	5147
841.29	5398
841.427	5307
841.564	5395
841.701	5368
841.838	5307
841.975	5284
842.112	5334
842.249	5162
842.385	5128
842.522	5330
842.659	5208
842.796	5124
842.933	5212
843.069	5178
843.206	5220
843.343	5303
843.479	5296
843.616	5296
843.752	5041
843.889	5086
844.025	5170
844.162	5136
844.298	5201
844.435	5086
844.571	5098
844.708	5265
844.844	5322
844.98	5376
845.117	5334
845.253	5174
845.389	5094
845.525	5220
845.661	5155
845.798	5045
845.934	5174
846.07	5102
846.206	5204
846.342	5265
846.478	5185
846.614	5022
846.75	4987
846.886	4984
847.022	5170
847.158	5067
847.294	5094
847.429	5121
847.565	5098
847.701	5326
847.837	4892
847.972	4847
848.108	4980
848.244	4965
848.379	4847
848.515	4744
848.65	4797
848.786	4771
848.921	4755
849.057	4889
849.192	4896
849.328	4870
849.463	4866
849.598	4805
849.734	4782
849.869	4721
850.004	4660
850.14	4698
850.275	4664
850.41	4565
850.545	4584
850.68	4634
850.815	4645
850.95	4672
851.085	4850
851.22	4744
851.355	4714
851.49	4626
851.625	4660
851.76	4653
851.895	4584
852.03	4519
852.165	4687
852.299	4752
852.434	4839
852.569	4721
852.703	4824
852.838	4873
852.973	4949
853.107	4911
853.242	4767
853.376	4668
853.511	4615
853.645	4645
853.78	4839
853.914	4706
854.048	4656
854.183	4672
854.317	4744
854.451	4904
854.585	4672
854.72	4672
854.854	4774
854.988	4607
855.122	4664
855.256	4565
855.39	4691
855.524	4820
855.658	4752
855.792	4691
855.926	4748
856.06	4786
856.194	4774
856.327	4721
856.461	4588
856.595	4634
856.729	4656
856.862	4790
856.996	4790
857.13	4782
857.263	4809
857.397	4824
857.53	4634
857.664	4744
857.797	4801
857.931	4839
858.064	4679
858.197	4790
858.331	4672
858.464	4630
858.597	4546
858.731	4702
858.864	4717
858.997	4634
859.13	4683
859.263	4752
859.396	4729
859.529	4603
859.662	4577
859.795	4554
859.928	4645
860.061	4774
860.194	4839
860.327	4584
860.46	4607
860.592	4748
860.725	4755
860.858	4755
860.99	4611
861.123	4554
861.256	4538
861.388	4588
861.521	5303
861.653	4535
861.786	4436
861.918	4516
862.05	4558
862.183	4603
862.315	4653
862.447	4691
862.58	4546
862.712	4363
862.844	4360
862.976	4474
863.108	4516
863.24	4938
863.372	4367
863.504	4443
863.636	4405
863.768	4459
863.9	4424
864.032	4417
864.164	4402
864.296	4493
864.428	4577
864.559	4618
864.691	4550
864.823	4538
864.954	4512
865.086	4561
865.217	4497
865.349	4443
865.48	4455
865.612	4542
865.743	4634
865.875	4523
866.006	4409
866.137	4481
866.269	4462
866.4	4481
866.531	4432
866.662	4413
866.793	4405
866.924	4440
867.055	4546
867.186	4527
867.317	4390
867.448	4394
867.579	4413
867.71	4417
867.841	4417
867.972	4516
868.103	4466
868.233	4478
868.364	4497
868.495	4493
868.625	4672
868.756	4793
868.886	4573
869.017	4592
869.147	4782
869.278	4771
869.408	4721
869.539	4664
869.669	4752
869.799	4694
869.929	4774
870.06	4752
870.19	4976
870.32	4957
870.45	4934
870.58	5018
870.71	5147
870.84	5162
870.97	4961
871.1	4930
871.23	5166
871.36	5086
871.489	5090
871.619	5132
871.749	5128
871.879	5185
872.008	5151
872.138	5052
872.267	5033
872.397	4885
872.526	4858
872.656	4717
872.785	4805
872.915	4984
873.044	5022
873.173	4995
873.303	5006
873.432	4984
873.561	5006
873.69	4881
873.819	4862
873.948	4885
874.077	4793
874.206	4820
874.335	4881
874.464	4949
874.593	5117
874.722	4949
874.851	5136
874.979	5086
875.108	5071
875.237	4934
875.365	4919
875.494	4938
875.623	5003
875.751	4881
875.88	4870
876.008	4999
876.136	5067
876.265	5254
876.393	5406
876.521	5318
876.65	5208
876.778	5220
876.906	5045
877.034	5056
877.162	5056
877.29	5025
877.418	5105
877.546	5083
877.674	5064
877.802	5045
877.93	5022
878.058	4938
878.185	4881
878.313	4942
878.441	4915
878.568	4793
878.696	4934
878.824	4968
878.951	5029
879.079	5143
879.206	5250
879.333	5113
879.461	5064
879.588	5067
879.715	5124
879.842	5220
879.97	5018
880.097	4805
880.224	4812
880.351	4812
880.478	4831
880.605	4835
880.732	4797
880.859	5121
880.986	4908
881.112	4934
881.239	4790
881.366	4706
881.493	4668
881.619	4565
881.746	4660
881.872	4645
881.999	4679
882.125	4729
882.252	4835
882.378	4870
882.505	4987
882.631	4816
882.757	4683
882.883	4748
883.01	4759
883.136	4683
883.262	4672
883.388	4649
883.514	4831
883.64	4870
883.766	4839
883.892	4702
884.018	4702
884.143	4953
884.269	5090
884.395	4698
884.52	4672
884.646	4649
884.772	4630
884.897	4569
885.023	4706
885.148	4752
885.274	4889
885.399	4820
885.524	4729
885.65	4774
885.775	4740
885.9	4698
886.025	4934
886.15	4793
886.275	4763
886.4	4649
886.525	4771
886.65	4683
886.775	4721
886.9	4949
887.025	5079
887.149	4866
887.274	4691
887.399	4603
887.523	4599
887.648	4584
887.773	4573
887.897	4816
888.021	4828
888.146	4721
888.27	4839
888.395	4938
888.519	4843
888.643	4854
888.767	4885
888.891	4698
889.015	4664
889.139	4679
889.263	4675
889.387	4805
889.511	4934
889.635	4820
889.759	4664
889.883	4675
890.006	4759
890.13	4923
890.254	4649
890.377	4698
890.501	4538
890.624	4577
890.748	4664
890.871	4512
890.995	4409
891.118	4432
891.241	4531
891.364	4596
891.488	4683
891.611	4542
891.734	4489
891.857	4615
891.98	4618
892.103	4630
892.226	4592
892.349	4561
892.471	4485
892.594	4588
892.717	4615
892.839	4592
892.962	4592
893.085	4683
893.207	4702
893.33	4436
893.452	4584
893.575	4683
893.697	4592
893.819	4797
893.941	4831
894.064	4809
894.186	4656
894.308	4584
894.43	4752
894.552	4858
894.674	4820
894.796	4580
894.918	4580
895.04	4577
895.161	4664
895.283	4702
895.405	4577
895.526	4653
895.648	4755
895.769	4759
895.891	4714
896.012	4736
896.134	4733
896.255	4729
896.376	4649
896.498	4645
896.619	4687
896.74	4649
896.861	4687
896.982	4968
897.103	5033
897.224	4866
897.345	4797
897.466	4622
897.587	4763
897.708	4896
897.828	4793
897.949	4744
898.07	4546
898.19	4702
898.311	4889
898.431	4710
898.552	4782
898.672	4786
898.792	4839
898.913	4755
899.033	4706
899.153	4569
899.273	4455
899.393	4531
899.513	4577
899.633	4561
899.753	4596
899.873	4497
899.993	4599
900.113	4584
900.232	4660
900.352	4615
900.472	4531
900.591	4436
900.711	4546
900.83	4504
900.95	4649
901.069	4736
901.189	4550
901.308	4379
901.427	4310
901.546	4413
901.665	4462
901.784	4527
901.904	4436
902.023	4352
902.141	4200
902.26	4185
902.379	4341
902.498	4287
902.617	4272
902.735	4432
902.854	4413
902.973	4386
903.091	4276
903.21	4295
903.328	4314
903.446	4303
903.565	4253
903.683	4390
903.801	4299
903.919	4413
904.038	4443
904.156	4379
904.274	4481
904.392	4379
904.51	4451
904.627	4512
904.745	4599
904.863	4637
904.981	4405
905.098	4367
905.216	4379
905.334	4481
905.451	4436
905.569	4451
905.686	4596
905.803	4611
905.921	4451
906.038	4622
906.155	4493
906.272	4413
906.389	4462
906.506	4390
906.623	4371
906.74	4405
906.857	4337
906.974	4386
907.091	4599
907.208	4744
907.324	4634
907.441	4512
907.557	4375
907.674	4360
907.79	4367
907.907	4405
908.023	4523
908.139	4459
908.256	4485
908.372	4516
908.488	4466
908.604	4371
908.72	4348
908.836	4402
908.952	4363
909.068	4466
909.184	4577
909.3	4481
909.415	4580
909.531	4626
909.647	4375
909.762	4405
909.878	4352
909.993	4455
910.108	4428
910.224	4428
910.339	4527
910.454	4440
910.57	4409
910.685	4329
910.8	4653
910.915	4656
911.03	4504
911.145	4360
911.259	4360
911.374	4386
911.489	4276
911.604	4329
911.718	4173
911.833	4234
911.947	4116
912.062	4071
912.176	4211
912.291	4272
912.405	4238
912.519	4500
912.633	4523
912.748	4394
912.862	4333
912.976	4253
913.09	4105
913.204	4230
913.318	4299
913.431	4394
913.545	4443
913.659	4481
913.772	4405
913.886	4268
914	4257
914.113	4402
914.226	4455
914.34	4390
914.453	4238
914.566	4455
914.68	4322
914.793	4432
914.906	4177
915.019	4177
915.132	4071
915.245	4196
915.358	4253
915.47	4272
915.583	4253
915.696	4341
915.809	4402
915.921	4493
916.034	4276
916.146	4284
916.259	4207
916.371	4402
916.483	4383
916.595	4287
916.708	4371
916.82	4379
916.932	4356
917.044	4379
917.156	4402
917.268	4280
917.38	4303
917.491	4299
917.603	4352
917.715	4432
917.826	4474
917.938	4356
918.049	4280
918.161	4432
918.272	4550
918.384	4535
918.495	4474
918.606	4337
918.717	4265
918.828	4371
918.939	4367
919.05	4306
919.161	4398
919.272	4128
919.383	4303
919.494	4447
919.604	4672
919.715	4443
919.826	4417
919.936	4443
920.047	4573
920.157	4577
920.267	4774
920.378	4573
920.488	4527
920.598	4733
920.708	4949
920.818	4759
920.928	4744
921.038	4999
921.148	4915
921.258	4641
921.368	4504
921.477	4546
921.587	4455
921.697	4390
921.806	4569
921.916	4455
922.025	4329
922.134	4291
922.244	4249
922.353	4352
922.462	4196
922.571	4135
922.68	4032
922.789	3968
922.898	4067
923.007	3994
923.116	4124
923.224	4090
923.333	4131
923.442	4002
923.55	3991
923.659	4071
923.767	4135
923.876	4029
923.984	4135
924.092	4036
924.201	4078
924.309	4112
924.417	4158
924.525	4074
924.633	4116
924.741	4919
924.849	3915
924.956	4162
925.064	4002
925.172	3926
925.279	3998
925.387	4097
925.494	4059
925.602	4227
925.709	4196
925.816	4074
925.924	4150
926.031	4223
926.138	4166
926.245	4215
926.352	4090
926.459	4295
926.566	4341
926.673	4150
926.779	4112
926.886	4150
926.993	3998
927.099	3991
927.206	3941
927.312	3968
927.419	4048
927.525	4044
927.631	4120
927.737	4036
927.843	3987
927.95	3854
928.056	3994
928.162	3987
928.267	4074
928.373	4717
928.479	4147
928.585	3903
928.69	4105
928.796	4112
928.901	3964
929.007	3876
929.112	4025
929.218	3956
929.323	3983
929.428	3937
929.533	4120
929.638	3915
929.743	3972
929.848	4071
929.953	4013
930.058	4059
930.163	3808
930.267	3880
930.372	3998
930.477	3835
930.581	4090
930.685	3934
930.79	3854
930.894	3907
930.998	3865
931.103	4032
931.207	3751
931.311	3743
931.415	3694
931.519	3564
931.623	3599
