Data from test_V78500241_1454.txt Node
Date: Fri Mar 25 16:59:06 CST 2022
User: usil
Spectrometer: V785-0024
Trigger mode: 0
Integration Time (sec): 4.000000E-1
Scans to average: 1
Nonlinearity correction enabled: false
Boxcar width: 0
Storing dark spectrum: false
XAxis mode: Wavelengths
Number of Pixels in Spectrum: 1024
>>>>>Begin Spectral Data<<<<<
801.071	8008
801.214	8073
801.356	7925
801.499	7871
801.641	7879
801.783	7887
801.926	7982
802.068	8012
802.211	7959
802.353	8084
802.496	7856
802.638	7932
802.78	7906
802.923	7955
803.065	7925
803.208	7898
803.35	7993
803.492	8107
803.635	8172
803.777	8164
803.919	8134
804.061	8465
804.204	8142
804.346	8084
804.488	8020
804.63	8168
804.773	7993
804.915	8153
805.057	8313
805.199	8164
805.341	8218
805.483	8301
805.626	8237
805.768	8115
805.91	8218
806.052	8229
806.194	8111
806.336	8286
806.478	8134
806.62	8115
806.762	8153
806.904	8305
807.046	8427
807.188	8400
807.33	8355
807.472	8358
807.614	8244
807.756	8161
807.898	7959
808.04	7959
808.182	7944
808.324	7890
808.465	7978
808.607	8134
808.749	8214
808.891	8157
809.033	8324
809.174	8279
809.316	8111
809.458	8046
809.6	8005
809.741	8058
809.883	8073
810.025	8138
810.166	8077
810.308	8096
810.45	8024
810.591	7887
810.733	7738
810.875	7658
811.016	7544
811.158	7514
811.299	7643
811.441	7750
811.582	7746
811.724	7590
811.865	7537
812.007	7594
812.148	7658
812.29	7693
812.431	7757
812.573	7955
812.714	8008
812.855	8161
812.997	8259
813.138	8294
813.279	8084
813.421	8168
813.562	7986
813.703	7871
813.845	7731
813.986	7464
814.127	7247
814.268	7316
814.41	7225
814.551	7213
814.692	7228
814.833	7046
814.974	7209
815.115	7099
815.256	6970
815.397	6985
815.539	6985
815.68	6840
815.821	6787
815.962	6867
816.103	6867
816.244	6795
816.385	6673
816.526	6654
816.666	6532
816.807	6292
816.948	6467
817.089	6521
817.23	6479
817.371	6376
817.512	6441
817.653	6426
817.793	6391
817.934	6410
818.075	6410
818.216	6471
818.356	6490
818.497	6304
818.638	6125
818.778	6159
818.919	6209
819.06	6209
819.2	6388
819.341	6323
819.481	6334
819.622	6559
819.762	6673
819.903	6730
820.043	6642
820.184	6616
820.324	6582
820.465	6662
820.605	6719
820.746	6658
820.886	6544
821.026	6646
821.167	6681
821.307	6776
821.447	6802
821.588	6696
821.728	6540
821.868	6506
822.008	6311
822.149	6399
822.289	6403
822.429	6186
822.569	6140
822.709	6125
822.849	5954
822.99	5923
823.13	5942
823.27	5950
823.41	5832
823.55	5821
823.69	5764
823.83	5748
823.97	5707
824.11	5562
824.25	5524
824.389	5547
824.529	5634
824.669	5535
824.809	5665
824.949	5646
825.089	5672
825.228	5543
825.368	5433
825.508	5379
825.648	5326
825.787	5364
825.927	5410
826.067	5284
826.206	5345
826.346	5398
826.485	5440
826.625	5406
826.765	5566
826.904	5512
827.044	5265
827.183	5201
827.323	5193
827.462	5254
827.601	5193
827.741	5193
827.88	5273
828.02	5143
828.159	5216
828.298	5322
828.437	5360
828.577	5349
828.716	5455
828.855	5387
828.994	5223
829.134	5212
829.273	5208
829.412	5132
829.551	5159
829.69	5181
829.829	5269
829.968	5379
830.107	5269
830.246	5239
830.385	5223
830.524	5140
830.663	5090
830.802	5010
830.941	4881
831.08	4904
831.219	4999
831.357	4965
831.496	5174
831.635	4938
831.774	4911
831.913	4911
832.051	4790
832.19	4729
832.329	4854
832.467	4687
832.606	4637
832.744	4748
832.883	4736
833.022	4744
833.16	4839
833.299	4847
833.437	4835
833.576	4847
833.714	4885
833.852	4854
833.991	4919
834.129	4946
834.267	4946
834.406	4953
834.544	4991
834.682	4946
834.821	5014
834.959	5159
835.097	4984
835.235	5204
835.373	5136
835.511	5113
835.65	5056
835.788	5052
835.926	4873
836.064	4839
836.202	4949
836.34	5185
836.478	5178
836.615	5128
836.753	5231
836.891	5322
837.029	5208
837.167	5227
837.305	5170
837.443	5178
837.58	5132
837.718	5277
837.856	5208
837.993	5147
838.131	5231
838.269	5201
838.406	5261
838.544	5239
838.681	5060
838.819	5060
838.956	4889
839.094	4896
839.231	4995
839.369	5083
839.506	5448
839.643	5303
839.781	5102
839.918	4972
840.055	5147
840.193	5083
840.33	5136
840.467	5083
840.604	5208
840.742	5425
840.879	5102
841.016	5098
841.153	5121
841.29	5383
841.427	5341
841.564	5299
841.701	5379
841.838	5288
841.975	5239
842.112	5303
842.249	5162
842.385	5170
842.522	5379
842.659	5223
842.796	5151
842.933	5162
843.069	5162
843.206	5166
843.343	5337
843.479	5288
843.616	5315
843.752	5064
843.889	5022
844.025	5261
844.162	5083
844.298	5231
844.435	5124
844.571	5052
844.708	5261
844.844	5322
844.98	5284
845.117	5414
845.253	5162
845.389	5083
845.525	5208
845.661	5121
845.798	5060
845.934	5147
846.07	5064
846.206	5231
846.342	5322
846.478	5178
846.614	5018
846.75	5010
846.886	4972
847.022	5121
847.158	4991
847.294	5067
847.429	5124
847.565	5048
847.701	5315
847.837	4850
847.972	4820
848.108	4968
848.244	5010
848.379	4831
848.515	4717
848.65	4698
848.786	4801
848.921	4767
849.057	4885
849.192	4881
849.328	4820
849.463	4850
849.598	4786
849.734	4782
849.869	4755
850.004	4641
850.14	4717
850.275	4668
850.41	4535
850.545	4573
850.68	4580
850.815	4607
850.95	4630
851.085	4831
851.22	4721
851.355	4717
851.49	4596
851.625	4645
851.76	4622
851.895	4558
852.03	4565
852.165	4668
852.299	4759
852.434	4733
852.569	4748
852.703	4767
852.838	4839
852.973	4957
853.107	4923
853.242	4809
853.376	4694
853.511	4542
853.645	4584
853.78	4786
853.914	4698
854.048	4694
854.183	4630
854.317	4710
854.451	4873
854.585	4736
854.72	4637
854.854	4793
854.988	4615
855.122	4683
855.256	4519
855.39	4611
855.524	4763
855.658	4752
855.792	4755
855.926	4710
856.06	4744
856.194	4824
856.327	4645
856.461	4634
856.595	4645
856.729	4634
856.862	4778
856.996	4706
857.13	4660
857.263	4786
857.397	4812
857.53	4683
857.664	4694
857.797	4778
857.931	4763
858.064	4740
858.197	4767
858.331	4672
858.464	4637
858.597	4577
858.731	4694
858.864	4656
858.997	4622
859.13	4687
859.263	4672
859.396	4672
859.529	4611
859.662	4573
859.795	4592
859.928	4649
860.061	4733
860.194	4790
860.327	4626
860.46	4531
860.592	4706
860.725	4752
860.858	4736
860.99	4558
861.123	4527
861.256	4569
861.388	4577
861.521	5493
861.653	4523
861.786	4462
861.918	4443
862.05	4493
862.183	4588
862.315	4637
862.447	4672
862.58	4558
862.712	4409
862.844	4360
862.976	4443
863.108	4459
863.24	4843
863.372	4367
863.504	4390
863.636	4440
863.768	4478
863.9	4440
864.032	4394
864.164	4455
864.296	4466
864.428	4565
864.559	4535
864.691	4535
864.823	4565
864.954	4474
865.086	4569
865.217	4500
865.349	4440
865.48	4443
865.612	4474
865.743	4622
865.875	4466
866.006	4440
866.137	4466
866.269	4451
866.4	4447
866.531	4421
866.662	4432
866.793	4398
866.924	4436
867.055	4455
867.186	4512
867.317	4443
867.448	4375
867.579	4409
867.71	4413
867.841	4337
867.972	4443
868.103	4474
868.233	4512
868.364	4436
868.495	4443
868.625	4626
868.756	4771
868.886	4603
869.017	4634
869.147	4782
869.278	4771
869.408	4656
869.539	4634
869.669	4725
869.799	4691
869.929	4748
870.06	4736
870.19	4972
870.32	4987
870.45	4946
870.58	5006
870.71	5075
870.84	5079
870.97	4934
871.1	4858
871.23	5113
871.36	5098
871.489	5029
871.619	5113
871.749	5094
871.879	5159
872.008	5162
872.138	5052
872.267	4946
872.397	4850
872.526	4809
872.656	4740
872.785	4793
872.915	4946
873.044	5010
873.173	4904
873.303	4980
873.432	4968
873.561	4957
873.69	4870
873.819	4892
873.948	4927
874.077	4816
874.206	4774
874.335	4847
874.464	4934
874.593	5022
874.722	5006
874.851	5052
874.979	5071
875.108	5029
875.237	4953
875.365	4881
875.494	4911
875.623	5037
875.751	4854
875.88	4904
876.008	4942
876.136	4999
876.265	5208
876.393	5364
876.521	5212
876.65	5246
876.778	5151
876.906	5075
877.034	5025
877.162	5033
877.29	4968
877.418	5048
877.546	5064
877.674	5060
877.802	5014
877.93	5029
878.058	4904
878.185	4881
878.313	4961
878.441	4911
878.568	4812
878.696	4885
878.824	4957
878.951	4968
879.079	5121
879.206	5288
879.333	5094
879.461	4946
879.588	5014
879.715	5109
879.842	5220
879.97	5010
880.097	4763
880.224	4759
880.351	4839
880.478	4850
880.605	4774
880.732	4786
880.859	5083
880.986	4889
881.112	4831
881.239	4748
881.366	4664
881.493	4588
881.619	4596
881.746	4706
881.872	4615
881.999	4637
882.125	4672
882.252	4828
882.378	4866
882.505	4923
882.631	4782
882.757	4664
882.883	4702
883.01	4717
883.136	4656
883.262	4577
883.388	4603
883.514	4820
883.64	4835
883.766	4812
883.892	4679
884.018	4698
884.143	4885
884.269	5025
884.395	4645
884.52	4626
884.646	4622
884.772	4611
884.897	4542
885.023	4622
885.148	4786
885.274	4843
885.399	4835
885.524	4702
885.65	4759
885.775	4778
885.9	4710
886.025	4831
886.15	4755
886.275	4733
886.4	4630
886.525	4755
886.65	4664
886.775	4679
886.9	4946
887.025	5056
887.149	4805
887.274	4687
887.399	4580
887.523	4584
887.648	4565
887.773	4588
887.897	4736
888.021	4782
888.146	4630
888.27	4793
888.395	4908
888.519	4782
888.643	4828
888.767	4812
888.891	4664
889.015	4577
889.139	4653
889.263	4584
889.387	4725
889.511	4858
889.635	4812
889.759	4645
889.883	4675
890.006	4748
890.13	4801
890.254	4645
890.377	4630
890.501	4542
890.624	4542
890.748	4618
890.871	4535
890.995	4440
891.118	4383
891.241	4508
891.364	4546
891.488	4672
891.611	4470
891.734	4573
891.857	4634
891.98	4546
892.103	4637
892.226	4561
892.349	4497
892.471	4485
892.594	4569
892.717	4637
892.839	4599
892.962	4577
893.085	4683
893.207	4565
893.33	4432
893.452	4512
893.575	4641
893.697	4538
893.819	4778
893.941	4854
894.064	4763
894.186	4592
894.308	4565
894.43	4733
894.552	4892
894.674	4755
894.796	4565
894.918	4599
895.04	4550
895.161	4714
895.283	4672
895.405	4584
895.526	4630
895.648	4687
895.769	4656
895.891	4721
896.012	4771
896.134	4759
896.255	4683
896.376	4664
896.498	4694
896.619	4660
896.74	4618
896.861	4630
896.982	4927
897.103	5075
897.224	4835
897.345	4763
897.466	4664
897.587	4733
897.708	4847
897.828	4778
897.949	4660
898.07	4550
898.19	4660
898.311	4801
898.431	4706
898.552	4782
898.672	4816
898.792	4797
898.913	4771
899.033	4630
899.153	4485
899.273	4470
899.393	4500
899.513	4519
899.633	4550
899.753	4508
899.873	4519
899.993	4599
900.113	4599
900.232	4584
900.352	4554
900.472	4508
900.591	4379
900.711	4481
900.83	4417
900.95	4588
901.069	4683
901.189	4538
901.308	4352
901.427	4360
901.546	4360
901.665	4478
901.784	4516
901.904	4398
902.023	4333
902.141	4185
902.26	4128
902.379	4268
902.498	4257
902.617	4219
902.735	4344
902.854	4413
902.973	4333
903.091	4211
903.21	4211
903.328	4287
903.446	4265
903.565	4234
903.683	4325
903.801	4234
903.919	4344
904.038	4409
904.156	4299
904.274	4394
904.392	4424
904.51	4447
904.627	4386
904.745	4538
904.863	4634
904.981	4352
905.098	4314
905.216	4348
905.334	4386
905.451	4432
905.569	4432
905.686	4546
905.803	4588
905.921	4390
906.038	4523
906.155	4451
906.272	4348
906.389	4447
906.506	4322
906.623	4341
906.74	4379
906.857	4322
906.974	4356
907.091	4573
907.208	4607
907.324	4618
907.441	4500
907.557	4318
907.674	4363
907.79	4310
907.907	4405
908.023	4516
908.139	4485
908.256	4451
908.372	4436
908.488	4421
908.604	4383
908.72	4352
908.836	4352
908.952	4367
909.068	4443
909.184	4561
909.3	4481
909.415	4599
909.531	4558
909.647	4386
909.762	4356
909.878	4303
909.993	4451
910.108	4394
910.224	4402
910.339	4481
910.454	4424
910.57	4337
910.685	4352
910.8	4611
910.915	4641
911.03	4455
911.145	4337
911.259	4303
911.374	4341
911.489	4272
911.604	4276
911.718	4143
911.833	4219
911.947	4071
912.062	4006
912.176	4196
912.291	4238
912.405	4234
912.519	4516
912.633	4527
912.748	4352
912.862	4287
912.976	4185
913.09	4082
913.204	4143
913.318	4265
913.431	4352
913.545	4356
913.659	4413
913.772	4341
913.886	4223
914	4238
914.113	4440
914.226	4443
914.34	4367
914.453	4215
914.566	4485
914.68	4303
914.793	4318
914.906	4173
915.019	4124
915.132	4086
915.245	4154
915.358	4223
915.47	4207
915.583	4276
915.696	4280
915.809	4383
915.921	4424
916.034	4268
916.146	4234
916.259	4249
916.371	4371
916.483	4344
916.595	4257
916.708	4284
916.82	4314
916.932	4318
917.044	4287
917.156	4272
917.268	4280
917.38	4280
917.491	4242
917.603	4325
917.715	4440
917.826	4428
917.938	4322
918.049	4204
918.161	4390
918.272	4512
918.384	4523
918.495	4470
918.606	4257
918.717	4227
918.828	4333
918.939	4371
919.05	4268
919.161	4291
919.272	4143
919.383	4200
919.494	4451
919.604	4618
919.715	4383
919.826	4333
919.936	4409
920.047	4573
920.157	4485
920.267	4675
920.378	4577
920.488	4481
920.598	4675
920.708	4877
920.818	4782
920.928	4786
921.038	4953
921.148	4889
921.258	4660
921.368	4535
921.477	4462
921.587	4436
921.697	4367
921.806	4535
921.916	4447
922.025	4257
922.134	4234
922.244	4204
922.353	4299
922.462	4162
922.571	4105
922.68	4017
922.789	4010
922.898	4059
923.007	3998
923.116	4120
923.224	4116
923.333	4112
923.442	3994
923.55	4017
923.659	4055
923.767	4109
923.876	3975
923.984	4071
924.092	3994
924.201	4124
924.309	4082
924.417	4086
924.525	4055
924.633	4112
924.741	5006
924.849	3892
924.956	4147
925.064	3945
925.172	3911
925.279	3960
925.387	4074
925.494	4074
925.602	4207
925.709	4158
925.816	4025
925.924	4128
926.031	4253
926.138	4143
926.245	4200
926.352	4101
926.459	4211
926.566	4303
926.673	4204
926.779	4120
926.886	4048
926.993	3953
927.099	3907
927.206	3945
927.312	3934
927.419	4055
927.525	4029
927.631	4093
927.737	3983
927.843	3934
927.95	3789
928.056	3907
928.162	3949
928.267	4055
928.373	4588
928.479	4109
928.585	3865
928.69	3979
928.796	4067
928.901	3945
929.007	3789
929.112	4036
929.218	3991
929.323	3953
929.428	3915
929.533	4105
929.638	3915
929.743	3915
929.848	4006
929.953	3991
930.058	3937
930.163	3766
930.267	3816
930.372	3960
930.477	3778
930.581	4105
930.685	3953
930.79	3831
930.894	3892
930.998	3819
931.103	4021
931.207	3701
931.311	3690
931.415	3663
931.519	3519
931.623	3519
