Data from test_V78500241_1168.txt Node
Date: Fri Mar 25 16:57:07 CST 2022
User: usil
Spectrometer: V785-0024
Trigger mode: 0
Integration Time (sec): 4.000000E-1
Scans to average: 1
Nonlinearity correction enabled: false
Boxcar width: 0
Storing dark spectrum: false
XAxis mode: Wavelengths
Number of Pixels in Spectrum: 1024
>>>>>Begin Spectral Data<<<<<
801.071	8031
801.214	8005
801.356	7894
801.499	7860
801.641	7765
801.783	7852
801.926	7936
802.068	7940
802.211	7921
802.353	7974
802.496	7826
802.638	7879
802.78	7875
802.923	7925
803.065	7894
803.208	7852
803.35	8020
803.492	8020
803.635	8084
803.777	8027
803.919	8134
804.061	8415
804.204	8134
804.346	8081
804.488	7982
804.63	8107
804.773	8008
804.915	8088
805.057	8275
805.199	8130
805.341	8164
805.483	8248
805.626	8161
805.768	8073
805.91	8195
806.052	8157
806.194	8073
806.336	8279
806.478	8024
806.62	8081
806.762	8168
806.904	8263
807.046	8450
807.188	8362
807.33	8256
807.472	8259
807.614	8149
807.756	8149
807.898	7928
808.04	7852
808.182	7970
808.324	7944
808.465	7967
808.607	8039
808.749	8092
808.891	8199
809.033	8263
809.174	8191
809.316	8062
809.458	7959
809.6	7913
809.741	8005
809.883	8012
810.025	8107
810.166	7986
810.308	8054
810.45	7978
810.591	7921
810.733	7757
810.875	7658
811.016	7430
811.158	7434
811.299	7510
811.441	7746
811.582	7639
811.724	7590
811.865	7499
812.007	7506
812.148	7578
812.29	7582
812.431	7761
812.573	7818
812.714	8005
812.855	8145
812.997	8233
813.138	8298
813.279	8168
813.421	8149
813.562	8062
813.703	7921
813.845	7746
813.986	7476
814.127	7263
814.268	7190
814.41	7240
814.551	7171
814.692	7213
814.833	7061
814.974	7084
815.115	7050
815.256	6962
815.397	6916
815.539	6951
815.68	6810
815.821	6837
815.962	6878
816.103	6833
816.244	6734
816.385	6642
816.526	6608
816.666	6445
816.807	6315
816.948	6433
817.089	6441
817.23	6437
817.371	6391
817.512	6372
817.653	6414
817.793	6365
817.934	6399
818.075	6445
818.216	6460
818.356	6361
818.497	6228
818.638	6095
818.778	6110
818.919	6152
819.06	6152
819.2	6315
819.341	6346
819.481	6384
819.622	6540
819.762	6703
819.903	6681
820.043	6555
820.184	6589
820.324	6597
820.465	6673
820.605	6715
820.746	6612
820.886	6486
821.026	6654
821.167	6684
821.307	6776
821.447	6734
821.588	6608
821.728	6570
821.868	6403
822.008	6319
822.149	6331
822.289	6342
822.429	6136
822.569	6022
822.709	6125
822.849	5901
822.99	5916
823.13	5893
823.27	5897
823.41	5794
823.55	5779
823.69	5699
823.83	5767
823.97	5608
824.11	5547
824.25	5524
824.389	5570
824.529	5615
824.669	5528
824.809	5596
824.949	5688
825.089	5634
825.228	5539
825.368	5353
825.508	5353
825.648	5330
825.787	5341
825.927	5364
826.067	5307
826.206	5261
826.346	5368
826.485	5398
826.625	5417
826.765	5512
826.904	5429
827.044	5254
827.183	5174
827.323	5102
827.462	5223
827.601	5151
827.741	5178
827.88	5254
828.02	5140
828.159	5280
828.298	5345
828.437	5433
828.577	5292
828.716	5444
828.855	5311
828.994	5128
829.134	5147
829.273	5208
829.412	5136
829.551	5132
829.69	5124
829.829	5280
829.968	5345
830.107	5273
830.246	5288
830.385	5208
830.524	5136
830.663	5079
830.802	5010
830.941	4915
831.08	4908
831.219	5014
831.357	4980
831.496	5136
831.635	4911
831.774	4870
831.913	4850
832.051	4755
832.19	4797
832.329	4896
832.467	4774
832.606	4660
832.744	4691
832.883	4717
833.022	4710
833.16	4790
833.299	4831
833.437	4847
833.576	4854
833.714	4911
833.852	4915
833.991	4919
834.129	4972
834.267	5041
834.406	4946
834.544	5033
834.682	5003
834.821	5048
834.959	5216
835.097	5037
835.235	5178
835.373	5113
835.511	5151
835.65	5075
835.788	5113
835.926	4965
836.064	4957
836.202	4946
836.34	5201
836.478	5330
836.615	5143
836.753	5239
836.891	5307
837.029	5280
837.167	5216
837.305	5227
837.443	5166
837.58	5064
837.718	5299
837.856	5239
837.993	5162
838.131	5296
838.269	5261
838.406	5201
838.544	5201
838.681	5033
838.819	5037
838.956	4919
839.094	4976
839.231	5029
839.369	5166
839.506	5417
839.643	5288
839.781	5048
839.918	5090
840.055	5189
840.193	5132
840.33	5147
840.467	5143
840.604	5197
840.742	5505
840.879	5090
841.016	5155
841.153	5197
841.29	5376
841.427	5372
841.564	5299
841.701	5357
841.838	5318
841.975	5265
842.112	5258
842.249	5143
842.385	5109
842.522	5376
842.659	5178
842.796	5166
842.933	5208
843.069	5197
843.206	5151
843.343	5364
843.479	5231
843.616	5318
843.752	5079
843.889	5056
844.025	5227
844.162	5025
844.298	5212
844.435	5090
844.571	5079
844.708	5227
844.844	5376
844.98	5357
845.117	5341
845.253	5132
845.389	5067
845.525	5231
845.661	5174
845.798	5064
845.934	5155
846.07	5098
846.206	5166
846.342	5242
846.478	5231
846.614	5052
846.75	5029
846.886	4949
847.022	5174
847.158	5045
847.294	5094
847.429	5079
847.565	5109
847.701	5372
847.837	4900
847.972	4820
848.108	4987
848.244	4953
848.379	4873
848.515	4767
848.65	4767
848.786	4714
848.921	4782
849.057	4885
849.192	4870
849.328	4862
849.463	4847
849.598	4793
849.734	4816
849.869	4733
850.004	4706
850.14	4717
850.275	4649
850.41	4523
850.545	4584
850.68	4596
850.815	4672
850.95	4675
851.085	4828
851.22	4771
851.355	4683
851.49	4637
851.625	4626
851.76	4660
851.895	4550
852.03	4588
852.165	4687
852.299	4725
852.434	4812
852.569	4782
852.703	4767
852.838	4862
852.973	4968
853.107	4911
853.242	4763
853.376	4694
853.511	4573
853.645	4641
853.78	4885
853.914	4710
854.048	4702
854.183	4675
854.317	4729
854.451	4908
854.585	4683
854.72	4645
854.854	4733
854.988	4668
855.122	4637
855.256	4546
855.39	4694
855.524	4774
855.658	4748
855.792	4706
855.926	4797
856.06	4778
856.194	4831
856.327	4672
856.461	4679
856.595	4607
856.729	4668
856.862	4755
856.996	4710
857.13	4740
857.263	4790
857.397	4790
857.53	4668
857.664	4733
857.797	4740
857.931	4778
858.064	4683
858.197	4759
858.331	4679
858.464	4637
858.597	4535
858.731	4653
858.864	4634
858.997	4603
859.13	4706
859.263	4675
859.396	4706
859.529	4656
859.662	4603
859.795	4580
859.928	4683
860.061	4752
860.194	4778
860.327	4603
860.46	4580
860.592	4706
860.725	4752
860.858	4744
860.99	4565
861.123	4531
861.256	4535
861.388	4626
861.521	5216
861.653	4519
861.786	4485
861.918	4489
862.05	4523
862.183	4558
862.315	4615
862.447	4664
862.58	4569
862.712	4459
862.844	4306
862.976	4481
863.108	4440
863.24	4881
863.372	4398
863.504	4451
863.636	4459
863.768	4542
863.9	4462
864.032	4367
864.164	4455
864.296	4432
864.428	4519
864.559	4577
864.691	4554
864.823	4535
864.954	4550
865.086	4512
865.217	4443
865.349	4405
865.48	4470
865.612	4512
865.743	4607
865.875	4440
866.006	4421
866.137	4470
866.269	4504
866.4	4451
866.531	4394
866.662	4421
866.793	4451
866.924	4462
867.055	4481
867.186	4497
867.317	4436
867.448	4413
867.579	4413
867.71	4481
867.841	4390
867.972	4489
868.103	4519
868.233	4481
868.364	4493
868.495	4512
868.625	4634
868.756	4782
868.886	4546
869.017	4630
869.147	4752
869.278	4797
869.408	4668
869.539	4702
869.669	4755
869.799	4679
869.929	4767
870.06	4733
870.19	4995
870.32	4946
870.45	4949
870.58	4984
870.71	5132
870.84	5090
870.97	4961
871.1	4930
871.23	5174
871.36	5140
871.489	5052
871.619	5083
871.749	5109
871.879	5159
872.008	5166
872.138	5029
872.267	5006
872.397	4809
872.526	4824
872.656	4729
872.785	4854
872.915	4991
873.044	5025
873.173	4923
873.303	4965
873.432	4961
873.561	4953
873.69	4896
873.819	4862
873.948	4915
874.077	4835
874.206	4797
874.335	4797
874.464	4923
874.593	5048
874.722	4987
874.851	5090
874.979	5056
875.108	5056
875.237	4908
875.365	4885
875.494	4919
875.623	4999
875.751	4870
875.88	4858
876.008	5052
876.136	5075
876.265	5235
876.393	5364
876.521	5280
876.65	5246
876.778	5162
876.906	5098
877.034	5067
877.162	5067
877.29	4957
877.418	5025
877.546	5033
877.674	5060
877.802	5075
877.93	5033
878.058	4942
878.185	4885
878.313	4949
878.441	4961
878.568	4801
878.696	4850
878.824	4968
878.951	5014
879.079	5143
879.206	5341
879.333	5121
879.461	5033
879.588	5048
879.715	5079
879.842	5223
879.97	5025
880.097	4820
880.224	4763
880.351	4812
880.478	4843
880.605	4824
880.732	4797
880.859	5113
880.986	4927
881.112	4942
881.239	4805
881.366	4729
881.493	4599
881.619	4664
881.746	4630
881.872	4653
881.999	4668
882.125	4710
882.252	4801
882.378	4824
882.505	4968
882.631	4828
882.757	4626
882.883	4687
883.01	4744
883.136	4683
883.262	4596
883.388	4637
883.514	4824
883.64	4843
883.766	4778
883.892	4668
884.018	4698
884.143	4946
884.269	5037
884.395	4733
884.52	4622
884.646	4649
884.772	4615
884.897	4561
885.023	4698
885.148	4782
885.274	4946
885.399	4828
885.524	4683
885.65	4710
885.775	4767
885.9	4740
886.025	4873
886.15	4771
886.275	4778
886.4	4664
886.525	4729
886.65	4675
886.775	4698
886.9	4927
887.025	5037
887.149	4839
887.274	4626
887.399	4573
887.523	4645
887.648	4580
887.773	4634
887.897	4759
888.021	4752
888.146	4672
888.27	4854
888.395	4942
888.519	4820
888.643	4778
888.767	4786
888.891	4675
889.015	4584
889.139	4660
889.263	4603
889.387	4771
889.511	4896
889.635	4759
889.759	4649
889.883	4675
890.006	4706
890.13	4816
890.254	4645
890.377	4694
890.501	4615
890.624	4558
890.748	4645
890.871	4512
890.995	4470
891.118	4371
891.241	4527
891.364	4558
891.488	4622
891.611	4497
891.734	4588
891.857	4641
891.98	4546
892.103	4675
892.226	4561
892.349	4512
892.471	4436
892.594	4527
892.717	4599
892.839	4546
892.962	4573
893.085	4634
893.207	4599
893.33	4462
893.452	4565
893.575	4675
893.697	4569
893.819	4847
893.941	4816
894.064	4797
894.186	4592
894.308	4569
894.43	4710
894.552	4805
894.674	4805
894.796	4573
894.918	4599
895.04	4584
895.161	4668
895.283	4660
895.405	4569
895.526	4637
895.648	4672
895.769	4733
895.891	4668
896.012	4736
896.134	4725
896.255	4694
896.376	4622
896.498	4588
896.619	4683
896.74	4607
896.861	4618
896.982	4961
897.103	5052
897.224	4812
897.345	4725
897.466	4660
897.587	4759
897.708	4873
897.828	4717
897.949	4675
898.07	4497
898.19	4653
898.311	4854
898.431	4653
898.552	4736
898.672	4797
898.792	4801
898.913	4820
899.033	4626
899.153	4519
899.273	4413
899.393	4516
899.513	4546
899.633	4546
899.753	4550
899.873	4542
899.993	4599
900.113	4516
900.232	4561
900.352	4584
900.472	4504
900.591	4432
900.711	4500
900.83	4432
900.95	4611
901.069	4687
901.189	4527
901.308	4386
901.427	4310
901.546	4379
901.665	4500
901.784	4519
901.904	4367
902.023	4299
902.141	4215
902.26	4166
902.379	4272
902.498	4261
902.617	4234
902.735	4379
902.854	4383
902.973	4394
903.091	4249
903.21	4268
903.328	4295
903.446	4310
903.565	4242
903.683	4356
903.801	4295
903.919	4386
904.038	4413
904.156	4360
904.274	4474
904.392	4417
904.51	4424
904.627	4451
904.745	4538
904.863	4607
904.981	4428
905.098	4310
905.216	4413
905.334	4405
905.451	4451
905.569	4436
905.686	4554
905.803	4611
905.921	4383
906.038	4531
906.155	4516
906.272	4356
906.389	4466
906.506	4344
906.623	4371
906.74	4413
906.857	4287
906.974	4371
907.091	4554
907.208	4694
907.324	4580
907.441	4512
907.557	4379
907.674	4333
907.79	4318
907.907	4375
908.023	4470
908.139	4470
908.256	4451
908.372	4519
908.488	4409
908.604	4322
908.72	4390
908.836	4379
908.952	4386
909.068	4447
909.184	4535
909.3	4500
909.415	4599
909.531	4512
909.647	4348
909.762	4394
909.878	4352
909.993	4455
910.108	4375
910.224	4440
910.339	4493
910.454	4413
910.57	4344
910.685	4306
910.8	4656
910.915	4580
911.03	4516
911.145	4352
911.259	4306
911.374	4363
911.489	4329
911.604	4280
911.718	4135
911.833	4211
911.947	4131
912.062	4013
912.176	4207
912.291	4261
912.405	4234
912.519	4436
912.633	4478
912.748	4367
912.862	4383
912.976	4185
913.09	4128
913.204	4154
913.318	4246
913.431	4402
913.545	4314
913.659	4432
913.772	4352
913.886	4238
914	4227
914.113	4371
914.226	4409
914.34	4371
914.453	4310
914.566	4390
914.68	4291
914.793	4314
914.906	4131
915.019	4109
915.132	4097
915.245	4192
915.358	4181
915.47	4219
915.583	4230
915.696	4284
915.809	4383
915.921	4428
916.034	4284
916.146	4268
916.259	4185
916.371	4367
916.483	4386
916.595	4253
916.708	4287
916.82	4325
916.932	4329
917.044	4356
917.156	4276
917.268	4284
917.38	4268
917.491	4238
917.603	4390
917.715	4451
917.826	4436
917.938	4333
918.049	4246
918.161	4417
918.272	4546
918.384	4500
918.495	4421
918.606	4276
918.717	4238
918.828	4318
918.939	4375
919.05	4215
919.161	4325
919.272	4101
919.383	4215
919.494	4424
919.604	4649
919.715	4443
919.826	4398
919.936	4409
920.047	4519
920.157	4516
920.267	4675
920.378	4542
920.488	4538
920.598	4748
920.708	4892
920.818	4748
920.928	4736
921.038	4965
921.148	4934
921.258	4672
921.368	4558
921.477	4516
921.587	4466
921.697	4375
921.806	4481
921.916	4417
922.025	4257
922.134	4234
922.244	4227
922.353	4303
922.462	4211
922.571	4109
922.68	3987
922.789	3953
922.898	4032
923.007	4002
923.116	4109
923.224	4071
923.333	4112
923.442	3983
923.55	3949
923.659	4021
923.767	4147
923.876	3987
923.984	4143
924.092	4025
924.201	4074
924.309	4048
924.417	4120
924.525	4063
924.633	4086
924.741	5071
924.849	3884
924.956	4131
925.064	3907
925.172	3949
925.279	3956
925.387	4025
925.494	4101
925.602	4204
925.709	4181
925.816	4036
925.924	4090
926.031	4204
926.138	4150
926.245	4223
926.352	4112
926.459	4257
926.566	4306
926.673	4128
926.779	4059
926.886	4078
926.993	3945
927.099	3979
927.206	3960
927.312	3918
927.419	4074
927.525	4071
927.631	4116
927.737	3930
927.843	3960
927.95	3861
928.056	3945
928.162	4006
928.267	4029
928.373	4668
928.479	4124
928.585	3865
928.69	4044
928.796	4044
928.901	3987
929.007	3857
929.112	4002
929.218	3983
929.323	3934
929.428	3915
929.533	4166
929.638	3953
929.743	3941
929.848	4040
929.953	3975
930.058	3903
930.163	3774
930.267	3800
930.372	3949
930.477	3823
930.581	4128
930.685	3930
930.79	3812
930.894	3888
930.998	3892
931.103	4025
931.207	3743
931.311	3724
931.415	3667
931.519	3496
931.623	3568
