Data from test_V78500241_2720.txt Node
Date: Fri Mar 25 17:07:54 CST 2022
User: usil
Spectrometer: V785-0024
Trigger mode: 0
Integration Time (sec): 4.000000E-1
Scans to average: 1
Nonlinearity correction enabled: false
Boxcar width: 0
Storing dark spectrum: false
XAxis mode: Wavelengths
Number of Pixels in Spectrum: 1024
>>>>>Begin Spectral Data<<<<<
801.071	8073
801.214	8039
801.356	7951
801.499	7875
801.641	7822
801.783	7833
801.926	7947
802.068	7951
802.211	8073
802.353	8058
802.496	7898
802.638	7947
802.78	7947
802.923	7993
803.065	7909
803.208	7936
803.35	7970
803.492	8107
803.635	8206
803.777	8069
803.919	8142
804.061	8465
804.204	8214
804.346	8062
804.488	7993
804.63	8062
804.773	8103
804.915	8183
805.057	8298
805.199	8157
805.341	8256
805.483	8320
805.626	8202
805.768	8183
805.91	8229
806.052	8191
806.194	8145
806.336	8305
806.478	8100
806.62	8084
806.762	8119
806.904	8214
807.046	8480
807.188	8393
807.33	8377
807.472	8419
807.614	8221
807.756	8168
807.898	8035
808.04	7940
808.182	7913
808.324	7932
808.465	7947
808.607	8062
808.749	8218
808.891	8305
809.033	8370
809.174	8229
809.316	8073
809.458	8107
809.6	8088
809.741	8081
809.883	8069
810.025	8149
810.166	8081
810.308	8005
810.45	8035
810.591	7890
810.733	7769
810.875	7719
811.016	7537
811.158	7483
811.299	7586
811.441	7803
811.582	7734
811.724	7655
811.865	7605
812.007	7613
812.148	7601
812.29	7734
812.431	7723
812.573	7898
812.714	7967
812.855	8115
812.997	8256
813.138	8301
813.279	8191
813.421	8157
813.562	8062
813.703	7959
813.845	7765
813.986	7483
814.127	7301
814.268	7305
814.41	7225
814.551	7198
814.692	7194
814.833	7099
814.974	7099
815.115	7129
815.256	6916
815.397	6985
815.539	6962
815.68	6875
815.821	6760
815.962	6897
816.103	6859
816.244	6760
816.385	6620
816.526	6684
816.666	6486
816.807	6334
816.948	6414
817.089	6445
817.23	6464
817.371	6407
817.512	6369
817.653	6353
817.793	6289
817.934	6418
818.075	6525
818.216	6437
818.356	6429
818.497	6270
818.638	6182
818.778	6125
818.919	6144
819.06	6197
819.2	6270
819.341	6342
819.481	6308
819.622	6559
819.762	6711
819.903	6711
820.043	6623
820.184	6532
820.324	6658
820.465	6673
820.605	6673
820.746	6688
820.886	6532
821.026	6639
821.167	6741
821.307	6829
821.447	6821
821.588	6662
821.728	6593
821.868	6517
822.008	6311
822.149	6376
822.289	6391
822.429	6220
822.569	6098
822.709	6220
822.849	5950
822.99	5920
823.13	5954
823.27	5977
823.41	5813
823.55	5775
823.69	5794
823.83	5790
823.97	5707
824.11	5551
824.25	5505
824.389	5581
824.529	5589
824.669	5604
824.809	5642
824.949	5684
825.089	5581
825.228	5585
825.368	5379
825.508	5341
825.648	5391
825.787	5440
825.927	5364
826.067	5353
826.206	5337
826.346	5387
826.485	5391
826.625	5417
826.765	5539
826.904	5509
827.044	5239
827.183	5212
827.323	5117
827.462	5292
827.601	5178
827.741	5235
827.88	5181
828.02	5124
828.159	5216
828.298	5349
828.437	5360
828.577	5280
828.716	5486
828.855	5311
828.994	5094
829.134	5204
829.273	5181
829.412	5140
829.551	5170
829.69	5170
829.829	5246
829.968	5315
830.107	5288
830.246	5303
830.385	5223
830.524	5090
830.663	5029
830.802	5029
830.941	4881
831.08	4858
831.219	5003
831.357	5025
831.496	5151
831.635	4942
831.774	4839
831.913	4915
832.051	4767
832.19	4740
832.329	4877
832.467	4744
832.606	4641
832.744	4721
832.883	4729
833.022	4698
833.16	4797
833.299	4850
833.437	4881
833.576	4839
833.714	4831
833.852	4839
833.991	4908
834.129	4953
834.267	4949
834.406	4908
834.544	4984
834.682	4984
834.821	4980
834.959	5201
835.097	4999
835.235	5121
835.373	5098
835.511	5105
835.65	5014
835.788	5048
835.926	4858
836.064	4816
836.202	4984
836.34	5208
836.478	5189
836.615	5124
836.753	5204
836.891	5307
837.029	5273
837.167	5189
837.305	5170
837.443	5102
837.58	5109
837.718	5258
837.856	5250
837.993	5162
838.131	5250
838.269	5189
838.406	5208
838.544	5204
838.681	5025
838.819	5029
838.956	4938
839.094	4904
839.231	4999
839.369	5109
839.506	5429
839.643	5258
839.781	5064
839.918	5025
840.055	5105
840.193	5075
840.33	5136
840.467	5124
840.604	5178
840.742	5444
840.879	5121
841.016	5083
841.153	5201
841.29	5417
841.427	5391
841.564	5265
841.701	5398
841.838	5258
841.975	5273
842.112	5227
842.249	5193
842.385	5128
842.522	5303
842.659	5216
842.796	5170
842.933	5170
843.069	5143
843.206	5162
843.343	5296
843.479	5231
843.616	5299
843.752	5052
843.889	5014
844.025	5208
844.162	5056
844.298	5204
844.435	5121
844.571	5071
844.708	5174
844.844	5330
844.98	5357
845.117	5349
845.253	5105
845.389	5105
845.525	5143
845.661	5143
845.798	5075
845.934	5128
846.07	5086
846.206	5216
846.342	5277
846.478	5193
846.614	5010
846.75	4999
846.886	4946
847.022	5109
847.158	5045
847.294	5018
847.429	5090
847.565	5079
847.701	5341
847.837	4866
847.972	4835
848.108	4942
848.244	4915
848.379	4790
848.515	4767
848.65	4767
848.786	4752
848.921	4831
849.057	4873
849.192	4953
849.328	4850
849.463	4870
849.598	4793
849.734	4801
849.869	4691
850.004	4626
850.14	4675
850.275	4603
850.41	4538
850.545	4580
850.68	4611
850.815	4664
850.95	4592
851.085	4839
851.22	4752
851.355	4725
851.49	4630
851.625	4607
851.76	4630
851.895	4607
852.03	4573
852.165	4672
852.299	4752
852.434	4835
852.569	4733
852.703	4752
852.838	4915
852.973	4968
853.107	4961
853.242	4698
853.376	4687
853.511	4554
853.645	4634
853.78	4839
853.914	4782
854.048	4687
854.183	4679
854.317	4729
854.451	4850
854.585	4679
854.72	4668
854.854	4767
854.988	4634
855.122	4691
855.256	4599
855.39	4721
855.524	4828
855.658	4733
855.792	4752
855.926	4755
856.06	4797
856.194	4850
856.327	4698
856.461	4698
856.595	4698
856.729	4607
856.862	4793
856.996	4755
857.13	4812
857.263	4793
857.397	4816
857.53	4679
857.664	4805
857.797	4824
857.931	4824
858.064	4740
858.197	4786
858.331	4687
858.464	4653
858.597	4596
858.731	4687
858.864	4653
858.997	4634
859.13	4660
859.263	4698
859.396	4729
859.529	4584
859.662	4599
859.795	4531
859.928	4733
860.061	4786
860.194	4835
860.327	4668
860.46	4577
860.592	4790
860.725	4752
860.858	4729
860.99	4611
861.123	4580
861.256	4554
861.388	4668
861.521	5360
861.653	4527
861.786	4493
861.918	4478
862.05	4577
862.183	4618
862.315	4615
862.447	4668
862.58	4607
862.712	4417
862.844	4398
862.976	4531
863.108	4527
863.24	4812
863.372	4405
863.504	4478
863.636	4417
863.768	4512
863.9	4474
864.032	4402
864.164	4443
864.296	4527
864.428	4554
864.559	4588
864.691	4558
864.823	4569
864.954	4535
865.086	4565
865.217	4474
865.349	4424
865.48	4538
865.612	4550
865.743	4649
865.875	4504
866.006	4443
866.137	4535
866.269	4466
866.4	4508
866.531	4462
866.662	4436
866.793	4474
866.924	4470
867.055	4561
867.186	4485
867.317	4451
867.448	4440
867.579	4394
867.71	4394
867.841	4417
867.972	4512
868.103	4512
868.233	4466
868.364	4470
868.495	4554
868.625	4630
868.756	4843
868.886	4634
869.017	4675
869.147	4816
869.278	4812
869.408	4668
869.539	4672
869.669	4748
869.799	4717
869.929	4755
870.06	4786
870.19	4987
870.32	4938
870.45	4953
870.58	5048
870.71	5132
870.84	5090
870.97	5014
871.1	4957
871.23	5212
871.36	5136
871.489	5090
871.619	5098
871.749	5124
871.879	5132
872.008	5223
872.138	5136
872.267	4995
872.397	4904
872.526	4847
872.656	4778
872.785	4809
872.915	4991
873.044	5086
873.173	4984
873.303	5014
873.432	5037
873.561	5018
873.69	4900
873.819	4904
873.948	4942
874.077	4839
874.206	4824
874.335	4850
874.464	4923
874.593	5064
874.722	4995
874.851	5124
874.979	5105
875.108	5067
875.237	4892
875.365	4938
875.494	4927
875.623	4965
875.751	4873
875.88	4923
876.008	5010
876.136	5056
876.265	5185
876.393	5337
876.521	5299
876.65	5258
876.778	5181
876.906	5086
877.034	5045
877.162	5098
877.29	5003
877.418	5109
877.546	5098
877.674	5086
877.802	5052
877.93	5025
878.058	4984
878.185	4854
878.313	4957
878.441	4930
878.568	4816
878.696	4991
878.824	5060
878.951	4999
879.079	5212
879.206	5360
879.333	5170
879.461	5037
879.588	5071
879.715	5117
879.842	5265
879.97	5010
880.097	4820
880.224	4759
880.351	4831
880.478	4877
880.605	4828
880.732	4843
880.859	5094
880.986	4908
881.112	4934
881.239	4847
881.366	4702
881.493	4592
881.619	4675
881.746	4672
881.872	4679
881.999	4683
882.125	4733
882.252	4828
882.378	4896
882.505	5006
882.631	4847
882.757	4675
882.883	4740
883.01	4759
883.136	4687
883.262	4630
883.388	4580
883.514	4858
883.64	4870
883.766	4850
883.892	4706
884.018	4725
884.143	4953
884.269	5048
884.395	4710
884.52	4653
884.646	4634
884.772	4660
884.897	4569
885.023	4675
885.148	4839
885.274	4881
885.399	4809
885.524	4721
885.65	4694
885.775	4774
885.9	4672
886.025	4889
886.15	4793
886.275	4675
886.4	4694
886.525	4755
886.65	4710
886.775	4725
886.9	4965
887.025	5060
887.149	4873
887.274	4656
887.399	4599
887.523	4672
887.648	4626
887.773	4641
887.897	4805
888.021	4831
888.146	4691
888.27	4843
888.395	4938
888.519	4824
888.643	4828
888.767	4850
888.891	4672
889.015	4615
889.139	4645
889.263	4615
889.387	4809
889.511	4858
889.635	4843
889.759	4645
889.883	4672
890.006	4790
890.13	4862
890.254	4653
890.377	4653
890.501	4603
890.624	4603
890.748	4603
890.871	4569
890.995	4512
891.118	4440
891.241	4573
891.364	4542
891.488	4691
891.611	4550
891.734	4519
891.857	4641
891.98	4565
892.103	4626
892.226	4603
892.349	4561
892.471	4424
892.594	4615
892.717	4607
892.839	4573
892.962	4558
893.085	4653
893.207	4653
893.33	4485
893.452	4592
893.575	4729
893.697	4653
893.819	4839
893.941	4877
894.064	4797
894.186	4596
894.308	4577
894.43	4755
894.552	4870
894.674	4767
894.796	4516
894.918	4603
895.04	4546
895.161	4717
895.283	4694
895.405	4607
895.526	4660
895.648	4736
895.769	4733
895.891	4774
896.012	4717
896.134	4763
896.255	4649
896.376	4675
896.498	4626
896.619	4694
896.74	4637
896.861	4710
896.982	4896
897.103	5079
897.224	4812
897.345	4782
897.466	4702
897.587	4755
897.708	4850
897.828	4858
897.949	4683
898.07	4580
898.19	4634
898.311	4805
898.431	4714
898.552	4755
898.672	4858
898.792	4854
898.913	4774
899.033	4622
899.153	4565
899.273	4413
899.393	4535
899.513	4466
899.633	4523
899.753	4580
899.873	4500
899.993	4588
900.113	4538
900.232	4599
900.352	4603
900.472	4531
900.591	4367
900.711	4512
900.83	4478
900.95	4596
901.069	4683
901.189	4573
901.308	4402
901.427	4295
901.546	4421
901.665	4512
901.784	4512
901.904	4436
902.023	4356
902.141	4188
902.26	4200
902.379	4337
902.498	4249
902.617	4261
902.735	4398
902.854	4398
902.973	4394
903.091	4200
903.21	4238
903.328	4322
903.446	4291
903.565	4265
903.683	4390
903.801	4261
903.919	4421
904.038	4398
904.156	4367
904.274	4466
904.392	4424
904.51	4440
904.627	4451
904.745	4573
904.863	4637
904.981	4436
905.098	4314
905.216	4417
905.334	4436
905.451	4455
905.569	4436
905.686	4584
905.803	4554
905.921	4417
906.038	4607
906.155	4516
906.272	4421
906.389	4481
906.506	4390
906.623	4394
906.74	4440
906.857	4344
906.974	4383
907.091	4634
907.208	4683
907.324	4622
907.441	4523
907.557	4318
907.674	4344
907.79	4322
907.907	4367
908.023	4500
908.139	4462
908.256	4462
908.372	4481
908.488	4478
908.604	4322
908.72	4356
908.836	4428
908.952	4402
909.068	4466
909.184	4538
909.3	4508
909.415	4649
909.531	4565
909.647	4386
909.762	4481
909.878	4352
909.993	4428
910.108	4421
910.224	4478
910.339	4546
910.454	4424
910.57	4386
910.685	4348
910.8	4660
910.915	4653
911.03	4554
911.145	4310
911.259	4341
911.374	4398
911.489	4367
911.604	4291
911.718	4173
911.833	4192
911.947	4067
912.062	4086
912.176	4223
912.291	4227
912.405	4246
912.519	4455
912.633	4497
912.748	4413
912.862	4329
912.976	4204
913.09	4090
913.204	4204
913.318	4257
913.431	4348
913.545	4371
913.659	4474
913.772	4390
913.886	4215
914	4280
914.113	4421
914.226	4455
914.34	4428
914.453	4276
914.566	4462
914.68	4344
914.793	4356
914.906	4181
915.019	4131
915.132	4093
915.245	4173
915.358	4207
915.47	4268
915.583	4253
915.696	4329
915.809	4402
915.921	4413
916.034	4276
916.146	4257
916.259	4249
916.371	4348
916.483	4356
916.595	4310
916.708	4325
916.82	4329
916.932	4318
917.044	4383
917.156	4383
917.268	4268
917.38	4325
917.491	4280
917.603	4360
917.715	4440
917.826	4451
917.938	4352
918.049	4295
918.161	4413
918.272	4599
918.384	4584
918.495	4466
918.606	4306
918.717	4238
918.828	4325
918.939	4390
919.05	4261
919.161	4306
919.272	4090
919.383	4238
919.494	4432
919.604	4649
919.715	4485
919.826	4360
919.936	4417
920.047	4508
920.157	4493
920.267	4729
920.378	4603
920.488	4512
920.598	4706
920.708	4938
920.818	4786
920.928	4786
921.038	4934
921.148	4919
921.258	4653
921.368	4603
921.477	4470
921.587	4432
921.697	4394
921.806	4554
921.916	4459
922.025	4291
922.134	4295
922.244	4223
922.353	4329
922.462	4185
922.571	4147
922.68	4036
922.789	3998
922.898	4051
923.007	4002
923.116	4109
923.224	4109
923.333	4135
923.442	4032
923.55	3994
923.659	4082
923.767	4109
923.876	4006
923.984	4131
924.092	3994
924.201	4090
924.309	4074
924.417	4143
924.525	4109
924.633	4135
924.741	5041
924.849	3937
924.956	4139
925.064	3968
925.172	3922
925.279	3968
925.387	4067
925.494	4032
925.602	4200
925.709	4173
925.816	4044
925.924	4166
926.031	4234
926.138	4147
926.245	4181
926.352	4120
926.459	4196
926.566	4318
926.673	4162
926.779	4071
926.886	4063
926.993	3994
927.099	4006
927.206	3964
927.312	3956
927.419	4090
927.525	4074
927.631	4143
927.737	3953
927.843	3953
927.95	3869
928.056	3956
928.162	3998
928.267	4044
928.373	4618
928.479	4116
928.585	3846
928.69	4036
928.796	4040
928.901	3953
929.007	3835
929.112	4025
929.218	4048
929.323	3964
929.428	3991
929.533	4143
929.638	3934
929.743	3994
929.848	4002
929.953	3975
930.058	3934
930.163	3770
930.267	3857
930.372	3949
930.477	3827
930.581	4074
930.685	3918
930.79	3808
930.894	3953
930.998	3857
931.103	4029
931.207	3720
931.311	3732
931.415	3671
931.519	3568
931.623	3591
