Data from test_V78500241_871.txt Node
Date: Fri Mar 25 16:55:03 CST 2022
User: usil
Spectrometer: V785-0024
Trigger mode: 0
Integration Time (sec): 4.000000E-1
Scans to average: 1
Nonlinearity correction enabled: false
Boxcar width: 0
Storing dark spectrum: false
XAxis mode: Wavelengths
Number of Pixels in Spectrum: 1024
>>>>>Begin Spectral Data<<<<<
801.071	8096
801.214	8020
801.356	7913
801.499	7887
801.641	7776
801.783	7879
801.926	7989
802.068	7909
802.211	8008
802.353	7898
802.496	7898
802.638	7868
802.78	7860
802.923	7890
803.065	7887
803.208	7830
803.35	7993
803.492	8069
803.635	8279
803.777	8073
803.919	8119
804.061	8454
804.204	8142
804.346	8065
804.488	7951
804.63	8130
804.773	8073
804.915	8088
805.057	8305
805.199	8195
805.341	8233
805.483	8294
805.626	8161
805.768	8130
805.91	8214
806.052	8172
806.194	8103
806.336	8259
806.478	8062
806.62	8035
806.762	8153
806.904	8237
807.046	8419
807.188	8358
807.33	8286
807.472	8351
807.614	8168
807.756	8176
807.898	8043
808.04	7925
808.182	7921
808.324	7860
808.465	7978
808.607	8016
808.749	8073
808.891	8256
809.033	8286
809.174	8221
809.316	8081
809.458	8039
809.6	7967
809.741	8008
809.883	8027
810.025	8153
810.166	8043
810.308	7963
810.45	8073
810.591	7864
810.733	7738
810.875	7674
811.016	7495
811.158	7552
811.299	7563
811.441	7757
811.582	7708
811.724	7590
811.865	7575
812.007	7567
812.148	7556
812.29	7624
812.431	7712
812.573	7894
812.714	7932
812.855	8069
812.997	8176
813.138	8298
813.279	8183
813.421	8073
813.562	8043
813.703	7818
813.845	7784
813.986	7533
814.127	7293
814.268	7236
814.41	7202
814.551	7129
814.692	7069
814.833	7050
814.974	7050
815.115	7069
815.256	6951
815.397	7000
815.539	6981
815.68	6810
815.821	6795
815.962	6920
816.103	6806
816.244	6692
816.385	6627
816.526	6616
816.666	6525
816.807	6289
816.948	6391
817.089	6498
817.23	6418
817.371	6395
817.512	6426
817.653	6448
817.793	6361
817.934	6418
818.075	6448
818.216	6441
818.356	6502
818.497	6239
818.638	6167
818.778	6175
818.919	6144
819.06	6148
819.2	6365
819.341	6308
819.481	6331
819.622	6509
819.762	6738
819.903	6696
820.043	6650
820.184	6566
820.324	6540
820.465	6662
820.605	6662
820.746	6612
820.886	6498
821.026	6608
821.167	6719
821.307	6772
821.447	6738
821.588	6692
821.728	6589
821.868	6498
822.008	6350
822.149	6391
822.289	6315
822.429	6213
822.569	6049
822.709	6121
822.849	5889
822.99	5882
823.13	5916
823.27	5931
823.41	5836
823.55	5790
823.69	5836
823.83	5783
823.97	5615
824.11	5497
824.25	5501
824.389	5539
824.529	5596
824.669	5490
824.809	5642
824.949	5684
825.089	5570
825.228	5543
825.368	5444
825.508	5337
825.648	5318
825.787	5417
825.927	5387
826.067	5277
826.206	5292
826.346	5387
826.485	5414
826.625	5402
826.765	5532
826.904	5486
827.044	5292
827.183	5216
827.323	5117
827.462	5235
827.601	5162
827.741	5197
827.88	5197
828.02	5151
828.159	5212
828.298	5307
828.437	5368
828.577	5284
828.716	5467
828.855	5379
828.994	5162
829.134	5197
829.273	5239
829.412	5098
829.551	5132
829.69	5143
829.829	5239
829.968	5383
830.107	5265
830.246	5284
830.385	5178
830.524	5083
830.663	5025
830.802	4991
830.941	4870
831.08	4930
831.219	4995
831.357	4995
831.496	5140
831.635	4889
831.774	4828
831.913	4850
832.051	4698
832.19	4763
832.329	4786
832.467	4702
832.606	4607
832.744	4729
832.883	4683
833.022	4736
833.16	4801
833.299	4790
833.437	4866
833.576	4839
833.714	4873
833.852	4801
833.991	4908
834.129	4991
834.267	4927
834.406	4911
834.544	4949
834.682	4976
834.821	4987
834.959	5159
835.097	4995
835.235	5159
835.373	5041
835.511	5102
835.65	4957
835.788	4991
835.926	4908
836.064	4904
836.202	4873
836.34	5181
836.478	5201
836.615	5136
836.753	5212
836.891	5280
837.029	5254
837.167	5220
837.305	5197
837.443	5147
837.58	5098
837.718	5258
837.856	5162
837.993	5132
838.131	5212
838.269	5185
838.406	5174
838.544	5178
838.681	5025
838.819	5048
838.956	4862
839.094	4896
839.231	4987
839.369	5094
839.506	5402
839.643	5227
839.781	5079
839.918	5025
840.055	5109
840.193	5113
840.33	5121
840.467	5151
840.604	5170
840.742	5493
840.879	5025
841.016	5067
841.153	5132
841.29	5372
841.427	5417
841.564	5326
841.701	5318
841.838	5277
841.975	5220
842.112	5246
842.249	5147
842.385	5086
842.522	5353
842.659	5151
842.796	5109
842.933	5166
843.069	5170
843.206	5185
843.343	5288
843.479	5246
843.616	5292
843.752	5045
843.889	4938
844.025	5162
844.162	5033
844.298	5239
844.435	5010
844.571	5075
844.708	5216
844.844	5299
844.98	5334
845.117	5250
845.253	5136
845.389	5048
845.525	5140
845.661	5155
845.798	5071
845.934	5113
846.07	5052
846.206	5155
846.342	5288
846.478	5208
846.614	5018
846.75	4976
846.886	4968
847.022	5128
847.158	5045
847.294	5064
847.429	5121
847.565	5025
847.701	5326
847.837	4877
847.972	4755
848.108	4927
848.244	4927
848.379	4771
848.515	4717
848.65	4679
848.786	4774
848.921	4790
849.057	4847
849.192	4938
849.328	4793
849.463	4850
849.598	4805
849.734	4710
849.869	4698
850.004	4653
850.14	4687
850.275	4615
850.41	4592
850.545	4542
850.68	4596
850.815	4615
850.95	4577
851.085	4820
851.22	4805
851.355	4683
851.49	4592
851.625	4664
851.76	4584
851.895	4588
852.03	4516
852.165	4668
852.299	4748
852.434	4763
852.569	4717
852.703	4786
852.838	4839
852.973	4896
853.107	4953
853.242	4679
853.376	4634
853.511	4538
853.645	4637
853.78	4831
853.914	4660
854.048	4687
854.183	4656
854.317	4698
854.451	4885
854.585	4675
854.72	4637
854.854	4733
854.988	4687
855.122	4569
855.256	4527
855.39	4641
855.524	4729
855.658	4698
855.792	4691
855.926	4721
856.06	4752
856.194	4721
856.327	4679
856.461	4584
856.595	4592
856.729	4607
856.862	4752
856.996	4679
857.13	4698
857.263	4744
857.397	4797
857.53	4596
857.664	4729
857.797	4752
857.931	4793
858.064	4672
858.197	4778
858.331	4634
858.464	4592
858.597	4546
858.731	4618
858.864	4615
858.997	4546
859.13	4641
859.263	4672
859.396	4694
859.529	4565
859.662	4542
859.795	4500
859.928	4588
860.061	4767
860.194	4763
860.327	4554
860.46	4584
860.592	4668
860.725	4721
860.858	4721
860.99	4569
861.123	4542
861.256	4546
861.388	4596
861.521	5303
861.653	4485
861.786	4440
861.918	4478
862.05	4497
862.183	4554
862.315	4611
862.447	4656
862.58	4493
862.712	4405
862.844	4325
862.976	4455
863.108	4443
863.24	4721
863.372	4348
863.504	4375
863.636	4409
863.768	4459
863.9	4455
864.032	4344
864.164	4398
864.296	4474
864.428	4497
864.559	4512
864.691	4497
864.823	4531
864.954	4493
865.086	4474
865.217	4443
865.349	4417
865.48	4466
865.612	4497
865.743	4607
865.875	4478
866.006	4413
866.137	4459
866.269	4447
866.4	4413
866.531	4428
866.662	4367
866.793	4447
866.924	4394
867.055	4500
867.186	4436
867.317	4421
867.448	4363
867.579	4402
867.71	4390
867.841	4356
867.972	4481
868.103	4424
868.233	4459
868.364	4474
868.495	4497
868.625	4660
868.756	4706
868.886	4569
869.017	4618
869.147	4759
869.278	4771
869.408	4645
869.539	4649
869.669	4725
869.799	4649
869.929	4752
870.06	4687
870.19	4968
870.32	4877
870.45	4938
870.58	4953
870.71	5117
870.84	5109
870.97	4934
871.1	4892
871.23	5113
871.36	5143
871.489	5045
871.619	5029
871.749	5075
871.879	5140
872.008	5197
872.138	5064
872.267	4995
872.397	4839
872.526	4763
872.656	4717
872.785	4797
872.915	4923
873.044	5025
873.173	4938
873.303	4957
873.432	4919
873.561	4968
873.69	4858
873.819	4828
873.948	4968
874.077	4790
874.206	4740
874.335	4759
874.464	4942
874.593	5033
874.722	4984
874.851	5048
874.979	5048
875.108	5025
875.237	4862
875.365	4866
875.494	4896
875.623	4961
875.751	4824
875.88	4866
876.008	4965
876.136	5003
876.265	5140
876.393	5292
876.521	5220
876.65	5231
876.778	5162
876.906	5041
877.034	5037
877.162	5052
877.29	4953
877.418	5098
877.546	4991
877.674	5003
877.802	5041
877.93	5037
878.058	4923
878.185	4805
878.313	4976
878.441	4900
878.568	4805
878.696	4866
878.824	4980
878.951	4961
879.079	5121
879.206	5254
879.333	5079
879.461	5006
879.588	5045
879.715	5067
879.842	5265
879.97	4976
880.097	4786
880.224	4710
880.351	4820
880.478	4793
880.605	4744
880.732	4763
880.859	5121
880.986	4923
881.112	4858
881.239	4782
881.366	4645
881.493	4565
881.619	4596
881.746	4656
881.872	4675
881.999	4622
882.125	4664
882.252	4767
882.378	4793
882.505	4957
882.631	4797
882.757	4683
882.883	4691
883.01	4744
883.136	4649
883.262	4588
883.388	4607
883.514	4771
883.64	4835
883.766	4771
883.892	4656
884.018	4687
884.143	4938
884.269	4991
884.395	4660
884.52	4626
884.646	4637
884.772	4599
884.897	4554
885.023	4668
885.148	4809
885.274	4824
885.399	4774
885.524	4725
885.65	4660
885.775	4736
885.9	4721
886.025	4839
886.15	4801
886.275	4679
886.4	4645
886.525	4721
886.65	4634
886.775	4698
886.9	4889
887.025	4995
887.149	4809
887.274	4649
887.399	4615
887.523	4596
887.648	4599
887.773	4577
887.897	4729
888.021	4755
888.146	4626
888.27	4774
888.395	4889
888.519	4828
888.643	4801
888.767	4801
888.891	4664
889.015	4580
889.139	4672
889.263	4607
889.387	4774
889.511	4873
889.635	4793
889.759	4656
889.883	4618
890.006	4729
890.13	4831
890.254	4558
890.377	4641
890.501	4512
890.624	4466
890.748	4653
890.871	4516
890.995	4428
891.118	4375
891.241	4527
891.364	4485
891.488	4603
891.611	4508
891.734	4493
891.857	4603
891.98	4546
892.103	4641
892.226	4596
892.349	4485
892.471	4451
892.594	4573
892.717	4592
892.839	4573
892.962	4580
893.085	4683
893.207	4558
893.33	4481
893.452	4504
893.575	4618
893.697	4599
893.819	4805
893.941	4824
894.064	4759
894.186	4580
894.308	4573
894.43	4748
894.552	4778
894.674	4759
894.796	4535
894.918	4596
895.04	4558
895.161	4691
895.283	4630
895.405	4569
895.526	4626
895.648	4714
895.769	4679
895.891	4714
896.012	4721
896.134	4706
896.255	4679
896.376	4637
896.498	4558
896.619	4691
896.74	4584
896.861	4653
896.982	4930
897.103	5041
897.224	4801
897.345	4721
897.466	4710
897.587	4706
897.708	4843
897.828	4771
897.949	4611
898.07	4596
898.19	4588
898.311	4839
898.431	4744
898.552	4687
898.672	4835
898.792	4763
898.913	4706
899.033	4607
899.153	4527
899.273	4451
899.393	4485
899.513	4523
899.633	4535
899.753	4546
899.873	4478
899.993	4531
900.113	4523
900.232	4546
900.352	4519
900.472	4504
900.591	4383
900.711	4485
900.83	4451
900.95	4599
901.069	4691
901.189	4512
901.308	4383
901.427	4310
901.546	4352
901.665	4462
901.784	4489
901.904	4360
902.023	4337
902.141	4215
902.26	4185
902.379	4276
902.498	4211
902.617	4219
902.735	4379
902.854	4344
902.973	4341
903.091	4223
903.21	4219
903.328	4242
903.446	4204
903.565	4272
903.683	4375
903.801	4291
903.919	4417
904.038	4386
904.156	4291
904.274	4413
904.392	4356
904.51	4409
904.627	4466
904.745	4516
904.863	4584
904.981	4390
905.098	4268
905.216	4367
905.334	4383
905.451	4428
905.569	4432
905.686	4561
905.803	4558
905.921	4432
906.038	4573
906.155	4466
906.272	4363
906.389	4428
906.506	4363
906.623	4394
906.74	4417
906.857	4291
906.974	4386
907.091	4542
907.208	4714
907.324	4573
907.441	4527
907.557	4303
907.674	4329
907.79	4314
907.907	4390
908.023	4466
908.139	4470
908.256	4417
908.372	4497
908.488	4383
908.604	4344
908.72	4333
908.836	4341
908.952	4360
909.068	4390
909.184	4615
909.3	4508
909.415	4546
909.531	4538
909.647	4314
909.762	4341
909.878	4344
909.993	4402
910.108	4386
910.224	4409
910.339	4478
910.454	4390
910.57	4402
910.685	4295
910.8	4634
910.915	4569
911.03	4504
911.145	4318
911.259	4306
911.374	4390
911.489	4268
911.604	4276
911.718	4169
911.833	4181
911.947	3998
912.062	4025
912.176	4188
912.291	4242
912.405	4276
912.519	4421
912.633	4519
912.748	4398
912.862	4325
912.976	4207
913.09	4078
913.204	4173
913.318	4215
913.431	4367
913.545	4390
913.659	4436
913.772	4341
913.886	4253
914	4253
914.113	4352
914.226	4459
914.34	4356
914.453	4242
914.566	4462
914.68	4314
914.793	4344
914.906	4169
915.019	4101
915.132	4044
915.245	4135
915.358	4249
915.47	4192
915.583	4272
915.696	4310
915.809	4428
915.921	4440
916.034	4223
916.146	4295
916.259	4219
916.371	4390
916.483	4383
916.595	4276
916.708	4344
916.82	4299
916.932	4295
917.044	4348
917.156	4341
917.268	4227
917.38	4299
917.491	4276
917.603	4333
917.715	4451
917.826	4489
917.938	4337
918.049	4223
918.161	4341
918.272	4478
918.384	4550
918.495	4462
918.606	4272
918.717	4238
918.828	4363
918.939	4356
919.05	4268
919.161	4348
919.272	4105
919.383	4177
919.494	4428
919.604	4592
919.715	4405
919.826	4341
919.936	4390
920.047	4485
920.157	4470
920.267	4725
920.378	4485
920.488	4485
920.598	4740
920.708	4877
920.818	4755
920.928	4717
921.038	4919
921.148	4919
921.258	4668
921.368	4558
921.477	4440
921.587	4440
921.697	4371
921.806	4531
921.916	4405
922.025	4257
922.134	4223
922.244	4242
922.353	4314
922.462	4090
922.571	4166
922.68	4036
922.789	3987
922.898	4021
923.007	3975
923.116	4086
923.224	4025
923.333	4063
923.442	3983
923.55	4021
923.659	4048
923.767	4078
923.876	3972
923.984	4063
924.092	3945
924.201	4044
924.309	4143
924.417	4143
924.525	4006
924.633	4082
924.741	4866
924.849	3907
924.956	4135
925.064	3953
925.172	3899
925.279	3960
925.387	4059
925.494	4032
925.602	4204
925.709	4177
925.816	4040
925.924	4128
926.031	4188
926.138	4185
926.245	4143
926.352	4067
926.459	4276
926.566	4318
926.673	4128
926.779	4051
926.886	4093
926.993	4013
927.099	3926
927.206	3960
927.312	3907
927.419	4067
927.525	4032
927.631	4097
927.737	3964
927.843	3888
927.95	3808
928.056	3915
928.162	3991
928.267	4063
928.373	4603
928.479	4139
928.585	3846
928.69	4040
928.796	4067
928.901	3922
929.007	3865
929.112	3987
929.218	3956
929.323	3930
929.428	3972
929.533	4063
929.638	3896
929.743	4002
929.848	4082
929.953	3979
930.058	3915
930.163	3770
930.267	3781
930.372	3975
930.477	3816
930.581	4063
930.685	3918
930.79	3816
930.894	3865
930.998	3854
931.103	4002
931.207	3698
931.311	3762
931.415	3675
931.519	3542
931.623	3526
