Data from test_V78500241_2391.txt Node
Date: Fri Mar 25 17:05:37 CST 2022
User: usil
Spectrometer: V785-0024
Trigger mode: 0
Integration Time (sec): 4.000000E-1
Scans to average: 1
Nonlinearity correction enabled: false
Boxcar width: 0
Storing dark spectrum: false
XAxis mode: Wavelengths
Number of Pixels in Spectrum: 1024
>>>>>Begin Spectral Data<<<<<
801.071	7970
801.214	8005
801.356	7913
801.499	7852
801.641	7780
801.783	7788
801.926	7970
802.068	7947
802.211	8024
802.353	8054
802.496	7845
802.638	7864
802.78	7894
802.923	7890
803.065	7879
803.208	7883
803.35	8020
803.492	8077
803.635	8149
803.777	8020
803.919	8187
804.061	8465
804.204	8191
804.346	8050
804.488	7940
804.63	8062
804.773	7967
804.915	8126
805.057	8282
805.199	8138
805.341	8202
805.483	8286
805.626	8214
805.768	8202
805.91	8248
806.052	8176
806.194	8081
806.336	8248
806.478	8123
806.62	8149
806.762	8123
806.904	8199
807.046	8476
807.188	8351
807.33	8301
807.472	8271
807.614	8195
807.756	8058
807.898	7997
808.04	7826
808.182	7898
808.324	7879
808.465	7898
808.607	8069
808.749	8100
808.891	8237
809.033	8282
809.174	8225
809.316	8084
809.458	8065
809.6	8043
809.741	7947
809.883	7947
810.025	8172
810.166	8035
810.308	8145
810.45	8054
810.591	7871
810.733	7712
810.875	7620
811.016	7605
811.158	7434
811.299	7616
811.441	7765
811.582	7700
811.724	7510
811.865	7639
812.007	7563
812.148	7609
812.29	7681
812.431	7765
812.573	7894
812.714	8012
812.855	8149
812.997	8221
813.138	8259
813.279	8100
813.421	8092
813.562	7944
813.703	7860
813.845	7734
813.986	7411
814.127	7247
814.268	7228
814.41	7137
814.551	7171
814.692	7247
814.833	7103
814.974	7034
815.115	7129
815.256	6977
815.397	6924
815.539	6913
815.68	6814
815.821	6726
815.962	6947
816.103	6837
816.244	6741
816.385	6551
816.526	6597
816.666	6513
816.807	6319
816.948	6433
817.089	6494
817.23	6410
817.371	6422
817.512	6384
817.653	6403
817.793	6384
817.934	6433
818.075	6479
818.216	6456
818.356	6353
818.497	6228
818.638	6144
818.778	6140
818.919	6194
819.06	6125
819.2	6247
819.341	6365
819.481	6350
819.622	6593
819.762	6760
819.903	6673
820.043	6688
820.184	6642
820.324	6517
820.465	6738
820.605	6658
820.746	6654
820.886	6532
821.026	6669
821.167	6703
821.307	6798
821.447	6738
821.588	6696
821.728	6589
821.868	6471
822.008	6315
822.149	6361
822.289	6327
822.429	6136
822.569	6133
822.709	6140
822.849	5923
822.99	5847
823.13	5893
823.27	5870
823.41	5802
823.55	5786
823.69	5779
823.83	5809
823.97	5649
824.11	5558
824.25	5509
824.389	5524
824.529	5592
824.669	5592
824.809	5649
824.949	5672
825.089	5592
825.228	5573
825.368	5387
825.508	5349
825.648	5322
825.787	5379
825.927	5436
826.067	5307
826.206	5299
826.346	5391
826.485	5353
826.625	5372
826.765	5543
826.904	5463
827.044	5250
827.183	5201
827.323	5075
827.462	5250
827.601	5162
827.741	5143
827.88	5258
828.02	5121
828.159	5197
828.298	5296
828.437	5417
828.577	5296
828.716	5455
828.855	5315
828.994	5159
829.134	5178
829.273	5208
829.412	5071
829.551	5098
829.69	5128
829.829	5231
829.968	5318
830.107	5303
830.246	5307
830.385	5147
830.524	5140
830.663	5052
830.802	4984
830.941	4873
831.08	4835
831.219	5010
831.357	4972
831.496	5140
831.635	4911
831.774	4858
831.913	4862
832.051	4725
832.19	4729
832.329	4847
832.467	4698
832.606	4626
832.744	4752
832.883	4729
833.022	4710
833.16	4774
833.299	4774
833.437	4820
833.576	4797
833.714	4828
833.852	4843
833.991	4839
834.129	4965
834.267	4949
834.406	4843
834.544	4957
834.682	4995
834.821	4942
834.959	5174
835.097	4999
835.235	5189
835.373	5086
835.511	5079
835.65	5014
835.788	5010
835.926	4889
836.064	4877
836.202	4957
836.34	5162
836.478	5246
836.615	5117
836.753	5239
836.891	5269
837.029	5307
837.167	5231
837.305	5140
837.443	5117
837.58	5094
837.718	5250
837.856	5140
837.993	5117
838.131	5235
838.269	5193
838.406	5189
838.544	5143
838.681	5067
838.819	5025
838.956	4927
839.094	4938
839.231	4961
839.369	5067
839.506	5387
839.643	5250
839.781	5045
839.918	5018
840.055	5098
840.193	5102
840.33	5067
840.467	5140
840.604	5162
840.742	5440
840.879	5067
841.016	5022
841.153	5162
841.29	5395
841.427	5345
841.564	5273
841.701	5322
841.838	5288
841.975	5227
842.112	5254
842.249	5098
842.385	5094
842.522	5277
842.659	5178
842.796	5128
842.933	5140
843.069	5136
843.206	5223
843.343	5261
843.479	5235
843.616	5235
843.752	5037
843.889	5067
844.025	5201
844.162	5025
844.298	5208
844.435	5071
844.571	5048
844.708	5159
844.844	5288
844.98	5330
845.117	5258
845.253	5136
845.389	5094
845.525	5132
845.661	5143
845.798	5025
845.934	5124
846.07	5045
846.206	5208
846.342	5299
846.478	5170
846.614	5014
846.75	4953
846.886	4965
847.022	5193
847.158	4968
847.294	5109
847.429	5094
847.565	5041
847.701	5318
847.837	4847
847.972	4828
848.108	4927
848.244	4984
848.379	4786
848.515	4725
848.65	4675
848.786	4725
848.921	4786
849.057	4866
849.192	4847
849.328	4797
849.463	4812
849.598	4774
849.734	4721
849.869	4683
850.004	4641
850.14	4664
850.275	4622
850.41	4497
850.545	4580
850.68	4592
850.815	4656
850.95	4622
851.085	4862
851.22	4774
851.355	4630
851.49	4645
851.625	4615
851.76	4641
851.895	4558
852.03	4569
852.165	4691
852.299	4702
852.434	4786
852.569	4778
852.703	4736
852.838	4873
852.973	4862
853.107	4873
853.242	4710
853.376	4641
853.511	4512
853.645	4561
853.78	4835
853.914	4668
854.048	4656
854.183	4603
854.317	4691
854.451	4828
854.585	4630
854.72	4637
854.854	4706
854.988	4588
855.122	4649
855.256	4519
855.39	4672
855.524	4759
855.658	4778
855.792	4725
855.926	4736
856.06	4744
856.194	4759
856.327	4691
856.461	4641
856.595	4592
856.729	4565
856.862	4767
856.996	4740
857.13	4736
857.263	4740
857.397	4793
857.53	4615
857.664	4702
857.797	4725
857.931	4801
858.064	4694
858.197	4755
858.331	4630
858.464	4603
858.597	4474
858.731	4618
858.864	4645
858.997	4599
859.13	4672
859.263	4656
859.396	4653
859.529	4588
859.662	4542
859.795	4523
859.928	4611
860.061	4733
860.194	4759
860.327	4634
860.46	4569
860.592	4706
860.725	4691
860.858	4706
860.99	4577
861.123	4535
861.256	4599
861.388	4618
861.521	5315
861.653	4485
861.786	4470
861.918	4478
862.05	4516
862.183	4565
862.315	4675
862.447	4588
862.58	4523
862.712	4363
862.844	4341
862.976	4504
863.108	4451
863.24	4755
863.372	4295
863.504	4402
863.636	4363
863.768	4493
863.9	4440
864.032	4413
864.164	4413
864.296	4447
864.428	4546
864.559	4569
864.691	4565
864.823	4531
864.954	4489
865.086	4440
865.217	4451
865.349	4421
865.48	4485
865.612	4519
865.743	4664
865.875	4436
866.006	4417
866.137	4470
866.269	4485
866.4	4417
866.531	4443
866.662	4371
866.793	4424
866.924	4413
867.055	4470
867.186	4440
867.317	4402
867.448	4348
867.579	4409
867.71	4421
867.841	4356
867.972	4447
868.103	4447
868.233	4478
868.364	4440
868.495	4500
868.625	4656
868.756	4763
868.886	4569
869.017	4637
869.147	4793
869.278	4786
869.408	4683
869.539	4645
869.669	4683
869.799	4649
869.929	4835
870.06	4752
870.19	4972
870.32	4919
870.45	4911
870.58	4972
870.71	5083
870.84	5147
870.97	4938
871.1	4866
871.23	5155
871.36	5136
871.489	5086
871.619	5033
871.749	5075
871.879	5086
872.008	5193
872.138	5018
872.267	4949
872.397	4839
872.526	4786
872.656	4691
872.785	4801
872.915	4972
873.044	5006
873.173	4938
873.303	4915
873.432	4953
873.561	4942
873.69	4828
873.819	4885
873.948	4953
874.077	4858
874.206	4736
874.335	4774
874.464	4911
874.593	5102
874.722	4976
874.851	5022
874.979	5105
875.108	5052
875.237	4908
875.365	4873
875.494	4858
875.623	4968
875.751	4816
875.88	4877
876.008	4984
876.136	5045
876.265	5185
876.393	5364
876.521	5280
876.65	5212
876.778	5102
876.906	5083
877.034	5003
877.162	5056
877.29	4976
877.418	5029
877.546	5060
877.674	5109
877.802	5037
877.93	5029
878.058	4946
878.185	4877
878.313	4927
878.441	4953
878.568	4812
878.696	4900
878.824	4911
878.951	5003
879.079	5170
879.206	5311
879.333	5098
879.461	4984
879.588	5079
879.715	5105
879.842	5204
879.97	5006
880.097	4843
880.224	4774
880.351	4809
880.478	4797
880.605	4778
880.732	4805
880.859	5109
880.986	4870
881.112	4892
881.239	4748
881.366	4672
881.493	4637
881.619	4634
881.746	4634
881.872	4664
881.999	4653
882.125	4664
882.252	4778
882.378	4786
882.505	4934
882.631	4820
882.757	4653
882.883	4736
883.01	4706
883.136	4698
883.262	4565
883.388	4615
883.514	4816
883.64	4873
883.766	4816
883.892	4664
884.018	4717
884.143	4942
884.269	5006
884.395	4645
884.52	4634
884.646	4622
884.772	4611
884.897	4603
885.023	4637
885.148	4778
885.274	4881
885.399	4812
885.524	4755
885.65	4660
885.775	4733
885.9	4721
886.025	4835
886.15	4797
886.275	4714
886.4	4687
886.525	4744
886.65	4675
886.775	4660
886.9	4820
887.025	5067
887.149	4801
887.274	4630
887.399	4611
887.523	4611
887.648	4588
887.773	4607
887.897	4740
888.021	4755
888.146	4660
888.27	4843
888.395	4949
888.519	4805
888.643	4786
888.767	4801
888.891	4634
889.015	4653
889.139	4656
889.263	4596
889.387	4759
889.511	4900
889.635	4771
889.759	4634
889.883	4694
890.006	4710
890.13	4870
890.254	4626
890.377	4626
890.501	4519
890.624	4512
890.748	4596
890.871	4504
890.995	4402
891.118	4413
891.241	4542
891.364	4508
891.488	4607
891.611	4531
891.734	4554
891.857	4580
891.98	4538
892.103	4660
892.226	4599
892.349	4527
892.471	4451
892.594	4554
892.717	4580
892.839	4584
892.962	4592
893.085	4645
893.207	4573
893.33	4474
893.452	4565
893.575	4660
893.697	4535
893.819	4774
893.941	4790
894.064	4725
894.186	4558
894.308	4550
894.43	4706
894.552	4816
894.674	4729
894.796	4569
894.918	4618
895.04	4535
895.161	4752
895.283	4622
895.405	4588
895.526	4675
895.648	4660
895.769	4622
895.891	4717
896.012	4759
896.134	4706
896.255	4626
896.376	4618
896.498	4588
896.619	4653
896.74	4607
896.861	4645
896.982	4911
897.103	5094
897.224	4858
897.345	4748
897.466	4672
897.587	4675
897.708	4866
897.828	4748
897.949	4672
898.07	4546
898.19	4603
898.311	4828
898.431	4672
898.552	4752
898.672	4778
898.792	4801
898.913	4694
899.033	4618
899.153	4466
899.273	4440
899.393	4493
899.513	4561
899.633	4538
899.753	4550
899.873	4512
899.993	4554
900.113	4531
900.232	4607
900.352	4519
900.472	4485
900.591	4341
900.711	4474
900.83	4375
900.95	4588
901.069	4664
901.189	4542
901.308	4318
901.427	4329
901.546	4322
901.665	4493
901.784	4527
901.904	4405
902.023	4329
902.141	4192
902.26	4181
902.379	4242
902.498	4268
902.617	4246
902.735	4383
902.854	4436
902.973	4383
903.091	4215
903.21	4261
903.328	4257
903.446	4261
903.565	4268
903.683	4318
903.801	4257
903.919	4352
904.038	4428
904.156	4337
904.274	4436
904.392	4413
904.51	4432
904.627	4470
904.745	4558
904.863	4637
904.981	4394
905.098	4318
905.216	4314
905.334	4436
905.451	4379
905.569	4375
905.686	4535
905.803	4550
905.921	4375
906.038	4538
906.155	4489
906.272	4402
906.389	4489
906.506	4356
906.623	4379
906.74	4405
906.857	4280
906.974	4337
907.091	4546
907.208	4630
907.324	4561
907.441	4508
907.557	4348
907.674	4322
907.79	4367
907.907	4386
908.023	4500
908.139	4424
908.256	4390
908.372	4432
908.488	4443
908.604	4371
908.72	4299
908.836	4440
908.952	4390
909.068	4428
909.184	4538
909.3	4504
909.415	4577
909.531	4527
909.647	4341
909.762	4344
909.878	4367
909.993	4443
910.108	4405
910.224	4436
910.339	4474
910.454	4360
910.57	4360
910.685	4306
910.8	4649
910.915	4561
911.03	4470
911.145	4333
911.259	4314
911.374	4367
911.489	4268
911.604	4242
911.718	4135
911.833	4211
911.947	4017
912.062	4048
912.176	4242
912.291	4238
912.405	4196
912.519	4455
912.633	4527
912.748	4409
912.862	4325
912.976	4223
913.09	4067
913.204	4166
913.318	4276
913.431	4333
913.545	4352
913.659	4428
913.772	4310
913.886	4207
914	4200
914.113	4367
914.226	4409
914.34	4360
914.453	4234
914.566	4451
914.68	4276
914.793	4367
914.906	4131
915.019	4185
915.132	4139
915.245	4162
915.358	4200
915.47	4268
915.583	4246
915.696	4306
915.809	4417
915.921	4424
916.034	4200
916.146	4234
916.259	4249
916.371	4333
916.483	4325
916.595	4246
916.708	4333
916.82	4295
916.932	4303
917.044	4325
917.156	4310
917.268	4223
917.38	4291
917.491	4295
917.603	4375
917.715	4398
917.826	4405
917.938	4356
918.049	4268
918.161	4409
918.272	4535
918.384	4531
918.495	4455
918.606	4261
918.717	4200
918.828	4287
918.939	4363
919.05	4261
919.161	4287
919.272	4154
919.383	4181
919.494	4360
919.604	4599
919.715	4421
919.826	4375
919.936	4375
920.047	4554
920.157	4500
920.267	4717
920.378	4523
920.488	4493
920.598	4702
920.708	4824
920.818	4736
920.928	4771
921.038	4934
921.148	4942
921.258	4622
921.368	4558
921.477	4485
921.587	4466
921.697	4394
921.806	4516
921.916	4413
922.025	4265
922.134	4253
922.244	4207
922.353	4352
922.462	4181
922.571	4139
922.68	3991
922.789	3975
922.898	4040
923.007	3991
923.116	4040
923.224	4013
923.333	4048
923.442	3960
923.55	3964
923.659	4055
923.767	4112
923.876	3987
923.984	4097
924.092	3960
924.201	4090
924.309	4067
924.417	4105
924.525	4067
924.633	4109
924.741	5045
924.849	3899
924.956	4093
925.064	3930
925.172	3907
925.279	3960
925.387	4063
925.494	4021
925.602	4223
925.709	4177
925.816	4029
925.924	4143
926.031	4234
926.138	4196
926.245	4169
926.352	4116
926.459	4257
926.566	4310
926.673	4147
926.779	4093
926.886	4116
926.993	3994
927.099	3964
927.206	3915
927.312	3964
927.419	4029
927.525	4048
927.631	4120
927.737	3979
927.843	3964
927.95	3896
928.056	3934
928.162	3987
928.267	4059
928.373	4729
928.479	4124
928.585	3842
928.69	4059
928.796	4078
928.901	3979
929.007	3865
929.112	4040
929.218	4017
929.323	3968
929.428	3972
929.533	4135
929.638	3937
929.743	3945
929.848	4051
929.953	4071
930.058	3949
930.163	3819
930.267	3854
930.372	4017
930.477	3857
930.581	4128
930.685	4013
930.79	3899
930.894	3945
930.998	3888
931.103	4097
931.207	3736
931.311	3728
931.415	3732
931.519	3553
931.623	3587
