Data from test_V78500241_1696.txt Node
Date: Fri Mar 25 17:00:47 CST 2022
User: usil
Spectrometer: V785-0024
Trigger mode: 0
Integration Time (sec): 4.000000E-1
Scans to average: 1
Nonlinearity correction enabled: false
Boxcar width: 0
Storing dark spectrum: false
XAxis mode: Wavelengths
Number of Pixels in Spectrum: 1024
>>>>>Begin Spectral Data<<<<<
801.071	7913
801.214	7967
801.356	7890
801.499	7868
801.641	7772
801.783	7871
801.926	7928
802.068	7868
802.211	8012
802.353	8001
802.496	7833
802.638	7803
802.78	7898
802.923	7925
803.065	7894
803.208	7837
803.35	7947
803.492	8020
803.635	8214
803.777	8016
803.919	8107
804.061	8423
804.204	8164
804.346	8103
804.488	7986
804.63	8145
804.773	8046
804.915	8096
805.057	8358
805.199	8214
805.341	8180
805.483	8256
805.626	8172
805.768	8172
805.91	8256
806.052	8172
806.194	8145
806.336	8259
806.478	8161
806.62	8077
806.762	8183
806.904	8237
807.046	8450
807.188	8389
807.33	8317
807.472	8317
807.614	8199
807.756	8126
807.898	8027
808.04	7947
808.182	7894
808.324	7902
808.465	7951
808.607	8069
808.749	8202
808.891	8142
809.033	8320
809.174	8153
809.316	8027
809.458	8065
809.6	7947
809.741	8020
809.883	8031
810.025	8138
810.166	8103
810.308	7959
810.45	7890
810.591	7837
810.733	7750
810.875	7655
811.016	7514
811.158	7445
811.299	7559
811.441	7704
811.582	7632
811.724	7609
811.865	7594
812.007	7540
812.148	7594
812.29	7658
812.431	7719
812.573	7849
812.714	7928
812.855	8092
812.997	8210
813.138	8317
813.279	8153
813.421	8065
813.562	7951
813.703	7818
813.845	7731
813.986	7430
814.127	7247
814.268	7217
814.41	7145
814.551	7175
814.692	7228
814.833	7069
814.974	7137
815.115	7038
815.256	7023
815.397	6920
815.539	6882
815.68	6829
815.821	6768
815.962	6840
816.103	6776
816.244	6662
816.385	6574
816.526	6582
816.666	6490
816.807	6319
816.948	6414
817.089	6490
817.23	6414
817.371	6391
817.512	6380
817.653	6350
817.793	6342
817.934	6429
818.075	6437
818.216	6399
818.356	6391
818.497	6239
818.638	6110
818.778	6110
818.919	6121
819.06	6175
819.2	6365
819.341	6353
819.481	6357
819.622	6502
819.762	6753
819.903	6768
820.043	6597
820.184	6589
820.324	6566
820.465	6665
820.605	6692
820.746	6616
820.886	6521
821.026	6620
821.167	6650
821.307	6757
821.447	6825
821.588	6677
821.728	6563
821.868	6479
822.008	6403
822.149	6357
822.289	6334
822.429	6114
822.569	6102
822.709	6136
822.849	5923
822.99	5882
823.13	5969
823.27	5916
823.41	5805
823.55	5741
823.69	5783
823.83	5798
823.97	5657
824.11	5478
824.25	5493
824.389	5524
824.529	5570
824.669	5459
824.809	5604
824.949	5657
825.089	5600
825.228	5558
825.368	5383
825.508	5345
825.648	5311
825.787	5360
825.927	5360
826.067	5318
826.206	5315
826.346	5414
826.485	5417
826.625	5425
826.765	5547
826.904	5417
827.044	5239
827.183	5162
827.323	5098
827.462	5223
827.601	5147
827.741	5212
827.88	5204
828.02	5086
828.159	5208
828.298	5311
828.437	5360
828.577	5258
828.716	5452
828.855	5322
828.994	5170
829.134	5147
829.273	5166
829.412	5166
829.551	5132
829.69	5185
829.829	5258
829.968	5322
830.107	5235
830.246	5254
830.385	5208
830.524	5124
830.663	5029
830.802	4949
830.941	4892
831.08	4889
831.219	4923
831.357	4991
831.496	5155
831.635	4927
831.774	4843
831.913	4862
832.051	4714
832.19	4698
832.329	4873
832.467	4675
832.606	4630
832.744	4793
832.883	4752
833.022	4656
833.16	4759
833.299	4850
833.437	4831
833.576	4850
833.714	4866
833.852	4866
833.991	4873
834.129	4976
834.267	4946
834.406	4923
834.544	4999
834.682	4980
834.821	4976
834.959	5105
835.097	5003
835.235	5140
835.373	5094
835.511	5094
835.65	5052
835.788	4995
835.926	4862
836.064	4889
836.202	4870
836.34	5136
836.478	5151
836.615	5109
836.753	5166
836.891	5265
837.029	5250
837.167	5178
837.305	5162
837.443	5174
837.58	5041
837.718	5242
837.856	5159
837.993	5098
838.131	5220
838.269	5166
838.406	5216
838.544	5140
838.681	4976
838.819	4987
838.956	4889
839.094	4934
839.231	4984
839.369	5045
839.506	5436
839.643	5254
839.781	5064
839.918	4984
840.055	5094
840.193	5124
840.33	5052
840.467	5151
840.604	5128
840.742	5421
840.879	5117
841.016	5117
841.153	5113
841.29	5341
841.427	5318
841.564	5299
841.701	5341
841.838	5261
841.975	5227
842.112	5254
842.249	5090
842.385	5048
842.522	5296
842.659	5113
842.796	5124
842.933	5185
843.069	5166
843.206	5220
843.343	5334
843.479	5216
843.616	5269
843.752	5033
843.889	5025
844.025	5246
844.162	4995
844.298	5155
844.435	5037
844.571	5083
844.708	5181
844.844	5288
844.98	5349
845.117	5235
845.253	5090
845.389	5083
845.525	5136
845.661	5128
845.798	5033
845.934	5147
846.07	5071
846.206	5174
846.342	5246
846.478	5235
846.614	5041
846.75	4995
846.886	4957
847.022	5121
847.158	5037
847.294	4980
847.429	5121
847.565	5056
847.701	5315
847.837	4877
847.972	4797
848.108	4957
848.244	4946
848.379	4755
848.515	4725
848.65	4702
848.786	4721
848.921	4774
849.057	4843
849.192	4904
849.328	4782
849.463	4892
849.598	4740
849.734	4710
849.869	4774
850.004	4637
850.14	4611
850.275	4588
850.41	4577
850.545	4573
850.68	4618
850.815	4603
850.95	4641
851.085	4847
851.22	4759
851.355	4637
851.49	4637
851.625	4634
851.76	4641
851.895	4561
852.03	4466
852.165	4645
852.299	4706
852.434	4801
852.569	4721
852.703	4755
852.838	4870
852.973	4889
853.107	4908
853.242	4702
853.376	4668
853.511	4573
853.645	4584
853.78	4812
853.914	4679
854.048	4672
854.183	4634
854.317	4679
854.451	4809
854.585	4660
854.72	4675
854.854	4733
854.988	4580
855.122	4573
855.256	4561
855.39	4679
855.524	4752
855.658	4729
855.792	4729
855.926	4706
856.06	4767
856.194	4759
856.327	4691
856.461	4603
856.595	4573
856.729	4588
856.862	4774
856.996	4672
857.13	4744
857.263	4774
857.397	4839
857.53	4698
857.664	4729
857.797	4793
857.931	4812
858.064	4694
858.197	4725
858.331	4565
858.464	4577
858.597	4489
858.731	4683
858.864	4603
858.997	4592
859.13	4641
859.263	4717
859.396	4656
859.529	4607
859.662	4527
859.795	4489
859.928	4630
860.061	4759
860.194	4740
860.327	4596
860.46	4550
860.592	4706
860.725	4717
860.858	4714
860.99	4531
861.123	4466
861.256	4538
861.388	4622
861.521	5216
861.653	4417
861.786	4413
861.918	4440
862.05	4531
862.183	4565
862.315	4588
862.447	4675
862.58	4542
862.712	4390
862.844	4337
862.976	4466
863.108	4424
863.24	4896
863.372	4360
863.504	4379
863.636	4398
863.768	4405
863.9	4481
864.032	4322
864.164	4409
864.296	4432
864.428	4550
864.559	4546
864.691	4531
864.823	4504
864.954	4497
865.086	4497
865.217	4459
865.349	4421
865.48	4474
865.612	4470
865.743	4592
865.875	4462
866.006	4424
866.137	4466
866.269	4443
866.4	4394
866.531	4405
866.662	4337
866.793	4436
866.924	4413
867.055	4478
867.186	4440
867.317	4428
867.448	4428
867.579	4379
867.71	4409
867.841	4363
867.972	4478
868.103	4462
868.233	4440
868.364	4443
868.495	4508
868.625	4653
868.756	4782
868.886	4596
869.017	4584
869.147	4736
869.278	4733
869.408	4622
869.539	4645
869.669	4698
869.799	4615
869.929	4763
870.06	4744
870.19	4900
870.32	4858
870.45	4908
870.58	5014
870.71	5079
870.84	5075
870.97	4946
871.1	4885
871.23	5132
871.36	5067
871.489	5052
871.619	5079
871.749	5071
871.879	5105
872.008	5220
872.138	5109
872.267	4987
872.397	4835
872.526	4801
872.656	4687
872.785	4835
872.915	4946
873.044	5014
873.173	4866
873.303	4957
873.432	4919
873.561	4984
873.69	4900
873.819	4866
873.948	4927
874.077	4744
874.206	4736
874.335	4843
874.464	4904
874.593	5086
874.722	4930
874.851	5151
874.979	5102
875.108	4976
875.237	4949
875.365	4847
875.494	4870
875.623	4968
875.751	4866
875.88	4911
876.008	4942
876.136	5003
876.265	5143
876.393	5299
876.521	5216
876.65	5227
876.778	5143
876.906	5052
877.034	5033
877.162	5025
877.29	4991
877.418	5113
877.546	4991
877.674	5025
877.802	5033
877.93	4972
878.058	4919
878.185	4862
878.313	4972
878.441	4934
878.568	4820
878.696	4850
878.824	4965
878.951	5052
879.079	5109
879.206	5280
879.333	5113
879.461	4965
879.588	5006
879.715	5102
879.842	5193
879.97	5022
880.097	4771
880.224	4801
880.351	4733
880.478	4831
880.605	4828
880.732	4774
880.859	5105
880.986	4896
881.112	4927
881.239	4774
881.366	4660
881.493	4569
881.619	4580
881.746	4630
881.872	4649
881.999	4691
882.125	4668
882.252	4790
882.378	4786
882.505	4911
882.631	4767
882.757	4679
882.883	4748
883.01	4691
883.136	4607
883.262	4580
883.388	4592
883.514	4774
883.64	4839
883.766	4782
883.892	4645
884.018	4687
884.143	4862
884.269	5067
884.395	4626
884.52	4607
884.646	4641
884.772	4573
884.897	4565
885.023	4664
885.148	4790
885.274	4809
885.399	4843
885.524	4672
885.65	4656
885.775	4706
885.9	4679
886.025	4843
886.15	4801
886.275	4721
886.4	4679
886.525	4763
886.65	4698
886.775	4672
886.9	4896
887.025	4972
887.149	4805
887.274	4660
887.399	4565
887.523	4558
887.648	4573
887.773	4550
887.897	4744
888.021	4755
888.146	4672
888.27	4835
888.395	4927
888.519	4797
888.643	4824
888.767	4835
888.891	4668
889.015	4538
889.139	4634
889.263	4626
889.387	4748
889.511	4839
889.635	4759
889.759	4656
889.883	4645
890.006	4744
890.13	4786
890.254	4656
890.377	4645
890.501	4497
890.624	4546
890.748	4637
890.871	4512
890.995	4405
891.118	4371
891.241	4470
891.364	4500
891.488	4626
891.611	4516
891.734	4527
891.857	4626
891.98	4588
892.103	4672
892.226	4577
892.349	4493
892.471	4398
892.594	4535
892.717	4603
892.839	4538
892.962	4618
893.085	4641
893.207	4592
893.33	4550
893.452	4519
893.575	4637
893.697	4596
893.819	4793
893.941	4831
894.064	4786
894.186	4599
894.308	4599
894.43	4733
894.552	4801
894.674	4755
894.796	4558
894.918	4489
895.04	4573
895.161	4752
895.283	4660
895.405	4573
895.526	4656
895.648	4710
895.769	4649
895.891	4763
896.012	4736
896.134	4736
896.255	4634
896.376	4599
896.498	4622
896.619	4656
896.74	4588
896.861	4694
896.982	4927
897.103	5079
897.224	4866
897.345	4752
897.466	4660
897.587	4729
897.708	4847
897.828	4721
897.949	4641
898.07	4565
898.19	4596
898.311	4801
898.431	4649
898.552	4714
898.672	4809
898.792	4805
898.913	4710
899.033	4641
899.153	4481
899.273	4432
899.393	4519
899.513	4531
899.633	4508
899.753	4500
899.873	4500
899.993	4599
900.113	4516
900.232	4618
900.352	4519
900.472	4493
900.591	4371
900.711	4447
900.83	4497
900.95	4626
901.069	4706
901.189	4523
901.308	4291
901.427	4322
901.546	4394
901.665	4470
901.784	4489
901.904	4402
902.023	4352
902.141	4192
902.26	4177
902.379	4322
902.498	4219
902.617	4238
902.735	4398
902.854	4367
902.973	4318
903.091	4181
903.21	4227
903.328	4295
903.446	4284
903.565	4242
903.683	4310
903.801	4276
903.919	4409
904.038	4481
904.156	4303
904.274	4432
904.392	4417
904.51	4402
904.627	4489
904.745	4561
904.863	4645
904.981	4413
905.098	4299
905.216	4386
905.334	4436
905.451	4394
905.569	4447
905.686	4531
905.803	4546
905.921	4390
906.038	4531
906.155	4504
906.272	4390
906.389	4417
906.506	4325
906.623	4348
906.74	4379
906.857	4280
906.974	4356
907.091	4535
907.208	4672
907.324	4523
907.441	4485
907.557	4306
907.674	4291
907.79	4295
907.907	4390
908.023	4500
908.139	4489
908.256	4409
908.372	4459
908.488	4485
908.604	4337
908.72	4314
908.836	4436
908.952	4356
909.068	4371
909.184	4523
909.3	4474
909.415	4577
909.531	4599
909.647	4333
909.762	4383
909.878	4394
909.993	4402
910.108	4443
910.224	4405
910.339	4470
910.454	4443
910.57	4360
910.685	4310
910.8	4664
910.915	4592
911.03	4455
911.145	4329
911.259	4329
911.374	4371
911.489	4295
911.604	4272
911.718	4154
911.833	4219
911.947	4051
912.062	4063
912.176	4215
912.291	4200
912.405	4207
912.519	4478
912.633	4508
912.748	4314
912.862	4325
912.976	4181
913.09	4101
913.204	4162
913.318	4253
913.431	4363
913.545	4348
913.659	4417
913.772	4405
913.886	4238
914	4238
914.113	4440
914.226	4379
914.34	4402
914.453	4188
914.566	4390
914.68	4322
914.793	4272
914.906	4139
915.019	4143
915.132	4032
915.245	4112
915.358	4242
915.47	4234
915.583	4238
915.696	4295
915.809	4421
915.921	4440
916.034	4257
916.146	4238
916.259	4207
916.371	4360
916.483	4390
916.595	4253
916.708	4287
916.82	4318
916.932	4356
917.044	4322
917.156	4325
917.268	4253
917.38	4249
917.491	4291
917.603	4287
917.715	4421
917.826	4402
917.938	4352
918.049	4291
918.161	4383
918.272	4523
918.384	4474
918.495	4436
918.606	4280
918.717	4211
918.828	4306
918.939	4367
919.05	4261
919.161	4322
919.272	4101
919.383	4238
919.494	4383
919.604	4630
919.715	4405
919.826	4333
919.936	4379
920.047	4489
920.157	4474
920.267	4687
920.378	4542
920.488	4493
920.598	4679
920.708	4889
920.818	4744
920.928	4797
921.038	4965
921.148	4904
921.258	4641
921.368	4519
921.477	4519
921.587	4466
921.697	4409
921.806	4550
921.916	4440
922.025	4272
922.134	4253
922.244	4238
922.353	4352
922.462	4150
922.571	4124
922.68	4051
922.789	3991
922.898	4044
923.007	3953
923.116	4059
923.224	4097
923.333	4109
923.442	3972
923.55	3960
923.659	4010
923.767	4086
923.876	3926
923.984	4097
924.092	3983
924.201	4086
924.309	4074
924.417	4124
924.525	4074
924.633	4082
924.741	4835
924.849	3896
924.956	4181
925.064	3972
925.172	3972
925.279	3975
925.387	4093
925.494	4074
925.602	4207
925.709	4230
925.816	4067
925.924	4090
926.031	4242
926.138	4181
926.245	4169
926.352	4044
926.459	4265
926.566	4295
926.673	4177
926.779	4090
926.886	4078
926.993	3983
927.099	3968
927.206	3907
927.312	3994
927.419	4029
927.525	4048
927.631	4101
927.737	3975
927.843	3964
927.95	3823
928.056	3937
928.162	3972
928.267	4059
928.373	4645
928.479	4120
928.585	3884
928.69	4071
928.796	4032
928.901	3937
929.007	3838
929.112	4021
929.218	3953
929.323	3937
929.428	3934
929.533	4120
929.638	3918
929.743	3991
929.848	4044
929.953	3991
930.058	3922
930.163	3740
930.267	3808
930.372	3941
930.477	3793
930.581	4082
930.685	3960
930.79	3827
930.894	3865
930.998	3876
931.103	4059
931.207	3709
931.311	3679
931.415	3663
931.519	3523
931.623	3542
