Data from test_V78500241_1609.txt Node
Date: Fri Mar 25 17:00:11 CST 2022
User: usil
Spectrometer: V785-0024
Trigger mode: 0
Integration Time (sec): 4.000000E-1
Scans to average: 1
Nonlinearity correction enabled: false
Boxcar width: 0
Storing dark spectrum: false
XAxis mode: Wavelengths
Number of Pixels in Spectrum: 1024
>>>>>Begin Spectral Data<<<<<
801.071	7932
801.214	7989
801.356	7841
801.499	7826
801.641	7776
801.783	7795
801.926	7906
802.068	7879
802.211	7951
802.353	7978
802.496	7814
802.638	7860
802.78	7864
802.923	7913
803.065	7875
803.208	7826
803.35	7947
803.492	8016
803.635	8084
803.777	7993
803.919	8161
804.061	8374
804.204	8126
804.346	8024
804.488	7925
804.63	8077
804.773	7936
804.915	8088
805.057	8279
805.199	8153
805.341	8183
805.483	8244
805.626	8210
805.768	8100
805.91	8206
806.052	8183
806.194	8058
806.336	8324
806.478	8103
806.62	8073
806.762	8115
806.904	8301
807.046	8495
807.188	8317
807.33	8271
807.472	8301
807.614	8206
807.756	8100
807.898	7970
808.04	7906
808.182	7868
808.324	7868
808.465	7875
808.607	8069
808.749	8126
808.891	8153
809.033	8221
809.174	8214
809.316	8039
809.458	8115
809.6	7925
809.741	7986
809.883	7978
810.025	8058
810.166	8005
810.308	8016
810.45	7967
810.591	7830
810.733	7685
810.875	7647
811.016	7510
811.158	7548
811.299	7590
811.441	7681
811.582	7616
811.724	7537
811.865	7506
812.007	7597
812.148	7518
812.29	7552
812.431	7685
812.573	7856
812.714	7947
812.855	8088
812.997	8202
813.138	8252
813.279	8176
813.421	8115
813.562	7932
813.703	7818
813.845	7776
813.986	7430
814.127	7187
814.268	7202
814.41	7168
814.551	7209
814.692	7164
814.833	7080
814.974	7050
815.115	7080
815.256	6989
815.397	6966
815.539	6916
815.68	6734
815.821	6745
815.962	6890
816.103	6798
816.244	6673
816.385	6623
816.526	6608
816.666	6517
816.807	6281
816.948	6372
817.089	6422
817.23	6361
817.371	6418
817.512	6357
817.653	6410
817.793	6327
817.934	6407
818.075	6418
818.216	6403
818.356	6384
818.497	6270
818.638	6068
818.778	6110
818.919	6152
819.06	6213
819.2	6266
819.341	6369
819.481	6342
819.622	6532
819.762	6722
819.903	6684
820.043	6639
820.184	6563
820.324	6578
820.465	6677
820.605	6684
820.746	6650
820.886	6517
821.026	6665
821.167	6696
821.307	6738
821.447	6760
821.588	6696
821.728	6574
821.868	6456
822.008	6338
822.149	6369
822.289	6369
822.429	6201
822.569	6110
822.709	6121
822.849	5935
822.99	5904
823.13	5844
823.27	5920
823.41	5813
823.55	5779
823.69	5668
823.83	5786
823.97	5611
824.11	5577
824.25	5490
824.389	5554
824.529	5539
824.669	5467
824.809	5649
824.949	5688
825.089	5600
825.228	5543
825.368	5379
825.508	5353
825.648	5337
825.787	5357
825.927	5368
826.067	5280
826.206	5307
826.346	5345
826.485	5421
826.625	5406
826.765	5528
826.904	5455
827.044	5261
827.183	5208
827.323	5136
827.462	5227
827.601	5124
827.741	5181
827.88	5151
828.02	5083
828.159	5201
828.298	5311
828.437	5311
828.577	5277
828.716	5493
828.855	5326
828.994	5151
829.134	5159
829.273	5185
829.412	5109
829.551	5113
829.69	5151
829.829	5220
829.968	5364
830.107	5235
830.246	5227
830.385	5181
830.524	5147
830.663	5079
830.802	4984
830.941	4873
831.08	4809
831.219	4999
831.357	4927
831.496	5147
831.635	4957
831.774	4877
831.913	4843
832.051	4694
832.19	4721
832.329	4862
832.467	4660
832.606	4637
832.744	4748
832.883	4675
833.022	4698
833.16	4755
833.299	4816
833.437	4812
833.576	4805
833.714	4866
833.852	4847
833.991	4877
834.129	4980
834.267	4908
834.406	4870
834.544	4953
834.682	4965
834.821	4919
834.959	5147
835.097	4980
835.235	5159
835.373	5090
835.511	5105
835.65	5033
835.788	5006
835.926	4877
836.064	4854
836.202	4976
836.34	5170
836.478	5151
836.615	5094
836.753	5227
836.891	5284
837.029	5231
837.167	5250
837.305	5193
837.443	5178
837.58	5060
837.718	5277
837.856	5136
837.993	5124
838.131	5250
838.269	5201
838.406	5193
838.544	5193
838.681	5014
838.819	5003
838.956	4904
839.094	4889
839.231	5014
839.369	5067
839.506	5429
839.643	5269
839.781	5086
839.918	5029
840.055	5060
840.193	5083
840.33	5086
840.467	5113
840.604	5136
840.742	5452
840.879	5105
841.016	5083
841.153	5143
841.29	5345
841.427	5258
841.564	5330
841.701	5353
841.838	5235
841.975	5261
842.112	5235
842.249	5174
842.385	5117
842.522	5341
842.659	5124
842.796	5170
842.933	5185
843.069	5090
843.206	5151
843.343	5292
843.479	5223
843.616	5242
843.752	4991
843.889	4984
844.025	5193
844.162	5033
844.298	5231
844.435	5071
844.571	5052
844.708	5124
844.844	5326
844.98	5296
845.117	5303
845.253	5067
845.389	5071
845.525	5151
845.661	5109
845.798	4961
845.934	5140
846.07	5052
846.206	5235
846.342	5280
846.478	5178
846.614	4957
846.75	4942
846.886	4900
847.022	5136
847.158	5014
847.294	5094
847.429	5083
847.565	5033
847.701	5311
847.837	4866
847.972	4812
848.108	4953
848.244	4919
848.379	4755
848.515	4744
848.65	4694
848.786	4740
848.921	4740
849.057	4850
849.192	4889
849.328	4771
849.463	4862
849.598	4774
849.734	4733
849.869	4694
850.004	4641
850.14	4653
850.275	4607
850.41	4489
850.545	4569
850.68	4550
850.815	4611
850.95	4618
851.085	4824
851.22	4797
851.355	4653
851.49	4599
851.625	4577
851.76	4637
851.895	4596
852.03	4519
852.165	4653
852.299	4679
852.434	4797
852.569	4683
852.703	4782
852.838	4870
852.973	4946
853.107	4919
853.242	4729
853.376	4694
853.511	4577
853.645	4596
853.78	4809
853.914	4641
854.048	4679
854.183	4641
854.317	4706
854.451	4847
854.585	4679
854.72	4607
854.854	4729
854.988	4584
855.122	4622
855.256	4531
855.39	4691
855.524	4744
855.658	4721
855.792	4710
855.926	4725
856.06	4774
856.194	4763
856.327	4694
856.461	4573
856.595	4615
856.729	4626
856.862	4771
856.996	4668
857.13	4748
857.263	4717
857.397	4839
857.53	4634
857.664	4725
857.797	4790
857.931	4729
858.064	4672
858.197	4702
858.331	4596
858.464	4580
858.597	4504
858.731	4660
858.864	4607
858.997	4561
859.13	4626
859.263	4645
859.396	4687
859.529	4577
859.662	4546
859.795	4542
859.928	4645
860.061	4717
860.194	4797
860.327	4615
860.46	4558
860.592	4687
860.725	4748
860.858	4694
860.99	4538
861.123	4497
861.256	4508
861.388	4592
861.521	5140
861.653	4500
861.786	4424
861.918	4428
862.05	4478
862.183	4554
862.315	4584
862.447	4656
862.58	4569
862.712	4375
862.844	4261
862.976	4455
863.108	4443
863.24	4736
863.372	4318
863.504	4443
863.636	4394
863.768	4485
863.9	4485
864.032	4405
864.164	4421
864.296	4459
864.428	4497
864.559	4554
864.691	4542
864.823	4550
864.954	4462
865.086	4497
865.217	4466
865.349	4409
865.48	4470
865.612	4447
865.743	4630
865.875	4489
866.006	4394
866.137	4459
866.269	4466
866.4	4451
866.531	4409
866.662	4390
866.793	4402
866.924	4432
867.055	4500
867.186	4409
867.317	4428
867.448	4356
867.579	4421
867.71	4405
867.841	4371
867.972	4462
868.103	4516
868.233	4421
868.364	4436
868.495	4470
868.625	4645
868.756	4744
868.886	4584
869.017	4577
869.147	4721
869.278	4763
869.408	4641
869.539	4653
869.669	4736
869.799	4653
869.929	4786
870.06	4702
870.19	4953
870.32	4835
870.45	4942
870.58	4968
870.71	5060
870.84	5086
870.97	4938
871.1	4885
871.23	5117
871.36	5090
871.489	4999
871.619	5033
871.749	5075
871.879	5117
872.008	5136
872.138	5090
872.267	4965
872.397	4870
872.526	4809
872.656	4717
872.785	4786
872.915	4938
873.044	5060
873.173	4949
873.303	4953
873.432	4961
873.561	4919
873.69	4889
873.819	4839
873.948	4927
874.077	4820
874.206	4763
874.335	4782
874.464	4885
874.593	5064
874.722	4942
874.851	5090
874.979	5060
875.108	5018
875.237	4892
875.365	4862
875.494	4919
875.623	4919
875.751	4820
875.88	4900
876.008	4942
876.136	5014
876.265	5143
876.393	5254
876.521	5239
876.65	5204
876.778	5128
876.906	5086
877.034	5014
877.162	5006
877.29	4968
877.418	5052
877.546	5029
877.674	5064
877.802	4999
877.93	4972
878.058	4927
878.185	4885
878.313	4987
878.441	4965
878.568	4801
878.696	4862
878.824	4957
878.951	4976
879.079	5155
879.206	5307
879.333	5090
879.461	5018
879.588	4972
879.715	5098
879.842	5220
879.97	5014
880.097	4805
880.224	4740
880.351	4812
880.478	4786
880.605	4843
880.732	4778
880.859	5064
880.986	4889
881.112	4881
881.239	4778
881.366	4626
881.493	4641
881.619	4573
881.746	4649
881.872	4630
881.999	4634
882.125	4630
882.252	4759
882.378	4816
882.505	4908
882.631	4790
882.757	4679
882.883	4736
883.01	4675
883.136	4664
883.262	4584
883.388	4611
883.514	4786
883.64	4858
883.766	4812
883.892	4679
884.018	4778
884.143	4896
884.269	5022
884.395	4721
884.52	4592
884.646	4630
884.772	4615
884.897	4516
885.023	4626
885.148	4744
885.274	4904
885.399	4820
885.524	4717
885.65	4710
885.775	4679
885.9	4660
886.025	4858
886.15	4797
886.275	4702
886.4	4656
886.525	4748
886.65	4733
886.775	4641
886.9	4930
887.025	5025
887.149	4767
887.274	4641
887.399	4611
887.523	4569
887.648	4569
887.773	4580
887.897	4809
888.021	4759
888.146	4626
888.27	4790
888.395	4877
888.519	4809
888.643	4778
888.767	4805
888.891	4664
889.015	4603
889.139	4607
889.263	4584
889.387	4755
889.511	4892
889.635	4748
889.759	4634
889.883	4649
890.006	4729
890.13	4797
890.254	4626
890.377	4656
890.501	4550
890.624	4523
890.748	4611
890.871	4489
890.995	4436
891.118	4405
891.241	4504
891.364	4580
891.488	4653
891.611	4500
891.734	4512
891.857	4561
891.98	4569
892.103	4634
892.226	4599
892.349	4531
892.471	4470
892.594	4519
892.717	4580
892.839	4481
892.962	4603
893.085	4672
893.207	4569
893.33	4459
893.452	4531
893.575	4683
893.697	4588
893.819	4767
893.941	4835
894.064	4736
894.186	4592
894.308	4558
894.43	4668
894.552	4805
894.674	4733
894.796	4607
894.918	4584
895.04	4550
895.161	4702
895.283	4634
895.405	4580
895.526	4603
895.648	4660
895.769	4668
895.891	4691
896.012	4736
896.134	4710
896.255	4679
896.376	4634
896.498	4615
896.619	4664
896.74	4599
896.861	4630
896.982	4892
897.103	5041
897.224	4828
897.345	4733
897.466	4664
897.587	4733
897.708	4873
897.828	4812
897.949	4694
898.07	4580
898.19	4626
898.311	4793
898.431	4618
898.552	4721
898.672	4828
898.792	4812
898.913	4782
899.033	4607
899.153	4474
899.273	4428
899.393	4436
899.513	4508
899.633	4531
899.753	4538
899.873	4489
899.993	4546
900.113	4546
900.232	4569
900.352	4516
900.472	4462
900.591	4428
900.711	4462
900.83	4470
900.95	4599
901.069	4645
901.189	4508
901.308	4360
901.427	4284
901.546	4394
901.665	4424
901.784	4500
901.904	4405
902.023	4291
902.141	4154
902.26	4177
902.379	4322
902.498	4215
902.617	4223
902.735	4348
902.854	4428
902.973	4367
903.091	4204
903.21	4200
903.328	4303
903.446	4291
903.565	4249
903.683	4386
903.801	4227
903.919	4379
904.038	4398
904.156	4333
904.274	4443
904.392	4383
904.51	4421
904.627	4459
904.745	4561
904.863	4634
904.981	4352
905.098	4318
905.216	4348
905.334	4360
905.451	4402
905.569	4428
905.686	4538
905.803	4596
905.921	4417
906.038	4535
906.155	4451
906.272	4371
906.389	4428
906.506	4306
906.623	4402
906.74	4386
906.857	4310
906.974	4348
907.091	4580
907.208	4672
907.324	4611
907.441	4462
907.557	4325
907.674	4291
907.79	4348
907.907	4356
908.023	4455
908.139	4512
908.256	4428
908.372	4478
908.488	4436
908.604	4318
908.72	4303
908.836	4413
908.952	4383
909.068	4424
909.184	4561
909.3	4447
909.415	4611
909.531	4599
909.647	4310
909.762	4417
909.878	4356
909.993	4413
910.108	4417
910.224	4394
910.339	4432
910.454	4409
910.57	4375
910.685	4314
910.8	4637
910.915	4599
911.03	4497
911.145	4253
911.259	4303
911.374	4371
911.489	4253
911.604	4261
911.718	4143
911.833	4188
911.947	4105
912.062	4002
912.176	4177
912.291	4249
912.405	4306
912.519	4500
912.633	4474
912.748	4356
912.862	4291
912.976	4185
913.09	4055
913.204	4177
913.318	4265
913.431	4390
913.545	4360
913.659	4402
913.772	4333
913.886	4242
914	4204
914.113	4341
914.226	4459
914.34	4390
914.453	4230
914.566	4424
914.68	4287
914.793	4337
914.906	4109
915.019	4135
915.132	4090
915.245	4135
915.358	4196
915.47	4230
915.583	4257
915.696	4268
915.809	4424
915.921	4409
916.034	4303
916.146	4204
916.259	4238
916.371	4352
916.483	4314
916.595	4272
916.708	4360
916.82	4344
916.932	4344
917.044	4299
917.156	4287
917.268	4242
917.38	4257
917.491	4246
917.603	4299
917.715	4409
917.826	4390
917.938	4360
918.049	4219
918.161	4402
918.272	4504
918.384	4527
918.495	4413
918.606	4280
918.717	4230
918.828	4329
918.939	4352
919.05	4230
919.161	4363
919.272	4067
919.383	4207
919.494	4466
919.604	4584
919.715	4394
919.826	4303
919.936	4367
920.047	4485
920.157	4489
920.267	4634
920.378	4554
920.488	4516
920.598	4694
920.708	4885
920.818	4767
920.928	4755
921.038	4949
921.148	4873
921.258	4626
921.368	4588
921.477	4497
921.587	4455
921.697	4341
921.806	4527
921.916	4440
922.025	4272
922.134	4238
922.244	4196
922.353	4348
922.462	4177
922.571	4131
922.68	4021
922.789	3972
922.898	3998
923.007	4017
923.116	4055
923.224	4078
923.333	4025
923.442	4010
923.55	3964
923.659	4071
923.767	4162
923.876	3987
923.984	4158
924.092	3968
924.201	4097
924.309	4109
924.417	4177
924.525	4112
924.633	4101
924.741	4904
924.849	3918
924.956	4150
925.064	3975
925.172	3937
925.279	3998
925.387	4059
925.494	4086
925.602	4234
925.709	4238
925.816	4067
925.924	4166
926.031	4261
926.138	4207
926.245	4234
926.352	4105
926.459	4238
926.566	4367
926.673	4196
926.779	4131
926.886	4116
926.993	4021
927.099	4002
927.206	3983
927.312	3968
927.419	4090
927.525	4067
927.631	4173
927.737	4059
927.843	4021
927.95	3903
928.056	3994
928.162	3998
928.267	4078
928.373	4641
928.479	4169
928.585	3945
928.69	4051
928.796	4090
928.901	4021
929.007	3869
929.112	4063
929.218	4017
929.323	3956
929.428	3899
929.533	4154
929.638	3945
929.743	3991
929.848	4078
929.953	4032
930.058	3960
930.163	3804
930.267	3888
930.372	4029
930.477	3819
930.581	4090
930.685	3987
930.79	3865
930.894	3922
930.998	3899
931.103	4067
931.207	3717
931.311	3713
931.415	3709
931.519	3561
931.623	3580
