Data from test_V78500241_675.txt Node
Date: Fri Mar 25 16:53:41 CST 2022
User: usil
Spectrometer: V785-0024
Trigger mode: 0
Integration Time (sec): 4.000000E-1
Scans to average: 1
Nonlinearity correction enabled: false
Boxcar width: 0
Storing dark spectrum: false
XAxis mode: Wavelengths
Number of Pixels in Spectrum: 1024
>>>>>Begin Spectral Data<<<<<
801.071	8046
801.214	8035
801.356	7955
801.499	7868
801.641	7788
801.783	7833
801.926	8035
802.068	7947
802.211	8039
802.353	8035
802.496	7993
802.638	7951
802.78	8008
802.923	7913
803.065	7864
803.208	7890
803.35	8024
803.492	8142
803.635	8172
803.777	8088
803.919	8164
804.061	8446
804.204	8191
804.346	8050
804.488	8035
804.63	8134
804.773	8008
804.915	8145
805.057	8355
805.199	8191
805.341	8244
805.483	8286
805.626	8237
805.768	8164
805.91	8237
806.052	8210
806.194	8115
806.336	8271
806.478	8081
806.62	8153
806.762	8225
806.904	8301
807.046	8556
807.188	8431
807.33	8358
807.472	8332
807.614	8210
807.756	8138
807.898	7989
808.04	7833
808.182	7913
808.324	7955
808.465	7947
808.607	8115
808.749	8107
808.891	8191
809.033	8221
809.174	8267
809.316	8069
809.458	8046
809.6	8001
809.741	8084
809.883	8050
810.025	8145
810.166	8107
810.308	8046
810.45	8065
810.591	7947
810.733	7788
810.875	7731
811.016	7567
811.158	7540
811.299	7578
811.441	7742
811.582	7685
811.724	7578
811.865	7548
812.007	7590
812.148	7693
812.29	7578
812.431	7723
812.573	7887
812.714	7951
812.855	8073
812.997	8229
813.138	8362
813.279	8271
813.421	8161
813.562	8020
813.703	7925
813.845	7803
813.986	7544
814.127	7335
814.268	7244
814.41	7202
814.551	7149
814.692	7137
814.833	7076
814.974	7099
815.115	7149
815.256	7019
815.397	7000
815.539	6951
815.68	6772
815.821	6840
815.962	6856
816.103	6871
816.244	6734
816.385	6684
816.526	6589
816.666	6426
816.807	6327
816.948	6388
817.089	6490
817.23	6464
817.371	6376
817.512	6403
817.653	6479
817.793	6353
817.934	6437
818.075	6525
818.216	6456
818.356	6410
818.497	6304
818.638	6110
818.778	6190
818.919	6110
819.06	6197
819.2	6369
819.341	6331
819.481	6350
819.622	6578
819.762	6779
819.903	6730
820.043	6589
820.184	6601
820.324	6528
820.465	6715
820.605	6650
820.746	6654
820.886	6513
821.026	6711
821.167	6700
821.307	6776
821.447	6810
821.588	6665
821.728	6582
821.868	6460
822.008	6300
822.149	6399
822.289	6395
822.429	6175
822.569	6159
822.709	6121
822.849	5931
822.99	5878
823.13	5988
823.27	5946
823.41	5805
823.55	5805
823.69	5722
823.83	5851
823.97	5688
824.11	5581
824.25	5493
824.389	5554
824.529	5585
824.669	5570
824.809	5604
824.949	5657
825.089	5699
825.228	5642
825.368	5402
825.508	5349
825.648	5368
825.787	5406
825.927	5334
826.067	5349
826.206	5299
826.346	5414
826.485	5387
826.625	5471
826.765	5573
826.904	5448
827.044	5265
827.183	5227
827.323	5174
827.462	5334
827.601	5166
827.741	5193
827.88	5254
828.02	5136
828.159	5261
828.298	5322
828.437	5357
828.577	5345
828.716	5524
828.855	5303
828.994	5166
829.134	5201
829.273	5189
829.412	5204
829.551	5128
829.69	5128
829.829	5227
829.968	5353
830.107	5322
830.246	5227
830.385	5181
830.524	5136
830.663	5094
830.802	5014
830.941	4847
831.08	4915
831.219	4999
831.357	4987
831.496	5170
831.635	4961
831.774	4858
831.913	4881
832.051	4767
832.19	4801
832.329	4870
832.467	4687
832.606	4607
832.744	4706
832.883	4733
833.022	4683
833.16	4812
833.299	4843
833.437	4790
833.576	4889
833.714	4801
833.852	4938
833.991	4911
834.129	4961
834.267	4987
834.406	4900
834.544	4938
834.682	4980
834.821	4991
834.959	5193
835.097	4946
835.235	5117
835.373	5155
835.511	5128
835.65	4984
835.788	5052
835.926	4927
836.064	4896
836.202	4957
836.34	5223
836.478	5273
836.615	5197
836.753	5227
836.891	5326
837.029	5258
837.167	5212
837.305	5197
837.443	5151
837.58	5086
837.718	5277
837.856	5220
837.993	5174
838.131	5277
838.269	5239
838.406	5220
838.544	5155
838.681	5056
838.819	5048
838.956	4927
839.094	4930
839.231	4965
839.369	5121
839.506	5448
839.643	5250
839.781	5083
839.918	5022
840.055	5098
840.193	5136
840.33	5098
840.467	5124
840.604	5246
840.742	5444
840.879	5067
841.016	5102
841.153	5162
841.29	5322
841.427	5315
841.564	5280
841.701	5425
841.838	5239
841.975	5280
842.112	5235
842.249	5170
842.385	5071
842.522	5353
842.659	5159
842.796	5197
842.933	5223
843.069	5246
843.206	5185
843.343	5273
843.479	5273
843.616	5303
843.752	4999
843.889	4999
844.025	5235
844.162	5025
844.298	5185
844.435	5060
844.571	5033
844.708	5193
844.844	5326
844.98	5368
845.117	5357
845.253	5151
845.389	5105
845.525	5170
845.661	5178
845.798	5064
845.934	5166
846.07	5014
846.206	5178
846.342	5299
846.478	5166
846.614	5014
846.75	4972
846.886	4892
847.022	5201
847.158	5041
847.294	5090
847.429	5151
847.565	5052
847.701	5292
847.837	4923
847.972	4831
848.108	4968
848.244	4938
848.379	4793
848.515	4752
848.65	4744
848.786	4721
848.921	4843
849.057	4881
849.192	4919
849.328	4778
849.463	4873
849.598	4805
849.734	4786
849.869	4691
850.004	4607
850.14	4683
850.275	4675
850.41	4531
850.545	4569
850.68	4626
850.815	4618
850.95	4630
851.085	4820
851.22	4774
851.355	4687
851.49	4630
851.625	4683
851.76	4611
851.895	4577
852.03	4538
852.165	4679
852.299	4733
852.434	4797
852.569	4782
852.703	4774
852.838	4820
852.973	4934
853.107	4942
853.242	4702
853.376	4698
853.511	4641
853.645	4607
853.78	4793
853.914	4714
854.048	4706
854.183	4607
854.317	4710
854.451	4870
854.585	4740
854.72	4664
854.854	4786
854.988	4592
855.122	4634
855.256	4508
855.39	4634
855.524	4782
855.658	4740
855.792	4710
855.926	4687
856.06	4752
856.194	4793
856.327	4641
856.461	4630
856.595	4660
856.729	4599
856.862	4793
856.996	4698
857.13	4755
857.263	4748
857.397	4797
857.53	4668
857.664	4748
857.797	4805
857.931	4790
858.064	4691
858.197	4752
858.331	4675
858.464	4596
858.597	4474
858.731	4634
858.864	4664
858.997	4630
859.13	4675
859.263	4721
859.396	4706
859.529	4630
859.662	4569
859.795	4538
859.928	4649
860.061	4816
860.194	4793
860.327	4596
860.46	4565
860.592	4710
860.725	4725
860.858	4755
860.99	4607
861.123	4500
861.256	4546
861.388	4603
861.521	5208
861.653	4550
861.786	4485
861.918	4436
862.05	4542
862.183	4577
862.315	4580
862.447	4660
862.58	4535
862.712	4451
862.844	4337
862.976	4455
863.108	4428
863.24	4904
863.372	4337
863.504	4459
863.636	4398
863.768	4512
863.9	4394
864.032	4394
864.164	4413
864.296	4474
864.428	4519
864.559	4569
864.691	4542
864.823	4523
864.954	4500
865.086	4516
865.217	4440
865.349	4394
865.48	4428
865.612	4436
865.743	4622
865.875	4466
866.006	4440
866.137	4485
866.269	4451
866.4	4421
866.531	4478
866.662	4398
866.793	4390
866.924	4371
867.055	4489
867.186	4440
867.317	4440
867.448	4398
867.579	4398
867.71	4379
867.841	4360
867.972	4447
868.103	4478
868.233	4466
868.364	4478
868.495	4512
868.625	4691
868.756	4752
868.886	4561
869.017	4596
869.147	4778
869.278	4782
869.408	4653
869.539	4675
869.669	4698
869.799	4660
869.929	4763
870.06	4679
870.19	4927
870.32	4968
870.45	4930
870.58	5045
870.71	5083
870.84	5071
870.97	4938
871.1	4927
871.23	5117
871.36	5128
871.489	5010
871.619	5071
871.749	5094
871.879	5140
872.008	5193
872.138	5064
872.267	4972
872.397	4843
872.526	4824
872.656	4717
872.785	4816
872.915	4949
873.044	5060
873.173	4919
873.303	4927
873.432	5010
873.561	4999
873.69	4866
873.819	4831
873.948	4965
874.077	4839
874.206	4755
874.335	4831
874.464	4927
874.593	5037
874.722	4961
874.851	5124
874.979	5037
875.108	5045
875.237	4866
875.365	4850
875.494	4873
875.623	4991
875.751	4805
875.88	4911
876.008	4968
876.136	5037
876.265	5231
876.393	5318
876.521	5261
876.65	5220
876.778	5174
876.906	5113
877.034	5033
877.162	5083
877.29	5003
877.418	5067
877.546	5083
877.674	5048
877.802	5056
877.93	5029
878.058	4923
878.185	4892
878.313	4961
878.441	4980
878.568	4812
878.696	4870
878.824	4946
878.951	5014
879.079	5071
879.206	5307
879.333	5140
879.461	4942
879.588	5067
879.715	5178
879.842	5162
879.97	4987
880.097	4843
880.224	4748
880.351	4809
880.478	4820
880.605	4752
880.732	4816
880.859	5159
880.986	4889
881.112	4911
881.239	4797
881.366	4683
881.493	4588
881.619	4599
881.746	4672
881.872	4675
881.999	4618
882.125	4691
882.252	4748
882.378	4839
882.505	4927
882.631	4824
882.757	4672
882.883	4748
883.01	4675
883.136	4679
883.262	4615
883.388	4637
883.514	4835
883.64	4870
883.766	4763
883.892	4687
884.018	4714
884.143	4862
884.269	4991
884.395	4706
884.52	4611
884.646	4660
884.772	4607
884.897	4554
885.023	4660
885.148	4820
885.274	4885
885.399	4786
885.524	4706
885.65	4729
885.775	4759
885.9	4733
886.025	4847
886.15	4839
886.275	4748
886.4	4672
886.525	4752
886.65	4687
886.775	4672
886.9	4866
887.025	5014
887.149	4793
887.274	4691
887.399	4611
887.523	4618
887.648	4599
887.773	4637
887.897	4782
888.021	4763
888.146	4668
888.27	4778
888.395	4938
888.519	4835
888.643	4847
888.767	4847
888.891	4664
889.015	4588
889.139	4672
889.263	4634
889.387	4736
889.511	4828
889.635	4736
889.759	4641
889.883	4653
890.006	4748
890.13	4797
890.254	4634
890.377	4630
890.501	4527
890.624	4500
890.748	4634
890.871	4493
890.995	4390
891.118	4363
891.241	4538
891.364	4504
891.488	4634
891.611	4550
891.734	4504
891.857	4565
891.98	4546
892.103	4679
892.226	4584
892.349	4527
892.471	4432
892.594	4550
892.717	4538
892.839	4561
892.962	4626
893.085	4672
893.207	4584
893.33	4447
893.452	4500
893.575	4664
893.697	4580
893.819	4778
893.941	4835
894.064	4805
894.186	4523
894.308	4615
894.43	4797
894.552	4812
894.674	4759
894.796	4554
894.918	4592
895.04	4558
895.161	4687
895.283	4706
895.405	4538
895.526	4679
895.648	4725
895.769	4645
895.891	4733
896.012	4694
896.134	4774
896.255	4649
896.376	4634
896.498	4580
896.619	4660
896.74	4622
896.861	4653
896.982	4915
897.103	5105
897.224	4801
897.345	4759
897.466	4664
897.587	4660
897.708	4862
897.828	4759
897.949	4672
898.07	4603
898.19	4664
898.311	4847
898.431	4668
898.552	4782
898.672	4862
898.792	4748
898.913	4725
899.033	4618
899.153	4519
899.273	4459
899.393	4497
899.513	4546
899.633	4546
899.753	4573
899.873	4523
899.993	4538
900.113	4535
900.232	4565
900.352	4565
900.472	4459
900.591	4383
900.711	4413
900.83	4440
900.95	4558
901.069	4679
901.189	4599
901.308	4417
901.427	4306
901.546	4383
901.665	4455
901.784	4497
901.904	4375
902.023	4333
902.141	4173
902.26	4169
902.379	4253
902.498	4230
902.617	4223
902.735	4390
902.854	4421
902.973	4352
903.091	4158
903.21	4253
903.328	4303
903.446	4276
903.565	4230
903.683	4356
903.801	4284
903.919	4371
904.038	4428
904.156	4268
904.274	4390
904.392	4432
904.51	4443
904.627	4443
904.745	4542
904.863	4645
904.981	4421
905.098	4287
905.216	4379
905.334	4462
905.451	4428
905.569	4440
905.686	4573
905.803	4523
905.921	4436
906.038	4573
906.155	4470
906.272	4383
906.389	4500
906.506	4379
906.623	4417
906.74	4413
906.857	4299
906.974	4402
907.091	4561
907.208	4687
907.324	4542
907.441	4462
907.557	4363
907.674	4325
907.79	4371
907.907	4379
908.023	4497
908.139	4470
908.256	4428
908.372	4451
908.488	4485
908.604	4337
908.72	4367
908.836	4344
908.952	4379
909.068	4409
909.184	4603
909.3	4455
909.415	4599
909.531	4550
909.647	4348
909.762	4371
909.878	4314
909.993	4436
910.108	4440
910.224	4409
910.339	4428
910.454	4421
910.57	4383
910.685	4272
910.8	4656
910.915	4611
911.03	4535
911.145	4325
911.259	4337
911.374	4348
911.489	4284
911.604	4253
911.718	4135
911.833	4196
911.947	4086
912.062	4036
912.176	4238
912.291	4253
912.405	4261
912.519	4462
912.633	4512
912.748	4333
912.862	4303
912.976	4215
913.09	4071
913.204	4162
913.318	4253
913.431	4383
913.545	4352
913.659	4440
913.772	4390
913.886	4265
914	4207
914.113	4348
914.226	4474
914.34	4413
914.453	4272
914.566	4402
914.68	4318
914.793	4310
914.906	4169
915.019	4143
915.132	4093
915.245	4158
915.358	4196
915.47	4207
915.583	4265
915.696	4310
915.809	4398
915.921	4417
916.034	4272
916.146	4257
916.259	4207
916.371	4337
916.483	4367
916.595	4242
916.708	4295
916.82	4333
916.932	4352
917.044	4318
917.156	4322
917.268	4242
917.38	4272
917.491	4265
917.603	4375
917.715	4402
917.826	4447
917.938	4352
918.049	4253
918.161	4390
918.272	4577
918.384	4489
918.495	4459
918.606	4325
918.717	4230
918.828	4348
918.939	4356
919.05	4268
919.161	4295
919.272	4116
919.383	4246
919.494	4443
919.604	4588
919.715	4443
919.826	4363
919.936	4413
920.047	4493
920.157	4516
920.267	4675
920.378	4554
920.488	4493
920.598	4759
920.708	4911
920.818	4752
920.928	4759
921.038	4961
921.148	4900
921.258	4596
921.368	4550
921.477	4447
921.587	4443
921.697	4402
921.806	4584
921.916	4443
922.025	4287
922.134	4280
922.244	4272
922.353	4325
922.462	4139
922.571	4173
922.68	4006
922.789	3994
922.898	4074
923.007	3964
923.116	4101
923.224	4055
923.333	4090
923.442	3987
923.55	4013
923.659	4044
923.767	4109
923.876	4006
923.984	4158
924.092	3949
924.201	4059
924.309	4097
924.417	4093
924.525	4032
924.633	4086
924.741	5079
924.849	3903
924.956	4162
925.064	3956
925.172	3907
925.279	3945
925.387	4055
925.494	4086
925.602	4211
925.709	4162
925.816	4025
925.924	4120
926.031	4242
926.138	4150
926.245	4234
926.352	4086
926.459	4227
926.566	4318
926.673	4143
926.779	4048
926.886	4078
926.993	3994
927.099	3968
927.206	3884
927.312	3945
927.419	4017
927.525	4036
927.631	4097
927.737	3930
927.843	3915
927.95	3846
928.056	3949
928.162	3964
928.267	4048
928.373	4645
928.479	4090
928.585	3869
928.69	4017
928.796	4086
928.901	3994
929.007	3831
929.112	3994
929.218	3972
929.323	3922
929.428	3926
929.533	4071
929.638	3892
929.743	3915
929.848	4063
929.953	3979
930.058	3975
930.163	3770
930.267	3850
930.372	3926
930.477	3827
930.581	4063
930.685	3964
930.79	3823
930.894	3846
930.998	3861
931.103	4021
931.207	3751
931.311	3648
931.415	3690
931.519	3526
931.623	3515
