Data from test_V78500241_2649.txt Node
Date: Fri Mar 25 17:07:25 CST 2022
User: usil
Spectrometer: V785-0024
Trigger mode: 0
Integration Time (sec): 4.000000E-1
Scans to average: 1
Nonlinearity correction enabled: false
Boxcar width: 0
Storing dark spectrum: false
XAxis mode: Wavelengths
Number of Pixels in Spectrum: 1024
>>>>>Begin Spectral Data<<<<<
801.071	7997
801.214	7967
801.356	7887
801.499	7845
801.641	7769
801.783	7818
801.926	7951
802.068	7936
802.211	7997
802.353	8008
802.496	7864
802.638	7913
802.78	7944
802.923	7967
803.065	7894
803.208	7833
803.35	7928
803.492	8149
803.635	8145
803.777	8005
803.919	8164
804.061	8412
804.204	8130
804.346	8100
804.488	7940
804.63	8058
804.773	7940
804.915	8100
805.057	8294
805.199	8195
805.341	8183
805.483	8370
805.626	8290
805.768	8142
805.91	8237
806.052	8126
806.194	8126
806.336	8267
806.478	8035
806.62	7967
806.762	8107
806.904	8237
807.046	8492
807.188	8313
807.33	8286
807.472	8328
807.614	8191
807.756	8096
807.898	8081
808.04	7868
808.182	7883
808.324	7883
808.465	7940
808.607	8103
808.749	8134
808.891	8199
809.033	8237
809.174	8191
809.316	8016
809.458	8081
809.6	8031
809.741	8054
809.883	8069
810.025	8123
810.166	8054
810.308	8062
810.45	8050
810.591	7875
810.733	7746
810.875	7658
811.016	7552
811.158	7468
811.299	7571
811.441	7704
811.582	7685
811.724	7521
811.865	7578
812.007	7643
812.148	7590
812.29	7632
812.431	7715
812.573	7860
812.714	7955
812.855	8134
812.997	8244
813.138	8374
813.279	8115
813.421	8081
813.562	8024
813.703	7868
813.845	7727
813.986	7476
814.127	7297
814.268	7202
814.41	7198
814.551	7179
814.692	7164
814.833	7129
814.974	7080
815.115	7110
815.256	7038
815.397	6954
815.539	6962
815.68	6829
815.821	6795
815.962	6878
816.103	6798
816.244	6738
816.385	6688
816.526	6639
816.666	6486
816.807	6289
816.948	6475
817.089	6483
817.23	6471
817.371	6403
817.512	6380
817.653	6384
817.793	6372
817.934	6399
818.075	6452
818.216	6445
818.356	6388
818.497	6304
818.638	6163
818.778	6190
818.919	6186
819.06	6171
819.2	6304
819.341	6285
819.481	6361
819.622	6547
819.762	6715
819.903	6722
820.043	6627
820.184	6582
820.324	6585
820.465	6700
820.605	6654
820.746	6684
820.886	6563
821.026	6738
821.167	6734
821.307	6795
821.447	6787
821.588	6669
821.728	6635
821.868	6521
822.008	6353
822.149	6410
822.289	6422
822.429	6190
822.569	6129
822.709	6079
822.849	5977
822.99	5931
823.13	5958
823.27	5935
823.41	5847
823.55	5760
823.69	5737
823.83	5794
823.97	5718
824.11	5581
824.25	5505
824.389	5558
824.529	5573
824.669	5493
824.809	5573
824.949	5615
825.089	5592
825.228	5573
825.368	5452
825.508	5383
825.648	5364
825.787	5410
825.927	5353
826.067	5311
826.206	5315
826.346	5322
826.485	5425
826.625	5391
826.765	5562
826.904	5455
827.044	5269
827.183	5174
827.323	5109
827.462	5280
827.601	5181
827.741	5189
827.88	5155
828.02	5121
828.159	5273
828.298	5322
828.437	5410
828.577	5254
828.716	5505
828.855	5303
828.994	5159
829.134	5178
829.273	5197
829.412	5151
829.551	5128
829.69	5178
829.829	5246
829.968	5402
830.107	5250
830.246	5189
830.385	5140
830.524	5201
830.663	5071
830.802	4961
830.941	4873
831.08	4908
831.219	4965
831.357	4934
831.496	5155
831.635	4919
831.774	4873
831.913	4870
832.051	4740
832.19	4755
832.329	4820
832.467	4714
832.606	4634
832.744	4729
832.883	4694
833.022	4702
833.16	4812
833.299	4828
833.437	4839
833.576	4862
833.714	4843
833.852	4831
833.991	4873
834.129	4942
834.267	4946
834.406	4930
834.544	5010
834.682	4965
834.821	4957
834.959	5132
835.097	4961
835.235	5193
835.373	5045
835.511	5056
835.65	5018
835.788	5060
835.926	4911
836.064	4850
836.202	4934
836.34	5147
836.478	5212
836.615	5132
836.753	5197
836.891	5284
837.029	5212
837.167	5231
837.305	5128
837.443	5143
837.58	5121
837.718	5189
837.856	5162
837.993	5128
838.131	5277
838.269	5239
838.406	5220
838.544	5201
838.681	5041
838.819	5018
838.956	4881
839.094	4854
839.231	4938
839.369	5079
839.506	5398
839.643	5284
839.781	5060
839.918	4972
840.055	5079
840.193	5086
840.33	5105
840.467	5117
840.604	5189
840.742	5406
840.879	5064
841.016	5071
841.153	5147
841.29	5357
841.427	5322
841.564	5322
841.701	5364
841.838	5254
841.975	5242
842.112	5189
842.249	5178
842.385	5128
842.522	5318
842.659	5193
842.796	5147
842.933	5220
843.069	5189
843.206	5208
843.343	5341
843.479	5227
843.616	5265
843.752	5003
843.889	4957
844.025	5201
844.162	5014
844.298	5208
844.435	5071
844.571	4980
844.708	5242
844.844	5357
844.98	5322
845.117	5277
845.253	5185
845.389	5083
845.525	5136
845.661	5174
845.798	5006
845.934	5151
846.07	5025
846.206	5201
846.342	5273
846.478	5193
846.614	5014
846.75	4953
846.886	4995
847.022	5132
847.158	5048
847.294	5105
847.429	5117
847.565	5018
847.701	5326
847.837	4870
847.972	4786
848.108	4953
848.244	4961
848.379	4736
848.515	4740
848.65	4717
848.786	4790
848.921	4782
849.057	4850
849.192	4923
849.328	4839
849.463	4858
849.598	4805
849.734	4778
849.869	4740
850.004	4615
850.14	4653
850.275	4656
850.41	4481
850.545	4603
850.68	4561
850.815	4626
850.95	4634
851.085	4843
851.22	4767
851.355	4683
851.49	4618
851.625	4630
851.76	4649
851.895	4531
852.03	4531
852.165	4630
852.299	4733
852.434	4755
852.569	4790
852.703	4782
852.838	4847
852.973	4938
853.107	4938
853.242	4714
853.376	4649
853.511	4569
853.645	4592
853.78	4820
853.914	4645
854.048	4675
854.183	4668
854.317	4717
854.451	4835
854.585	4740
854.72	4599
854.854	4733
854.988	4603
855.122	4649
855.256	4554
855.39	4637
855.524	4786
855.658	4729
855.792	4698
855.926	4706
856.06	4717
856.194	4828
856.327	4683
856.461	4622
856.595	4596
856.729	4645
856.862	4748
856.996	4660
857.13	4733
857.263	4805
857.397	4771
857.53	4641
857.664	4714
857.797	4721
857.931	4774
858.064	4694
858.197	4771
858.331	4626
858.464	4596
858.597	4542
858.731	4622
858.864	4592
858.997	4592
859.13	4668
859.263	4649
859.396	4683
859.529	4611
859.662	4558
859.795	4535
859.928	4618
860.061	4847
860.194	4759
860.327	4611
860.46	4599
860.592	4733
860.725	4721
860.858	4763
860.99	4546
861.123	4485
861.256	4580
861.388	4630
861.521	5421
861.653	4447
861.786	4451
861.918	4436
862.05	4497
862.183	4580
862.315	4626
862.447	4622
862.58	4538
862.712	4379
862.844	4344
862.976	4462
863.108	4470
863.24	4771
863.372	4337
863.504	4447
863.636	4440
863.768	4474
863.9	4413
864.032	4367
864.164	4405
864.296	4428
864.428	4485
864.559	4546
864.691	4500
864.823	4519
864.954	4512
865.086	4508
865.217	4489
865.349	4409
865.48	4497
865.612	4493
865.743	4664
865.875	4474
866.006	4398
866.137	4466
866.269	4424
866.4	4424
866.531	4421
866.662	4440
866.793	4402
866.924	4417
867.055	4481
867.186	4428
867.317	4443
867.448	4363
867.579	4360
867.71	4436
867.841	4356
867.972	4504
868.103	4459
868.233	4421
868.364	4455
868.495	4481
868.625	4706
868.756	4714
868.886	4573
869.017	4626
869.147	4748
869.278	4752
869.408	4691
869.539	4634
869.669	4683
869.799	4679
869.929	4733
870.06	4767
870.19	4946
870.32	4930
870.45	4908
870.58	4991
870.71	5075
870.84	5098
870.97	4949
871.1	4881
871.23	5151
871.36	5151
871.489	5045
871.619	5014
871.749	5113
871.879	5143
872.008	5201
872.138	5098
872.267	4984
872.397	4847
872.526	4835
872.656	4683
872.785	4778
872.915	4968
873.044	5041
873.173	4915
873.303	5010
873.432	4972
873.561	4976
873.69	4892
873.819	4843
873.948	4904
874.077	4824
874.206	4801
874.335	4801
874.464	4934
874.593	5052
874.722	4953
874.851	5083
874.979	5056
875.108	5037
875.237	4900
875.365	4850
875.494	4889
875.623	4938
875.751	4835
875.88	4915
876.008	4995
876.136	5067
876.265	5212
876.393	5383
876.521	5280
876.65	5235
876.778	5208
876.906	5102
877.034	5014
877.162	5033
877.29	4976
877.418	4987
877.546	5075
877.674	5045
877.802	5056
877.93	4965
878.058	4961
878.185	4896
878.313	4957
878.441	4984
878.568	4782
878.696	4908
878.824	4976
878.951	5052
879.079	5121
879.206	5303
879.333	5079
879.461	5006
879.588	5010
879.715	5109
879.842	5235
879.97	4976
880.097	4809
880.224	4774
880.351	4843
880.478	4801
880.605	4782
880.732	4820
880.859	5060
880.986	4915
881.112	4930
881.239	4771
881.366	4668
881.493	4626
881.619	4546
881.746	4637
881.872	4656
881.999	4660
882.125	4675
882.252	4805
882.378	4816
882.505	4946
882.631	4816
882.757	4694
882.883	4752
883.01	4683
883.136	4717
883.262	4588
883.388	4592
883.514	4850
883.64	4866
883.766	4820
883.892	4641
884.018	4725
884.143	4896
884.269	5029
884.395	4694
884.52	4599
884.646	4626
884.772	4584
884.897	4493
885.023	4641
885.148	4793
885.274	4877
885.399	4797
885.524	4767
885.65	4653
885.775	4733
885.9	4675
886.025	4843
886.15	4755
886.275	4698
886.4	4660
886.525	4736
886.65	4649
886.775	4694
886.9	4930
887.025	5006
887.149	4782
887.274	4694
887.399	4649
887.523	4561
887.648	4554
887.773	4577
887.897	4748
888.021	4782
888.146	4710
888.27	4801
888.395	4900
888.519	4820
888.643	4767
888.767	4870
888.891	4679
889.015	4603
889.139	4660
889.263	4626
889.387	4767
889.511	4892
889.635	4767
889.759	4653
889.883	4649
890.006	4759
890.13	4778
890.254	4656
890.377	4664
890.501	4569
890.624	4558
890.748	4626
890.871	4497
890.995	4405
891.118	4428
891.241	4516
891.364	4535
891.488	4618
891.611	4481
891.734	4569
891.857	4634
891.98	4519
892.103	4630
892.226	4573
892.349	4516
892.471	4459
892.594	4516
892.717	4622
892.839	4565
892.962	4641
893.085	4603
893.207	4615
893.33	4440
893.452	4550
893.575	4675
893.697	4569
893.819	4755
893.941	4831
894.064	4778
894.186	4615
894.308	4558
894.43	4729
894.552	4790
894.674	4729
894.796	4538
894.918	4554
895.04	4596
895.161	4683
895.283	4645
895.405	4546
895.526	4649
895.648	4672
895.769	4717
895.891	4698
896.012	4740
896.134	4736
896.255	4630
896.376	4626
896.498	4622
896.619	4687
896.74	4622
896.861	4622
896.982	4923
897.103	5033
897.224	4782
897.345	4733
897.466	4672
897.587	4729
897.708	4870
897.828	4793
897.949	4653
898.07	4584
898.19	4607
898.311	4797
898.431	4641
898.552	4725
898.672	4847
898.792	4786
898.913	4740
899.033	4630
899.153	4519
899.273	4443
899.393	4493
899.513	4516
899.633	4523
899.753	4546
899.873	4447
899.993	4596
900.113	4504
900.232	4588
900.352	4546
900.472	4485
900.591	4375
900.711	4512
900.83	4440
900.95	4615
901.069	4637
901.189	4569
901.308	4337
901.427	4322
901.546	4386
901.665	4451
901.784	4592
901.904	4375
902.023	4341
902.141	4192
902.26	4166
902.379	4318
902.498	4261
902.617	4204
902.735	4394
902.854	4352
902.973	4375
903.091	4185
903.21	4200
903.328	4287
903.446	4287
903.565	4253
903.683	4367
903.801	4253
903.919	4424
904.038	4417
904.156	4280
904.274	4443
904.392	4405
904.51	4409
904.627	4459
904.745	4577
904.863	4626
904.981	4417
905.098	4287
905.216	4394
905.334	4390
905.451	4409
905.569	4455
905.686	4565
905.803	4577
905.921	4394
906.038	4523
906.155	4455
906.272	4390
906.389	4474
906.506	4386
906.623	4390
906.74	4356
906.857	4276
906.974	4417
907.091	4565
907.208	4687
907.324	4626
907.441	4516
907.557	4352
907.674	4306
907.79	4295
907.907	4360
908.023	4440
908.139	4447
908.256	4390
908.372	4481
908.488	4466
908.604	4394
908.72	4348
908.836	4367
908.952	4390
909.068	4443
909.184	4584
909.3	4512
909.415	4573
909.531	4577
909.647	4371
909.762	4329
909.878	4367
909.993	4493
910.108	4417
910.224	4424
910.339	4474
910.454	4432
910.57	4348
910.685	4268
910.8	4641
910.915	4577
911.03	4531
911.145	4314
911.259	4333
911.374	4375
911.489	4333
911.604	4284
911.718	4139
911.833	4207
911.947	4086
912.062	4040
912.176	4192
912.291	4211
912.405	4238
912.519	4470
912.633	4531
912.748	4333
912.862	4265
912.976	4166
913.09	4097
913.204	4185
913.318	4287
913.431	4390
913.545	4386
913.659	4432
913.772	4363
913.886	4253
914	4200
914.113	4360
914.226	4470
914.34	4386
914.453	4249
914.566	4428
914.68	4276
914.793	4348
914.906	4135
915.019	4147
915.132	4090
915.245	4177
915.358	4215
915.47	4280
915.583	4284
915.696	4257
915.809	4428
915.921	4405
916.034	4253
916.146	4242
916.259	4230
916.371	4375
916.483	4363
916.595	4230
916.708	4356
916.82	4291
916.932	4318
917.044	4295
917.156	4348
917.268	4242
917.38	4325
917.491	4257
917.603	4310
917.715	4383
917.826	4405
917.938	4356
918.049	4291
918.161	4348
918.272	4531
918.384	4527
918.495	4421
918.606	4303
918.717	4181
918.828	4348
918.939	4356
919.05	4268
919.161	4299
919.272	4196
919.383	4223
919.494	4409
919.604	4653
919.715	4413
919.826	4371
919.936	4405
920.047	4542
920.157	4489
920.267	4710
920.378	4546
920.488	4481
920.598	4733
920.708	4870
920.818	4774
920.928	4744
921.038	4991
921.148	4889
921.258	4664
921.368	4554
921.477	4485
921.587	4512
921.697	4386
921.806	4523
921.916	4451
922.025	4310
922.134	4265
922.244	4166
922.353	4325
922.462	4162
922.571	4105
922.68	3983
922.789	3987
922.898	4059
923.007	4017
923.116	4097
923.224	4063
923.333	4067
923.442	4036
923.55	3983
923.659	3991
923.767	4101
923.876	3960
923.984	4116
924.092	3926
924.201	4051
924.309	4074
924.417	4124
924.525	4082
924.633	4101
924.741	5045
924.849	3888
924.956	4135
925.064	3960
925.172	3922
925.279	3956
925.387	4074
925.494	4013
925.602	4207
925.709	4166
925.816	4048
925.924	4166
926.031	4223
926.138	4185
926.245	4196
926.352	4074
926.459	4227
926.566	4322
926.673	4143
926.779	4097
926.886	4017
926.993	4017
927.099	3937
927.206	3945
927.312	3934
927.419	4078
927.525	4051
927.631	4074
927.737	3972
927.843	3934
927.95	3812
928.056	3949
928.162	3972
928.267	4067
928.373	4580
928.479	4139
928.585	3865
928.69	4017
928.796	4112
928.901	3979
929.007	3880
929.112	3994
929.218	3934
929.323	3964
929.428	3945
929.533	4128
929.638	3903
929.743	3934
929.848	4032
929.953	3945
930.058	3960
930.163	3762
930.267	3808
930.372	3953
930.477	3781
930.581	4093
930.685	3953
930.79	3869
930.894	3873
930.998	3857
931.103	4013
931.207	3720
931.311	3690
931.415	3671
931.519	3507
931.623	3515
