Data from test_V78500241_1289.txt Node
Date: Fri Mar 25 16:57:57 CST 2022
User: usil
Spectrometer: V785-0024
Trigger mode: 0
Integration Time (sec): 4.000000E-1
Scans to average: 1
Nonlinearity correction enabled: false
Boxcar width: 0
Storing dark spectrum: false
XAxis mode: Wavelengths
Number of Pixels in Spectrum: 1024
>>>>>Begin Spectral Data<<<<<
801.071	7936
801.214	8084
801.356	7841
801.499	7871
801.641	7757
801.783	7784
801.926	7955
802.068	7868
802.211	7974
802.353	7951
802.496	7803
802.638	7875
802.78	7898
802.923	7944
803.065	7852
803.208	7833
803.35	7959
803.492	8092
803.635	8134
803.777	8084
803.919	8187
804.061	8423
804.204	8176
804.346	8043
804.488	7989
804.63	8046
804.773	7974
804.915	8115
805.057	8282
805.199	8172
805.341	8233
805.483	8271
805.626	8176
805.768	8069
805.91	8233
806.052	8153
806.194	8107
806.336	8256
806.478	8081
806.62	8084
806.762	8134
806.904	8233
807.046	8465
807.188	8328
807.33	8240
807.472	8355
807.614	8153
807.756	8126
807.898	8001
808.04	7894
808.182	7906
808.324	7917
808.465	7883
808.607	8123
808.749	8138
808.891	8183
809.033	8263
809.174	8191
809.316	8062
809.458	8005
809.6	8005
809.741	8062
809.883	8008
810.025	8058
810.166	8054
810.308	8031
810.45	8012
810.591	7883
810.733	7704
810.875	7616
811.016	7609
811.158	7495
811.299	7670
811.441	7731
811.582	7719
811.724	7609
811.865	7567
812.007	7571
812.148	7578
812.29	7636
812.431	7719
812.573	7894
812.714	7967
812.855	8123
812.997	8275
813.138	8282
813.279	8229
813.421	8092
813.562	7986
813.703	7849
813.845	7715
813.986	7426
814.127	7266
814.268	7213
814.41	7232
814.551	7164
814.692	7225
814.833	7046
814.974	7038
815.115	7069
815.256	6954
815.397	6924
815.539	6966
815.68	6795
815.821	6730
815.962	6829
816.103	6818
816.244	6684
816.385	6608
816.526	6635
816.666	6494
816.807	6277
816.948	6403
817.089	6494
817.23	6422
817.371	6376
817.512	6384
817.653	6403
817.793	6372
817.934	6410
818.075	6445
818.216	6399
818.356	6448
818.497	6201
818.638	6117
818.778	6163
818.919	6175
819.06	6155
819.2	6315
819.341	6323
819.481	6361
819.622	6563
819.762	6741
819.903	6658
820.043	6597
820.184	6551
820.324	6597
820.465	6654
820.605	6665
820.746	6650
820.886	6555
821.026	6658
821.167	6635
821.307	6776
821.447	6764
821.588	6623
821.728	6604
821.868	6498
822.008	6357
822.149	6357
822.289	6331
822.429	6121
822.569	6110
822.709	6171
822.849	5882
822.99	5893
823.13	5863
823.27	5889
823.41	5779
823.55	5745
823.69	5817
823.83	5783
823.97	5718
824.11	5516
824.25	5471
824.389	5547
824.529	5642
824.669	5520
824.809	5608
824.949	5676
825.089	5570
825.228	5455
825.368	5349
825.508	5345
825.648	5364
825.787	5318
825.927	5379
826.067	5318
826.206	5261
826.346	5364
826.485	5398
826.625	5410
826.765	5539
826.904	5478
827.044	5265
827.183	5189
827.323	5159
827.462	5235
827.601	5178
827.741	5216
827.88	5258
828.02	5128
828.159	5227
828.298	5284
828.437	5360
828.577	5254
828.716	5474
828.855	5311
828.994	5147
829.134	5132
829.273	5197
829.412	5170
829.551	5155
829.69	5124
829.829	5231
829.968	5360
830.107	5189
830.246	5261
830.385	5128
830.524	5155
830.663	5037
830.802	4923
830.941	4870
831.08	4831
831.219	4919
831.357	4968
831.496	5166
831.635	4957
831.774	4831
831.913	4824
832.051	4744
832.19	4767
832.329	4790
832.467	4675
832.606	4592
832.744	4691
832.883	4736
833.022	4683
833.16	4744
833.299	4786
833.437	4816
833.576	4847
833.714	4816
833.852	4820
833.991	4835
834.129	4949
834.267	4953
834.406	4904
834.544	4911
834.682	5006
834.821	4961
834.959	5155
835.097	5029
835.235	5102
835.373	5071
835.511	5052
835.65	5052
835.788	5064
835.926	4911
836.064	4881
836.202	4908
836.34	5098
836.478	5174
836.615	5117
836.753	5231
836.891	5277
837.029	5174
837.167	5151
837.305	5121
837.443	5117
837.58	5105
837.718	5197
837.856	5185
837.993	5124
838.131	5216
838.269	5227
838.406	5174
838.544	5220
838.681	5033
838.819	4984
838.956	4873
839.094	4908
839.231	5006
839.369	5079
839.506	5410
839.643	5235
839.781	5048
839.918	5041
840.055	5083
840.193	5064
840.33	5128
840.467	5147
840.604	5193
840.742	5440
840.879	5018
841.016	5102
841.153	5189
841.29	5360
841.427	5307
841.564	5334
841.701	5341
841.838	5299
841.975	5235
842.112	5265
842.249	5170
842.385	5075
842.522	5337
842.659	5174
842.796	5140
842.933	5140
843.069	5128
843.206	5117
843.343	5277
843.479	5261
843.616	5277
843.752	4987
843.889	4938
844.025	5201
844.162	5025
844.298	5178
844.435	5113
844.571	5018
844.708	5166
844.844	5296
844.98	5349
845.117	5223
845.253	5170
845.389	5079
845.525	5090
845.661	5121
845.798	5014
845.934	5121
846.07	5010
846.206	5170
846.342	5288
846.478	5166
846.614	5060
846.75	4957
846.886	4946
847.022	5060
847.158	4949
847.294	5094
847.429	5094
847.565	5041
847.701	5303
847.837	4839
847.972	4790
848.108	4946
848.244	4904
848.379	4740
848.515	4698
848.65	4672
848.786	4694
848.921	4778
849.057	4816
849.192	4854
849.328	4767
849.463	4835
849.598	4771
849.734	4748
849.869	4698
850.004	4588
850.14	4675
850.275	4618
850.41	4516
850.545	4554
850.68	4569
850.815	4569
850.95	4580
851.085	4816
851.22	4778
851.355	4626
851.49	4596
851.625	4626
851.76	4580
851.895	4588
852.03	4519
852.165	4622
852.299	4736
852.434	4748
852.569	4622
852.703	4782
852.838	4831
852.973	4911
853.107	4923
853.242	4714
853.376	4645
853.511	4531
853.645	4630
853.78	4797
853.914	4698
854.048	4691
854.183	4679
854.317	4710
854.451	4778
854.585	4694
854.72	4622
854.854	4744
854.988	4573
855.122	4615
855.256	4516
855.39	4634
855.524	4812
855.658	4725
855.792	4660
855.926	4740
856.06	4797
856.194	4805
856.327	4694
856.461	4599
856.595	4607
856.729	4596
856.862	4725
856.996	4710
857.13	4759
857.263	4725
857.397	4793
857.53	4603
857.664	4679
857.797	4763
857.931	4767
858.064	4706
858.197	4740
858.331	4618
858.464	4622
858.597	4538
858.731	4603
858.864	4637
858.997	4607
859.13	4630
859.263	4675
859.396	4679
859.529	4577
859.662	4569
859.795	4542
859.928	4596
860.061	4702
860.194	4744
860.327	4622
860.46	4588
860.592	4702
860.725	4694
860.858	4694
860.99	4531
861.123	4500
861.256	4470
861.388	4607
861.521	5178
861.653	4424
861.786	4440
861.918	4455
862.05	4519
862.183	4535
862.315	4580
862.447	4622
862.58	4542
862.712	4394
862.844	4314
862.976	4489
863.108	4432
863.24	4908
863.372	4360
863.504	4417
863.636	4375
863.768	4447
863.9	4451
864.032	4363
864.164	4413
864.296	4504
864.428	4535
864.559	4542
864.691	4508
864.823	4493
864.954	4527
865.086	4550
865.217	4470
865.349	4424
865.48	4459
865.612	4424
865.743	4641
865.875	4474
866.006	4409
866.137	4447
866.269	4428
866.4	4432
866.531	4402
866.662	4375
866.793	4428
866.924	4405
867.055	4481
867.186	4466
867.317	4402
867.448	4402
867.579	4432
867.71	4383
867.841	4341
867.972	4474
868.103	4451
868.233	4417
868.364	4409
868.495	4462
868.625	4622
868.756	4736
868.886	4558
869.017	4603
869.147	4782
869.278	4778
869.408	4668
869.539	4634
869.669	4694
869.799	4626
869.929	4778
870.06	4733
870.19	4968
870.32	4946
870.45	4930
870.58	5010
870.71	5014
870.84	5083
870.97	4934
871.1	4908
871.23	5094
871.36	5086
871.489	5048
871.619	5022
871.749	5056
871.879	5113
872.008	5105
872.138	5060
872.267	5003
872.397	4854
872.526	4805
872.656	4668
872.785	4805
872.915	4938
873.044	5033
873.173	4915
873.303	4942
873.432	4949
873.561	4961
873.69	4881
873.819	4843
873.948	4934
874.077	4809
874.206	4740
874.335	4771
874.464	4934
874.593	5067
874.722	4957
874.851	5029
874.979	5010
875.108	5048
875.237	4862
875.365	4835
875.494	4847
875.623	4923
875.751	4877
875.88	4828
876.008	4995
876.136	4995
876.265	5185
876.393	5330
876.521	5246
876.65	5204
876.778	5189
876.906	5079
877.034	4999
877.162	5025
877.29	4938
877.418	5052
877.546	5041
877.674	5060
877.802	5018
877.93	5003
878.058	4915
878.185	4866
878.313	4946
878.441	4942
878.568	4778
878.696	4866
878.824	4911
878.951	4991
879.079	5102
879.206	5277
879.333	5006
879.461	4949
879.588	4957
879.715	5113
879.842	5204
879.97	5041
880.097	4717
880.224	4736
880.351	4801
880.478	4786
880.605	4771
880.732	4828
880.859	5094
880.986	4904
881.112	4934
881.239	4748
881.366	4675
881.493	4577
881.619	4565
881.746	4656
881.872	4664
881.999	4656
882.125	4698
882.252	4774
882.378	4786
882.505	4919
882.631	4801
882.757	4683
882.883	4729
883.01	4752
883.136	4656
883.262	4554
883.388	4622
883.514	4763
883.64	4885
883.766	4782
883.892	4672
884.018	4698
884.143	4900
884.269	4987
884.395	4694
884.52	4641
884.646	4656
884.772	4558
884.897	4558
885.023	4664
885.148	4763
885.274	4870
885.399	4774
885.524	4668
885.65	4706
885.775	4721
885.9	4694
886.025	4847
886.15	4763
886.275	4694
886.4	4664
886.525	4706
886.65	4630
886.775	4710
886.9	4896
887.025	5010
887.149	4805
887.274	4653
887.399	4577
887.523	4626
887.648	4531
887.773	4577
887.897	4752
888.021	4771
888.146	4664
888.27	4809
888.395	4896
888.519	4729
888.643	4828
888.767	4831
888.891	4637
889.015	4599
889.139	4641
889.263	4584
889.387	4702
889.511	4873
889.635	4805
889.759	4637
889.883	4634
890.006	4694
890.13	4801
890.254	4611
890.377	4694
890.501	4519
890.624	4504
890.748	4588
890.871	4481
890.995	4424
891.118	4348
891.241	4535
891.364	4527
891.488	4607
891.611	4455
891.734	4527
891.857	4603
891.98	4561
892.103	4618
892.226	4580
892.349	4516
892.471	4436
892.594	4558
892.717	4580
892.839	4561
892.962	4592
893.085	4656
893.207	4615
893.33	4478
893.452	4512
893.575	4645
893.697	4599
893.819	4790
893.941	4812
894.064	4668
894.186	4592
894.308	4577
894.43	4698
894.552	4736
894.674	4755
894.796	4596
894.918	4622
895.04	4554
895.161	4679
895.283	4653
895.405	4512
895.526	4569
895.648	4668
895.769	4653
895.891	4736
896.012	4771
896.134	4710
896.255	4672
896.376	4622
896.498	4634
896.619	4668
896.74	4580
896.861	4641
896.982	4919
897.103	5094
897.224	4797
897.345	4740
897.466	4645
897.587	4702
897.708	4850
897.828	4759
897.949	4664
898.07	4565
898.19	4634
898.311	4812
898.431	4668
898.552	4702
898.672	4820
898.792	4809
898.913	4831
899.033	4599
899.153	4493
899.273	4367
899.393	4500
899.513	4527
899.633	4573
899.753	4558
899.873	4493
899.993	4584
900.113	4523
900.232	4554
900.352	4523
900.472	4455
900.591	4405
900.711	4466
900.83	4447
900.95	4637
901.069	4675
901.189	4565
901.308	4344
901.427	4310
901.546	4360
901.665	4489
901.784	4504
901.904	4356
902.023	4284
902.141	4185
902.26	4181
902.379	4352
902.498	4265
902.617	4188
902.735	4356
902.854	4459
902.973	4303
903.091	4234
903.21	4188
903.328	4295
903.446	4227
903.565	4272
903.683	4329
903.801	4230
903.919	4375
904.038	4436
904.156	4333
904.274	4447
904.392	4363
904.51	4447
904.627	4466
904.745	4622
904.863	4607
904.981	4398
905.098	4295
905.216	4333
905.334	4421
905.451	4367
905.569	4409
905.686	4542
905.803	4531
905.921	4436
906.038	4550
906.155	4493
906.272	4417
906.389	4493
906.506	4356
906.623	4356
906.74	4417
906.857	4280
906.974	4402
907.091	4508
907.208	4660
907.324	4577
907.441	4500
907.557	4329
907.674	4352
907.79	4329
907.907	4325
908.023	4417
908.139	4470
908.256	4417
908.372	4462
908.488	4402
908.604	4352
908.72	4295
908.836	4363
908.952	4341
909.068	4421
909.184	4565
909.3	4455
909.415	4584
909.531	4569
909.647	4333
909.762	4344
909.878	4337
909.993	4421
910.108	4421
910.224	4424
910.339	4478
910.454	4462
910.57	4348
910.685	4287
910.8	4615
910.915	4550
911.03	4489
911.145	4333
911.259	4291
911.374	4344
911.489	4280
911.604	4303
911.718	4169
911.833	4173
911.947	4059
912.062	3983
912.176	4185
912.291	4215
912.405	4242
912.519	4402
912.633	4489
912.748	4383
912.862	4280
912.976	4196
913.09	4059
913.204	4188
913.318	4223
913.431	4413
913.545	4413
913.659	4417
913.772	4333
913.886	4261
914	4230
914.113	4352
914.226	4417
914.34	4352
914.453	4242
914.566	4417
914.68	4325
914.793	4303
914.906	4139
915.019	4158
915.132	4078
915.245	4177
915.358	4192
915.47	4177
915.583	4261
915.696	4295
915.809	4360
915.921	4424
916.034	4257
916.146	4276
916.259	4238
916.371	4405
916.483	4325
916.595	4242
916.708	4325
916.82	4291
916.932	4322
917.044	4325
917.156	4314
917.268	4249
917.38	4261
917.491	4291
917.603	4337
917.715	4371
917.826	4428
917.938	4360
918.049	4234
918.161	4409
918.272	4550
918.384	4493
918.495	4409
918.606	4295
918.717	4200
918.828	4329
918.939	4341
919.05	4272
919.161	4310
919.272	4150
919.383	4249
919.494	4478
919.604	4622
919.715	4413
919.826	4367
919.936	4413
920.047	4531
920.157	4489
920.267	4675
920.378	4531
920.488	4512
920.598	4683
920.708	4877
920.818	4744
920.928	4771
921.038	4946
921.148	4896
921.258	4554
921.368	4561
921.477	4470
921.587	4440
921.697	4402
921.806	4527
921.916	4424
922.025	4242
922.134	4238
922.244	4238
922.353	4329
922.462	4200
922.571	4093
922.68	4006
922.789	3960
922.898	3987
923.007	4010
923.116	4086
923.224	4044
923.333	4078
923.442	4002
923.55	3960
923.659	4025
923.767	4078
923.876	3998
923.984	4074
924.092	3953
924.201	4139
924.309	4109
924.417	4120
924.525	4071
924.633	4112
924.741	5048
924.849	3926
924.956	4071
925.064	3915
925.172	3865
925.279	3983
925.387	4071
925.494	4090
925.602	4215
925.709	4173
925.816	4021
925.924	4131
926.031	4234
926.138	4143
926.245	4188
926.352	4101
926.459	4246
926.566	4314
926.673	4143
926.779	4090
926.886	4059
926.993	3983
927.099	3987
927.206	3911
927.312	3941
927.419	4055
927.525	4048
927.631	4112
927.737	3941
927.843	3968
927.95	3827
928.056	3926
928.162	4017
928.267	4048
928.373	4675
928.479	4135
928.585	3857
928.69	4025
928.796	4051
928.901	3979
929.007	3827
929.112	4025
929.218	3991
929.323	3911
929.428	3930
929.533	4124
929.638	3941
929.743	3945
929.848	4059
929.953	3945
930.058	3926
930.163	3766
930.267	3896
930.372	3983
930.477	3762
930.581	4074
930.685	3899
930.79	3781
930.894	3865
930.998	3869
931.103	4059
931.207	3717
931.311	3671
931.415	3606
931.519	3511
931.623	3580
