Data from test_V78500241_2512.txt Node
Date: Fri Mar 25 17:06:28 CST 2022
User: usil
Spectrometer: V785-0024
Trigger mode: 0
Integration Time (sec): 4.000000E-1
Scans to average: 1
Nonlinearity correction enabled: false
Boxcar width: 0
Storing dark spectrum: false
XAxis mode: Wavelengths
Number of Pixels in Spectrum: 1024
>>>>>Begin Spectral Data<<<<<
801.071	8069
801.214	7974
801.356	7875
801.499	7864
801.641	7799
801.783	7807
801.926	7967
802.068	7970
802.211	7978
802.353	8005
802.496	7826
802.638	7909
802.78	7928
802.923	7963
803.065	7902
803.208	7833
803.35	7951
803.492	8046
803.635	8153
803.777	8054
803.919	8046
804.061	8499
804.204	8199
804.346	8077
804.488	7986
804.63	8100
804.773	8119
804.915	8176
805.057	8320
805.199	8237
805.341	8202
805.483	8271
805.626	8191
805.768	8180
805.91	8271
806.052	8191
806.194	8103
806.336	8320
806.478	8149
806.62	7989
806.762	8111
806.904	8168
807.046	8427
807.188	8385
807.33	8275
807.472	8320
807.614	8218
807.756	8088
807.898	8001
808.04	7826
808.182	7875
808.324	7887
808.465	7936
808.607	8100
808.749	8153
808.891	8252
809.033	8320
809.174	8187
809.316	8126
809.458	7993
809.6	8024
809.741	7993
809.883	8035
810.025	8103
810.166	8012
810.308	8008
810.45	8058
810.591	7803
810.733	7670
810.875	7670
811.016	7510
811.158	7411
811.299	7559
811.441	7727
811.582	7636
811.724	7578
811.865	7521
812.007	7628
812.148	7571
812.29	7590
812.431	7712
812.573	7921
812.714	7989
812.855	8145
812.997	8221
813.138	8244
813.279	8142
813.421	8111
813.562	7921
813.703	7841
813.845	7746
813.986	7422
814.127	7259
814.268	7285
814.41	7183
814.551	7164
814.692	7247
814.833	7080
814.974	7057
815.115	7110
815.256	7038
815.397	6943
815.539	6935
815.68	6825
815.821	6757
815.962	6798
816.103	6833
816.244	6734
816.385	6574
816.526	6585
816.666	6464
816.807	6331
816.948	6479
817.089	6471
817.23	6452
817.371	6422
817.512	6426
817.653	6372
817.793	6334
817.934	6448
818.075	6490
818.216	6475
818.356	6403
818.497	6300
818.638	6136
818.778	6155
818.919	6095
819.06	6152
819.2	6338
819.341	6346
819.481	6395
819.622	6490
819.762	6722
819.903	6734
820.043	6578
820.184	6574
820.324	6597
820.465	6677
820.605	6681
820.746	6635
820.886	6582
821.026	6703
821.167	6821
821.307	6779
821.447	6814
821.588	6662
821.728	6597
821.868	6525
822.008	6300
822.149	6441
822.289	6414
822.429	6152
822.569	6129
822.709	6110
822.849	5961
822.99	5908
823.13	5889
823.27	5954
823.41	5821
823.55	5840
823.69	5805
823.83	5767
823.97	5623
824.11	5551
824.25	5482
824.389	5535
824.529	5585
824.669	5501
824.809	5695
824.949	5668
825.089	5634
825.228	5589
825.368	5436
825.508	5341
825.648	5372
825.787	5349
825.927	5353
826.067	5330
826.206	5292
826.346	5410
826.485	5330
826.625	5376
826.765	5493
826.904	5459
827.044	5227
827.183	5227
827.323	5132
827.462	5284
827.601	5143
827.741	5193
827.88	5246
828.02	5079
828.159	5181
828.298	5311
828.437	5395
828.577	5242
828.716	5474
828.855	5311
828.994	5178
829.134	5140
829.273	5181
829.412	5098
829.551	5113
829.69	5155
829.829	5299
829.968	5353
830.107	5265
830.246	5299
830.385	5189
830.524	5159
830.663	5117
830.802	4984
830.941	4873
831.08	4911
831.219	5003
831.357	4942
831.496	5136
831.635	4885
831.774	4892
831.913	4843
832.051	4736
832.19	4717
832.329	4858
832.467	4683
832.606	4630
832.744	4653
832.883	4717
833.022	4748
833.16	4809
833.299	4801
833.437	4831
833.576	4805
833.714	4835
833.852	4854
833.991	4889
834.129	5010
834.267	4949
834.406	4889
834.544	4946
834.682	5018
834.821	4987
834.959	5155
835.097	5010
835.235	5117
835.373	5098
835.511	5067
835.65	5022
835.788	5041
835.926	4854
836.064	4915
836.202	4896
836.34	5162
836.478	5204
836.615	5178
836.753	5197
836.891	5311
837.029	5280
837.167	5166
837.305	5147
837.443	5102
837.58	5094
837.718	5277
837.856	5128
837.993	5102
838.131	5265
838.269	5220
838.406	5201
838.544	5178
838.681	5037
838.819	5033
838.956	4900
839.094	4866
839.231	4995
839.369	5143
839.506	5429
839.643	5242
839.781	5064
839.918	5033
840.055	5052
840.193	5064
840.33	5151
840.467	5098
840.604	5143
840.742	5463
840.879	5136
841.016	5121
841.153	5143
841.29	5444
841.427	5326
841.564	5273
841.701	5398
841.838	5273
841.975	5239
842.112	5231
842.249	5151
842.385	5071
842.522	5315
842.659	5212
842.796	5147
842.933	5132
843.069	5121
843.206	5109
843.343	5296
843.479	5223
843.616	5246
843.752	5018
843.889	5018
844.025	5239
844.162	4984
844.298	5265
844.435	5090
844.571	5090
844.708	5193
844.844	5311
844.98	5334
845.117	5242
845.253	5140
845.389	5083
845.525	5136
845.661	5155
845.798	5010
845.934	5159
846.07	5067
846.206	5159
846.342	5235
846.478	5166
846.614	5018
846.75	4987
846.886	4949
847.022	5147
847.158	4949
847.294	5041
847.429	5102
847.565	5037
847.701	5330
847.837	4843
847.972	4774
848.108	4904
848.244	4953
848.379	4774
848.515	4740
848.65	4714
848.786	4717
848.921	4786
849.057	4881
849.192	4908
849.328	4812
849.463	4835
849.598	4801
849.734	4782
849.869	4717
850.004	4683
850.14	4649
850.275	4645
850.41	4527
850.545	4592
850.68	4634
850.815	4634
850.95	4653
851.085	4812
851.22	4706
851.355	4634
851.49	4615
851.625	4592
851.76	4641
851.895	4546
852.03	4531
852.165	4607
852.299	4733
852.434	4782
852.569	4702
852.703	4793
852.838	4835
852.973	4946
853.107	4908
853.242	4717
853.376	4675
853.511	4584
853.645	4626
853.78	4793
853.914	4664
854.048	4664
854.183	4599
854.317	4672
854.451	4858
854.585	4721
854.72	4687
854.854	4816
854.988	4615
855.122	4607
855.256	4538
855.39	4660
855.524	4744
855.658	4736
855.792	4733
855.926	4721
856.06	4672
856.194	4839
856.327	4698
856.461	4615
856.595	4637
856.729	4611
856.862	4755
856.996	4714
857.13	4675
857.263	4733
857.397	4759
857.53	4615
857.664	4714
857.797	4736
857.931	4790
858.064	4653
858.197	4691
858.331	4622
858.464	4664
858.597	4516
858.731	4611
858.864	4637
858.997	4607
859.13	4634
859.263	4637
859.396	4729
859.529	4535
859.662	4573
859.795	4516
859.928	4675
860.061	4721
860.194	4736
860.327	4634
860.46	4592
860.592	4744
860.725	4679
860.858	4714
860.99	4519
861.123	4531
861.256	4497
861.388	4603
861.521	5258
861.653	4523
861.786	4462
861.918	4440
862.05	4519
862.183	4527
862.315	4573
862.447	4653
862.58	4546
862.712	4409
862.844	4299
862.976	4424
863.108	4443
863.24	4847
863.372	4272
863.504	4459
863.636	4394
863.768	4508
863.9	4428
864.032	4379
864.164	4379
864.296	4440
864.428	4558
864.559	4554
864.691	4497
864.823	4466
864.954	4523
865.086	4558
865.217	4440
865.349	4424
865.48	4466
865.612	4500
865.743	4645
865.875	4478
866.006	4417
866.137	4497
866.269	4474
866.4	4440
866.531	4428
866.662	4428
866.793	4402
866.924	4428
867.055	4489
867.186	4481
867.317	4421
867.448	4363
867.579	4348
867.71	4375
867.841	4329
867.972	4440
868.103	4447
868.233	4436
868.364	4417
868.495	4493
868.625	4615
868.756	4752
868.886	4538
869.017	4618
869.147	4786
869.278	4740
869.408	4641
869.539	4653
869.669	4679
869.799	4645
869.929	4759
870.06	4748
870.19	4942
870.32	4919
870.45	4961
870.58	4991
870.71	5079
870.84	5094
870.97	4946
871.1	4862
871.23	5140
871.36	5128
871.489	5048
871.619	5025
871.749	5117
871.879	5094
872.008	5178
872.138	5056
872.267	4980
872.397	4904
872.526	4824
872.656	4691
872.785	4801
872.915	4942
873.044	5048
873.173	4930
873.303	4946
873.432	4908
873.561	4953
873.69	4839
873.819	4877
873.948	4892
874.077	4847
874.206	4744
874.335	4812
874.464	4923
874.593	5124
874.722	4908
874.851	5105
874.979	5064
875.108	5018
875.237	4877
875.365	4877
875.494	4904
875.623	4968
875.751	4854
875.88	4927
876.008	4991
876.136	4999
876.265	5204
876.393	5341
876.521	5265
876.65	5212
876.778	5140
876.906	5048
877.034	5018
877.162	5045
877.29	4987
877.418	5064
877.546	4980
877.674	5037
877.802	5025
877.93	5067
878.058	4961
878.185	4919
878.313	4938
878.441	4949
878.568	4839
878.696	4854
878.824	4923
878.951	4972
879.079	5067
879.206	5235
879.333	5136
879.461	4953
879.588	5029
879.715	5121
879.842	5174
879.97	4980
880.097	4782
880.224	4733
880.351	4759
880.478	4824
880.605	4793
880.732	4782
880.859	5124
880.986	4824
881.112	4892
881.239	4782
881.366	4649
881.493	4592
881.619	4519
881.746	4607
881.872	4653
881.999	4656
882.125	4637
882.252	4755
882.378	4812
882.505	4927
882.631	4778
882.757	4656
882.883	4725
883.01	4698
883.136	4664
883.262	4641
883.388	4592
883.514	4797
883.64	4843
883.766	4763
883.892	4664
884.018	4683
884.143	4870
884.269	4987
884.395	4672
884.52	4626
884.646	4596
884.772	4561
884.897	4523
885.023	4656
885.148	4717
885.274	4870
885.399	4744
885.524	4725
885.65	4698
885.775	4752
885.9	4702
886.025	4839
886.15	4812
886.275	4714
886.4	4694
886.525	4740
886.65	4664
886.775	4683
886.9	4881
887.025	5064
887.149	4805
887.274	4630
887.399	4588
887.523	4588
887.648	4634
887.773	4588
887.897	4771
888.021	4816
888.146	4691
888.27	4858
888.395	4889
888.519	4801
888.643	4862
888.767	4801
888.891	4675
889.015	4577
889.139	4672
889.263	4607
889.387	4793
889.511	4870
889.635	4778
889.759	4672
889.883	4660
890.006	4774
890.13	4850
890.254	4687
890.377	4717
890.501	4538
890.624	4531
890.748	4683
890.871	4569
890.995	4466
891.118	4421
891.241	4527
891.364	4542
891.488	4698
891.611	4535
891.734	4565
891.857	4660
891.98	4561
892.103	4691
892.226	4641
892.349	4626
892.471	4459
892.594	4569
892.717	4660
892.839	4603
892.962	4622
893.085	4729
893.207	4649
893.33	4527
893.452	4603
893.575	4687
893.697	4668
893.819	4835
893.941	4831
894.064	4820
894.186	4607
894.308	4615
894.43	4778
894.552	4847
894.674	4793
894.796	4577
894.918	4618
895.04	4634
895.161	4748
895.283	4706
895.405	4592
895.526	4698
895.648	4755
895.769	4675
895.891	4771
896.012	4793
896.134	4755
896.255	4694
896.376	4687
896.498	4664
896.619	4740
896.74	4649
896.861	4706
896.982	4942
897.103	5121
897.224	4805
897.345	4759
897.466	4649
897.587	4740
897.708	4949
897.828	4793
897.949	4702
898.07	4596
898.19	4706
898.311	4870
898.431	4714
898.552	4744
898.672	4847
898.792	4782
898.913	4721
899.033	4664
899.153	4558
899.273	4538
899.393	4531
899.513	4565
899.633	4565
899.753	4596
899.873	4558
899.993	4588
900.113	4535
900.232	4607
900.352	4535
900.472	4516
900.591	4398
900.711	4523
900.83	4485
900.95	4664
901.069	4717
901.189	4580
901.308	4428
901.427	4333
901.546	4421
901.665	4500
901.784	4538
901.904	4375
902.023	4356
902.141	4223
902.26	4223
902.379	4284
902.498	4253
902.617	4280
902.735	4462
902.854	4421
902.973	4402
903.091	4207
903.21	4253
903.328	4295
903.446	4303
903.565	4303
903.683	4459
903.801	4249
903.919	4390
904.038	4470
904.156	4375
904.274	4478
904.392	4413
904.51	4493
904.627	4504
904.745	4607
904.863	4664
904.981	4443
905.098	4333
905.216	4398
905.334	4470
905.451	4470
905.569	4440
905.686	4554
905.803	4584
905.921	4455
906.038	4565
906.155	4474
906.272	4421
906.389	4455
906.506	4394
906.623	4409
906.74	4413
906.857	4280
906.974	4402
907.091	4626
907.208	4702
907.324	4630
907.441	4523
907.557	4356
907.674	4360
907.79	4360
907.907	4421
908.023	4519
908.139	4508
908.256	4474
908.372	4493
908.488	4474
908.604	4371
908.72	4367
908.836	4390
908.952	4383
909.068	4478
909.184	4599
909.3	4527
909.415	4577
909.531	4577
909.647	4363
909.762	4443
909.878	4394
909.993	4462
910.108	4409
910.224	4424
910.339	4485
910.454	4455
910.57	4409
910.685	4314
910.8	4634
910.915	4664
911.03	4493
911.145	4325
911.259	4344
911.374	4367
911.489	4276
911.604	4314
911.718	4192
911.833	4223
911.947	4112
912.062	4071
912.176	4268
912.291	4223
912.405	4249
912.519	4523
912.633	4508
912.748	4398
912.862	4371
912.976	4265
913.09	4101
913.204	4219
913.318	4303
913.431	4436
913.545	4371
913.659	4516
913.772	4432
913.886	4325
914	4223
914.113	4405
914.226	4451
914.34	4394
914.453	4268
914.566	4459
914.68	4344
914.793	4363
914.906	4185
915.019	4093
915.132	4101
915.245	4219
915.358	4265
915.47	4291
915.583	4295
915.696	4287
915.809	4459
915.921	4447
916.034	4318
916.146	4284
916.259	4223
916.371	4390
916.483	4386
916.595	4299
916.708	4367
916.82	4405
916.932	4318
917.044	4360
917.156	4367
917.268	4287
917.38	4344
917.491	4318
917.603	4348
917.715	4424
917.826	4432
917.938	4363
918.049	4295
918.161	4421
918.272	4516
918.384	4554
918.495	4447
918.606	4295
918.717	4257
918.828	4322
918.939	4379
919.05	4299
919.161	4337
919.272	4196
919.383	4253
919.494	4455
919.604	4656
919.715	4508
919.826	4390
919.936	4459
920.047	4519
920.157	4462
920.267	4706
920.378	4592
920.488	4500
920.598	4694
920.708	4900
920.818	4793
920.928	4748
921.038	5006
921.148	4957
921.258	4653
921.368	4599
921.477	4508
921.587	4523
921.697	4398
921.806	4599
921.916	4455
922.025	4318
922.134	4333
922.244	4234
922.353	4363
922.462	4207
922.571	4158
922.68	4044
922.789	4021
922.898	4048
923.007	4021
923.116	4101
923.224	4071
923.333	4105
923.442	3991
923.55	3964
923.659	4071
923.767	4109
923.876	3998
923.984	4173
924.092	3987
924.201	4169
924.309	4143
924.417	4215
924.525	4093
924.633	4154
924.741	5037
924.849	3983
924.956	4162
925.064	3991
925.172	3930
925.279	3975
925.387	4105
925.494	4112
925.602	4200
925.709	4207
925.816	4067
925.924	4181
926.031	4303
926.138	4177
926.245	4227
926.352	4067
926.459	4246
926.566	4253
926.673	4169
926.779	4116
926.886	4109
926.993	3983
927.099	3960
927.206	3964
927.312	3956
927.419	4116
927.525	4032
927.631	4139
927.737	3975
927.843	3941
927.95	3846
928.056	3994
928.162	4021
928.267	4059
928.373	4596
928.479	4128
928.585	3953
928.69	4036
928.796	4097
928.901	4002
929.007	3861
929.112	4036
929.218	4021
929.323	3953
929.428	3949
929.533	4128
929.638	3915
929.743	3964
929.848	4116
929.953	3964
930.058	3911
930.163	3774
930.267	3827
930.372	4036
930.477	3869
930.581	4074
930.685	3972
930.79	3846
930.894	3926
930.998	3880
931.103	4051
931.207	3728
931.311	3724
931.415	3648
931.519	3549
931.623	3572
