Data from test_V78500241_1055.txt Node
Date: Fri Mar 25 16:56:20 CST 2022
User: usil
Spectrometer: V785-0024
Trigger mode: 0
Integration Time (sec): 4.000000E-1
Scans to average: 1
Nonlinearity correction enabled: false
Boxcar width: 0
Storing dark spectrum: false
XAxis mode: Wavelengths
Number of Pixels in Spectrum: 1024
>>>>>Begin Spectral Data<<<<<
801.071	8084
801.214	8039
801.356	7936
801.499	7826
801.641	7788
801.783	7830
801.926	8008
802.068	7894
802.211	7947
802.353	8008
802.496	7898
802.638	7852
802.78	7860
802.923	7951
803.065	7860
803.208	7909
803.35	8073
803.492	8111
803.635	8126
803.777	8054
803.919	8176
804.061	8442
804.204	8195
804.346	8081
804.488	7989
804.63	8164
804.773	7967
804.915	8073
805.057	8305
805.199	8103
805.341	8237
805.483	8176
805.626	8176
805.768	8157
805.91	8149
806.052	8214
806.194	8077
806.336	8290
806.478	8138
806.62	8069
806.762	8172
806.904	8218
807.046	8476
807.188	8339
807.33	8328
807.472	8282
807.614	8149
807.756	8130
807.898	8020
808.04	7917
808.182	7928
808.324	7879
808.465	7947
808.607	8065
808.749	8111
808.891	8244
809.033	8309
809.174	8172
809.316	8039
809.458	8062
809.6	7925
809.741	8024
809.883	7978
810.025	8088
810.166	8016
810.308	8012
810.45	8069
810.591	7932
810.733	7723
810.875	7666
811.016	7441
811.158	7468
811.299	7613
811.441	7693
811.582	7689
811.724	7571
811.865	7533
812.007	7578
812.148	7559
812.29	7639
812.431	7731
812.573	7902
812.714	7974
812.855	8020
812.997	8161
813.138	8400
813.279	8191
813.421	8100
813.562	8001
813.703	7944
813.845	7746
813.986	7430
814.127	7240
814.268	7244
814.41	7213
814.551	7122
814.692	7156
814.833	6962
814.974	7031
815.115	7107
815.256	6920
815.397	6935
815.539	6939
815.68	6791
815.821	6852
815.962	6875
816.103	6863
816.244	6673
816.385	6662
816.526	6650
816.666	6414
816.807	6289
816.948	6388
817.089	6513
817.23	6410
817.371	6357
817.512	6388
817.653	6384
817.793	6403
817.934	6448
818.075	6456
818.216	6403
818.356	6391
818.497	6243
818.638	6079
818.778	6178
818.919	6152
819.06	6190
819.2	6304
819.341	6285
819.481	6304
819.622	6528
819.762	6692
819.903	6711
820.043	6589
820.184	6551
820.324	6593
820.465	6681
820.605	6669
820.746	6593
820.886	6490
821.026	6574
821.167	6692
821.307	6757
821.447	6753
821.588	6669
821.728	6578
821.868	6479
822.008	6346
822.149	6391
822.289	6350
822.429	6148
822.569	6064
822.709	6144
822.849	5901
822.99	5882
823.13	5954
823.27	5904
823.41	5832
823.55	5748
823.69	5741
823.83	5760
823.97	5676
824.11	5566
824.25	5528
824.389	5528
824.529	5581
824.669	5493
824.809	5634
824.949	5657
825.089	5600
825.228	5566
825.368	5337
825.508	5322
825.648	5345
825.787	5402
825.927	5337
826.067	5261
826.206	5334
826.346	5421
826.485	5395
826.625	5467
826.765	5562
826.904	5497
827.044	5265
827.183	5185
827.323	5098
827.462	5254
827.601	5159
827.741	5193
827.88	5242
828.02	5064
828.159	5273
828.298	5334
828.437	5277
828.577	5242
828.716	5463
828.855	5299
828.994	5178
829.134	5143
829.273	5151
829.412	5102
829.551	5151
829.69	5181
829.829	5185
829.968	5444
830.107	5212
830.246	5261
830.385	5143
830.524	5140
830.663	5056
830.802	4972
830.941	4850
831.08	4862
831.219	4995
831.357	4961
831.496	5147
831.635	4908
831.774	4809
831.913	4831
832.051	4691
832.19	4744
832.329	4828
832.467	4698
832.606	4599
832.744	4702
832.883	4729
833.022	4748
833.16	4767
833.299	4828
833.437	4786
833.576	4820
833.714	4866
833.852	4858
833.991	4904
834.129	4961
834.267	4942
834.406	4900
834.544	4949
834.682	4957
834.821	4965
834.959	5151
835.097	4965
835.235	5136
835.373	5109
835.511	5128
835.65	5003
835.788	5033
835.926	4923
836.064	4881
836.202	4915
836.34	5201
836.478	5178
836.615	5128
836.753	5227
836.891	5299
837.029	5242
837.167	5208
837.305	5147
837.443	5155
837.58	5083
837.718	5280
837.856	5170
837.993	5136
838.131	5208
838.269	5204
838.406	5208
838.544	5212
838.681	5060
838.819	5006
838.956	4854
839.094	4873
839.231	4980
839.369	5102
839.506	5410
839.643	5296
839.781	5037
839.918	4953
840.055	5121
840.193	5086
840.33	5098
840.467	5121
840.604	5201
840.742	5376
840.879	5079
841.016	5083
841.153	5185
841.29	5414
841.427	5330
841.564	5334
841.701	5337
841.838	5280
841.975	5208
842.112	5261
842.249	5117
842.385	5090
842.522	5315
842.659	5170
842.796	5159
842.933	5193
843.069	5117
843.206	5151
843.343	5299
843.479	5223
843.616	5307
843.752	5033
843.889	4999
844.025	5178
844.162	4995
844.298	5174
844.435	5064
844.571	5037
844.708	5155
844.844	5280
844.98	5284
845.117	5269
845.253	5109
845.389	5064
845.525	5136
845.661	5151
845.798	5025
845.934	5143
846.07	5105
846.206	5288
846.342	5299
846.478	5223
846.614	4999
846.75	4980
846.886	4946
847.022	5132
847.158	5014
847.294	5090
847.429	5162
847.565	5003
847.701	5337
847.837	4816
847.972	4866
848.108	4930
848.244	4904
848.379	4790
848.515	4729
848.65	4752
848.786	4740
848.921	4717
849.057	4889
849.192	4866
849.328	4767
849.463	4809
849.598	4771
849.734	4771
849.869	4656
850.004	4649
850.14	4653
850.275	4588
850.41	4485
850.545	4603
850.68	4580
850.815	4588
850.95	4634
851.085	4809
851.22	4729
851.355	4615
851.49	4641
851.625	4603
851.76	4611
851.895	4542
852.03	4478
852.165	4626
852.299	4687
852.434	4782
852.569	4736
852.703	4786
852.838	4809
852.973	4930
853.107	4908
853.242	4721
853.376	4634
853.511	4577
853.645	4679
853.78	4782
853.914	4698
854.048	4637
854.183	4645
854.317	4672
854.451	4847
854.585	4706
854.72	4653
854.854	4729
854.988	4580
855.122	4615
855.256	4500
855.39	4645
855.524	4736
855.658	4714
855.792	4702
855.926	4691
856.06	4733
856.194	4816
856.327	4755
856.461	4569
856.595	4653
856.729	4634
856.862	4721
856.996	4702
857.13	4675
857.263	4702
857.397	4805
857.53	4668
857.664	4763
857.797	4797
857.931	4733
858.064	4656
858.197	4782
858.331	4607
858.464	4622
858.597	4542
858.731	4649
858.864	4660
858.997	4577
859.13	4668
859.263	4630
859.396	4702
859.529	4603
859.662	4558
859.795	4470
859.928	4672
860.061	4782
860.194	4710
860.327	4599
860.46	4554
860.592	4664
860.725	4702
860.858	4759
860.99	4550
861.123	4493
861.256	4519
861.388	4603
861.521	5299
861.653	4512
861.786	4409
861.918	4432
862.05	4478
862.183	4519
862.315	4599
862.447	4626
862.58	4523
862.712	4402
862.844	4333
862.976	4508
863.108	4440
863.24	4843
863.372	4322
863.504	4394
863.636	4409
863.768	4466
863.9	4409
864.032	4367
864.164	4344
864.296	4455
864.428	4554
864.559	4584
864.691	4497
864.823	4538
864.954	4481
865.086	4489
865.217	4470
865.349	4405
865.48	4398
865.612	4466
865.743	4592
865.875	4478
866.006	4428
866.137	4497
866.269	4436
866.4	4443
866.531	4481
866.662	4356
866.793	4398
866.924	4383
867.055	4538
867.186	4432
867.317	4379
867.448	4371
867.579	4398
867.71	4413
867.841	4348
867.972	4459
868.103	4447
868.233	4440
868.364	4485
868.495	4481
868.625	4645
868.756	4774
868.886	4542
869.017	4626
869.147	4748
869.278	4752
869.408	4656
869.539	4656
869.669	4675
869.799	4687
869.929	4771
870.06	4736
870.19	4889
870.32	4911
870.45	4900
870.58	4999
870.71	5079
870.84	5060
870.97	4885
871.1	4862
871.23	5159
871.36	5109
871.489	5052
871.619	5025
871.749	5079
871.879	5124
872.008	5178
872.138	4999
872.267	4904
872.397	4820
872.526	4805
872.656	4710
872.785	4793
872.915	4915
873.044	5014
873.173	4927
873.303	4919
873.432	4949
873.561	4968
873.69	4843
873.819	4835
873.948	4862
874.077	4866
874.206	4717
874.335	4767
874.464	4957
874.593	5048
874.722	4953
874.851	5102
874.979	5029
875.108	4991
875.237	4923
875.365	4900
875.494	4881
875.623	4976
875.751	4790
875.88	4877
876.008	4965
876.136	5022
876.265	5140
876.393	5341
876.521	5223
876.65	5223
876.778	5109
876.906	5056
877.034	4968
877.162	5022
877.29	4976
877.418	5083
877.546	4995
877.674	5045
877.802	5006
877.93	4961
878.058	4881
878.185	4900
878.313	4946
878.441	4949
878.568	4839
878.696	4847
878.824	4930
878.951	4938
879.079	5128
879.206	5258
879.333	5060
879.461	4987
879.588	4991
879.715	5094
879.842	5193
879.97	5037
880.097	4759
880.224	4752
880.351	4752
880.478	4820
880.605	4812
880.732	4767
880.859	5083
880.986	4835
881.112	4873
881.239	4790
881.366	4675
881.493	4618
881.619	4569
881.746	4618
881.872	4615
881.999	4660
882.125	4653
882.252	4759
882.378	4820
882.505	4957
882.631	4790
882.757	4683
882.883	4683
883.01	4736
883.136	4660
883.262	4542
883.388	4580
883.514	4835
883.64	4843
883.766	4740
883.892	4622
884.018	4733
884.143	4911
884.269	4965
884.395	4668
884.52	4580
884.646	4641
884.772	4580
884.897	4550
885.023	4664
885.148	4717
885.274	4835
885.399	4767
885.524	4725
885.65	4683
885.775	4755
885.9	4725
886.025	4831
886.15	4797
886.275	4710
886.4	4691
886.525	4733
886.65	4645
886.775	4691
886.9	4911
887.025	5006
887.149	4847
887.274	4626
887.399	4626
887.523	4558
887.648	4546
887.773	4546
887.897	4740
888.021	4790
888.146	4687
888.27	4824
888.395	4877
888.519	4755
888.643	4805
888.767	4812
888.891	4683
889.015	4611
889.139	4622
889.263	4588
889.387	4733
889.511	4835
889.635	4736
889.759	4626
889.883	4618
890.006	4733
890.13	4778
890.254	4599
890.377	4630
890.501	4554
890.624	4485
890.748	4622
890.871	4512
890.995	4409
891.118	4379
891.241	4516
891.364	4550
891.488	4618
891.611	4451
891.734	4542
891.857	4561
891.98	4523
892.103	4615
892.226	4580
892.349	4516
892.471	4398
892.594	4523
892.717	4580
892.839	4592
892.962	4588
893.085	4664
893.207	4603
893.33	4436
893.452	4504
893.575	4641
893.697	4546
893.819	4759
893.941	4786
894.064	4793
894.186	4546
894.308	4569
894.43	4748
894.552	4767
894.674	4714
894.796	4558
894.918	4580
895.04	4546
895.161	4672
895.283	4668
895.405	4550
895.526	4573
895.648	4672
895.769	4672
895.891	4710
896.012	4752
896.134	4714
896.255	4637
896.376	4645
896.498	4592
896.619	4634
896.74	4603
896.861	4634
896.982	4942
897.103	5086
897.224	4831
897.345	4790
897.466	4611
897.587	4733
897.708	4820
897.828	4714
897.949	4660
898.07	4550
898.19	4611
898.311	4782
898.431	4672
898.552	4687
898.672	4744
898.792	4790
898.913	4733
899.033	4618
899.153	4508
899.273	4405
899.393	4459
899.513	4527
899.633	4577
899.753	4500
899.873	4535
899.993	4588
900.113	4493
900.232	4580
900.352	4504
900.472	4455
900.591	4402
900.711	4481
900.83	4379
900.95	4626
901.069	4691
901.189	4558
901.308	4360
901.427	4272
901.546	4329
901.665	4462
901.784	4504
901.904	4371
902.023	4318
902.141	4177
902.26	4196
902.379	4325
902.498	4261
902.617	4234
902.735	4356
902.854	4390
902.973	4352
903.091	4192
903.21	4227
903.328	4280
903.446	4219
903.565	4249
903.683	4295
903.801	4329
903.919	4398
904.038	4428
904.156	4337
904.274	4386
904.392	4383
904.51	4432
904.627	4462
904.745	4538
904.863	4649
904.981	4402
905.098	4310
905.216	4356
905.334	4379
905.451	4421
905.569	4413
905.686	4516
905.803	4523
905.921	4462
906.038	4527
906.155	4504
906.272	4405
906.389	4485
906.506	4348
906.623	4341
906.74	4383
906.857	4287
906.974	4360
907.091	4542
907.208	4668
907.324	4580
907.441	4459
907.557	4318
907.674	4325
907.79	4295
907.907	4352
908.023	4451
908.139	4440
908.256	4428
908.372	4455
908.488	4432
908.604	4367
908.72	4348
908.836	4352
908.952	4318
909.068	4409
909.184	4550
909.3	4466
909.415	4580
909.531	4523
909.647	4306
909.762	4398
909.878	4363
909.993	4409
910.108	4363
910.224	4360
910.339	4462
910.454	4417
910.57	4348
910.685	4325
910.8	4645
910.915	4573
911.03	4497
911.145	4348
911.259	4314
911.374	4371
911.489	4287
911.604	4246
911.718	4131
911.833	4204
911.947	4090
912.062	4017
912.176	4211
912.291	4253
912.405	4227
912.519	4493
912.633	4508
912.748	4333
912.862	4265
912.976	4173
913.09	4090
913.204	4158
913.318	4265
913.431	4383
913.545	4341
913.659	4443
913.772	4394
913.886	4230
914	4227
914.113	4375
914.226	4421
914.34	4386
914.453	4211
914.566	4421
914.68	4322
914.793	4276
914.906	4143
915.019	4131
915.132	4063
915.245	4166
915.358	4227
915.47	4234
915.583	4325
915.696	4303
915.809	4398
915.921	4447
916.034	4249
916.146	4211
916.259	4204
916.371	4360
916.483	4322
916.595	4238
916.708	4348
916.82	4344
916.932	4344
917.044	4333
917.156	4310
917.268	4219
917.38	4284
917.491	4257
917.603	4333
917.715	4360
917.826	4341
917.938	4337
918.049	4249
918.161	4432
918.272	4493
918.384	4542
918.495	4417
918.606	4291
918.717	4280
918.828	4371
918.939	4386
919.05	4192
919.161	4341
919.272	4131
919.383	4219
919.494	4443
919.604	4603
919.715	4402
919.826	4383
919.936	4394
920.047	4523
920.157	4516
920.267	4717
920.378	4516
920.488	4519
920.598	4752
920.708	4858
920.818	4717
920.928	4752
921.038	4930
921.148	4923
921.258	4645
921.368	4550
921.477	4508
921.587	4470
921.697	4348
921.806	4535
921.916	4451
922.025	4249
922.134	4280
922.244	4215
922.353	4314
922.462	4166
922.571	4162
922.68	4002
922.789	3960
922.898	4029
923.007	4006
923.116	4086
923.224	4010
923.333	4082
923.442	3994
923.55	3975
923.659	4017
923.767	4135
923.876	3956
923.984	4135
924.092	3998
924.201	4093
924.309	4093
924.417	4112
924.525	4082
924.633	4078
924.741	5010
924.849	3941
924.956	4071
925.064	3991
925.172	3934
925.279	3937
925.387	4086
925.494	4051
925.602	4204
925.709	4211
925.816	4044
925.924	4082
926.031	4207
926.138	4150
926.245	4246
926.352	4059
926.459	4249
926.566	4348
926.673	4147
926.779	4090
926.886	4097
926.993	3983
927.099	3918
927.206	3918
927.312	3949
927.419	4067
927.525	4044
927.631	4074
927.737	3968
927.843	3903
927.95	3869
928.056	3907
928.162	3945
928.267	4086
928.373	4721
928.479	4116
928.585	3899
928.69	4029
928.796	4097
928.901	3994
929.007	3797
929.112	3953
929.218	3979
929.323	3956
929.428	3960
929.533	4090
929.638	3888
929.743	3972
929.848	4010
929.953	3968
930.058	3922
930.163	3759
930.267	3800
930.372	3983
930.477	3819
930.581	4093
930.685	3956
930.79	3827
930.894	3937
930.998	3861
931.103	4040
931.207	3740
931.311	3686
931.415	3637
931.519	3496
931.623	3591
