Data from test_V78500241_2502.txt Node
Date: Fri Mar 25 17:06:23 CST 2022
User: usil
Spectrometer: V785-0024
Trigger mode: 0
Integration Time (sec): 4.000000E-1
Scans to average: 1
Nonlinearity correction enabled: false
Boxcar width: 0
Storing dark spectrum: false
XAxis mode: Wavelengths
Number of Pixels in Spectrum: 1024
>>>>>Begin Spectral Data<<<<<
801.071	7997
801.214	8024
801.356	7795
801.499	7864
801.641	7784
801.783	7890
801.926	7997
802.068	7879
802.211	7974
802.353	7959
802.496	7856
802.638	7826
802.78	7883
802.923	7925
803.065	7849
803.208	7795
803.35	7909
803.492	8096
803.635	8214
803.777	8020
803.919	8073
804.061	8438
804.204	8161
804.346	8054
804.488	8005
804.63	8126
804.773	7940
804.915	8107
805.057	8286
805.199	8180
805.341	8149
805.483	8351
805.626	8248
805.768	8130
805.91	8240
806.052	8248
806.194	8134
806.336	8267
806.478	8138
806.62	8088
806.762	8077
806.904	8256
807.046	8461
807.188	8358
807.33	8328
807.472	8347
807.614	8157
807.756	8138
807.898	8035
808.04	7928
808.182	7887
808.324	7887
808.465	7860
808.607	8020
808.749	8168
808.891	8237
809.033	8305
809.174	8199
809.316	8035
809.458	8046
809.6	8020
809.741	8012
809.883	8077
810.025	8081
810.166	8100
810.308	7986
810.45	7993
810.591	7860
810.733	7731
810.875	7693
811.016	7518
811.158	7510
811.299	7590
811.441	7757
811.582	7723
811.724	7594
811.865	7559
812.007	7559
812.148	7571
812.29	7601
812.431	7772
812.573	7906
812.714	7940
812.855	8142
812.997	8164
813.138	8248
813.279	8138
813.421	8039
813.562	7986
813.703	7814
813.845	7742
813.986	7445
814.127	7232
814.268	7266
814.41	7168
814.551	7175
814.692	7190
814.833	7050
814.974	7061
815.115	7091
815.256	7004
815.397	6939
815.539	6920
815.68	6806
815.821	6798
815.962	6844
816.103	6806
816.244	6726
816.385	6616
816.526	6589
816.666	6509
816.807	6380
816.948	6517
817.089	6464
817.23	6452
817.371	6388
817.512	6403
817.653	6418
817.793	6319
817.934	6460
818.075	6456
818.216	6418
818.356	6418
818.497	6201
818.638	6148
818.778	6148
818.919	6144
819.06	6224
819.2	6365
819.341	6342
819.481	6365
819.622	6502
819.762	6745
819.903	6711
820.043	6627
820.184	6623
820.324	6559
820.465	6711
820.605	6745
820.746	6673
820.886	6563
821.026	6707
821.167	6802
821.307	6749
821.447	6798
821.588	6677
821.728	6623
821.868	6563
822.008	6365
822.149	6365
822.289	6331
822.429	6205
822.569	6140
822.709	6175
822.849	5950
822.99	5904
823.13	5942
823.27	5973
823.41	5805
823.55	5828
823.69	5786
823.83	5844
823.97	5703
824.11	5554
824.25	5585
824.389	5570
824.529	5638
824.669	5589
824.809	5630
824.949	5752
825.089	5634
825.228	5577
825.368	5471
825.508	5406
825.648	5349
825.787	5448
825.927	5383
826.067	5368
826.206	5353
826.346	5425
826.485	5448
826.625	5455
826.765	5604
826.904	5474
827.044	5288
827.183	5242
827.323	5159
827.462	5315
827.601	5231
827.741	5231
827.88	5239
828.02	5117
828.159	5303
828.298	5376
828.437	5421
828.577	5322
828.716	5528
828.855	5391
828.994	5197
829.134	5242
829.273	5254
829.412	5193
829.551	5094
829.69	5235
829.829	5318
829.968	5379
830.107	5360
830.246	5357
830.385	5223
830.524	5185
830.663	5064
830.802	4987
830.941	4968
831.08	4877
831.219	5010
831.357	5033
831.496	5166
831.635	5003
831.774	4873
831.913	4892
832.051	4790
832.19	4759
832.329	4877
832.467	4736
832.606	4637
832.744	4767
832.883	4790
833.022	4797
833.16	4778
833.299	4828
833.437	4862
833.576	4885
833.714	4915
833.852	4938
833.991	4930
834.129	5003
834.267	4972
834.406	4942
834.544	5010
834.682	5018
834.821	4972
834.959	5201
835.097	4980
835.235	5193
835.373	5071
835.511	5102
835.65	5029
835.788	5067
835.926	4961
836.064	4927
836.202	4961
836.34	5159
836.478	5269
836.615	5178
836.753	5223
836.891	5360
837.029	5345
837.167	5212
837.305	5178
837.443	5151
837.58	5155
837.718	5288
837.856	5231
837.993	5208
838.131	5280
838.269	5220
838.406	5208
838.544	5208
838.681	5064
838.819	4999
838.956	4934
839.094	4911
839.231	5022
839.369	5086
839.506	5448
839.643	5318
839.781	5067
839.918	5048
840.055	5159
840.193	5079
840.33	5124
840.467	5159
840.604	5258
840.742	5459
840.879	5151
841.016	5113
841.153	5208
841.29	5417
841.427	5368
841.564	5337
841.701	5391
841.838	5303
841.975	5258
842.112	5318
842.249	5208
842.385	5128
842.522	5296
842.659	5216
842.796	5178
842.933	5212
843.069	5197
843.206	5185
843.343	5299
843.479	5239
843.616	5288
843.752	5056
843.889	5071
844.025	5246
844.162	5056
844.298	5258
844.435	5113
844.571	5102
844.708	5204
844.844	5337
844.98	5349
845.117	5322
845.253	5162
845.389	5102
845.525	5159
845.661	5193
845.798	5098
845.934	5208
846.07	5045
846.206	5193
846.342	5284
846.478	5231
846.614	5022
846.75	4957
846.886	4949
847.022	5140
847.158	5029
847.294	5067
847.429	5056
847.565	5105
847.701	5349
847.837	4923
847.972	4839
848.108	4968
848.244	4949
848.379	4793
848.515	4710
848.65	4721
848.786	4759
848.921	4809
849.057	4908
849.192	4927
849.328	4870
849.463	4877
849.598	4790
849.734	4778
849.869	4721
850.004	4653
850.14	4714
850.275	4630
850.41	4588
850.545	4592
850.68	4672
850.815	4641
850.95	4641
851.085	4850
851.22	4752
851.355	4740
851.49	4622
851.625	4691
851.76	4641
851.895	4607
852.03	4573
852.165	4641
852.299	4717
852.434	4786
852.569	4801
852.703	4820
852.838	4858
852.973	4934
853.107	4957
853.242	4820
853.376	4710
853.511	4573
853.645	4645
853.78	4824
853.914	4706
854.048	4694
854.183	4668
854.317	4725
854.451	4900
854.585	4733
854.72	4675
854.854	4805
854.988	4656
855.122	4603
855.256	4573
855.39	4729
855.524	4835
855.658	4717
855.792	4774
855.926	4679
856.06	4805
856.194	4828
856.327	4733
856.461	4664
856.595	4653
856.729	4618
856.862	4797
856.996	4774
857.13	4763
857.263	4782
857.397	4797
857.53	4687
857.664	4702
857.797	4797
857.931	4782
858.064	4748
858.197	4763
858.331	4649
858.464	4607
858.597	4561
858.731	4653
858.864	4717
858.997	4603
859.13	4653
859.263	4687
859.396	4672
859.529	4569
859.662	4516
859.795	4561
859.928	4615
860.061	4812
860.194	4763
860.327	4603
860.46	4615
860.592	4786
860.725	4736
860.858	4755
860.99	4675
861.123	4489
861.256	4577
861.388	4607
861.521	5223
861.653	4489
861.786	4455
861.918	4504
862.05	4527
862.183	4599
862.315	4622
862.447	4664
862.58	4561
862.712	4394
862.844	4394
862.976	4485
863.108	4519
863.24	4896
863.372	4360
863.504	4462
863.636	4443
863.768	4554
863.9	4402
864.032	4383
864.164	4436
864.296	4519
864.428	4592
864.559	4596
864.691	4565
864.823	4569
864.954	4554
865.086	4497
865.217	4546
865.349	4428
865.48	4527
865.612	4519
865.743	4611
865.875	4478
866.006	4443
866.137	4470
866.269	4478
866.4	4474
866.531	4459
866.662	4466
866.793	4436
866.924	4443
867.055	4451
867.186	4459
867.317	4466
867.448	4428
867.579	4443
867.71	4409
867.841	4371
867.972	4485
868.103	4500
868.233	4443
868.364	4474
868.495	4542
868.625	4698
868.756	4790
868.886	4569
869.017	4641
869.147	4774
869.278	4812
869.408	4733
869.539	4656
869.669	4687
869.799	4656
869.929	4805
870.06	4771
870.19	4946
870.32	4980
870.45	4934
870.58	5006
870.71	5067
870.84	5109
870.97	4976
871.1	4930
871.23	5159
871.36	5124
871.489	5045
871.619	5105
871.749	5102
871.879	5185
872.008	5201
872.138	5098
872.267	5033
872.397	4923
872.526	4812
872.656	4752
872.785	4850
872.915	4942
873.044	5037
873.173	4938
873.303	5018
873.432	4980
873.561	4938
873.69	4870
873.819	4866
873.948	4915
874.077	4862
874.206	4725
874.335	4858
874.464	4972
874.593	5045
874.722	4972
874.851	5181
874.979	5060
875.108	5071
875.237	4889
875.365	4892
875.494	4911
875.623	4984
875.751	4850
875.88	4919
876.008	4953
876.136	5067
876.265	5201
876.393	5360
876.521	5322
876.65	5231
876.778	5143
876.906	5109
877.034	5033
877.162	5018
877.29	5006
877.418	5079
877.546	5022
877.674	5083
877.802	5079
877.93	5064
878.058	4980
878.185	4877
878.313	5018
878.441	4980
878.568	4847
878.696	4919
878.824	4957
878.951	4999
879.079	5155
879.206	5318
879.333	5094
879.461	5022
879.588	5029
879.715	5162
879.842	5201
879.97	5037
880.097	4847
880.224	4763
880.351	4824
880.478	4877
880.605	4828
880.732	4774
880.859	5113
880.986	4873
881.112	4873
881.239	4809
881.366	4698
881.493	4656
881.619	4611
881.746	4679
881.872	4683
881.999	4626
882.125	4740
882.252	4805
882.378	4824
882.505	4961
882.631	4866
882.757	4706
882.883	4725
883.01	4744
883.136	4653
883.262	4588
883.388	4656
883.514	4816
883.64	4866
883.766	4801
883.892	4725
884.018	4736
884.143	4911
884.269	4968
884.395	4729
884.52	4668
884.646	4679
884.772	4630
884.897	4561
885.023	4710
885.148	4854
885.274	4881
885.399	4850
885.524	4755
885.65	4683
885.775	4793
885.9	4755
886.025	4847
886.15	4797
886.275	4752
886.4	4687
886.525	4736
886.65	4721
886.775	4710
886.9	4930
887.025	5079
887.149	4816
887.274	4687
887.399	4584
887.523	4626
887.648	4596
887.773	4630
887.897	4771
888.021	4774
888.146	4664
888.27	4812
888.395	4957
888.519	4839
888.643	4793
888.767	4854
888.891	4691
889.015	4607
889.139	4618
889.263	4645
889.387	4805
889.511	4877
889.635	4755
889.759	4668
889.883	4649
890.006	4683
890.13	4797
890.254	4645
890.377	4717
890.501	4577
890.624	4554
890.748	4672
890.871	4481
890.995	4424
891.118	4352
891.241	4512
891.364	4577
891.488	4645
891.611	4497
891.734	4493
891.857	4588
891.98	4504
892.103	4691
892.226	4577
892.349	4535
892.471	4462
892.594	4577
892.717	4618
892.839	4565
892.962	4592
893.085	4645
893.207	4622
893.33	4451
893.452	4531
893.575	4626
893.697	4588
893.819	4790
893.941	4831
894.064	4778
894.186	4618
894.308	4592
894.43	4767
894.552	4870
894.674	4736
894.796	4523
894.918	4698
895.04	4546
895.161	4710
895.283	4649
895.405	4584
895.526	4615
895.648	4672
895.769	4729
895.891	4721
896.012	4771
896.134	4702
896.255	4653
896.376	4630
896.498	4645
896.619	4664
896.74	4637
896.861	4714
896.982	4892
897.103	5121
897.224	4847
897.345	4778
897.466	4672
897.587	4740
897.708	4847
897.828	4771
897.949	4691
898.07	4596
898.19	4656
898.311	4847
898.431	4649
898.552	4744
898.672	4816
898.792	4820
898.913	4755
899.033	4626
899.153	4535
899.273	4474
899.393	4504
899.513	4580
899.633	4558
899.753	4500
899.873	4489
899.993	4577
900.113	4504
900.232	4599
900.352	4565
900.472	4455
900.591	4432
900.711	4519
900.83	4470
900.95	4615
901.069	4672
901.189	4565
901.308	4375
901.427	4295
901.546	4383
901.665	4462
901.784	4497
901.904	4341
902.023	4295
902.141	4234
902.26	4188
902.379	4299
902.498	4295
902.617	4249
902.735	4333
902.854	4421
902.973	4363
903.091	4265
903.21	4215
903.328	4333
903.446	4249
903.565	4227
903.683	4375
903.801	4314
903.919	4405
904.038	4421
904.156	4295
904.274	4424
904.392	4405
904.51	4447
904.627	4485
904.745	4577
904.863	4649
904.981	4443
905.098	4352
905.216	4371
905.334	4455
905.451	4481
905.569	4485
905.686	4546
905.803	4512
905.921	4386
906.038	4558
906.155	4478
906.272	4421
906.389	4474
906.506	4348
906.623	4371
906.74	4379
906.857	4306
906.974	4394
907.091	4588
907.208	4630
907.324	4596
907.441	4516
907.557	4379
907.674	4360
907.79	4352
907.907	4413
908.023	4447
908.139	4493
908.256	4405
908.372	4459
908.488	4451
908.604	4344
908.72	4322
908.836	4363
908.952	4383
909.068	4409
909.184	4622
909.3	4455
909.415	4538
909.531	4569
909.647	4333
909.762	4375
909.878	4375
909.993	4436
910.108	4421
910.224	4360
910.339	4504
910.454	4421
910.57	4363
910.685	4329
910.8	4660
910.915	4615
911.03	4516
911.145	4318
911.259	4333
911.374	4379
911.489	4318
911.604	4261
911.718	4177
911.833	4150
911.947	4074
912.062	4044
912.176	4207
912.291	4253
912.405	4318
912.519	4493
912.633	4497
912.748	4390
912.862	4360
912.976	4200
913.09	4086
913.204	4166
913.318	4238
913.431	4386
913.545	4375
913.659	4443
913.772	4360
913.886	4272
914	4196
914.113	4383
914.226	4421
914.34	4394
914.453	4246
914.566	4459
914.68	4242
914.793	4333
914.906	4166
915.019	4131
915.132	4040
915.245	4192
915.358	4249
915.47	4215
915.583	4261
915.696	4246
915.809	4417
915.921	4390
916.034	4314
916.146	4261
916.259	4177
916.371	4398
916.483	4333
916.595	4356
916.708	4333
916.82	4348
916.932	4287
917.044	4390
917.156	4344
917.268	4219
917.38	4318
917.491	4227
917.603	4337
917.715	4417
917.826	4413
917.938	4402
918.049	4284
918.161	4402
918.272	4531
918.384	4523
918.495	4466
918.606	4295
918.717	4253
918.828	4325
918.939	4371
919.05	4219
919.161	4303
919.272	4143
919.383	4268
919.494	4421
919.604	4630
919.715	4443
919.826	4398
919.936	4413
920.047	4523
920.157	4470
920.267	4721
920.378	4558
920.488	4538
920.598	4755
920.708	4927
920.818	4729
920.928	4744
921.038	4938
921.148	4866
921.258	4622
921.368	4580
921.477	4497
921.587	4470
921.697	4360
921.806	4519
921.916	4432
922.025	4291
922.134	4287
922.244	4207
922.353	4329
922.462	4158
922.571	4166
922.68	3994
922.789	3987
922.898	4048
923.007	3945
923.116	4101
923.224	4097
923.333	4044
923.442	3968
923.55	3949
923.659	4021
923.767	4112
923.876	3998
923.984	4131
924.092	3972
924.201	4093
924.309	4093
924.417	4131
924.525	4093
924.633	4105
924.741	4820
924.849	3911
924.956	4112
925.064	3956
925.172	3918
925.279	3972
925.387	4074
925.494	4109
925.602	4185
925.709	4166
925.816	4051
925.924	4158
926.031	4223
926.138	4196
926.245	4219
926.352	4116
926.459	4242
926.566	4299
926.673	4158
926.779	4086
926.886	4086
926.993	3991
927.099	3926
927.206	3941
927.312	3972
927.419	4051
927.525	4021
927.631	4097
927.737	3956
927.843	3945
927.95	3842
928.056	3983
928.162	3968
928.267	4051
928.373	4603
928.479	4150
928.585	3892
928.69	4013
928.796	4067
928.901	3934
929.007	3873
929.112	4040
929.218	3975
929.323	3953
929.428	3979
929.533	4124
929.638	3918
929.743	3983
929.848	4067
929.953	4006
930.058	3941
930.163	3804
930.267	3854
930.372	3975
930.477	3781
930.581	4059
930.685	3888
930.79	3819
930.894	3869
930.998	3831
931.103	4055
931.207	3701
931.311	3705
931.415	3709
931.519	3534
931.623	3568
