Data from test_V78500241_115.txt Node
Date: Fri Mar 25 16:49:48 CST 2022
User: usil
Spectrometer: V785-0024
Trigger mode: 0
Integration Time (sec): 4.000000E-1
Scans to average: 1
Nonlinearity correction enabled: false
Boxcar width: 0
Storing dark spectrum: false
XAxis mode: Wavelengths
Number of Pixels in Spectrum: 1024
>>>>>Begin Spectral Data<<<<<
801.071	8024
801.214	8054
801.356	7940
801.499	7868
801.641	7871
801.783	7879
801.926	8024
802.068	7925
802.211	7970
802.353	7951
802.496	7852
802.638	7898
802.78	7932
802.923	7955
803.065	7917
803.208	7833
803.35	7978
803.492	8073
803.635	8161
803.777	7925
803.919	8058
804.061	8381
804.204	8107
804.346	8046
804.488	7974
804.63	8115
804.773	7978
804.915	8050
805.057	8210
805.199	8138
805.341	8252
805.483	8180
805.626	8199
805.768	8046
805.91	8214
806.052	8168
806.194	8043
806.336	8366
806.478	8134
806.62	8084
806.762	8210
806.904	8374
807.046	8473
807.188	8309
807.33	8221
807.472	8286
807.614	8073
807.756	8164
807.898	7997
808.04	8008
808.182	7947
808.324	7906
808.465	7963
808.607	8039
808.749	8096
808.891	8248
809.033	8286
809.174	8206
809.316	8035
809.458	8054
809.6	8001
809.741	7993
809.883	8043
810.025	8123
810.166	8123
810.308	8054
810.45	8027
810.591	7906
810.733	7772
810.875	7715
811.016	7518
811.158	7483
811.299	7636
811.441	7784
811.582	7708
811.724	7658
811.865	7639
812.007	7685
812.148	7666
812.29	7689
812.431	7807
812.573	7936
812.714	7986
812.855	8267
812.997	8305
813.138	8446
813.279	8317
813.421	8168
813.562	8054
813.703	7898
813.845	7738
813.986	7449
814.127	7270
814.268	7232
814.41	7297
814.551	7244
814.692	7305
814.833	7164
814.974	7114
815.115	7202
815.256	7004
815.397	6928
815.539	7015
815.68	6867
815.821	6734
815.962	6840
816.103	6833
816.244	6711
816.385	6650
816.526	6601
816.666	6506
816.807	6319
816.948	6475
817.089	6521
817.23	6498
817.371	6479
817.512	6467
817.653	6414
817.793	6384
817.934	6437
818.075	6490
818.216	6433
818.356	6479
818.497	6369
818.638	6209
818.778	6171
818.919	6228
819.06	6201
819.2	6334
819.341	6353
819.481	6369
819.622	6612
819.762	6806
819.903	6745
820.043	6547
820.184	6627
820.324	6593
820.465	6703
820.605	6688
820.746	6631
820.886	6578
821.026	6681
821.167	6707
821.307	6821
821.447	6741
821.588	6688
821.728	6597
821.868	6555
822.008	6372
822.149	6391
822.289	6410
822.429	6201
822.569	6140
822.709	6117
822.849	5927
822.99	5939
823.13	5984
823.27	5950
823.41	5752
823.55	5817
823.69	5790
823.83	5798
823.97	5756
824.11	5604
824.25	5585
824.389	5570
824.529	5619
824.669	5619
824.809	5699
824.949	5699
825.089	5649
825.228	5581
825.368	5433
825.508	5326
825.648	5349
825.787	5455
825.927	5368
826.067	5372
826.206	5303
826.346	5345
826.485	5353
826.625	5436
826.765	5573
826.904	5490
827.044	5277
827.183	5185
827.323	5159
827.462	5250
827.601	5181
827.741	5216
827.88	5204
828.02	5132
828.159	5269
828.298	5269
828.437	5398
828.577	5292
828.716	5493
828.855	5311
828.994	5136
829.134	5174
829.273	5185
829.412	5181
829.551	5102
829.69	5147
829.829	5277
829.968	5311
830.107	5273
830.246	5311
830.385	5185
830.524	5159
830.663	5098
830.802	5022
830.941	4892
831.08	4915
831.219	4957
831.357	4987
831.496	5094
831.635	4911
831.774	4904
831.913	4915
832.051	4786
832.19	4759
832.329	4862
832.467	4725
832.606	4599
832.744	4759
832.883	4771
833.022	4759
833.16	4759
833.299	4835
833.437	4847
833.576	4850
833.714	4885
833.852	4873
833.991	4923
834.129	5003
834.267	4930
834.406	4911
834.544	4961
834.682	4995
834.821	5006
834.959	5178
835.097	4984
835.235	5105
835.373	5083
835.511	5159
835.65	5052
835.788	5045
835.926	4904
836.064	4889
836.202	4904
836.34	5189
836.478	5212
836.615	5132
836.753	5223
836.891	5296
837.029	5330
837.167	5185
837.305	5189
837.443	5159
837.58	5102
837.718	5273
837.856	5201
837.993	5208
838.131	5250
838.269	5280
838.406	5231
838.544	5189
838.681	5086
838.819	5022
838.956	4965
839.094	4930
839.231	5003
839.369	5155
839.506	5391
839.643	5288
839.781	5067
839.918	5010
840.055	5140
840.193	5098
840.33	5166
840.467	5197
840.604	5208
840.742	5459
840.879	5098
841.016	5143
841.153	5189
841.29	5387
841.427	5334
841.564	5299
841.701	5357
841.838	5265
841.975	5280
842.112	5318
842.249	5121
842.385	5151
842.522	5383
842.659	5197
842.796	5147
842.933	5162
843.069	5212
843.206	5151
843.343	5357
843.479	5235
843.616	5303
843.752	4980
843.889	5041
844.025	5201
844.162	5010
844.298	5189
844.435	5102
844.571	5098
844.708	5208
844.844	5402
844.98	5315
845.117	5273
845.253	5143
845.389	5136
845.525	5212
845.661	5189
845.798	5083
845.934	5132
846.07	5071
846.206	5227
846.342	5288
846.478	5254
846.614	5067
846.75	4965
846.886	4938
847.022	5147
847.158	5029
847.294	5075
847.429	5147
847.565	5113
847.701	5318
847.837	4870
847.972	4843
848.108	5025
848.244	4987
848.379	4820
848.515	4702
848.65	4706
848.786	4748
848.921	4854
849.057	4930
849.192	4873
849.328	4824
849.463	4885
849.598	4824
849.734	4767
849.869	4774
850.004	4630
850.14	4656
850.275	4626
850.41	4550
850.545	4542
850.68	4626
850.815	4634
850.95	4656
851.085	4809
851.22	4759
851.355	4660
851.49	4630
851.625	4649
851.76	4637
851.895	4611
852.03	4558
852.165	4702
852.299	4797
852.434	4805
852.569	4744
852.703	4771
852.838	4843
852.973	4976
853.107	4953
853.242	4752
853.376	4733
853.511	4607
853.645	4592
853.78	4816
853.914	4694
854.048	4668
854.183	4645
854.317	4725
854.451	4870
854.585	4691
854.72	4672
854.854	4786
854.988	4630
855.122	4679
855.256	4535
855.39	4672
855.524	4824
855.658	4721
855.792	4691
855.926	4740
856.06	4805
856.194	4793
856.327	4675
856.461	4649
856.595	4611
856.729	4626
856.862	4763
856.996	4672
857.13	4729
857.263	4733
857.397	4824
857.53	4694
857.664	4748
857.797	4778
857.931	4816
858.064	4771
858.197	4797
858.331	4691
858.464	4653
858.597	4531
858.731	4626
858.864	4717
858.997	4573
859.13	4664
859.263	4744
859.396	4710
859.529	4561
859.662	4615
859.795	4527
859.928	4649
860.061	4805
860.194	4843
860.327	4649
860.46	4603
860.592	4656
860.725	4729
860.858	4763
860.99	4538
861.123	4607
861.256	4538
861.388	4618
861.521	5425
861.653	4519
861.786	4466
861.918	4508
862.05	4546
862.183	4538
862.315	4637
862.447	4675
862.58	4535
862.712	4455
862.844	4379
862.976	4538
863.108	4455
863.24	4877
863.372	4379
863.504	4455
863.636	4455
863.768	4493
863.9	4443
864.032	4386
864.164	4436
864.296	4478
864.428	4546
864.559	4531
864.691	4554
864.823	4519
864.954	4512
865.086	4565
865.217	4504
865.349	4432
865.48	4466
865.612	4512
865.743	4630
865.875	4497
866.006	4428
866.137	4440
866.269	4470
866.4	4455
866.531	4440
866.662	4398
866.793	4432
866.924	4459
867.055	4542
867.186	4455
867.317	4417
867.448	4421
867.579	4421
867.71	4390
867.841	4375
867.972	4447
868.103	4474
868.233	4459
868.364	4478
868.495	4497
868.625	4630
868.756	4767
868.886	4599
869.017	4607
869.147	4805
869.278	4809
869.408	4618
869.539	4706
869.669	4752
869.799	4714
869.929	4816
870.06	4733
870.19	4984
870.32	4976
870.45	4923
870.58	5075
870.71	5117
870.84	5083
870.97	5003
871.1	4908
871.23	5147
871.36	5140
871.489	5033
871.619	5128
871.749	5090
871.879	5155
872.008	5197
872.138	5064
872.267	5025
872.397	4847
872.526	4828
872.656	4744
872.785	4831
872.915	4991
873.044	5048
873.173	4968
873.303	4984
873.432	4949
873.561	4965
873.69	4919
873.819	4892
873.948	4911
874.077	4870
874.206	4816
874.335	4881
874.464	4953
874.593	5090
874.722	5006
874.851	5083
874.979	5102
875.108	5056
875.237	4961
875.365	4908
875.494	4919
875.623	4961
875.751	4820
875.88	4847
876.008	4999
876.136	5052
876.265	5254
876.393	5372
876.521	5307
876.65	5288
876.778	5155
876.906	5113
877.034	5033
877.162	5022
877.29	4972
877.418	5033
877.546	5045
877.674	5052
877.802	5071
877.93	5029
878.058	4961
878.185	4915
878.313	4995
878.441	4957
878.568	4828
878.696	4908
878.824	4999
878.951	5022
879.079	5132
879.206	5265
879.333	5075
879.461	5048
879.588	5010
879.715	5109
879.842	5258
879.97	4995
880.097	4793
880.224	4748
880.351	4850
880.478	4828
880.605	4820
880.732	4801
880.859	5109
880.986	4847
881.112	4934
881.239	4782
881.366	4714
881.493	4637
881.619	4615
881.746	4664
881.872	4656
881.999	4668
882.125	4733
882.252	4816
882.378	4866
882.505	4934
882.631	4870
882.757	4691
882.883	4736
883.01	4771
883.136	4725
883.262	4637
883.388	4622
883.514	4858
883.64	4911
883.766	4843
883.892	4702
884.018	4755
884.143	4927
884.269	4984
884.395	4622
884.52	4584
884.646	4656
884.772	4630
884.897	4558
885.023	4717
885.148	4816
885.274	4870
885.399	4797
885.524	4714
885.65	4698
885.775	4733
885.9	4714
886.025	4908
886.15	4771
886.275	4733
886.4	4656
886.525	4729
886.65	4710
886.775	4740
886.9	4904
887.025	5064
887.149	4847
887.274	4637
887.399	4596
887.523	4660
887.648	4592
887.773	4641
887.897	4740
888.021	4752
888.146	4752
888.27	4858
888.395	4946
888.519	4793
888.643	4839
888.767	4824
888.891	4653
889.015	4599
889.139	4637
889.263	4615
889.387	4736
889.511	4881
889.635	4820
889.759	4656
889.883	4672
890.006	4748
890.13	4850
890.254	4618
890.377	4660
890.501	4588
890.624	4531
890.748	4672
890.871	4558
890.995	4443
891.118	4375
891.241	4535
891.364	4603
891.488	4660
891.611	4474
891.734	4626
891.857	4656
891.98	4592
892.103	4634
892.226	4634
892.349	4577
892.471	4470
892.594	4546
892.717	4637
892.839	4615
892.962	4592
893.085	4641
893.207	4656
893.33	4497
893.452	4512
893.575	4664
893.697	4599
893.819	4778
893.941	4900
894.064	4774
894.186	4599
894.308	4634
894.43	4771
894.552	4843
894.674	4809
894.796	4565
894.918	4649
895.04	4592
895.161	4702
895.283	4748
895.405	4527
895.526	4626
895.648	4725
895.769	4714
895.891	4755
896.012	4767
896.134	4774
896.255	4710
896.376	4668
896.498	4641
896.619	4721
896.74	4645
896.861	4721
896.982	4949
897.103	5079
897.224	4881
897.345	4759
897.466	4694
897.587	4748
897.708	4862
897.828	4778
897.949	4679
898.07	4577
898.19	4687
898.311	4828
898.431	4729
898.552	4816
898.672	4866
898.792	4790
898.913	4755
899.033	4660
899.153	4561
899.273	4432
899.393	4519
899.513	4504
899.633	4500
899.753	4535
899.873	4535
899.993	4584
900.113	4531
900.232	4584
900.352	4558
900.472	4516
900.591	4455
900.711	4481
900.83	4462
900.95	4607
901.069	4694
901.189	4554
901.308	4379
901.427	4363
901.546	4424
901.665	4554
901.784	4497
901.904	4405
902.023	4402
902.141	4215
902.26	4158
902.379	4287
902.498	4268
902.617	4265
902.735	4436
902.854	4432
902.973	4363
903.091	4230
903.21	4215
903.328	4329
903.446	4272
903.565	4303
903.683	4383
903.801	4306
903.919	4375
904.038	4455
904.156	4333
904.274	4462
904.392	4443
904.51	4459
904.627	4497
904.745	4588
904.863	4664
904.981	4398
905.098	4363
905.216	4322
905.334	4421
905.451	4474
905.569	4440
905.686	4607
905.803	4565
905.921	4466
906.038	4569
906.155	4500
906.272	4402
906.389	4428
906.506	4344
906.623	4417
906.74	4394
906.857	4299
906.974	4398
907.091	4523
907.208	4687
907.324	4622
907.441	4523
907.557	4371
907.674	4360
907.79	4344
907.907	4402
908.023	4569
908.139	4474
908.256	4443
908.372	4497
908.488	4497
908.604	4329
908.72	4367
908.836	4379
908.952	4390
909.068	4489
909.184	4580
909.3	4500
909.415	4596
909.531	4592
909.647	4363
909.762	4367
909.878	4322
909.993	4470
910.108	4447
910.224	4455
910.339	4508
910.454	4421
910.57	4325
910.685	4318
910.8	4694
910.915	4588
911.03	4519
911.145	4306
911.259	4367
911.374	4329
911.489	4352
911.604	4280
911.718	4188
911.833	4238
911.947	4101
912.062	4029
912.176	4230
912.291	4276
912.405	4238
912.519	4504
912.633	4531
912.748	4409
912.862	4344
912.976	4253
913.09	4078
913.204	4188
913.318	4268
913.431	4337
913.545	4398
913.659	4462
913.772	4390
913.886	4223
914	4253
914.113	4394
914.226	4470
914.34	4459
914.453	4242
914.566	4428
914.68	4383
914.793	4352
914.906	4188
915.019	4147
915.132	4055
915.245	4196
915.358	4242
915.47	4257
915.583	4276
915.696	4299
915.809	4394
915.921	4413
916.034	4287
916.146	4295
916.259	4227
916.371	4363
916.483	4333
916.595	4268
916.708	4322
916.82	4375
916.932	4398
917.044	4322
917.156	4329
917.268	4261
917.38	4306
917.491	4284
917.603	4383
917.715	4390
917.826	4459
917.938	4318
918.049	4242
918.161	4436
918.272	4558
918.384	4577
918.495	4459
918.606	4337
918.717	4268
918.828	4352
918.939	4413
919.05	4291
919.161	4329
919.272	4131
919.383	4280
919.494	4455
919.604	4702
919.715	4470
919.826	4363
919.936	4413
920.047	4535
920.157	4489
920.267	4714
920.378	4546
920.488	4516
920.598	4812
920.708	4938
920.818	4831
920.928	4752
921.038	4938
921.148	4927
921.258	4611
921.368	4592
921.477	4546
921.587	4466
921.697	4402
921.806	4535
921.916	4478
922.025	4284
922.134	4257
922.244	4246
922.353	4360
922.462	4192
922.571	4109
922.68	4078
922.789	3972
922.898	4055
923.007	3991
923.116	4150
923.224	4067
923.333	4124
923.442	4006
923.55	4010
923.659	4025
923.767	4093
923.876	3991
923.984	4158
924.092	3983
924.201	4112
924.309	4109
924.417	4109
924.525	4055
924.633	4147
924.741	4858
924.849	3911
924.956	4135
925.064	3937
925.172	3884
925.279	3994
925.387	4036
925.494	4090
925.602	4242
925.709	4173
925.816	4055
925.924	4135
926.031	4238
926.138	4177
926.245	4234
926.352	4120
926.459	4238
926.566	4337
926.673	4200
926.779	4128
926.886	4074
926.993	3975
927.099	3968
927.206	3960
927.312	3964
927.419	4067
927.525	4082
927.631	4116
927.737	3953
927.843	3945
927.95	3880
928.056	3964
928.162	4010
928.267	4071
928.373	4607
928.479	4158
928.585	3884
928.69	4044
928.796	4112
928.901	3949
929.007	3857
929.112	4048
929.218	4010
929.323	3979
929.428	3949
929.533	4109
929.638	3934
929.743	3991
929.848	4074
929.953	4002
930.058	3945
930.163	3842
930.267	3854
930.372	4032
930.477	3831
930.581	4162
930.685	3979
930.79	3846
930.894	3941
930.998	3876
931.103	4074
931.207	3751
931.311	3717
931.415	3747
931.519	3534
931.623	3603
