Data from test_V78500241_1645.txt Node
Date: Fri Mar 25 17:00:26 CST 2022
User: usil
Spectrometer: V785-0024
Trigger mode: 0
Integration Time (sec): 4.000000E-1
Scans to average: 1
Nonlinearity correction enabled: false
Boxcar width: 0
Storing dark spectrum: false
XAxis mode: Wavelengths
Number of Pixels in Spectrum: 1024
>>>>>Begin Spectral Data<<<<<
801.071	8005
801.214	7967
801.356	7917
801.499	7845
801.641	7761
801.783	7871
801.926	7997
802.068	7974
802.211	8096
802.353	8065
802.496	7932
802.638	7978
802.78	7928
802.923	7940
803.065	7887
803.208	7925
803.35	8020
803.492	8096
803.635	8218
803.777	8077
803.919	8187
804.061	8522
804.204	8149
804.346	8107
804.488	7982
804.63	8138
804.773	8153
804.915	8164
805.057	8305
805.199	8240
805.341	8229
805.483	8263
805.626	8214
805.768	8176
805.91	8240
806.052	8233
806.194	8149
806.336	8294
806.478	8164
806.62	8138
806.762	8191
806.904	8305
807.046	8530
807.188	8339
807.33	8305
807.472	8298
807.614	8233
807.756	8161
807.898	8005
808.04	7986
808.182	7917
808.324	7913
808.465	7909
808.607	8069
808.749	8115
808.891	8237
809.033	8256
809.174	8263
809.316	8111
809.458	8039
809.6	8084
809.741	8020
809.883	8058
810.025	8123
810.166	8058
810.308	8027
810.45	7986
810.591	7856
810.733	7715
810.875	7632
811.016	7499
811.158	7487
811.299	7651
811.441	7712
811.582	7776
811.724	7628
811.865	7537
812.007	7552
812.148	7556
812.29	7647
812.431	7792
812.573	7883
812.714	8020
812.855	8202
812.997	8286
813.138	8404
813.279	8233
813.421	8111
813.562	8084
813.703	7837
813.845	7742
813.986	7434
814.127	7202
814.268	7255
814.41	7221
814.551	7213
814.692	7168
814.833	7076
814.974	7107
815.115	7190
815.256	7008
815.397	6935
815.539	6916
815.68	6837
815.821	6806
815.962	6909
816.103	6810
816.244	6738
816.385	6612
816.526	6623
816.666	6464
816.807	6327
816.948	6490
817.089	6445
817.23	6418
817.371	6433
817.512	6350
817.653	6380
817.793	6452
817.934	6456
818.075	6506
818.216	6429
818.356	6448
818.497	6289
818.638	6091
818.778	6178
818.919	6140
819.06	6182
819.2	6331
819.341	6399
819.481	6410
819.622	6604
819.762	6757
819.903	6692
820.043	6612
820.184	6585
820.324	6623
820.465	6791
820.605	6711
820.746	6639
820.886	6532
821.026	6700
821.167	6719
821.307	6806
821.447	6719
821.588	6665
821.728	6627
821.868	6494
822.008	6365
822.149	6391
822.289	6395
822.429	6194
822.569	6076
822.709	6152
822.849	5931
822.99	5923
823.13	5882
823.27	5912
823.41	5821
823.55	5809
823.69	5798
823.83	5786
823.97	5630
824.11	5619
824.25	5535
824.389	5554
824.529	5547
824.669	5535
824.809	5615
824.949	5627
825.089	5634
825.228	5585
825.368	5349
825.508	5372
825.648	5379
825.787	5360
825.927	5406
826.067	5292
826.206	5318
826.346	5395
826.485	5440
826.625	5395
826.765	5589
826.904	5429
827.044	5258
827.183	5242
827.323	5193
827.462	5261
827.601	5212
827.741	5166
827.88	5246
828.02	5143
828.159	5250
828.298	5307
828.437	5395
828.577	5273
828.716	5490
828.855	5353
828.994	5242
829.134	5174
829.273	5216
829.412	5178
829.551	5189
829.69	5197
829.829	5265
829.968	5379
830.107	5288
830.246	5254
830.385	5128
830.524	5189
830.663	5075
830.802	5006
830.941	4911
831.08	4904
831.219	4972
831.357	4976
831.496	5162
831.635	4987
831.774	4877
831.913	4835
832.051	4755
832.19	4733
832.329	4797
832.467	4721
832.606	4660
832.744	4755
832.883	4725
833.022	4763
833.16	4782
833.299	4854
833.437	4828
833.576	4831
833.714	4881
833.852	4915
833.991	4900
834.129	4923
834.267	4991
834.406	4934
834.544	4999
834.682	5056
834.821	5010
834.959	5239
835.097	4991
835.235	5185
835.373	5102
835.511	5113
835.65	5048
835.788	5045
835.926	4930
836.064	4862
836.202	4927
836.34	5155
836.478	5227
836.615	5151
836.753	5208
836.891	5299
837.029	5239
837.167	5178
837.305	5189
837.443	5181
837.58	5121
837.718	5269
837.856	5178
837.993	5197
838.131	5269
838.269	5284
838.406	5212
838.544	5174
838.681	5041
838.819	5022
838.956	4911
839.094	4900
839.231	4976
839.369	5083
839.506	5387
839.643	5299
839.781	5105
839.918	5014
840.055	5128
840.193	5075
840.33	5128
840.467	5166
840.604	5204
840.742	5398
840.879	5079
841.016	5067
841.153	5147
841.29	5357
841.427	5315
841.564	5326
841.701	5322
841.838	5235
841.975	5284
842.112	5296
842.249	5132
842.385	5143
842.522	5372
842.659	5170
842.796	5155
842.933	5166
843.069	5178
843.206	5162
843.343	5322
843.479	5235
843.616	5284
843.752	5083
843.889	4991
844.025	5242
844.162	5064
844.298	5231
844.435	5079
844.571	5121
844.708	5246
844.844	5269
844.98	5318
845.117	5292
845.253	5204
845.389	5075
845.525	5140
845.661	5166
845.798	4991
845.934	5181
846.07	5033
846.206	5170
846.342	5357
846.478	5155
846.614	5067
846.75	4972
846.886	4946
847.022	5181
847.158	5014
847.294	5121
847.429	5079
847.565	5045
847.701	5334
847.837	4908
847.972	4828
848.108	4957
848.244	4965
848.379	4801
848.515	4786
848.65	4733
848.786	4740
848.921	4805
849.057	4908
849.192	4896
849.328	4839
849.463	4847
849.598	4835
849.734	4786
849.869	4694
850.004	4656
850.14	4656
850.275	4611
850.41	4523
850.545	4565
850.68	4580
850.815	4615
850.95	4634
851.085	4930
851.22	4782
851.355	4706
851.49	4615
851.625	4656
851.76	4649
851.895	4584
852.03	4565
852.165	4634
852.299	4763
852.434	4858
852.569	4748
852.703	4748
852.838	4900
852.973	4919
853.107	4915
853.242	4767
853.376	4721
853.511	4569
853.645	4618
853.78	4797
853.914	4683
854.048	4649
854.183	4660
854.317	4721
854.451	4839
854.585	4736
854.72	4645
854.854	4801
854.988	4592
855.122	4641
855.256	4580
855.39	4687
855.524	4782
855.658	4691
855.792	4717
855.926	4714
856.06	4778
856.194	4797
856.327	4664
856.461	4645
856.595	4660
856.729	4645
856.862	4748
856.996	4653
857.13	4721
857.263	4736
857.397	4820
857.53	4618
857.664	4710
857.797	4778
857.931	4835
858.064	4694
858.197	4790
858.331	4656
858.464	4618
858.597	4558
858.731	4649
858.864	4630
858.997	4641
859.13	4649
859.263	4706
859.396	4714
859.529	4618
859.662	4565
859.795	4535
859.928	4664
860.061	4767
860.194	4805
860.327	4611
860.46	4577
860.592	4687
860.725	4736
860.858	4736
860.99	4588
861.123	4512
861.256	4500
861.388	4660
861.521	5220
861.653	4493
861.786	4481
861.918	4451
862.05	4504
862.183	4592
862.315	4580
862.447	4637
862.58	4592
862.712	4432
862.844	4383
862.976	4462
863.108	4478
863.24	4763
863.372	4348
863.504	4447
863.636	4402
863.768	4500
863.9	4470
864.032	4360
864.164	4360
864.296	4485
864.428	4485
864.559	4523
864.691	4519
864.823	4527
864.954	4519
865.086	4500
865.217	4462
865.349	4402
865.48	4436
865.612	4485
865.743	4626
865.875	4478
866.006	4436
866.137	4455
866.269	4459
866.4	4424
866.531	4421
866.662	4390
866.793	4409
866.924	4394
867.055	4500
867.186	4470
867.317	4421
867.448	4417
867.579	4428
867.71	4394
867.841	4356
867.972	4466
868.103	4478
868.233	4481
868.364	4485
868.495	4500
868.625	4702
868.756	4702
868.886	4569
869.017	4618
869.147	4786
869.278	4820
869.408	4694
869.539	4641
869.669	4687
869.799	4653
869.929	4771
870.06	4763
870.19	4946
870.32	4915
870.45	4908
870.58	5056
870.71	5140
870.84	5105
870.97	4972
871.1	4942
871.23	5151
871.36	5113
871.489	5010
871.619	5102
871.749	5113
871.879	5113
872.008	5117
872.138	5105
872.267	4987
872.397	4934
872.526	4801
872.656	4767
872.785	4744
872.915	4961
873.044	5037
873.173	4980
873.303	4904
873.432	4968
873.561	4965
873.69	4904
873.819	4904
873.948	4949
874.077	4793
874.206	4778
874.335	4774
874.464	4938
874.593	5067
874.722	4942
874.851	5098
874.979	5109
875.108	5067
875.237	4946
875.365	4828
875.494	4911
875.623	5003
875.751	4866
875.88	4885
876.008	5022
876.136	5041
876.265	5204
876.393	5368
876.521	5273
876.65	5181
876.778	5193
876.906	5109
877.034	4991
877.162	5060
877.29	4995
877.418	5067
877.546	5022
877.674	4999
877.802	4972
877.93	5014
878.058	4984
878.185	4881
878.313	4968
878.441	4957
878.568	4752
878.696	4866
878.824	4991
878.951	4991
879.079	5071
879.206	5273
879.333	5102
879.461	4987
879.588	4961
879.715	5124
879.842	5220
879.97	5018
880.097	4755
880.224	4698
880.351	4820
880.478	4831
880.605	4744
880.732	4847
880.859	5071
880.986	4885
881.112	4908
881.239	4755
881.366	4679
881.493	4603
881.619	4634
881.746	4599
881.872	4672
881.999	4607
882.125	4683
882.252	4763
882.378	4797
882.505	4953
882.631	4763
882.757	4637
882.883	4725
883.01	4721
883.136	4668
883.262	4611
883.388	4584
883.514	4763
883.64	4923
883.766	4744
883.892	4660
884.018	4698
884.143	4866
884.269	4984
884.395	4668
884.52	4592
884.646	4615
884.772	4573
884.897	4588
885.023	4683
885.148	4793
885.274	4858
885.399	4862
885.524	4717
885.65	4672
885.775	4771
885.9	4653
886.025	4824
886.15	4850
886.275	4717
886.4	4675
886.525	4729
886.65	4679
886.775	4683
886.9	4942
887.025	5029
887.149	4759
887.274	4656
887.399	4561
887.523	4615
887.648	4546
887.773	4611
887.897	4759
888.021	4831
888.146	4641
888.27	4809
888.395	4930
888.519	4828
888.643	4828
888.767	4801
888.891	4660
889.015	4622
889.139	4611
889.263	4653
889.387	4771
889.511	4896
889.635	4824
889.759	4653
889.883	4653
890.006	4710
890.13	4778
890.254	4615
890.377	4664
890.501	4569
890.624	4531
890.748	4660
890.871	4481
890.995	4424
891.118	4413
891.241	4489
891.364	4550
891.488	4645
891.611	4481
891.734	4561
891.857	4580
891.98	4527
892.103	4645
892.226	4580
892.349	4527
892.471	4424
892.594	4554
892.717	4672
892.839	4538
892.962	4550
893.085	4626
893.207	4694
893.33	4443
893.452	4554
893.575	4649
893.697	4577
893.819	4816
893.941	4801
894.064	4771
894.186	4554
894.308	4618
894.43	4694
894.552	4812
894.674	4668
894.796	4550
894.918	4649
895.04	4565
895.161	4702
895.283	4675
895.405	4523
895.526	4626
895.648	4725
895.769	4664
895.891	4721
896.012	4733
896.134	4706
896.255	4645
896.376	4683
896.498	4584
896.619	4664
896.74	4615
896.861	4607
896.982	4942
897.103	5060
897.224	4835
897.345	4729
897.466	4630
897.587	4694
897.708	4866
897.828	4801
897.949	4679
898.07	4592
898.19	4645
898.311	4809
898.431	4683
898.552	4710
898.672	4786
898.792	4812
898.913	4710
899.033	4622
899.153	4481
899.273	4428
899.393	4493
899.513	4519
899.633	4538
899.753	4493
899.873	4512
899.993	4588
900.113	4527
900.232	4558
900.352	4554
900.472	4436
900.591	4379
900.711	4451
900.83	4462
900.95	4584
901.069	4679
901.189	4561
901.308	4386
901.427	4344
901.546	4424
901.665	4459
901.784	4508
901.904	4367
902.023	4314
902.141	4219
902.26	4211
902.379	4272
902.498	4257
902.617	4234
902.735	4344
902.854	4409
902.973	4337
903.091	4173
903.21	4207
903.328	4306
903.446	4257
903.565	4242
903.683	4390
903.801	4276
903.919	4375
904.038	4375
904.156	4360
904.274	4474
904.392	4417
904.51	4455
904.627	4447
904.745	4584
904.863	4634
904.981	4394
905.098	4299
905.216	4360
905.334	4402
905.451	4432
905.569	4497
905.686	4535
905.803	4577
905.921	4405
906.038	4542
906.155	4462
906.272	4363
906.389	4466
906.506	4333
906.623	4371
906.74	4375
906.857	4310
906.974	4356
907.091	4588
907.208	4668
907.324	4577
907.441	4459
907.557	4310
907.674	4325
907.79	4291
907.907	4314
908.023	4466
908.139	4462
908.256	4383
908.372	4462
908.488	4447
908.604	4352
908.72	4303
908.836	4375
908.952	4371
909.068	4402
909.184	4615
909.3	4470
909.415	4611
909.531	4588
909.647	4367
909.762	4363
909.878	4344
909.993	4440
910.108	4409
910.224	4371
910.339	4485
910.454	4363
910.57	4371
910.685	4291
910.8	4611
910.915	4592
911.03	4500
911.145	4329
911.259	4371
911.374	4386
911.489	4318
911.604	4295
911.718	4192
911.833	4215
911.947	4093
912.062	4055
912.176	4204
912.291	4219
912.405	4268
912.519	4489
912.633	4504
912.748	4383
912.862	4280
912.976	4162
913.09	4101
913.204	4150
913.318	4242
913.431	4367
913.545	4344
913.659	4421
913.772	4394
913.886	4219
914	4227
914.113	4398
914.226	4428
914.34	4413
914.453	4192
914.566	4348
914.68	4299
914.793	4322
914.906	4158
915.019	4128
915.132	4074
915.245	4192
915.358	4215
915.47	4223
915.583	4268
915.696	4299
915.809	4398
915.921	4447
916.034	4246
916.146	4276
916.259	4223
916.371	4360
916.483	4390
916.595	4246
916.708	4318
916.82	4284
916.932	4295
917.044	4295
917.156	4356
917.268	4215
917.38	4287
917.491	4310
917.603	4337
917.715	4405
917.826	4413
917.938	4337
918.049	4200
918.161	4379
918.272	4546
918.384	4523
918.495	4455
918.606	4306
918.717	4272
918.828	4360
918.939	4383
919.05	4314
919.161	4284
919.272	4116
919.383	4230
919.494	4409
919.604	4645
919.715	4424
919.826	4367
919.936	4402
920.047	4542
920.157	4428
920.267	4706
920.378	4580
920.488	4451
920.598	4694
920.708	4835
920.818	4729
920.928	4744
921.038	4919
921.148	4938
921.258	4599
921.368	4508
921.477	4523
921.587	4413
921.697	4360
921.806	4535
921.916	4451
922.025	4238
922.134	4280
922.244	4227
922.353	4287
922.462	4173
922.571	4158
922.68	3991
922.789	3949
922.898	4006
923.007	4010
923.116	4112
923.224	3994
923.333	4078
923.442	3991
923.55	3972
923.659	4040
923.767	4029
923.876	4002
923.984	4090
924.092	3968
924.201	4063
924.309	4071
924.417	4135
924.525	4059
924.633	4135
924.741	4915
924.849	3941
924.956	4139
925.064	3930
925.172	3884
925.279	3941
925.387	4036
925.494	4074
925.602	4207
925.709	4177
925.816	4017
925.924	4109
926.031	4219
926.138	4116
926.245	4242
926.352	4112
926.459	4268
926.566	4280
926.673	4128
926.779	4086
926.886	4071
926.993	3960
927.099	3899
927.206	3945
927.312	3911
927.419	4071
927.525	4063
927.631	4029
927.737	3918
927.843	3941
927.95	3846
928.056	3884
928.162	3960
928.267	4067
928.373	4535
928.479	4105
928.585	3869
928.69	4044
928.796	4051
928.901	3926
929.007	3804
929.112	4006
929.218	3945
929.323	3934
929.428	3941
929.533	4093
929.638	3861
929.743	3922
929.848	4013
929.953	3968
930.058	3926
930.163	3785
930.267	3797
930.372	3956
930.477	3812
930.581	4040
930.685	3949
930.79	3823
930.894	3861
930.998	3827
931.103	4036
931.207	3728
931.311	3675
931.415	3656
931.519	3504
931.623	3534
