Data from test_V78500241_922.txt Node
Date: Fri Mar 25 16:55:24 CST 2022
User: usil
Spectrometer: V785-0024
Trigger mode: 0
Integration Time (sec): 4.000000E-1
Scans to average: 1
Nonlinearity correction enabled: false
Boxcar width: 0
Storing dark spectrum: false
XAxis mode: Wavelengths
Number of Pixels in Spectrum: 1024
>>>>>Begin Spectral Data<<<<<
801.071	8020
801.214	8077
801.356	7917
801.499	7879
801.641	7803
801.783	7852
801.926	7932
802.068	7894
802.211	7974
802.353	8039
802.496	7807
802.638	7898
802.78	7879
802.923	7925
803.065	7906
803.208	7868
803.35	8020
803.492	8176
803.635	8183
803.777	7997
803.919	8084
804.061	8454
804.204	8123
804.346	8012
804.488	7951
804.63	8046
804.773	8027
804.915	8149
805.057	8294
805.199	8153
805.341	8180
805.483	8332
805.626	8229
805.768	8035
805.91	8214
806.052	8218
806.194	8062
806.336	8317
806.478	8092
806.62	8172
806.762	8210
806.904	8263
807.046	8484
807.188	8358
807.33	8294
807.472	8339
807.614	8126
807.756	8096
807.898	7974
808.04	7906
808.182	7852
808.324	7879
808.465	7982
808.607	8043
808.749	8096
808.891	8168
809.033	8317
809.174	8229
809.316	8161
809.458	8050
809.6	7951
809.741	8062
809.883	8005
810.025	8134
810.166	8069
810.308	8027
810.45	7978
810.591	7909
810.733	7727
810.875	7712
811.016	7567
811.158	7483
811.299	7548
811.441	7715
811.582	7689
811.724	7624
811.865	7537
812.007	7624
812.148	7601
812.29	7746
812.431	7757
812.573	7887
812.714	7951
812.855	8084
812.997	8191
813.138	8305
813.279	8221
813.421	8126
813.562	8062
813.703	7913
813.845	7765
813.986	7457
814.127	7266
814.268	7228
814.41	7141
814.551	7168
814.692	7156
814.833	6981
814.974	7118
815.115	7072
815.256	6981
815.397	6913
815.539	6939
815.68	6856
815.821	6821
815.962	6897
816.103	6856
816.244	6768
816.385	6604
816.526	6585
816.666	6429
816.807	6350
816.948	6403
817.089	6517
817.23	6414
817.371	6399
817.512	6376
817.653	6372
817.793	6353
817.934	6429
818.075	6407
818.216	6445
818.356	6433
818.497	6270
818.638	6072
818.778	6159
818.919	6136
819.06	6224
819.2	6315
819.341	6327
819.481	6365
819.622	6486
819.762	6753
819.903	6715
820.043	6631
820.184	6502
820.324	6551
820.465	6662
820.605	6665
820.746	6646
820.886	6490
821.026	6684
821.167	6673
821.307	6795
821.447	6741
821.588	6669
821.728	6585
821.868	6521
822.008	6308
822.149	6418
822.289	6334
822.429	6117
822.569	6079
822.709	6091
822.849	5923
822.99	5889
823.13	5958
823.27	5916
823.41	5805
823.55	5718
823.69	5707
823.83	5771
823.97	5684
824.11	5509
824.25	5505
824.389	5520
824.529	5535
824.669	5497
824.809	5657
824.949	5638
825.089	5615
825.228	5505
825.368	5379
825.508	5341
825.648	5288
825.787	5376
825.927	5357
826.067	5341
826.206	5296
826.346	5360
826.485	5414
826.625	5433
826.765	5482
826.904	5524
827.044	5273
827.183	5181
827.323	5178
827.462	5250
827.601	5113
827.741	5155
827.88	5189
828.02	5109
828.159	5201
828.298	5299
828.437	5376
828.577	5254
828.716	5474
828.855	5261
828.994	5174
829.134	5136
829.273	5216
829.412	5170
829.551	5117
829.69	5121
829.829	5277
829.968	5391
830.107	5292
830.246	5242
830.385	5204
830.524	5185
830.663	5029
830.802	4995
830.941	4870
831.08	4831
831.219	4965
831.357	4934
831.496	5140
831.635	4965
831.774	4831
831.913	4881
832.051	4698
832.19	4767
832.329	4782
832.467	4683
832.606	4664
832.744	4706
832.883	4721
833.022	4755
833.16	4759
833.299	4820
833.437	4839
833.576	4831
833.714	4892
833.852	4873
833.991	4908
834.129	4949
834.267	4923
834.406	4873
834.544	4987
834.682	4961
834.821	4930
834.959	5105
835.097	4972
835.235	5185
835.373	5109
835.511	5113
835.65	5010
835.788	5048
835.926	4854
836.064	4923
836.202	4927
836.34	5208
836.478	5265
836.615	5094
836.753	5170
836.891	5284
837.029	5273
837.167	5132
837.305	5162
837.443	5094
837.58	5067
837.718	5239
837.856	5170
837.993	5128
838.131	5204
838.269	5242
838.406	5197
838.544	5128
838.681	4995
838.819	5006
838.956	4896
839.094	4919
839.231	4976
839.369	5075
839.506	5414
839.643	5280
839.781	5083
839.918	5033
840.055	5121
840.193	5128
840.33	5113
840.467	5117
840.604	5159
840.742	5376
840.879	5086
841.016	5090
841.153	5174
841.29	5353
841.427	5288
841.564	5334
841.701	5292
841.838	5299
841.975	5246
842.112	5288
842.249	5121
842.385	5098
842.522	5337
842.659	5178
842.796	5143
842.933	5181
843.069	5174
843.206	5181
843.343	5349
843.479	5250
843.616	5227
843.752	5010
843.889	4957
844.025	5181
844.162	5037
844.298	5231
844.435	5056
844.571	5037
844.708	5170
844.844	5315
844.98	5307
845.117	5299
845.253	5159
845.389	5109
845.525	5132
845.661	5147
845.798	5006
845.934	5132
846.07	5048
846.206	5178
846.342	5223
846.478	5212
846.614	4995
846.75	4980
846.886	4957
847.022	5170
847.158	5006
847.294	5094
847.429	5098
847.565	5071
847.701	5341
847.837	4839
847.972	4778
848.108	4949
848.244	4908
848.379	4759
848.515	4668
848.65	4725
848.786	4729
848.921	4771
849.057	4835
849.192	4892
849.328	4866
849.463	4835
849.598	4782
849.734	4744
849.869	4710
850.004	4611
850.14	4683
850.275	4649
850.41	4550
850.545	4565
850.68	4618
850.815	4573
850.95	4607
851.085	4816
851.22	4717
851.355	4615
851.49	4630
851.625	4618
851.76	4660
851.895	4573
852.03	4538
852.165	4603
852.299	4729
852.434	4816
852.569	4763
852.703	4790
852.838	4816
852.973	4911
853.107	4877
853.242	4694
853.376	4653
853.511	4531
853.645	4618
853.78	4763
853.914	4687
854.048	4626
854.183	4637
854.317	4694
854.451	4828
854.585	4702
854.72	4622
854.854	4736
854.988	4603
855.122	4615
855.256	4516
855.39	4706
855.524	4717
855.658	4679
855.792	4656
855.926	4702
856.06	4740
856.194	4771
856.327	4668
856.461	4622
856.595	4641
856.729	4634
856.862	4752
856.996	4710
857.13	4664
857.263	4767
857.397	4805
857.53	4630
857.664	4706
857.797	4790
857.931	4786
858.064	4691
858.197	4691
858.331	4615
858.464	4596
858.597	4523
858.731	4622
858.864	4649
858.997	4569
859.13	4592
859.263	4672
859.396	4672
859.529	4565
859.662	4550
859.795	4497
859.928	4554
860.061	4752
860.194	4755
860.327	4630
860.46	4577
860.592	4740
860.725	4691
860.858	4710
860.99	4535
861.123	4493
861.256	4542
861.388	4580
861.521	5178
861.653	4485
861.786	4436
861.918	4432
862.05	4535
862.183	4531
862.315	4565
862.447	4668
862.58	4546
862.712	4413
862.844	4325
862.976	4500
863.108	4558
863.24	4740
863.372	4322
863.504	4424
863.636	4390
863.768	4478
863.9	4428
864.032	4348
864.164	4405
864.296	4485
864.428	4542
864.559	4550
864.691	4512
864.823	4523
864.954	4527
865.086	4531
865.217	4455
865.349	4390
865.48	4424
865.612	4466
865.743	4660
865.875	4466
866.006	4459
866.137	4489
866.269	4474
866.4	4451
866.531	4421
866.662	4398
866.793	4363
866.924	4398
867.055	4493
867.186	4440
867.317	4413
867.448	4329
867.579	4379
867.71	4367
867.841	4344
867.972	4409
868.103	4478
868.233	4386
868.364	4447
868.495	4443
868.625	4622
868.756	4717
868.886	4558
869.017	4588
869.147	4790
869.278	4778
869.408	4679
869.539	4641
869.669	4687
869.799	4592
869.929	4736
870.06	4698
870.19	4927
870.32	4896
870.45	4896
870.58	4999
870.71	5113
870.84	5098
870.97	4972
871.1	4870
871.23	5151
871.36	5117
871.489	4961
871.619	5064
871.749	5075
871.879	5151
872.008	5204
872.138	5048
872.267	4961
872.397	4839
872.526	4767
872.656	4744
872.785	4816
872.915	4980
873.044	5014
873.173	4911
873.303	4957
873.432	4946
873.561	4904
873.69	4854
873.819	4831
873.948	4866
874.077	4828
874.206	4710
874.335	4786
874.464	4843
874.593	5064
874.722	4923
874.851	5128
874.979	5060
875.108	5056
875.237	4885
875.365	4885
875.494	4854
875.623	4999
875.751	4778
875.88	4812
876.008	4942
876.136	5064
876.265	5143
876.393	5250
876.521	5212
876.65	5246
876.778	5166
876.906	5037
877.034	4999
877.162	5010
877.29	4991
877.418	5064
877.546	5029
877.674	5025
877.802	5052
877.93	5010
878.058	4995
878.185	4839
878.313	4930
878.441	4961
878.568	4774
878.696	4835
878.824	4953
878.951	4999
879.079	5170
879.206	5288
879.333	5056
879.461	4961
879.588	5025
879.715	5105
879.842	5261
879.97	5067
880.097	4835
880.224	4778
880.351	4771
880.478	4774
880.605	4782
880.732	4725
880.859	5064
880.986	4862
881.112	4934
881.239	4797
881.366	4714
881.493	4615
881.619	4550
881.746	4603
881.872	4580
881.999	4634
882.125	4710
882.252	4755
882.378	4812
882.505	4976
882.631	4778
882.757	4683
882.883	4714
883.01	4675
883.136	4637
883.262	4596
883.388	4622
883.514	4812
883.64	4870
883.766	4778
883.892	4656
884.018	4694
884.143	4858
884.269	4980
884.395	4653
884.52	4641
884.646	4649
884.772	4558
884.897	4535
885.023	4668
885.148	4755
885.274	4847
885.399	4828
885.524	4683
885.65	4664
885.775	4752
885.9	4656
886.025	4809
886.15	4805
886.275	4752
886.4	4668
886.525	4736
886.65	4672
886.775	4717
886.9	4892
887.025	5052
887.149	4752
887.274	4615
887.399	4561
887.523	4596
887.648	4554
887.773	4554
887.897	4706
888.021	4774
888.146	4702
888.27	4767
888.395	4900
888.519	4771
888.643	4771
888.767	4847
888.891	4664
889.015	4618
889.139	4664
889.263	4611
889.387	4721
889.511	4850
889.635	4790
889.759	4626
889.883	4645
890.006	4744
890.13	4801
890.254	4592
890.377	4675
890.501	4565
890.624	4497
890.748	4626
890.871	4519
890.995	4398
891.118	4383
891.241	4531
891.364	4523
891.488	4580
891.611	4497
891.734	4577
891.857	4558
891.98	4508
892.103	4618
892.226	4611
892.349	4474
892.471	4402
892.594	4489
892.717	4607
892.839	4569
892.962	4611
893.085	4664
893.207	4558
893.33	4455
893.452	4531
893.575	4672
893.697	4523
893.819	4793
893.941	4843
894.064	4694
894.186	4580
894.308	4550
894.43	4736
894.552	4809
894.674	4729
894.796	4554
894.918	4569
895.04	4531
895.161	4721
895.283	4607
895.405	4645
895.526	4653
895.648	4694
895.769	4622
895.891	4729
896.012	4691
896.134	4702
896.255	4630
896.376	4603
896.498	4596
896.619	4653
896.74	4637
896.861	4599
896.982	4923
897.103	5048
897.224	4847
897.345	4710
897.466	4679
897.587	4725
897.708	4812
897.828	4736
897.949	4645
898.07	4538
898.19	4634
898.311	4812
898.431	4645
898.552	4702
898.672	4812
898.792	4790
898.913	4759
899.033	4588
899.153	4489
899.273	4398
899.393	4504
899.513	4558
899.633	4481
899.753	4538
899.873	4485
899.993	4588
900.113	4554
900.232	4596
900.352	4527
900.472	4440
900.591	4375
900.711	4474
900.83	4402
900.95	4580
901.069	4694
901.189	4550
901.308	4348
901.427	4329
901.546	4360
901.665	4481
901.784	4493
901.904	4390
902.023	4310
902.141	4207
902.26	4112
902.379	4306
902.498	4261
902.617	4173
902.735	4356
902.854	4360
902.973	4394
903.091	4207
903.21	4207
903.328	4344
903.446	4272
903.565	4249
903.683	4352
903.801	4291
903.919	4402
904.038	4409
904.156	4318
904.274	4409
904.392	4405
904.51	4428
904.627	4417
904.745	4592
904.863	4649
904.981	4386
905.098	4276
905.216	4367
905.334	4421
905.451	4432
905.569	4481
905.686	4580
905.803	4527
905.921	4451
906.038	4523
906.155	4474
906.272	4314
906.389	4417
906.506	4272
906.623	4344
906.74	4379
906.857	4295
906.974	4375
907.091	4538
907.208	4630
907.324	4580
907.441	4489
907.557	4318
907.674	4291
907.79	4314
907.907	4394
908.023	4493
908.139	4466
908.256	4394
908.372	4466
908.488	4459
908.604	4360
908.72	4303
908.836	4360
908.952	4352
909.068	4402
909.184	4554
909.3	4497
909.415	4580
909.531	4546
909.647	4386
909.762	4337
909.878	4367
909.993	4417
910.108	4386
910.224	4383
910.339	4466
910.454	4367
910.57	4341
910.685	4306
910.8	4634
910.915	4569
911.03	4455
911.145	4306
911.259	4287
911.374	4421
911.489	4284
911.604	4276
911.718	4204
911.833	4147
911.947	4051
912.062	4010
912.176	4188
912.291	4192
912.405	4230
912.519	4474
912.633	4493
912.748	4394
912.862	4310
912.976	4200
913.09	4105
913.204	4177
913.318	4230
913.431	4409
913.545	4348
913.659	4428
913.772	4379
913.886	4211
914	4207
914.113	4352
914.226	4405
914.34	4413
914.453	4215
914.566	4379
914.68	4268
914.793	4341
914.906	4135
915.019	4139
915.132	4044
915.245	4177
915.358	4204
915.47	4219
915.583	4265
915.696	4303
915.809	4421
915.921	4413
916.034	4261
916.146	4268
916.259	4188
916.371	4375
916.483	4352
916.595	4246
916.708	4299
916.82	4341
916.932	4303
917.044	4348
917.156	4356
917.268	4238
917.38	4272
917.491	4268
917.603	4325
917.715	4409
917.826	4432
917.938	4363
918.049	4223
918.161	4421
918.272	4527
918.384	4489
918.495	4470
918.606	4310
918.717	4246
918.828	4363
918.939	4375
919.05	4261
919.161	4348
919.272	4105
919.383	4204
919.494	4428
919.604	4603
919.715	4413
919.826	4318
919.936	4390
920.047	4516
920.157	4481
920.267	4653
920.378	4535
920.488	4504
920.598	4714
920.708	4847
920.818	4721
920.928	4733
921.038	4927
921.148	4904
921.258	4618
921.368	4577
921.477	4535
921.587	4413
921.697	4390
921.806	4535
921.916	4470
922.025	4253
922.134	4284
922.244	4211
922.353	4341
922.462	4196
922.571	4162
922.68	3987
922.789	3956
922.898	4036
923.007	4002
923.116	4063
923.224	4109
923.333	4082
923.442	3983
923.55	3945
923.659	4048
923.767	4105
923.876	4032
923.984	4154
924.092	3956
924.201	4063
924.309	4093
924.417	4120
924.525	4074
924.633	4120
924.741	4881
924.849	3915
924.956	4150
925.064	3934
925.172	3903
925.279	4006
925.387	4051
925.494	4021
925.602	4188
925.709	4128
925.816	4029
925.924	4109
926.031	4211
926.138	4185
926.245	4230
926.352	4036
926.459	4287
926.566	4303
926.673	4112
926.779	4090
926.886	4067
926.993	3937
927.099	3975
927.206	3937
927.312	3949
927.419	4044
927.525	4013
927.631	4074
927.737	3937
927.843	3915
927.95	3831
928.056	3972
928.162	3964
928.267	4086
928.373	4577
928.479	4093
928.585	3857
928.69	4002
928.796	4055
928.901	3968
929.007	3823
929.112	3991
929.218	3953
929.323	3915
929.428	3907
929.533	4147
929.638	3934
929.743	3949
929.848	4067
929.953	3972
930.058	3896
930.163	3759
930.267	3831
930.372	3983
930.477	3816
930.581	4074
930.685	3937
930.79	3804
930.894	3892
930.998	3831
931.103	4002
931.207	3709
931.311	3698
931.415	3660
931.519	3523
931.623	3538
