Data from test_V78500241_1556.txt Node
Date: Fri Mar 25 16:59:49 CST 2022
User: usil
Spectrometer: V785-0024
Trigger mode: 0
Integration Time (sec): 4.000000E-1
Scans to average: 1
Nonlinearity correction enabled: false
Boxcar width: 0
Storing dark spectrum: false
XAxis mode: Wavelengths
Number of Pixels in Spectrum: 1024
>>>>>Begin Spectral Data<<<<<
801.071	7974
801.214	7944
801.356	7868
801.499	7856
801.641	7795
801.783	7761
801.926	7951
802.068	7940
802.211	7947
802.353	7967
802.496	7887
802.638	7826
802.78	7913
802.923	7902
803.065	7887
803.208	7792
803.35	7955
803.492	8077
803.635	8168
803.777	7963
803.919	8103
804.061	8400
804.204	8187
804.346	8084
804.488	7970
804.63	8092
804.773	8020
804.915	8107
805.057	8279
805.199	8195
805.341	8202
805.483	8206
805.626	8210
805.768	8096
805.91	8214
806.052	8176
806.194	8142
806.336	8206
806.478	8008
806.62	8100
806.762	8126
806.904	8225
807.046	8476
807.188	8396
807.33	8256
807.472	8275
807.614	8157
807.756	8077
807.898	7986
808.04	7868
808.182	7883
808.324	7818
808.465	7944
808.607	8020
808.749	8043
808.891	8237
809.033	8214
809.174	8145
809.316	8054
809.458	8001
809.6	7974
809.741	8046
809.883	8008
810.025	8107
810.166	8054
810.308	7986
810.45	7993
810.591	7822
810.733	7715
810.875	7685
811.016	7514
811.158	7502
811.299	7533
811.441	7738
811.582	7605
811.724	7453
811.865	7578
812.007	7540
812.148	7643
812.29	7616
812.431	7734
812.573	7837
812.714	7944
812.855	8092
812.997	8210
813.138	8313
813.279	8199
813.421	8073
813.562	7913
813.703	7799
813.845	7700
813.986	7441
814.127	7247
814.268	7202
814.41	7141
814.551	7149
814.692	7137
814.833	7095
814.974	7133
815.115	7076
815.256	6977
815.397	6939
815.539	6920
815.68	6795
815.821	6707
815.962	6757
816.103	6802
816.244	6753
816.385	6650
816.526	6646
816.666	6479
816.807	6285
816.948	6460
817.089	6471
817.23	6483
817.371	6346
817.512	6361
817.653	6391
817.793	6361
817.934	6418
818.075	6437
818.216	6418
818.356	6384
818.497	6228
818.638	6106
818.778	6129
818.919	6121
819.06	6152
819.2	6334
819.341	6342
819.481	6327
819.622	6532
819.762	6681
819.903	6703
820.043	6559
820.184	6551
820.324	6608
820.465	6696
820.605	6677
820.746	6627
820.886	6498
821.026	6646
821.167	6677
821.307	6753
821.447	6806
821.588	6635
821.728	6547
821.868	6490
822.008	6357
822.149	6338
822.289	6331
822.429	6106
822.569	6098
822.709	6144
822.849	5863
822.99	5912
823.13	5908
823.27	5939
823.41	5786
823.55	5790
823.69	5790
823.83	5771
823.97	5676
824.11	5551
824.25	5520
824.389	5532
824.529	5585
824.669	5520
824.809	5611
824.949	5653
825.089	5573
825.228	5501
825.368	5402
825.508	5315
825.648	5330
825.787	5402
825.927	5364
826.067	5296
826.206	5322
826.346	5368
826.485	5376
826.625	5372
826.765	5535
826.904	5421
827.044	5280
827.183	5185
827.323	5105
827.462	5201
827.601	5170
827.741	5197
827.88	5189
828.02	5071
828.159	5216
828.298	5277
828.437	5368
828.577	5322
828.716	5425
828.855	5284
828.994	5143
829.134	5086
829.273	5189
829.412	5105
829.551	5159
829.69	5155
829.829	5204
829.968	5372
830.107	5303
830.246	5258
830.385	5189
830.524	5117
830.663	5037
830.802	4946
830.941	4900
831.08	4862
831.219	4908
831.357	4972
831.496	5155
831.635	4930
831.774	4866
831.913	4862
832.051	4664
832.19	4801
832.329	4862
832.467	4694
832.606	4645
832.744	4710
832.883	4744
833.022	4672
833.16	4767
833.299	4812
833.437	4801
833.576	4839
833.714	4862
833.852	4870
833.991	4881
834.129	4949
834.267	4911
834.406	4908
834.544	4965
834.682	4980
834.821	4946
834.959	5105
835.097	4972
835.235	5132
835.373	5064
835.511	5098
835.65	5018
835.788	5037
835.926	4889
836.064	4889
836.202	4896
836.34	5170
836.478	5193
836.615	5105
836.753	5178
836.891	5273
837.029	5174
837.167	5216
837.305	5185
837.443	5147
837.58	5128
837.718	5246
837.856	5185
837.993	5113
838.131	5261
838.269	5185
838.406	5174
838.544	5178
838.681	5067
838.819	4995
838.956	4881
839.094	4896
839.231	4923
839.369	5067
839.506	5414
839.643	5299
839.781	5060
839.918	4930
840.055	5041
840.193	5064
840.33	5102
840.467	5098
840.604	5113
840.742	5429
840.879	5064
841.016	5143
841.153	5132
841.29	5330
841.427	5341
841.564	5337
841.701	5387
841.838	5227
841.975	5212
842.112	5273
842.249	5086
842.385	5060
842.522	5337
842.659	5170
842.796	5140
842.933	5208
843.069	5117
843.206	5151
843.343	5318
843.479	5208
843.616	5223
843.752	5003
843.889	4999
844.025	5185
844.162	5010
844.298	5204
844.435	5045
844.571	5079
844.708	5185
844.844	5258
844.98	5315
845.117	5277
845.253	5143
845.389	5052
845.525	5151
845.661	5086
845.798	5033
845.934	5136
846.07	5033
846.206	5227
846.342	5318
846.478	5136
846.614	4999
846.75	4965
846.886	4968
847.022	5147
847.158	5006
847.294	5022
847.429	5117
847.565	5052
847.701	5265
847.837	4873
847.972	4748
848.108	4930
848.244	4900
848.379	4767
848.515	4733
848.65	4721
848.786	4752
848.921	4771
849.057	4881
849.192	4862
849.328	4740
849.463	4805
849.598	4748
849.734	4725
849.869	4679
850.004	4569
850.14	4679
850.275	4615
850.41	4546
850.545	4550
850.68	4584
850.815	4607
850.95	4649
851.085	4801
851.22	4759
851.355	4664
851.49	4637
851.625	4596
851.76	4630
851.895	4508
852.03	4546
852.165	4653
852.299	4706
852.434	4759
852.569	4691
852.703	4752
852.838	4866
852.973	4927
853.107	4915
853.242	4736
853.376	4687
853.511	4516
853.645	4569
853.78	4790
853.914	4691
854.048	4672
854.183	4630
854.317	4759
854.451	4828
854.585	4618
854.72	4634
854.854	4721
854.988	4542
855.122	4664
855.256	4535
855.39	4672
855.524	4755
855.658	4733
855.792	4691
855.926	4702
856.06	4740
856.194	4767
856.327	4698
856.461	4630
856.595	4622
856.729	4653
856.862	4736
856.996	4698
857.13	4675
857.263	4767
857.397	4786
857.53	4668
857.664	4698
857.797	4763
857.931	4763
858.064	4683
858.197	4725
858.331	4653
858.464	4546
858.597	4535
858.731	4664
858.864	4630
858.997	4611
859.13	4599
859.263	4710
859.396	4675
859.529	4542
859.662	4577
859.795	4519
859.928	4603
860.061	4744
860.194	4763
860.327	4607
860.46	4538
860.592	4668
860.725	4725
860.858	4717
860.99	4580
861.123	4512
861.256	4478
861.388	4603
861.521	5231
861.653	4497
861.786	4474
861.918	4440
862.05	4527
862.183	4535
862.315	4546
862.447	4626
862.58	4592
862.712	4421
862.844	4295
862.976	4455
863.108	4398
863.24	4687
863.372	4363
863.504	4440
863.636	4405
863.768	4451
863.9	4470
864.032	4367
864.164	4417
864.296	4440
864.428	4538
864.559	4569
864.691	4535
864.823	4493
864.954	4478
865.086	4516
865.217	4459
865.349	4428
865.48	4455
865.612	4485
865.743	4630
865.875	4459
866.006	4356
866.137	4436
866.269	4413
866.4	4447
866.531	4424
866.662	4402
866.793	4390
866.924	4428
867.055	4470
867.186	4424
867.317	4443
867.448	4348
867.579	4383
867.71	4451
867.841	4386
867.972	4470
868.103	4459
868.233	4428
868.364	4470
868.495	4462
868.625	4573
868.756	4740
868.886	4615
869.017	4615
869.147	4763
869.278	4725
869.408	4622
869.539	4618
869.669	4717
869.799	4645
869.929	4721
870.06	4710
870.19	4942
870.32	4900
870.45	4946
870.58	5033
870.71	5075
870.84	5060
870.97	4892
871.1	4854
871.23	5109
871.36	5094
871.489	5010
871.619	5025
871.749	5113
871.879	5132
872.008	5143
872.138	5071
872.267	4938
872.397	4877
872.526	4824
872.656	4748
872.785	4831
872.915	4965
873.044	4999
873.173	4900
873.303	4980
873.432	4961
873.561	4915
873.69	4850
873.819	4885
873.948	4915
874.077	4778
874.206	4774
874.335	4774
874.464	4946
874.593	5048
874.722	4896
874.851	5045
874.979	5022
875.108	5010
875.237	4923
875.365	4866
875.494	4892
875.623	4957
875.751	4797
875.88	4870
876.008	4972
876.136	5037
876.265	5079
876.393	5353
876.521	5254
876.65	5204
876.778	5117
876.906	5052
877.034	5090
877.162	5064
877.29	4972
877.418	5052
877.546	5052
877.674	5014
877.802	5018
877.93	5003
878.058	4877
878.185	4862
878.313	4923
878.441	4942
878.568	4816
878.696	4873
878.824	4980
878.951	4987
879.079	5132
879.206	5307
879.333	5109
879.461	4961
879.588	4961
879.715	5090
879.842	5239
879.97	5029
880.097	4816
880.224	4710
880.351	4801
880.478	4790
880.605	4778
880.732	4797
880.859	5064
880.986	4892
881.112	4904
881.239	4805
881.366	4660
881.493	4588
881.619	4603
881.746	4641
881.872	4641
881.999	4622
882.125	4679
882.252	4767
882.378	4828
882.505	4908
882.631	4763
882.757	4634
882.883	4687
883.01	4714
883.136	4626
883.262	4580
883.388	4637
883.514	4782
883.64	4831
883.766	4759
883.892	4656
884.018	4710
884.143	4866
884.269	5029
884.395	4656
884.52	4626
884.646	4641
884.772	4569
884.897	4523
885.023	4607
885.148	4752
885.274	4892
885.399	4778
885.524	4653
885.65	4649
885.775	4706
885.9	4729
886.025	4843
886.15	4774
886.275	4752
886.4	4653
886.525	4729
886.65	4645
886.775	4656
886.9	4854
887.025	5033
887.149	4759
887.274	4630
887.399	4561
887.523	4546
887.648	4603
887.773	4596
887.897	4755
888.021	4774
888.146	4656
888.27	4812
888.395	4866
888.519	4755
888.643	4824
888.767	4740
888.891	4630
889.015	4558
889.139	4641
889.263	4596
889.387	4748
889.511	4873
889.635	4774
889.759	4641
889.883	4637
890.006	4694
890.13	4816
890.254	4656
890.377	4668
890.501	4523
890.624	4493
890.748	4618
890.871	4500
890.995	4398
891.118	4424
891.241	4512
891.364	4565
891.488	4634
891.611	4474
891.734	4542
891.857	4645
891.98	4542
892.103	4656
892.226	4618
892.349	4500
892.471	4447
892.594	4558
892.717	4622
892.839	4577
892.962	4603
893.085	4660
893.207	4611
893.33	4493
893.452	4558
893.575	4672
893.697	4569
893.819	4839
893.941	4831
894.064	4786
894.186	4607
894.308	4580
894.43	4790
894.552	4847
894.674	4782
894.796	4630
894.918	4565
895.04	4554
895.161	4698
895.283	4664
895.405	4573
895.526	4675
895.648	4725
895.769	4721
895.891	4755
896.012	4771
896.134	4767
896.255	4721
896.376	4637
896.498	4645
896.619	4714
896.74	4675
896.861	4691
896.982	5006
897.103	5083
897.224	4881
897.345	4744
897.466	4702
897.587	4831
897.708	4885
897.828	4805
897.949	4691
898.07	4592
898.19	4725
898.311	4892
898.431	4698
898.552	4839
898.672	4862
898.792	4824
898.913	4786
899.033	4698
899.153	4542
899.273	4485
899.393	4531
899.513	4569
899.633	4599
899.753	4573
899.873	4523
899.993	4611
900.113	4554
900.232	4645
900.352	4588
900.472	4535
900.591	4455
900.711	4546
900.83	4504
900.95	4660
901.069	4694
901.189	4554
901.308	4375
901.427	4333
901.546	4462
901.665	4500
901.784	4538
901.904	4375
902.023	4348
902.141	4227
902.26	4227
902.379	4360
902.498	4284
902.617	4265
902.735	4428
902.854	4443
902.973	4341
903.091	4223
903.21	4219
903.328	4333
903.446	4265
903.565	4276
903.683	4409
903.801	4360
903.919	4409
904.038	4489
904.156	4348
904.274	4443
904.392	4409
904.51	4470
904.627	4527
904.745	4580
904.863	4649
904.981	4417
905.098	4299
905.216	4383
905.334	4466
905.451	4474
905.569	4462
905.686	4592
905.803	4592
905.921	4478
906.038	4573
906.155	4485
906.272	4436
906.389	4504
906.506	4390
906.623	4344
906.74	4424
906.857	4367
906.974	4417
907.091	4637
907.208	4664
907.324	4596
907.441	4519
907.557	4360
907.674	4360
907.79	4329
907.907	4405
908.023	4527
908.139	4535
908.256	4508
908.372	4462
908.488	4485
908.604	4367
908.72	4337
908.836	4390
908.952	4363
909.068	4462
909.184	4615
909.3	4527
909.415	4615
909.531	4558
909.647	4394
909.762	4398
909.878	4348
909.993	4481
910.108	4417
910.224	4413
910.339	4512
910.454	4371
910.57	4440
910.685	4356
910.8	4668
910.915	4599
911.03	4519
911.145	4375
911.259	4360
911.374	4402
911.489	4322
911.604	4284
911.718	4211
911.833	4230
911.947	4082
912.062	4044
912.176	4207
912.291	4246
912.405	4314
912.519	4485
912.633	4523
912.748	4402
912.862	4352
912.976	4227
913.09	4158
913.204	4219
913.318	4276
913.431	4413
913.545	4405
913.659	4474
913.772	4398
913.886	4287
914	4249
914.113	4386
914.226	4466
914.34	4451
914.453	4227
914.566	4432
914.68	4325
914.793	4306
914.906	4173
915.019	4150
915.132	4128
915.245	4227
915.358	4295
915.47	4268
915.583	4310
915.696	4363
915.809	4424
915.921	4455
916.034	4295
916.146	4268
916.259	4227
916.371	4379
916.483	4375
916.595	4291
916.708	4363
916.82	4379
916.932	4322
917.044	4341
917.156	4348
917.268	4223
917.38	4322
917.491	4284
917.603	4402
917.715	4451
917.826	4500
917.938	4402
918.049	4295
918.161	4348
918.272	4554
918.384	4580
918.495	4474
918.606	4322
918.717	4261
918.828	4402
918.939	4428
919.05	4261
919.161	4356
919.272	4173
919.383	4234
919.494	4470
919.604	4637
919.715	4421
919.826	4318
919.936	4394
920.047	4611
920.157	4500
920.267	4759
920.378	4569
920.488	4512
920.598	4706
920.708	4938
920.818	4786
920.928	4809
921.038	4976
921.148	4927
921.258	4687
921.368	4573
921.477	4527
921.587	4455
921.697	4405
921.806	4584
921.916	4428
922.025	4318
922.134	4261
922.244	4291
922.353	4352
922.462	4169
922.571	4192
922.68	4074
922.789	3987
922.898	4063
923.007	4036
923.116	4086
923.224	4067
923.333	4105
923.442	4036
923.55	4010
923.659	4044
923.767	4150
923.876	4010
923.984	4158
924.092	4032
924.201	4071
924.309	4112
924.417	4093
924.525	4071
924.633	4120
924.741	5056
924.849	3956
924.956	4169
925.064	4002
925.172	3918
925.279	3964
925.387	4090
925.494	4131
925.602	4185
925.709	4192
925.816	4063
925.924	4158
926.031	4200
926.138	4162
926.245	4211
926.352	4067
926.459	4265
926.566	4341
926.673	4158
926.779	4109
926.886	4093
926.993	3972
927.099	4002
927.206	3968
927.312	3956
927.419	4063
927.525	4071
927.631	4128
927.737	3983
927.843	3975
927.95	3854
928.056	3987
928.162	4006
928.267	4090
928.373	4603
928.479	4147
928.585	3899
928.69	4048
928.796	4112
928.901	4021
929.007	3865
929.112	4044
929.218	3991
929.323	3949
929.428	3972
929.533	4154
929.638	3968
929.743	3979
929.848	4055
929.953	4036
930.058	3888
930.163	3808
930.267	3880
930.372	3983
930.477	3865
930.581	4135
930.685	3983
930.79	3827
930.894	3911
930.998	3880
931.103	4048
931.207	3747
931.311	3686
931.415	3675
931.519	3584
931.623	3618
