Data from test_V78500241_1089.txt Node
Date: Fri Mar 25 16:56:34 CST 2022
User: usil
Spectrometer: V785-0024
Trigger mode: 0
Integration Time (sec): 4.000000E-1
Scans to average: 1
Nonlinearity correction enabled: false
Boxcar width: 0
Storing dark spectrum: false
XAxis mode: Wavelengths
Number of Pixels in Spectrum: 1024
>>>>>Begin Spectral Data<<<<<
801.071	8123
801.214	8058
801.356	7864
801.499	7883
801.641	7757
801.783	7898
801.926	7932
802.068	7940
802.211	7921
802.353	8012
802.496	7811
802.638	7830
802.78	7925
802.923	7909
803.065	7833
803.208	7830
803.35	7967
803.492	8119
803.635	8149
803.777	8016
803.919	8138
804.061	8465
804.204	8168
804.346	8058
804.488	7947
804.63	8145
804.773	8096
804.915	8111
805.057	8294
805.199	8221
805.341	8218
805.483	8290
805.626	8157
805.768	8096
805.91	8180
806.052	8233
806.194	8054
806.336	8271
806.478	8073
806.62	8088
806.762	8180
806.904	8271
807.046	8431
807.188	8336
807.33	8290
807.472	8294
807.614	8142
807.756	8096
807.898	8005
808.04	7814
808.182	7898
808.324	7818
808.465	7940
808.607	8058
808.749	8176
808.891	8229
809.033	8317
809.174	8271
809.316	8046
809.458	8073
809.6	7978
809.741	8077
809.883	8054
810.025	8092
810.166	8077
810.308	8039
810.45	7955
810.591	7879
810.733	7776
810.875	7597
811.016	7525
811.158	7487
811.299	7544
811.441	7746
811.582	7693
811.724	7594
811.865	7525
812.007	7510
812.148	7563
812.29	7620
812.431	7746
812.573	7887
812.714	7993
812.855	8149
812.997	8191
813.138	8259
813.279	8214
813.421	8168
813.562	7944
813.703	7871
813.845	7757
813.986	7518
814.127	7308
814.268	7263
814.41	7168
814.551	7129
814.692	7145
814.833	7057
814.974	7095
815.115	7118
815.256	6985
815.397	6947
815.539	6901
815.68	6829
815.821	6768
815.962	6871
816.103	6886
816.244	6673
816.385	6601
816.526	6688
816.666	6494
816.807	6289
816.948	6464
817.089	6506
817.23	6437
817.371	6437
817.512	6395
817.653	6422
817.793	6380
817.934	6403
818.075	6490
818.216	6460
818.356	6399
818.497	6338
818.638	6186
818.778	6213
818.919	6171
819.06	6136
819.2	6296
819.341	6323
819.481	6384
819.622	6544
819.762	6745
819.903	6684
820.043	6631
820.184	6608
820.324	6547
820.465	6669
820.605	6631
820.746	6665
820.886	6498
821.026	6631
821.167	6639
821.307	6783
821.447	6802
821.588	6623
821.728	6528
821.868	6464
822.008	6361
822.149	6410
822.289	6346
822.429	6194
822.569	6129
822.709	6110
822.849	5923
822.99	5939
823.13	5973
823.27	5946
823.41	5821
823.55	5828
823.69	5726
823.83	5863
823.97	5688
824.11	5573
824.25	5547
824.389	5554
824.529	5539
824.669	5608
824.809	5653
824.949	5619
825.089	5596
825.228	5554
825.368	5372
825.508	5269
825.648	5372
825.787	5368
825.927	5376
826.067	5307
826.206	5284
826.346	5353
826.485	5417
826.625	5387
826.765	5509
826.904	5452
827.044	5288
827.183	5204
827.323	5147
827.462	5204
827.601	5212
827.741	5178
827.88	5201
828.02	5132
828.159	5189
828.298	5311
828.437	5357
828.577	5307
828.716	5455
828.855	5360
828.994	5162
829.134	5132
829.273	5204
829.412	5086
829.551	5151
829.69	5117
829.829	5220
829.968	5364
830.107	5231
830.246	5337
830.385	5166
830.524	5147
830.663	5109
830.802	4987
830.941	4896
831.08	4889
831.219	4976
831.357	4984
831.496	5166
831.635	4942
831.774	4843
831.913	4835
832.051	4725
832.19	4729
832.329	4854
832.467	4687
832.606	4634
832.744	4725
832.883	4733
833.022	4698
833.16	4831
833.299	4820
833.437	4828
833.576	4847
833.714	4839
833.852	4835
833.991	4927
834.129	4942
834.267	4957
834.406	4881
834.544	4991
834.682	4942
834.821	5041
834.959	5155
835.097	4942
835.235	5102
835.373	5056
835.511	5094
835.65	5010
835.788	5067
835.926	4885
836.064	4896
836.202	4942
836.34	5132
836.478	5170
836.615	5140
836.753	5204
836.891	5341
837.029	5212
837.167	5155
837.305	5117
837.443	5147
837.58	5102
837.718	5231
837.856	5178
837.993	5121
838.131	5181
838.269	5235
838.406	5193
838.544	5212
838.681	5045
838.819	5018
838.956	4839
839.094	4908
839.231	4984
839.369	5037
839.506	5448
839.643	5231
839.781	5117
839.918	5014
840.055	5075
840.193	5075
840.33	5181
840.467	5162
840.604	5162
840.742	5410
840.879	5124
841.016	5105
841.153	5098
841.29	5391
841.427	5322
841.564	5315
841.701	5368
841.838	5261
841.975	5197
842.112	5273
842.249	5124
842.385	5102
842.522	5357
842.659	5166
842.796	5178
842.933	5201
843.069	5136
843.206	5113
843.343	5318
843.479	5261
843.616	5280
843.752	5033
843.889	5003
844.025	5212
844.162	5041
844.298	5174
844.435	5048
844.571	5010
844.708	5166
844.844	5318
844.98	5265
845.117	5277
845.253	5102
845.389	5071
845.525	5155
845.661	5136
845.798	5022
845.934	5079
846.07	5037
846.206	5162
846.342	5258
846.478	5170
846.614	4995
846.75	4987
846.886	4949
847.022	5121
847.158	5029
847.294	5041
847.429	5155
847.565	5025
847.701	5269
847.837	4873
847.972	4835
848.108	5003
848.244	4946
848.379	4763
848.515	4729
848.65	4725
848.786	4748
848.921	4824
849.057	4862
849.192	4896
849.328	4793
849.463	4809
849.598	4812
849.734	4714
849.869	4649
850.004	4637
850.14	4672
850.275	4637
850.41	4516
850.545	4542
850.68	4550
850.815	4649
850.95	4618
851.085	4793
851.22	4828
851.355	4660
851.49	4603
851.625	4645
851.76	4588
851.895	4550
852.03	4558
852.165	4637
852.299	4714
852.434	4801
852.569	4752
852.703	4812
852.838	4793
852.973	4889
853.107	4930
853.242	4679
853.376	4698
853.511	4573
853.645	4607
853.78	4828
853.914	4725
854.048	4660
854.183	4660
854.317	4721
854.451	4854
854.585	4683
854.72	4603
854.854	4744
854.988	4565
855.122	4656
855.256	4508
855.39	4679
855.524	4763
855.658	4714
855.792	4694
855.926	4736
856.06	4744
856.194	4835
856.327	4714
856.461	4577
856.595	4622
856.729	4649
856.862	4763
856.996	4694
857.13	4710
857.263	4740
857.397	4824
857.53	4592
857.664	4687
857.797	4744
857.931	4740
858.064	4626
858.197	4759
858.331	4664
858.464	4561
858.597	4527
858.731	4626
858.864	4698
858.997	4607
859.13	4641
859.263	4668
859.396	4683
859.529	4565
859.662	4535
859.795	4531
859.928	4641
860.061	4702
860.194	4759
860.327	4596
860.46	4558
860.592	4691
860.725	4706
860.858	4683
860.99	4565
861.123	4478
861.256	4512
861.388	4599
861.521	5280
861.653	4516
861.786	4470
861.918	4447
862.05	4535
862.183	4535
862.315	4622
862.447	4645
862.58	4508
862.712	4386
862.844	4284
862.976	4462
863.108	4440
863.24	4725
863.372	4360
863.504	4413
863.636	4390
863.768	4470
863.9	4440
864.032	4367
864.164	4348
864.296	4447
864.428	4550
864.559	4508
864.691	4519
864.823	4500
864.954	4493
865.086	4535
865.217	4424
865.349	4424
865.48	4478
865.612	4436
865.743	4637
865.875	4500
866.006	4417
866.137	4440
866.269	4421
866.4	4451
866.531	4371
866.662	4421
866.793	4428
866.924	4360
867.055	4474
867.186	4478
867.317	4466
867.448	4375
867.579	4432
867.71	4367
867.841	4394
867.972	4481
868.103	4459
868.233	4409
868.364	4455
868.495	4424
868.625	4653
868.756	4767
868.886	4592
869.017	4611
869.147	4706
869.278	4752
869.408	4615
869.539	4634
869.669	4752
869.799	4683
869.929	4759
870.06	4698
870.19	4923
870.32	4961
870.45	4927
870.58	4987
870.71	5018
870.84	5079
870.97	4957
871.1	4870
871.23	5151
871.36	5132
871.489	4987
871.619	5045
871.749	5102
871.879	5128
872.008	5204
872.138	5052
872.267	5014
872.397	4774
872.526	4774
872.656	4714
872.785	4774
872.915	4923
873.044	4968
873.173	4881
873.303	4968
873.432	4953
873.561	4957
873.69	4873
873.819	4828
873.948	4881
874.077	4831
874.206	4763
874.335	4790
874.464	4946
874.593	4999
874.722	4957
874.851	5117
874.979	5025
875.108	5056
875.237	4904
875.365	4873
875.494	4892
875.623	4999
875.751	4858
875.88	4854
876.008	4968
876.136	5056
876.265	5201
876.393	5284
876.521	5265
876.65	5208
876.778	5170
876.906	5045
877.034	4991
877.162	5029
877.29	4980
877.418	4991
877.546	5064
877.674	5018
877.802	4999
877.93	5006
878.058	4923
878.185	4873
878.313	4930
878.441	4965
878.568	4816
878.696	4866
878.824	4942
878.951	5010
879.079	5132
879.206	5269
879.333	5014
879.461	4965
879.588	5014
879.715	5086
879.842	5208
879.97	5060
880.097	4744
880.224	4793
880.351	4835
880.478	4771
880.605	4767
880.732	4805
880.859	5075
880.986	4927
881.112	4889
881.239	4778
881.366	4668
881.493	4577
881.619	4584
881.746	4588
881.872	4634
881.999	4641
882.125	4656
882.252	4809
882.378	4835
882.505	4980
882.631	4812
882.757	4675
882.883	4717
883.01	4725
883.136	4653
883.262	4626
883.388	4569
883.514	4805
883.64	4866
883.766	4816
883.892	4683
884.018	4714
884.143	4911
884.269	4972
884.395	4645
884.52	4637
884.646	4626
884.772	4584
884.897	4554
885.023	4637
885.148	4778
885.274	4858
885.399	4786
885.524	4691
885.65	4706
885.775	4702
885.9	4675
886.025	4862
886.15	4805
886.275	4721
886.4	4641
886.525	4691
886.65	4656
886.775	4675
886.9	4892
887.025	4999
887.149	4782
887.274	4664
887.399	4558
887.523	4565
887.648	4580
887.773	4527
887.897	4733
888.021	4748
888.146	4649
888.27	4805
888.395	4896
888.519	4839
888.643	4854
888.767	4858
888.891	4634
889.015	4569
889.139	4649
889.263	4588
889.387	4774
889.511	4824
889.635	4778
889.759	4653
889.883	4603
890.006	4752
890.13	4790
890.254	4577
890.377	4668
890.501	4519
890.624	4500
890.748	4603
890.871	4443
890.995	4417
891.118	4371
891.241	4504
891.364	4558
891.488	4649
891.611	4466
891.734	4554
891.857	4592
891.98	4599
892.103	4599
892.226	4554
892.349	4508
892.471	4417
892.594	4516
892.717	4565
892.839	4527
892.962	4630
893.085	4645
893.207	4592
893.33	4417
893.452	4527
893.575	4622
893.697	4573
893.819	4771
893.941	4755
894.064	4782
894.186	4558
894.308	4531
894.43	4694
894.552	4782
894.674	4717
894.796	4558
894.918	4573
895.04	4527
895.161	4683
895.283	4672
895.405	4592
895.526	4634
895.648	4660
895.769	4630
895.891	4668
896.012	4698
896.134	4725
896.255	4649
896.376	4630
896.498	4622
896.619	4698
896.74	4634
896.861	4679
896.982	4904
897.103	5086
897.224	4847
897.345	4736
897.466	4634
897.587	4755
897.708	4850
897.828	4774
897.949	4637
898.07	4584
898.19	4668
898.311	4778
898.431	4641
898.552	4714
898.672	4862
898.792	4778
898.913	4729
899.033	4687
899.153	4504
899.273	4428
899.393	4504
899.513	4504
899.633	4535
899.753	4554
899.873	4436
899.993	4569
900.113	4538
900.232	4561
900.352	4565
900.472	4489
900.591	4447
900.711	4466
900.83	4417
900.95	4611
901.069	4683
901.189	4554
901.308	4398
901.427	4295
901.546	4417
901.665	4523
901.784	4569
901.904	4417
902.023	4303
902.141	4200
902.26	4177
902.379	4287
902.498	4234
902.617	4204
902.735	4363
902.854	4421
902.973	4337
903.091	4265
903.21	4261
903.328	4268
903.446	4303
903.565	4227
903.683	4337
903.801	4284
903.919	4413
904.038	4455
904.156	4276
904.274	4398
904.392	4386
904.51	4443
904.627	4459
904.745	4542
904.863	4634
904.981	4398
905.098	4310
905.216	4402
905.334	4424
905.451	4421
905.569	4432
905.686	4542
905.803	4573
905.921	4398
906.038	4519
906.155	4481
906.272	4367
906.389	4462
906.506	4333
906.623	4383
906.74	4363
906.857	4284
906.974	4379
907.091	4550
907.208	4683
907.324	4569
907.441	4478
907.557	4322
907.674	4379
907.79	4322
907.907	4443
908.023	4500
908.139	4455
908.256	4443
908.372	4512
908.488	4447
908.604	4337
908.72	4348
908.836	4375
908.952	4352
909.068	4424
909.184	4538
909.3	4470
909.415	4516
909.531	4542
909.647	4333
909.762	4383
909.878	4333
909.993	4421
910.108	4398
910.224	4398
910.339	4474
910.454	4360
910.57	4356
910.685	4306
910.8	4653
910.915	4584
911.03	4508
911.145	4341
911.259	4284
911.374	4356
911.489	4341
911.604	4242
911.718	4139
911.833	4196
911.947	4051
912.062	4025
912.176	4173
912.291	4207
912.405	4242
912.519	4459
912.633	4481
912.748	4352
912.862	4284
912.976	4188
913.09	4120
913.204	4192
913.318	4253
913.431	4375
913.545	4352
913.659	4432
913.772	4325
913.886	4272
914	4261
914.113	4379
914.226	4398
914.34	4352
914.453	4207
914.566	4371
914.68	4306
914.793	4356
914.906	4139
915.019	4097
915.132	4059
915.245	4200
915.358	4188
915.47	4219
915.583	4257
915.696	4306
915.809	4383
915.921	4447
916.034	4265
916.146	4242
916.259	4234
916.371	4352
916.483	4318
916.595	4249
916.708	4295
916.82	4322
916.932	4287
917.044	4310
917.156	4291
917.268	4230
917.38	4257
917.491	4265
917.603	4287
917.715	4424
917.826	4428
917.938	4291
918.049	4249
918.161	4379
918.272	4592
918.384	4519
918.495	4417
918.606	4295
918.717	4204
918.828	4272
918.939	4371
919.05	4219
919.161	4291
919.272	4169
919.383	4215
919.494	4417
919.604	4584
919.715	4428
919.826	4303
919.936	4375
920.047	4535
920.157	4489
920.267	4653
920.378	4550
920.488	4538
920.598	4771
920.708	4797
920.818	4767
920.928	4755
921.038	4961
921.148	4881
921.258	4611
921.368	4550
921.477	4531
921.587	4440
921.697	4390
921.806	4558
921.916	4383
922.025	4230
922.134	4242
922.244	4223
922.353	4280
922.462	4147
922.571	4124
922.68	4006
922.789	3945
922.898	4051
923.007	3991
923.116	4128
923.224	4051
923.333	4093
923.442	3953
923.55	3972
923.659	4032
923.767	4173
923.876	3979
923.984	4116
924.092	3956
924.201	4040
924.309	4112
924.417	4112
924.525	4040
924.633	4063
924.741	5033
924.849	3934
924.956	4150
925.064	3987
925.172	3953
925.279	3941
925.387	4063
925.494	4086
925.602	4215
925.709	4162
925.816	4013
925.924	4162
926.031	4234
926.138	4192
926.245	4200
926.352	4082
926.459	4272
926.566	4303
926.673	4200
926.779	4059
926.886	4074
926.993	4006
927.099	3926
927.206	3945
927.312	3987
927.419	4025
927.525	4010
927.631	4078
927.737	3972
927.843	3941
927.95	3846
928.056	3945
928.162	3983
928.267	4059
928.373	4626
928.479	4097
928.585	3892
928.69	4010
928.796	4059
928.901	3941
929.007	3797
929.112	3964
929.218	3972
929.323	3903
929.428	3937
929.533	4090
929.638	3915
929.743	3949
929.848	4021
929.953	3991
930.058	3960
930.163	3736
930.267	3823
930.372	4006
930.477	3812
930.581	4086
930.685	3918
930.79	3842
930.894	3907
930.998	3869
931.103	3979
931.207	3728
931.311	3671
931.415	3663
931.519	3553
931.623	3515
