Data from test_V78500241_1584.txt Node
Date: Fri Mar 25 17:00:00 CST 2022
User: usil
Spectrometer: V785-0024
Trigger mode: 0
Integration Time (sec): 4.000000E-1
Scans to average: 1
Nonlinearity correction enabled: false
Boxcar width: 0
Storing dark spectrum: false
XAxis mode: Wavelengths
Number of Pixels in Spectrum: 1024
>>>>>Begin Spectral Data<<<<<
801.071	8035
801.214	8043
801.356	7913
801.499	7826
801.641	7826
801.783	7795
801.926	7959
802.068	7978
802.211	7963
802.353	8046
802.496	7894
802.638	7811
802.78	7955
802.923	7925
803.065	7902
803.208	7951
803.35	8020
803.492	8050
803.635	8191
803.777	8001
803.919	8153
804.061	8575
804.204	8107
804.346	8084
804.488	7944
804.63	8138
804.773	8035
804.915	8168
805.057	8332
805.199	8180
805.341	8176
805.483	8298
805.626	8256
805.768	8149
805.91	8210
806.052	8199
806.194	8149
806.336	8298
806.478	8119
806.62	8084
806.762	8157
806.904	8336
807.046	8480
807.188	8396
807.33	8275
807.472	8362
807.614	8142
807.756	8142
807.898	7963
808.04	7906
808.182	7951
808.324	7925
808.465	7932
808.607	8096
808.749	8077
808.891	8229
809.033	8301
809.174	8267
809.316	8096
809.458	8084
809.6	8054
809.741	8031
809.883	8100
810.025	8024
810.166	8092
810.308	7978
810.45	8024
810.591	7849
810.733	7689
810.875	7666
811.016	7521
811.158	7518
811.299	7662
811.441	7788
811.582	7670
811.724	7658
811.865	7529
812.007	7601
812.148	7639
812.29	7613
812.431	7780
812.573	7913
812.714	7986
812.855	8119
812.997	8210
813.138	8366
813.279	8164
813.421	8069
813.562	7989
813.703	7860
813.845	7708
813.986	7419
814.127	7274
814.268	7179
814.41	7160
814.551	7202
814.692	7160
814.833	7129
814.974	7072
815.115	7122
815.256	6954
815.397	6935
815.539	6909
815.68	6833
815.821	6753
815.962	6878
816.103	6764
816.244	6715
816.385	6616
816.526	6627
816.666	6540
816.807	6300
816.948	6452
817.089	6506
817.23	6422
817.371	6395
817.512	6426
817.653	6433
817.793	6388
817.934	6391
818.075	6426
818.216	6414
818.356	6448
818.497	6243
818.638	6068
818.778	6117
818.919	6205
819.06	6110
819.2	6350
819.341	6372
819.481	6391
819.622	6509
819.762	6719
819.903	6673
820.043	6593
820.184	6559
820.324	6547
820.465	6768
820.605	6677
820.746	6627
820.886	6563
821.026	6650
821.167	6715
821.307	6749
821.447	6760
821.588	6692
821.728	6544
821.868	6414
822.008	6289
822.149	6327
822.289	6327
822.429	6148
822.569	6041
822.709	6098
822.849	5961
822.99	5893
823.13	5942
823.27	5870
823.41	5805
823.55	5745
823.69	5813
823.83	5760
823.97	5642
824.11	5558
824.25	5509
824.389	5573
824.529	5577
824.669	5501
824.809	5665
824.949	5688
825.089	5634
825.228	5600
825.368	5368
825.508	5360
825.648	5337
825.787	5402
825.927	5357
826.067	5269
826.206	5265
826.346	5379
826.485	5433
826.625	5429
826.765	5562
826.904	5463
827.044	5269
827.183	5227
827.323	5121
827.462	5208
827.601	5185
827.741	5261
827.88	5254
828.02	5094
828.159	5239
828.298	5273
828.437	5395
828.577	5288
828.716	5452
828.855	5307
828.994	5143
829.134	5170
829.273	5170
829.412	5113
829.551	5143
829.69	5155
829.829	5246
829.968	5383
830.107	5239
830.246	5280
830.385	5204
830.524	5197
830.663	5083
830.802	4949
830.941	4885
831.08	4877
831.219	5006
831.357	4949
831.496	5140
831.635	4881
831.774	4835
831.913	4839
832.051	4733
832.19	4740
832.329	4850
832.467	4687
832.606	4645
832.744	4763
832.883	4797
833.022	4710
833.16	4774
833.299	4839
833.437	4835
833.576	4805
833.714	4820
833.852	4870
833.991	4870
834.129	4965
834.267	4984
834.406	4908
834.544	4999
834.682	4965
834.821	4957
834.959	5136
835.097	4980
835.235	5143
835.373	5105
835.511	5113
835.65	5045
835.788	5025
835.926	4881
836.064	4831
836.202	4873
836.34	5185
836.478	5273
836.615	5117
836.753	5216
836.891	5357
837.029	5239
837.167	5159
837.305	5170
837.443	5124
837.58	5124
837.718	5273
837.856	5216
837.993	5121
838.131	5280
838.269	5254
838.406	5201
838.544	5155
838.681	5071
838.819	5014
838.956	4816
839.094	4889
839.231	4923
839.369	5075
839.506	5383
839.643	5250
839.781	5121
839.918	5010
840.055	5083
840.193	5045
840.33	5025
840.467	5170
840.604	5216
840.742	5452
840.879	5143
841.016	5105
841.153	5193
841.29	5353
841.427	5368
841.564	5349
841.701	5372
841.838	5296
841.975	5204
842.112	5242
842.249	5124
842.385	5071
842.522	5337
842.659	5140
842.796	5136
842.933	5185
843.069	5124
843.206	5170
843.343	5334
843.479	5258
843.616	5204
843.752	5037
843.889	5056
844.025	5242
844.162	5022
844.298	5204
844.435	5090
844.571	5094
844.708	5166
844.844	5330
844.98	5311
845.117	5307
845.253	5132
845.389	5067
845.525	5189
845.661	5117
845.798	4991
845.934	5128
846.07	5064
846.206	5208
846.342	5303
846.478	5216
846.614	5079
846.75	4984
846.886	4930
847.022	5056
847.158	4984
847.294	5056
847.429	5102
847.565	5056
847.701	5265
847.837	4843
847.972	4820
848.108	4938
848.244	4915
848.379	4767
848.515	4759
848.65	4717
848.786	4778
848.921	4714
849.057	4850
849.192	4896
849.328	4755
849.463	4862
849.598	4778
849.734	4736
849.869	4702
850.004	4615
850.14	4664
850.275	4611
850.41	4516
850.545	4565
850.68	4630
850.815	4622
850.95	4592
851.085	4805
851.22	4721
851.355	4672
851.49	4634
851.625	4649
851.76	4634
851.895	4603
852.03	4512
852.165	4645
852.299	4717
852.434	4786
852.569	4744
852.703	4721
852.838	4790
852.973	4927
853.107	4934
853.242	4740
853.376	4664
853.511	4504
853.645	4588
853.78	4790
853.914	4721
854.048	4611
854.183	4653
854.317	4691
854.451	4805
854.585	4698
854.72	4634
854.854	4729
854.988	4603
855.122	4645
855.256	4485
855.39	4672
855.524	4740
855.658	4714
855.792	4687
855.926	4679
856.06	4748
856.194	4816
856.327	4691
856.461	4599
856.595	4599
856.729	4656
856.862	4740
856.996	4679
857.13	4721
857.263	4778
857.397	4835
857.53	4630
857.664	4698
857.797	4744
857.931	4774
858.064	4706
858.197	4763
858.331	4615
858.464	4588
858.597	4542
858.731	4645
858.864	4653
858.997	4622
859.13	4641
859.263	4672
859.396	4675
859.529	4542
859.662	4558
859.795	4535
859.928	4592
860.061	4755
860.194	4771
860.327	4626
860.46	4531
860.592	4744
860.725	4714
860.858	4744
860.99	4550
861.123	4485
861.256	4523
861.388	4641
861.521	5197
861.653	4478
861.786	4466
861.918	4500
862.05	4542
862.183	4554
862.315	4637
862.447	4683
862.58	4565
862.712	4398
862.844	4333
862.976	4421
863.108	4493
863.24	4752
863.372	4318
863.504	4447
863.636	4417
863.768	4527
863.9	4413
864.032	4367
864.164	4383
864.296	4504
864.428	4569
864.559	4596
864.691	4546
864.823	4519
864.954	4508
865.086	4516
865.217	4417
865.349	4424
865.48	4428
865.612	4500
865.743	4626
865.875	4459
866.006	4462
866.137	4470
866.269	4447
866.4	4386
866.531	4417
866.662	4394
866.793	4379
866.924	4459
867.055	4485
867.186	4462
867.317	4413
867.448	4386
867.579	4428
867.71	4398
867.841	4352
867.972	4436
868.103	4436
868.233	4443
868.364	4451
868.495	4478
868.625	4672
868.756	4744
868.886	4580
869.017	4649
869.147	4793
869.278	4797
869.408	4660
869.539	4596
869.669	4698
869.799	4649
869.929	4782
870.06	4736
870.19	4961
870.32	4949
870.45	4961
870.58	5060
870.71	5075
870.84	5067
870.97	4953
871.1	4839
871.23	5117
871.36	5086
871.489	4972
871.619	5086
871.749	5048
871.879	5155
872.008	5140
872.138	5075
872.267	4930
872.397	4858
872.526	4801
872.656	4698
872.785	4786
872.915	4923
873.044	5025
873.173	4942
873.303	4946
873.432	4961
873.561	4972
873.69	4812
873.819	4797
873.948	4938
874.077	4767
874.206	4774
874.335	4812
874.464	4942
874.593	5033
874.722	4911
874.851	5121
874.979	5037
875.108	5037
875.237	4946
875.365	4900
875.494	4835
875.623	4968
875.751	4847
875.88	4866
876.008	4957
876.136	5052
876.265	5212
876.393	5364
876.521	5201
876.65	5223
876.778	5201
876.906	5113
877.034	5064
877.162	5014
877.29	4946
877.418	5033
877.546	5033
877.674	5090
877.802	4995
877.93	4987
878.058	4949
878.185	4858
878.313	4938
878.441	4923
878.568	4797
878.696	4854
878.824	4957
878.951	5010
879.079	5113
879.206	5250
879.333	5060
879.461	4961
879.588	4957
879.715	5094
879.842	5235
879.97	4976
880.097	4763
880.224	4748
880.351	4816
880.478	4843
880.605	4793
880.732	4744
880.859	5113
880.986	4858
881.112	4919
881.239	4752
881.366	4694
881.493	4672
881.619	4573
881.746	4588
881.872	4603
881.999	4687
882.125	4733
882.252	4778
882.378	4812
882.505	4991
882.631	4771
882.757	4637
882.883	4717
883.01	4763
883.136	4656
883.262	4599
883.388	4599
883.514	4839
883.64	4877
883.766	4763
883.892	4725
884.018	4721
884.143	4885
884.269	4976
884.395	4637
884.52	4645
884.646	4641
884.772	4584
884.897	4573
885.023	4679
885.148	4790
885.274	4839
885.399	4809
885.524	4694
885.65	4656
885.775	4763
885.9	4706
886.025	4828
886.15	4801
886.275	4740
886.4	4668
886.525	4744
886.65	4691
886.775	4694
886.9	4953
887.025	4995
887.149	4763
887.274	4683
887.399	4603
887.523	4550
887.648	4569
887.773	4599
887.897	4774
888.021	4801
888.146	4664
888.27	4820
888.395	4889
888.519	4858
888.643	4828
888.767	4759
888.891	4653
889.015	4580
889.139	4653
889.263	4599
889.387	4710
889.511	4881
889.635	4831
889.759	4626
889.883	4653
890.006	4714
890.13	4771
890.254	4584
890.377	4664
890.501	4550
890.624	4558
890.748	4603
890.871	4489
890.995	4459
891.118	4363
891.241	4546
891.364	4516
891.488	4580
891.611	4489
891.734	4527
891.857	4622
891.98	4565
892.103	4615
892.226	4603
892.349	4497
892.471	4424
892.594	4538
892.717	4573
892.839	4622
892.962	4558
893.085	4668
893.207	4596
893.33	4497
893.452	4542
893.575	4698
893.697	4573
893.819	4809
893.941	4801
894.064	4778
894.186	4599
894.308	4550
894.43	4683
894.552	4786
894.674	4740
894.796	4538
894.918	4554
895.04	4542
895.161	4717
895.283	4664
895.405	4580
895.526	4599
895.648	4687
895.769	4672
895.891	4702
896.012	4710
896.134	4755
896.255	4645
896.376	4645
896.498	4626
896.619	4626
896.74	4592
896.861	4660
896.982	4972
897.103	5048
897.224	4870
897.345	4759
897.466	4626
897.587	4714
897.708	4820
897.828	4748
897.949	4630
898.07	4573
898.19	4603
898.311	4831
898.431	4668
898.552	4752
898.672	4805
898.792	4782
898.913	4763
899.033	4577
899.153	4569
899.273	4417
899.393	4459
899.513	4527
899.633	4459
899.753	4512
899.873	4504
899.993	4599
900.113	4546
900.232	4596
900.352	4519
900.472	4497
900.591	4417
900.711	4523
900.83	4432
900.95	4618
901.069	4641
901.189	4500
901.308	4356
901.427	4287
901.546	4371
901.665	4474
901.784	4497
901.904	4421
902.023	4325
902.141	4162
902.26	4192
902.379	4360
902.498	4276
902.617	4227
902.735	4375
902.854	4379
902.973	4386
903.091	4219
903.21	4207
903.328	4287
903.446	4257
903.565	4219
903.683	4398
903.801	4242
903.919	4367
904.038	4428
904.156	4333
904.274	4466
904.392	4390
904.51	4428
904.627	4432
904.745	4577
904.863	4664
904.981	4394
905.098	4329
905.216	4367
905.334	4432
905.451	4424
905.569	4470
905.686	4558
905.803	4512
905.921	4413
906.038	4531
906.155	4451
906.272	4390
906.389	4481
906.506	4356
906.623	4379
906.74	4402
906.857	4291
906.974	4405
907.091	4546
907.208	4660
907.324	4588
907.441	4493
907.557	4310
907.674	4329
907.79	4341
907.907	4379
908.023	4462
908.139	4436
908.256	4398
908.372	4466
908.488	4447
908.604	4356
908.72	4344
908.836	4314
908.952	4356
909.068	4390
909.184	4577
909.3	4489
909.415	4611
909.531	4546
909.647	4344
909.762	4352
909.878	4325
909.993	4409
910.108	4436
910.224	4417
910.339	4500
910.454	4398
910.57	4341
910.685	4329
910.8	4668
910.915	4603
911.03	4493
911.145	4329
911.259	4348
911.374	4348
911.489	4299
911.604	4253
911.718	4169
911.833	4204
911.947	4093
912.062	4086
912.176	4200
912.291	4223
912.405	4272
912.519	4459
912.633	4478
912.748	4390
912.862	4348
912.976	4173
913.09	4071
913.204	4177
913.318	4249
913.431	4383
913.545	4383
913.659	4432
913.772	4337
913.886	4246
914	4215
914.113	4367
914.226	4424
914.34	4394
914.453	4230
914.566	4424
914.68	4303
914.793	4306
914.906	4166
915.019	4093
915.132	4109
915.245	4200
915.358	4211
915.47	4234
915.583	4295
915.696	4242
915.809	4409
915.921	4436
916.034	4314
916.146	4284
916.259	4207
916.371	4383
916.483	4352
916.595	4261
916.708	4325
916.82	4310
916.932	4341
917.044	4329
917.156	4303
917.268	4246
917.38	4280
917.491	4249
917.603	4291
917.715	4394
917.826	4428
917.938	4356
918.049	4207
918.161	4417
918.272	4519
918.384	4481
918.495	4451
918.606	4261
918.717	4253
918.828	4386
918.939	4310
919.05	4253
919.161	4310
919.272	4150
919.383	4211
919.494	4440
919.604	4611
919.715	4424
919.826	4379
919.936	4360
920.047	4538
920.157	4489
920.267	4759
920.378	4523
920.488	4485
920.598	4698
920.708	4862
920.818	4744
920.928	4736
921.038	4938
921.148	4957
921.258	4649
921.368	4554
921.477	4531
921.587	4459
921.697	4356
921.806	4561
921.916	4462
922.025	4246
922.134	4234
922.244	4223
922.353	4329
922.462	4173
922.571	4158
922.68	4029
922.789	3937
922.898	4055
923.007	3983
923.116	4086
923.224	4112
923.333	4078
923.442	3956
923.55	3972
923.659	4021
923.767	4090
923.876	4032
923.984	4112
924.092	4002
924.201	4059
924.309	4093
924.417	4135
924.525	4067
924.633	4082
924.741	4877
924.849	3934
924.956	4128
925.064	3968
925.172	3907
925.279	3937
925.387	4097
925.494	4044
925.602	4211
925.709	4188
925.816	3987
925.924	4093
926.031	4249
926.138	4162
926.245	4166
926.352	4090
926.459	4249
926.566	4303
926.673	4158
926.779	4109
926.886	4055
926.993	3991
927.099	3953
927.206	3975
927.312	3934
927.419	4029
927.525	3991
927.631	4101
927.737	3987
927.843	3941
927.95	3819
928.056	3899
928.162	3998
928.267	4078
928.373	4607
928.479	4101
928.585	3842
928.69	4006
928.796	4036
928.901	3945
929.007	3823
929.112	4010
929.218	3972
929.323	3945
929.428	3926
929.533	4067
929.638	3915
929.743	3945
929.848	4010
929.953	3991
930.058	3956
930.163	3762
930.267	3785
930.372	3953
930.477	3812
930.581	4090
930.685	3960
930.79	3804
930.894	3903
930.998	3850
931.103	4017
931.207	3755
931.311	3667
931.415	3663
931.519	3511
931.623	3584
