Data from test_V78500241_930.txt Node
Date: Fri Mar 25 16:55:28 CST 2022
User: usil
Spectrometer: V785-0024
Trigger mode: 0
Integration Time (sec): 4.000000E-1
Scans to average: 1
Nonlinearity correction enabled: false
Boxcar width: 0
Storing dark spectrum: false
XAxis mode: Wavelengths
Number of Pixels in Spectrum: 1024
>>>>>Begin Spectral Data<<<<<
801.071	8024
801.214	7978
801.356	7951
801.499	7887
801.641	7746
801.783	7887
801.926	7951
802.068	7951
802.211	7906
802.353	8001
802.496	7837
802.638	7894
802.78	7932
802.923	7928
803.065	7902
803.208	7936
803.35	8005
803.492	8088
803.635	8195
803.777	8027
803.919	8123
804.061	8419
804.204	8126
804.346	8024
804.488	7986
804.63	8054
804.773	8054
804.915	8069
805.057	8271
805.199	8134
805.341	8180
805.483	8275
805.626	8157
805.768	8107
805.91	8240
806.052	8176
806.194	8119
806.336	8275
806.478	8024
806.62	8103
806.762	8119
806.904	8282
807.046	8427
807.188	8347
807.33	8336
807.472	8275
807.614	8202
807.756	8077
807.898	8027
808.04	7879
808.182	7887
808.324	7852
808.465	7902
808.607	8008
808.749	8062
808.891	8199
809.033	8298
809.174	8176
809.316	8138
809.458	8100
809.6	7970
809.741	8031
809.883	8016
810.025	8138
810.166	8050
810.308	8012
810.45	8016
810.591	7951
810.733	7772
810.875	7719
811.016	7548
811.158	7407
811.299	7609
811.441	7780
811.582	7666
811.724	7590
811.865	7502
812.007	7594
812.148	7552
812.29	7681
812.431	7734
812.573	7860
812.714	8054
812.855	8134
812.997	8176
813.138	8328
813.279	8199
813.421	8142
813.562	7997
813.703	7928
813.845	7852
813.986	7472
814.127	7324
814.268	7278
814.41	7244
814.551	7194
814.692	7209
814.833	7114
814.974	7099
815.115	7156
815.256	6970
815.397	6909
815.539	7012
815.68	6894
815.821	6821
815.962	6894
816.103	6856
816.244	6776
816.385	6650
816.526	6707
816.666	6494
816.807	6323
816.948	6445
817.089	6563
817.23	6528
817.371	6365
817.512	6433
817.653	6448
817.793	6414
817.934	6479
818.075	6486
818.216	6471
818.356	6426
818.497	6251
818.638	6060
818.778	6205
818.919	6140
819.06	6129
819.2	6277
819.341	6285
819.481	6292
819.622	6551
819.762	6745
819.903	6696
820.043	6608
820.184	6642
820.324	6627
820.465	6658
820.605	6726
820.746	6631
820.886	6528
821.026	6700
821.167	6738
821.307	6791
821.447	6795
821.588	6639
821.728	6627
821.868	6525
822.008	6361
822.149	6418
822.289	6350
822.429	6125
822.569	6129
822.709	6171
822.849	5893
822.99	5931
823.13	5965
823.27	5927
823.41	5809
823.55	5805
823.69	5779
823.83	5805
823.97	5699
824.11	5573
824.25	5558
824.389	5528
824.529	5581
824.669	5596
824.809	5668
824.949	5676
825.089	5642
825.228	5634
825.368	5406
825.508	5334
825.648	5318
825.787	5440
825.927	5391
826.067	5376
826.206	5322
826.346	5402
826.485	5452
826.625	5417
826.765	5520
826.904	5482
827.044	5307
827.183	5231
827.323	5121
827.462	5246
827.601	5197
827.741	5231
827.88	5231
828.02	5124
828.159	5220
828.298	5258
828.437	5372
828.577	5318
828.716	5490
828.855	5364
828.994	5151
829.134	5159
829.273	5178
829.412	5170
829.551	5197
829.69	5143
829.829	5261
829.968	5349
830.107	5250
830.246	5311
830.385	5223
830.524	5155
830.663	5014
830.802	5014
830.941	4961
831.08	4908
831.219	4968
831.357	4995
831.496	5105
831.635	4885
831.774	4911
831.913	4835
832.051	4786
832.19	4774
832.329	4847
832.467	4687
832.606	4679
832.744	4771
832.883	4790
833.022	4744
833.16	4755
833.299	4828
833.437	4896
833.576	4862
833.714	4877
833.852	4843
833.991	4881
834.129	4976
834.267	4946
834.406	4934
834.544	4984
834.682	5067
834.821	4972
834.959	5109
835.097	5022
835.235	5201
835.373	5060
835.511	5132
835.65	5025
835.788	5075
835.926	4908
836.064	4854
836.202	4961
836.34	5128
836.478	5246
836.615	5132
836.753	5204
836.891	5273
837.029	5288
837.167	5212
837.305	5204
837.443	5174
837.58	5056
837.718	5273
837.856	5197
837.993	5155
838.131	5223
838.269	5216
838.406	5189
838.544	5189
838.681	5067
838.819	5033
838.956	4934
839.094	4934
839.231	4987
839.369	5098
839.506	5455
839.643	5204
839.781	5128
839.918	5075
840.055	5105
840.193	5121
840.33	5159
840.467	5162
840.604	5220
840.742	5455
840.879	5075
841.016	5117
841.153	5197
841.29	5406
841.427	5372
841.564	5345
841.701	5395
841.838	5326
841.975	5212
842.112	5360
842.249	5204
842.385	5098
842.522	5318
842.659	5151
842.796	5159
842.933	5197
843.069	5189
843.206	5151
843.343	5330
843.479	5261
843.616	5216
843.752	5079
843.889	5052
844.025	5265
844.162	5003
844.298	5212
844.435	5136
844.571	5064
844.708	5254
844.844	5265
844.98	5341
845.117	5315
845.253	5132
845.389	5056
845.525	5166
845.661	5170
845.798	5029
845.934	5147
846.07	5079
846.206	5223
846.342	5341
846.478	5193
846.614	5014
846.75	4968
846.886	4930
847.022	5159
847.158	5014
847.294	5056
847.429	5151
847.565	5025
847.701	5326
847.837	4885
847.972	4809
848.108	4957
848.244	4938
848.379	4797
848.515	4748
848.65	4725
848.786	4771
848.921	4763
849.057	4862
849.192	4896
849.328	4828
849.463	4839
849.598	4816
849.734	4748
849.869	4694
850.004	4626
850.14	4664
850.275	4634
850.41	4531
850.545	4588
850.68	4622
850.815	4615
850.95	4668
851.085	4858
851.22	4778
851.355	4641
851.49	4626
851.625	4573
851.76	4664
851.895	4580
852.03	4531
852.165	4656
852.299	4721
852.434	4816
852.569	4706
852.703	4782
852.838	4824
852.973	4892
853.107	4915
853.242	4717
853.376	4664
853.511	4561
853.645	4603
853.78	4820
853.914	4702
854.048	4615
854.183	4660
854.317	4729
854.451	4862
854.585	4710
854.72	4675
854.854	4752
854.988	4618
855.122	4611
855.256	4554
855.39	4679
855.524	4809
855.658	4714
855.792	4706
855.926	4733
856.06	4748
856.194	4759
856.327	4725
856.461	4634
856.595	4649
856.729	4615
856.862	4748
856.996	4717
857.13	4774
857.263	4774
857.397	4793
857.53	4683
857.664	4736
857.797	4790
857.931	4748
858.064	4725
858.197	4786
858.331	4683
858.464	4637
858.597	4523
858.731	4592
858.864	4626
858.997	4561
859.13	4653
859.263	4664
859.396	4672
859.529	4565
859.662	4599
859.795	4535
859.928	4618
860.061	4752
860.194	4797
860.327	4675
860.46	4538
860.592	4714
860.725	4721
860.858	4714
860.99	4565
861.123	4538
861.256	4504
861.388	4611
861.521	5204
861.653	4481
861.786	4466
861.918	4508
862.05	4531
862.183	4584
862.315	4611
862.447	4626
862.58	4516
862.712	4363
862.844	4303
862.976	4443
863.108	4500
863.24	4828
863.372	4333
863.504	4474
863.636	4383
863.768	4516
863.9	4451
864.032	4409
864.164	4466
864.296	4504
864.428	4550
864.559	4554
864.691	4546
864.823	4485
864.954	4474
865.086	4554
865.217	4481
865.349	4394
865.48	4451
865.612	4485
865.743	4649
865.875	4485
866.006	4436
866.137	4443
866.269	4440
866.4	4451
866.531	4459
866.662	4405
866.793	4390
866.924	4409
867.055	4474
867.186	4451
867.317	4436
867.448	4363
867.579	4375
867.71	4413
867.841	4402
867.972	4489
868.103	4405
868.233	4462
868.364	4413
868.495	4451
868.625	4702
868.756	4809
868.886	4607
869.017	4618
869.147	4801
869.278	4759
869.408	4622
869.539	4615
869.669	4668
869.799	4656
869.929	4740
870.06	4710
870.19	4953
870.32	4870
870.45	4946
870.58	5018
870.71	5098
870.84	5102
870.97	4965
871.1	4892
871.23	5155
871.36	5113
871.489	5056
871.619	5048
871.749	5060
871.879	5170
872.008	5147
872.138	5041
872.267	4980
872.397	4866
872.526	4805
872.656	4721
872.785	4835
872.915	4923
873.044	4984
873.173	4961
873.303	5003
873.432	4911
873.561	4980
873.69	4889
873.819	4877
873.948	4930
874.077	4820
874.206	4805
874.335	4778
874.464	4900
874.593	4991
874.722	5033
874.851	5121
874.979	5048
875.108	5041
875.237	4908
875.365	4908
875.494	4904
875.623	4968
875.751	4805
875.88	4911
876.008	4965
876.136	5052
876.265	5227
876.393	5402
876.521	5254
876.65	5174
876.778	5162
876.906	5060
877.034	5014
877.162	5067
877.29	4949
877.418	5010
877.546	5060
877.674	5014
877.802	5071
877.93	5010
878.058	4927
878.185	4885
878.313	4919
878.441	4991
878.568	4744
878.696	4812
878.824	4972
878.951	4946
879.079	5204
879.206	5288
879.333	5098
879.461	4972
879.588	5010
879.715	5098
879.842	5231
879.97	5029
880.097	4793
880.224	4782
880.351	4790
880.478	4793
880.605	4778
880.732	4820
880.859	5071
880.986	4900
881.112	4858
881.239	4752
881.366	4683
881.493	4626
881.619	4626
881.746	4588
881.872	4584
881.999	4683
882.125	4729
882.252	4812
882.378	4828
882.505	4915
882.631	4790
882.757	4683
882.883	4733
883.01	4755
883.136	4653
883.262	4615
883.388	4622
883.514	4919
883.64	4892
883.766	4820
883.892	4675
884.018	4729
884.143	4843
884.269	4976
884.395	4694
884.52	4592
884.646	4649
884.772	4573
884.897	4542
885.023	4653
885.148	4801
885.274	4870
885.399	4831
885.524	4706
885.65	4710
885.775	4694
885.9	4702
886.025	4831
886.15	4786
886.275	4717
886.4	4622
886.525	4691
886.65	4729
886.775	4672
886.9	4923
887.025	4972
887.149	4816
887.274	4641
887.399	4538
887.523	4630
887.648	4611
887.773	4569
887.897	4736
888.021	4786
888.146	4664
888.27	4850
888.395	4908
888.519	4793
888.643	4828
888.767	4866
888.891	4675
889.015	4603
889.139	4649
889.263	4592
889.387	4706
889.511	4881
889.635	4767
889.759	4641
889.883	4653
890.006	4656
890.13	4873
890.254	4630
890.377	4683
890.501	4489
890.624	4535
890.748	4679
890.871	4478
890.995	4440
891.118	4443
891.241	4531
891.364	4527
891.488	4672
891.611	4451
891.734	4561
891.857	4561
891.98	4573
892.103	4649
892.226	4565
892.349	4508
892.471	4432
892.594	4519
892.717	4580
892.839	4573
892.962	4554
893.085	4664
893.207	4592
893.33	4462
893.452	4500
893.575	4710
893.697	4603
893.819	4774
893.941	4801
894.064	4752
894.186	4611
894.308	4550
894.43	4744
894.552	4828
894.674	4759
894.796	4546
894.918	4622
895.04	4603
895.161	4668
895.283	4653
895.405	4569
895.526	4656
895.648	4706
895.769	4706
895.891	4672
896.012	4691
896.134	4710
896.255	4714
896.376	4569
896.498	4615
896.619	4664
896.74	4607
896.861	4611
896.982	4942
897.103	5079
897.224	4812
897.345	4736
897.466	4656
897.587	4725
897.708	4850
897.828	4778
897.949	4679
898.07	4573
898.19	4618
898.311	4820
898.431	4630
898.552	4752
898.672	4809
898.792	4797
898.913	4702
899.033	4615
899.153	4470
899.273	4409
899.393	4535
899.513	4485
899.633	4493
899.753	4531
899.873	4466
899.993	4554
900.113	4523
900.232	4584
900.352	4538
900.472	4493
900.591	4409
900.711	4508
900.83	4443
900.95	4596
901.069	4691
901.189	4516
901.308	4375
901.427	4291
901.546	4402
901.665	4478
901.784	4504
901.904	4383
902.023	4318
902.141	4200
902.26	4154
902.379	4348
902.498	4230
902.617	4234
902.735	4383
902.854	4360
902.973	4375
903.091	4207
903.21	4234
903.328	4306
903.446	4276
903.565	4295
903.683	4344
903.801	4246
903.919	4390
904.038	4432
904.156	4310
904.274	4451
904.392	4386
904.51	4417
904.627	4443
904.745	4531
904.863	4592
904.981	4424
905.098	4322
905.216	4363
905.334	4432
905.451	4402
905.569	4402
905.686	4538
905.803	4542
905.921	4466
906.038	4546
906.155	4451
906.272	4375
906.389	4424
906.506	4314
906.623	4394
906.74	4360
906.857	4227
906.974	4348
907.091	4531
907.208	4675
907.324	4558
907.441	4504
907.557	4333
907.674	4356
907.79	4322
907.907	4367
908.023	4489
908.139	4478
908.256	4417
908.372	4413
908.488	4402
908.604	4367
908.72	4291
908.836	4352
908.952	4352
909.068	4455
909.184	4569
909.3	4481
909.415	4558
909.531	4535
909.647	4371
909.762	4322
909.878	4402
909.993	4443
910.108	4436
910.224	4341
910.339	4470
910.454	4383
910.57	4363
910.685	4291
910.8	4630
910.915	4599
911.03	4485
911.145	4352
911.259	4318
911.374	4367
911.489	4291
911.604	4257
911.718	4166
911.833	4223
911.947	4078
912.062	4044
912.176	4169
912.291	4246
912.405	4249
912.519	4455
912.633	4462
912.748	4341
912.862	4291
912.976	4204
913.09	4093
913.204	4177
913.318	4291
913.431	4341
913.545	4322
913.659	4424
913.772	4386
913.886	4303
914	4230
914.113	4379
914.226	4421
914.34	4436
914.453	4234
914.566	4424
914.68	4261
914.793	4295
914.906	4162
915.019	4063
915.132	4101
915.245	4173
915.358	4227
915.47	4219
915.583	4291
915.696	4291
915.809	4402
915.921	4443
916.034	4257
916.146	4291
916.259	4242
916.371	4371
916.483	4379
916.595	4268
916.708	4348
916.82	4314
916.932	4333
917.044	4371
917.156	4295
917.268	4173
917.38	4268
917.491	4272
917.603	4318
917.715	4390
917.826	4409
917.938	4356
918.049	4261
918.161	4390
918.272	4493
918.384	4508
918.495	4485
918.606	4253
918.717	4272
918.828	4325
918.939	4344
919.05	4253
919.161	4265
919.272	4166
919.383	4230
919.494	4443
919.604	4611
919.715	4405
919.826	4280
919.936	4402
920.047	4542
920.157	4470
920.267	4706
920.378	4561
920.488	4474
920.598	4721
920.708	4904
920.818	4729
920.928	4725
921.038	4938
921.148	4908
921.258	4630
921.368	4519
921.477	4565
921.587	4455
921.697	4409
921.806	4573
921.916	4424
922.025	4261
922.134	4280
922.244	4188
922.353	4295
922.462	4166
922.571	4188
922.68	4032
922.789	3983
922.898	4036
923.007	3975
923.116	4124
923.224	4055
923.333	4036
923.442	3956
923.55	3960
923.659	4063
923.767	4147
923.876	3991
923.984	4112
924.092	3934
924.201	4090
924.309	4109
924.417	4093
924.525	4086
924.633	4128
924.741	5060
924.849	3865
924.956	4150
925.064	3972
925.172	3903
925.279	3972
925.387	4021
925.494	4013
925.602	4204
925.709	4162
925.816	4036
925.924	4120
926.031	4230
926.138	4185
926.245	4207
926.352	4067
926.459	4227
926.566	4287
926.673	4154
926.779	4078
926.886	4067
926.993	3991
927.099	3972
927.206	3903
927.312	3934
927.419	4025
927.525	4006
927.631	4074
927.737	3972
927.843	3930
927.95	3835
928.056	3979
928.162	3956
928.267	4032
928.373	4679
928.479	4105
928.585	3854
928.69	4013
928.796	4036
928.901	3991
929.007	3835
929.112	3983
929.218	3949
929.323	3907
929.428	3945
929.533	4055
929.638	3892
929.743	3888
929.848	4032
929.953	3994
930.058	3937
930.163	3785
930.267	3842
930.372	3960
930.477	3797
930.581	4105
930.685	3907
930.79	3835
930.894	3880
930.998	3800
931.103	4086
931.207	3698
931.311	3644
931.415	3671
931.519	3530
931.623	3542
