Data from test_V78500241_541.txt Node
Date: Fri Mar 25 16:52:45 CST 2022
User: usil
Spectrometer: V785-0024
Trigger mode: 0
Integration Time (sec): 4.000000E-1
Scans to average: 1
Nonlinearity correction enabled: false
Boxcar width: 0
Storing dark spectrum: false
XAxis mode: Wavelengths
Number of Pixels in Spectrum: 1024
>>>>>Begin Spectral Data<<<<<
801.071	7989
801.214	7959
801.356	7890
801.499	7799
801.641	7723
801.783	7852
801.926	7997
802.068	7997
802.211	8024
802.353	7970
802.496	7871
802.638	7917
802.78	7936
802.923	7860
803.065	7780
803.208	7833
803.35	7875
803.492	8039
803.635	8081
803.777	7978
803.919	8092
804.061	8396
804.204	8142
804.346	8020
804.488	7932
804.63	8092
804.773	7986
804.915	8088
805.057	8248
805.199	8195
805.341	8248
805.483	8313
805.626	8191
805.768	8035
805.91	8142
806.052	8183
806.194	8119
806.336	8244
806.478	8134
806.62	8111
806.762	8134
806.904	8294
807.046	8461
807.188	8332
807.33	8233
807.472	8271
807.614	8180
807.756	8126
807.898	7959
808.04	7894
808.182	7894
808.324	7921
808.465	7928
808.607	8008
808.749	8142
808.891	8248
809.033	8210
809.174	8145
809.316	8039
809.458	8005
809.6	7982
809.741	7997
809.883	7993
810.025	8001
810.166	8081
810.308	8016
810.45	8024
810.591	7841
810.733	7708
810.875	7620
811.016	7476
811.158	7559
811.299	7628
811.441	7715
811.582	7685
811.724	7556
811.865	7483
812.007	7563
812.148	7575
812.29	7666
812.431	7780
812.573	7803
812.714	7909
812.855	8130
812.997	8259
813.138	8339
813.279	8240
813.421	8202
813.562	8039
813.703	7883
813.845	7761
813.986	7468
814.127	7354
814.268	7244
814.41	7270
814.551	7141
814.692	7179
814.833	7050
814.974	7099
815.115	7095
815.256	6962
815.397	6935
815.539	6932
815.68	6825
815.821	6814
815.962	6939
816.103	6852
816.244	6677
816.385	6665
816.526	6563
816.666	6513
816.807	6319
816.948	6448
817.089	6460
817.23	6445
817.371	6338
817.512	6418
817.653	6376
817.793	6380
817.934	6414
818.075	6494
818.216	6456
818.356	6403
818.497	6289
818.638	6102
818.778	6114
818.919	6095
819.06	6129
819.2	6254
819.341	6311
819.481	6365
819.622	6479
819.762	6730
819.903	6673
820.043	6555
820.184	6528
820.324	6612
820.465	6631
820.605	6665
820.746	6593
820.886	6486
821.026	6601
821.167	6692
821.307	6787
821.447	6730
821.588	6608
821.728	6589
821.868	6452
822.008	6304
822.149	6323
822.289	6304
822.429	6171
822.569	6098
822.709	6148
822.849	5916
822.99	5908
823.13	5912
823.27	5935
823.41	5832
823.55	5786
823.69	5779
823.83	5752
823.97	5722
824.11	5573
824.25	5459
824.389	5577
824.529	5554
824.669	5516
824.809	5604
824.949	5642
825.089	5608
825.228	5505
825.368	5349
825.508	5395
825.648	5341
825.787	5395
825.927	5269
826.067	5322
826.206	5307
826.346	5364
826.485	5410
826.625	5417
826.765	5570
826.904	5493
827.044	5239
827.183	5216
827.323	5140
827.462	5242
827.601	5151
827.741	5185
827.88	5197
828.02	5136
828.159	5227
828.298	5299
828.437	5318
828.577	5208
828.716	5478
828.855	5345
828.994	5136
829.134	5204
829.273	5197
829.412	5124
829.551	5147
829.69	5147
829.829	5231
829.968	5341
830.107	5231
830.246	5223
830.385	5147
830.524	5136
830.663	5045
830.802	4995
830.941	4904
831.08	4908
831.219	4957
831.357	4972
831.496	5117
831.635	4904
831.774	4858
831.913	4862
832.051	4698
832.19	4752
832.329	4854
832.467	4710
832.606	4622
832.744	4733
832.883	4717
833.022	4725
833.16	4774
833.299	4755
833.437	4828
833.576	4850
833.714	4854
833.852	4881
833.991	4908
834.129	4949
834.267	4942
834.406	4873
834.544	4987
834.682	4938
834.821	4980
834.959	5162
835.097	5003
835.235	5117
835.373	5048
835.511	5128
835.65	5056
835.788	5018
835.926	4892
836.064	4858
836.202	4930
836.34	5227
836.478	5147
836.615	5124
836.753	5208
836.891	5269
837.029	5227
837.167	5181
837.305	5090
837.443	5117
837.58	5041
837.718	5246
837.856	5159
837.993	5132
838.131	5239
838.269	5189
838.406	5201
838.544	5185
838.681	5075
838.819	5025
838.956	4885
839.094	4904
839.231	4972
839.369	5048
839.506	5387
839.643	5254
839.781	5079
839.918	4999
840.055	5052
840.193	5079
840.33	5094
840.467	5083
840.604	5223
840.742	5421
840.879	5056
841.016	5098
841.153	5136
841.29	5421
841.427	5296
841.564	5360
841.701	5326
841.838	5360
841.975	5201
842.112	5269
842.249	5155
842.385	5083
842.522	5326
842.659	5201
842.796	5166
842.933	5166
843.069	5147
843.206	5185
843.343	5254
843.479	5223
843.616	5280
843.752	5048
843.889	4999
844.025	5208
844.162	4991
844.298	5239
844.435	5105
844.571	5052
844.708	5239
844.844	5315
844.98	5307
845.117	5330
845.253	5124
845.389	5045
845.525	5121
845.661	5174
845.798	5029
845.934	5109
846.07	5006
846.206	5197
846.342	5303
846.478	5208
846.614	5064
846.75	4934
846.886	5033
847.022	5098
847.158	5037
847.294	5086
847.429	5117
847.565	5064
847.701	5292
847.837	4870
847.972	4767
848.108	4938
848.244	4908
848.379	4812
848.515	4687
848.65	4721
848.786	4774
848.921	4755
849.057	4843
849.192	4862
849.328	4809
849.463	4809
849.598	4782
849.734	4786
849.869	4740
850.004	4649
850.14	4645
850.275	4626
850.41	4489
850.545	4519
850.68	4580
850.815	4649
850.95	4607
851.085	4809
851.22	4702
851.355	4679
851.49	4588
851.625	4622
851.76	4664
851.895	4542
852.03	4523
852.165	4615
852.299	4683
852.434	4744
852.569	4733
852.703	4774
852.838	4843
852.973	4904
853.107	4904
853.242	4748
853.376	4679
853.511	4535
853.645	4668
853.78	4797
853.914	4717
854.048	4672
854.183	4645
854.317	4721
854.451	4831
854.585	4691
854.72	4664
854.854	4801
854.988	4607
855.122	4637
855.256	4573
855.39	4664
855.524	4778
855.658	4691
855.792	4691
855.926	4752
856.06	4706
856.194	4828
856.327	4679
856.461	4611
856.595	4599
856.729	4607
856.862	4725
856.996	4721
857.13	4714
857.263	4767
857.397	4786
857.53	4675
857.664	4687
857.797	4752
857.931	4755
858.064	4664
858.197	4725
858.331	4664
858.464	4622
858.597	4512
858.731	4660
858.864	4637
858.997	4607
859.13	4634
859.263	4649
859.396	4744
859.529	4558
859.662	4542
859.795	4561
859.928	4615
860.061	4740
860.194	4782
860.327	4554
860.46	4535
860.592	4672
860.725	4717
860.858	4733
860.99	4569
861.123	4527
861.256	4546
861.388	4637
861.521	5406
861.653	4497
861.786	4489
861.918	4489
862.05	4497
862.183	4596
862.315	4573
862.447	4649
862.58	4538
862.712	4348
862.844	4322
862.976	4470
863.108	4443
863.24	4881
863.372	4344
863.504	4379
863.636	4413
863.768	4497
863.9	4440
864.032	4333
864.164	4363
864.296	4462
864.428	4550
864.559	4584
864.691	4558
864.823	4527
864.954	4508
865.086	4466
865.217	4402
865.349	4474
865.48	4497
865.612	4523
865.743	4626
865.875	4443
866.006	4459
866.137	4481
866.269	4478
866.4	4455
866.531	4436
866.662	4436
866.793	4386
866.924	4409
867.055	4542
867.186	4478
867.317	4390
867.448	4424
867.579	4402
867.71	4398
867.841	4386
867.972	4459
868.103	4474
868.233	4443
868.364	4443
868.495	4538
868.625	4634
868.756	4778
868.886	4554
869.017	4588
869.147	4767
869.278	4755
869.408	4649
869.539	4596
869.669	4710
869.799	4664
869.929	4778
870.06	4755
870.19	4919
870.32	4949
870.45	4938
870.58	5029
870.71	5128
870.84	5121
870.97	4946
871.1	4843
871.23	5090
871.36	5151
871.489	5018
871.619	5071
871.749	5086
871.879	5124
872.008	5159
872.138	5018
872.267	4984
872.397	4896
872.526	4782
872.656	4771
872.785	4767
872.915	4934
873.044	5045
873.173	4942
873.303	4957
873.432	4919
873.561	4957
873.69	4889
873.819	4850
873.948	4885
874.077	4877
874.206	4740
874.335	4793
874.464	4885
874.593	5064
874.722	4987
874.851	5083
874.979	5029
875.108	5048
875.237	4972
875.365	4919
875.494	4919
875.623	5041
875.751	4835
875.88	4824
876.008	4976
876.136	5010
876.265	5208
876.393	5357
876.521	5280
876.65	5212
876.778	5185
876.906	5083
877.034	4987
877.162	5006
877.29	5003
877.418	5052
877.546	5056
877.674	5102
877.802	5025
877.93	4961
878.058	4953
878.185	4866
878.313	4961
878.441	4957
878.568	4824
878.696	4877
878.824	4976
878.951	5052
879.079	5140
879.206	5273
879.333	5124
879.461	4949
879.588	4984
879.715	5098
879.842	5220
879.97	5025
880.097	4801
880.224	4740
880.351	4816
880.478	4889
880.605	4786
880.732	4793
880.859	5083
880.986	4839
881.112	4866
881.239	4790
881.366	4679
881.493	4573
881.619	4573
881.746	4607
881.872	4653
881.999	4618
882.125	4679
882.252	4797
882.378	4820
882.505	4976
882.631	4771
882.757	4668
882.883	4729
883.01	4725
883.136	4675
883.262	4603
883.388	4626
883.514	4801
883.64	4870
883.766	4790
883.892	4672
884.018	4759
884.143	4896
884.269	4999
884.395	4653
884.52	4622
884.646	4618
884.772	4584
884.897	4565
885.023	4679
885.148	4786
885.274	4858
885.399	4820
885.524	4694
885.65	4668
885.775	4717
885.9	4675
886.025	4843
886.15	4759
886.275	4744
886.4	4664
886.525	4717
886.65	4679
886.775	4721
886.9	4930
887.025	4991
887.149	4820
887.274	4634
887.399	4588
887.523	4618
887.648	4565
887.773	4592
887.897	4748
888.021	4771
888.146	4641
888.27	4828
888.395	4953
888.519	4767
888.643	4824
888.767	4843
888.891	4687
889.015	4637
889.139	4683
889.263	4634
889.387	4771
889.511	4858
889.635	4831
889.759	4664
889.883	4694
890.006	4729
890.13	4824
890.254	4634
890.377	4683
890.501	4588
890.624	4497
890.748	4637
890.871	4512
890.995	4421
891.118	4390
891.241	4538
891.364	4508
891.488	4641
891.611	4481
891.734	4519
891.857	4622
891.98	4561
892.103	4626
892.226	4592
892.349	4565
892.471	4455
892.594	4531
892.717	4607
892.839	4588
892.962	4550
893.085	4672
893.207	4565
893.33	4443
893.452	4527
893.575	4679
893.697	4565
893.819	4763
893.941	4870
894.064	4801
894.186	4622
894.308	4592
894.43	4733
894.552	4850
894.674	4763
894.796	4554
894.918	4565
895.04	4584
895.161	4679
895.283	4664
895.405	4588
895.526	4596
895.648	4694
895.769	4653
895.891	4679
896.012	4733
896.134	4771
896.255	4679
896.376	4622
896.498	4607
896.619	4702
896.74	4622
896.861	4660
896.982	4946
897.103	5090
897.224	4854
897.345	4725
897.466	4691
897.587	4733
897.708	4877
897.828	4820
897.949	4641
898.07	4584
898.19	4630
898.311	4839
898.431	4675
898.552	4774
898.672	4812
898.792	4721
898.913	4744
899.033	4645
899.153	4527
899.273	4413
899.393	4497
899.513	4489
899.633	4542
899.753	4584
899.873	4508
899.993	4584
900.113	4523
900.232	4546
900.352	4611
900.472	4470
900.591	4417
900.711	4516
900.83	4489
900.95	4538
901.069	4710
901.189	4558
901.308	4360
901.427	4344
901.546	4379
901.665	4474
901.784	4523
901.904	4417
902.023	4310
902.141	4196
902.26	4143
902.379	4341
902.498	4257
902.617	4223
902.735	4386
902.854	4383
902.973	4341
903.091	4188
903.21	4207
903.328	4287
903.446	4276
903.565	4291
903.683	4348
903.801	4287
903.919	4356
904.038	4402
904.156	4348
904.274	4424
904.392	4402
904.51	4462
904.627	4489
904.745	4558
904.863	4626
904.981	4405
905.098	4356
905.216	4402
905.334	4459
905.451	4375
905.569	4421
905.686	4542
905.803	4535
905.921	4398
906.038	4577
906.155	4466
906.272	4398
906.389	4459
906.506	4363
906.623	4409
906.74	4360
906.857	4314
906.974	4348
907.091	4554
907.208	4691
907.324	4603
907.441	4470
907.557	4329
907.674	4367
907.79	4352
907.907	4344
908.023	4428
908.139	4451
908.256	4440
908.372	4504
908.488	4493
908.604	4341
908.72	4325
908.836	4398
908.952	4367
909.068	4447
909.184	4622
909.3	4489
909.415	4580
909.531	4542
909.647	4386
909.762	4379
909.878	4344
909.993	4440
910.108	4424
910.224	4432
910.339	4497
910.454	4417
910.57	4356
910.685	4329
910.8	4656
910.915	4596
911.03	4523
911.145	4344
911.259	4329
911.374	4348
911.489	4253
911.604	4318
911.718	4158
911.833	4230
911.947	4090
912.062	4048
912.176	4215
912.291	4173
912.405	4280
912.519	4455
912.633	4481
912.748	4375
912.862	4268
912.976	4185
913.09	4097
913.204	4139
913.318	4276
913.431	4360
913.545	4356
913.659	4462
913.772	4360
913.886	4280
914	4211
914.113	4390
914.226	4436
914.34	4394
914.453	4207
914.566	4402
914.68	4325
914.793	4295
914.906	4147
915.019	4135
915.132	4078
915.245	4101
915.358	4227
915.47	4261
915.583	4265
915.696	4265
915.809	4409
915.921	4466
916.034	4227
916.146	4249
916.259	4230
916.371	4424
916.483	4348
916.595	4227
916.708	4306
916.82	4318
916.932	4322
917.044	4303
917.156	4348
917.268	4188
917.38	4230
917.491	4272
917.603	4360
917.715	4459
917.826	4470
917.938	4348
918.049	4249
918.161	4390
918.272	4500
918.384	4512
918.495	4440
918.606	4291
918.717	4268
918.828	4314
918.939	4383
919.05	4227
919.161	4352
919.272	4154
919.383	4257
919.494	4440
919.604	4615
919.715	4455
919.826	4314
919.936	4363
920.047	4523
920.157	4466
920.267	4706
920.378	4565
920.488	4497
920.598	4691
920.708	4889
920.818	4759
920.928	4736
921.038	4927
921.148	4942
921.258	4649
921.368	4531
921.477	4474
921.587	4485
921.697	4348
921.806	4558
921.916	4443
922.025	4242
922.134	4253
922.244	4257
922.353	4344
922.462	4169
922.571	4173
922.68	4006
922.789	4002
922.898	4002
923.007	4010
923.116	4101
923.224	4093
923.333	4135
923.442	3956
923.55	3960
923.659	4044
923.767	4120
923.876	4051
923.984	4131
924.092	4010
924.201	4063
924.309	4105
924.417	4154
924.525	4048
924.633	4097
924.741	5067
924.849	3934
924.956	4154
925.064	3956
925.172	3899
925.279	3964
925.387	4040
925.494	4067
925.602	4223
925.709	4185
925.816	4017
925.924	4120
926.031	4242
926.138	4188
926.245	4211
926.352	4112
926.459	4246
926.566	4291
926.673	4173
926.779	4051
926.886	4063
926.993	3972
927.099	3956
927.206	3953
927.312	3918
927.419	4036
927.525	4040
927.631	4112
927.737	3998
927.843	3930
927.95	3880
928.056	3922
928.162	3983
928.267	4013
928.373	4645
928.479	4097
928.585	3884
928.69	3994
928.796	4059
928.901	3926
929.007	3835
929.112	3960
929.218	3991
929.323	3953
929.428	3953
929.533	4120
929.638	3892
929.743	3975
929.848	4040
929.953	4040
930.058	3907
930.163	3766
930.267	3831
930.372	4010
930.477	3823
930.581	4124
930.685	3994
930.79	3835
930.894	3888
930.998	3880
931.103	4051
931.207	3720
931.311	3694
931.415	3694
931.519	3507
931.623	3530
