Data from test_V78500241_2563.txt Node
Date: Fri Mar 25 17:06:49 CST 2022
User: usil
Spectrometer: V785-0024
Trigger mode: 0
Integration Time (sec): 4.000000E-1
Scans to average: 1
Nonlinearity correction enabled: false
Boxcar width: 0
Storing dark spectrum: false
XAxis mode: Wavelengths
Number of Pixels in Spectrum: 1024
>>>>>Begin Spectral Data<<<<<
801.071	7993
801.214	7989
801.356	7921
801.499	7887
801.641	7746
801.783	7818
801.926	7925
802.068	7928
802.211	7875
802.353	8039
802.496	7879
802.638	7849
802.78	7856
802.923	7856
803.065	7822
803.208	7818
803.35	7921
803.492	8138
803.635	8195
803.777	8016
803.919	8164
804.061	8419
804.204	8191
804.346	8103
804.488	8020
804.63	8107
804.773	7963
804.915	8142
805.057	8218
805.199	8195
805.341	8187
805.483	8259
805.626	8168
805.768	8164
805.91	8168
806.052	8168
806.194	8054
806.336	8381
806.478	8088
806.62	8149
806.762	8130
806.904	8248
807.046	8431
807.188	8404
807.33	8271
807.472	8309
807.614	8183
807.756	8157
807.898	7993
808.04	7909
808.182	7917
808.324	7879
808.465	8046
808.607	8123
808.749	8206
808.891	8237
809.033	8404
809.174	8214
809.316	8096
809.458	8008
809.6	8069
809.741	8103
809.883	8054
810.025	8149
810.166	8092
810.308	8073
810.45	8005
810.591	7845
810.733	7681
810.875	7693
811.016	7575
811.158	7468
811.299	7556
811.441	7792
811.582	7734
811.724	7605
811.865	7563
812.007	7616
812.148	7662
812.29	7696
812.431	7738
812.573	7871
812.714	7986
812.855	8119
812.997	8240
813.138	8351
813.279	8271
813.421	8031
813.562	8035
813.703	7883
813.845	7772
813.986	7518
814.127	7339
814.268	7259
814.41	7274
814.551	7198
814.692	7236
814.833	7114
814.974	7126
815.115	7126
815.256	6993
815.397	6962
815.539	6966
815.68	6802
815.821	6837
815.962	6848
816.103	6814
816.244	6764
816.385	6635
816.526	6620
816.666	6547
816.807	6395
816.948	6464
817.089	6544
817.23	6502
817.371	6422
817.512	6429
817.653	6418
817.793	6422
817.934	6437
818.075	6475
818.216	6460
818.356	6429
818.497	6270
818.638	6171
818.778	6159
818.919	6167
819.06	6136
819.2	6388
819.341	6391
819.481	6399
819.622	6601
819.762	6829
819.903	6768
820.043	6612
820.184	6620
820.324	6616
820.465	6703
820.605	6741
820.746	6730
820.886	6536
821.026	6665
821.167	6768
821.307	6806
821.447	6810
821.588	6753
821.728	6608
821.868	6574
822.008	6300
822.149	6395
822.289	6380
822.429	6209
822.569	6110
822.709	6140
822.849	5973
822.99	5916
823.13	5939
823.27	5939
823.41	5817
823.55	5855
823.69	5828
823.83	5836
823.97	5661
824.11	5596
824.25	5547
824.389	5604
824.529	5634
824.669	5532
824.809	5676
824.949	5680
825.089	5638
825.228	5634
825.368	5402
825.508	5318
825.648	5349
825.787	5436
825.927	5372
826.067	5322
826.206	5292
826.346	5395
826.485	5452
826.625	5391
826.765	5577
826.904	5448
827.044	5254
827.183	5227
827.323	5143
827.462	5299
827.601	5159
827.741	5185
827.88	5201
828.02	5185
828.159	5269
828.298	5364
828.437	5357
828.577	5292
828.716	5516
828.855	5372
828.994	5181
829.134	5136
829.273	5201
829.412	5189
829.551	5185
829.69	5204
829.829	5280
829.968	5452
830.107	5296
830.246	5318
830.385	5204
830.524	5174
830.663	5071
830.802	4972
830.941	4968
831.08	4900
831.219	5052
831.357	4995
831.496	5174
831.635	4968
831.774	4877
831.913	4900
832.051	4812
832.19	4771
832.329	4866
832.467	4744
832.606	4668
832.744	4744
832.883	4740
833.022	4725
833.16	4812
833.299	4809
833.437	4877
833.576	4896
833.714	4938
833.852	4908
833.991	4953
834.129	4946
834.267	4949
834.406	4896
834.544	4984
834.682	4980
834.821	4965
834.959	5147
835.097	5064
835.235	5201
835.373	5105
835.511	5147
835.65	5086
835.788	5105
835.926	4946
836.064	4881
836.202	4957
836.34	5185
836.478	5277
836.615	5147
836.753	5220
836.891	5288
837.029	5307
837.167	5208
837.305	5178
837.443	5121
837.58	5159
837.718	5269
837.856	5216
837.993	5155
838.131	5258
838.269	5269
838.406	5239
838.544	5151
838.681	5086
838.819	5067
838.956	4934
839.094	4934
839.231	4991
839.369	5143
839.506	5474
839.643	5296
839.781	5075
839.918	5018
840.055	5105
840.193	5090
840.33	5140
840.467	5151
840.604	5227
840.742	5436
840.879	5094
841.016	5166
841.153	5143
841.29	5395
841.427	5357
841.564	5387
841.701	5421
841.838	5357
841.975	5299
842.112	5292
842.249	5159
842.385	5174
842.522	5341
842.659	5216
842.796	5178
842.933	5197
843.069	5170
843.206	5216
843.343	5292
843.479	5280
843.616	5299
843.752	5083
843.889	5071
844.025	5216
844.162	5052
844.298	5261
844.435	5109
844.571	5102
844.708	5208
844.844	5265
844.98	5353
845.117	5307
845.253	5193
845.389	5124
845.525	5185
845.661	5166
845.798	5052
845.934	5147
846.07	5086
846.206	5223
846.342	5296
846.478	5258
846.614	5014
846.75	4953
846.886	4915
847.022	5159
847.158	5041
847.294	5083
847.429	5140
847.565	5029
847.701	5334
847.837	4797
847.972	4862
848.108	5022
848.244	4984
848.379	4786
848.515	4763
848.65	4793
848.786	4782
848.921	4744
849.057	4904
849.192	4965
849.328	4831
849.463	4870
849.598	4831
849.734	4736
849.869	4691
850.004	4641
850.14	4717
850.275	4599
850.41	4580
850.545	4573
850.68	4588
850.815	4641
850.95	4664
851.085	4873
851.22	4793
851.355	4702
851.49	4660
851.625	4675
851.76	4679
851.895	4607
852.03	4584
852.165	4672
852.299	4714
852.434	4812
852.569	4755
852.703	4740
852.838	4873
852.973	4957
853.107	4915
853.242	4763
853.376	4702
853.511	4561
853.645	4649
853.78	4790
853.914	4710
854.048	4687
854.183	4645
854.317	4733
854.451	4828
854.585	4706
854.72	4656
854.854	4801
854.988	4611
855.122	4672
855.256	4584
855.39	4725
855.524	4786
855.658	4710
855.792	4736
855.926	4767
856.06	4805
856.194	4812
856.327	4710
856.461	4664
856.595	4668
856.729	4691
856.862	4774
856.996	4668
857.13	4740
857.263	4763
857.397	4790
857.53	4672
857.664	4687
857.797	4771
857.931	4790
858.064	4694
858.197	4740
858.331	4630
858.464	4573
858.597	4550
858.731	4660
858.864	4702
858.997	4637
859.13	4714
859.263	4660
859.396	4748
859.529	4554
859.662	4565
859.795	4527
859.928	4637
860.061	4752
860.194	4824
860.327	4634
860.46	4584
860.592	4691
860.725	4721
860.858	4729
860.99	4630
861.123	4531
861.256	4493
861.388	4584
861.521	5318
861.653	4504
861.786	4462
861.918	4493
862.05	4542
862.183	4584
862.315	4645
862.447	4717
862.58	4573
862.712	4451
862.844	4348
862.976	4462
863.108	4443
863.24	4748
863.372	4356
863.504	4436
863.636	4481
863.768	4485
863.9	4432
864.032	4390
864.164	4440
864.296	4535
864.428	4599
864.559	4580
864.691	4516
864.823	4584
864.954	4512
865.086	4527
865.217	4451
865.349	4462
865.48	4459
865.612	4546
865.743	4649
865.875	4470
866.006	4436
866.137	4443
866.269	4478
866.4	4447
866.531	4405
866.662	4413
866.793	4417
866.924	4443
867.055	4523
867.186	4519
867.317	4440
867.448	4367
867.579	4383
867.71	4417
867.841	4409
867.972	4500
868.103	4394
868.233	4459
868.364	4451
868.495	4481
868.625	4725
868.756	4736
868.886	4569
869.017	4637
869.147	4797
869.278	4790
869.408	4660
869.539	4664
869.669	4778
869.799	4664
869.929	4771
870.06	4736
870.19	4949
870.32	4957
870.45	5003
870.58	5022
870.71	5181
870.84	5090
870.97	4961
871.1	4923
871.23	5189
871.36	5124
871.489	5003
871.619	5067
871.749	5124
871.879	5124
872.008	5189
872.138	5083
872.267	5022
872.397	4866
872.526	4835
872.656	4729
872.785	4839
872.915	4968
873.044	5037
873.173	4968
873.303	4953
873.432	4972
873.561	4949
873.69	4889
873.819	4862
873.948	4904
874.077	4873
874.206	4790
874.335	4793
874.464	4984
874.593	5052
874.722	4957
874.851	5124
874.979	5075
875.108	5067
875.237	4923
875.365	4911
875.494	4904
875.623	4961
875.751	4892
875.88	4885
876.008	4987
876.136	5022
876.265	5223
876.393	5379
876.521	5254
876.65	5292
876.778	5201
876.906	5102
877.034	5033
877.162	5010
877.29	5025
877.418	5086
877.546	5048
877.674	5003
877.802	5075
877.93	5060
878.058	4999
878.185	4873
878.313	4949
878.441	4953
878.568	4847
878.696	4911
878.824	4991
878.951	4991
879.079	5155
879.206	5269
879.333	5151
879.461	4991
879.588	5056
879.715	5105
879.842	5231
879.97	5029
880.097	4816
880.224	4736
880.351	4862
880.478	4862
880.605	4862
880.732	4839
880.859	5147
880.986	4915
881.112	4968
881.239	4850
881.366	4683
881.493	4618
881.619	4656
881.746	4687
881.872	4691
881.999	4687
882.125	4714
882.252	4763
882.378	4850
882.505	5048
882.631	4862
882.757	4702
882.883	4755
883.01	4763
883.136	4725
883.262	4622
883.388	4668
883.514	4847
883.64	4930
883.766	4820
883.892	4702
884.018	4748
884.143	4896
884.269	5052
884.395	4790
884.52	4634
884.646	4668
884.772	4637
884.897	4630
885.023	4721
885.148	4812
885.274	4915
885.399	4824
885.524	4790
885.65	4740
885.775	4790
885.9	4786
886.025	4965
886.15	4805
886.275	4786
886.4	4694
886.525	4774
886.65	4660
886.775	4740
886.9	4923
887.025	5098
887.149	4831
887.274	4714
887.399	4596
887.523	4622
887.648	4618
887.773	4622
887.897	4816
888.021	4839
888.146	4679
888.27	4820
888.395	5037
888.519	4862
888.643	4858
888.767	4862
888.891	4687
889.015	4596
889.139	4691
889.263	4656
889.387	4820
889.511	4904
889.635	4839
889.759	4698
889.883	4717
890.006	4752
890.13	4896
890.254	4645
890.377	4744
890.501	4550
890.624	4573
890.748	4687
890.871	4561
890.995	4402
891.118	4493
891.241	4584
891.364	4584
891.488	4687
891.611	4569
891.734	4611
891.857	4668
891.98	4584
892.103	4672
892.226	4618
892.349	4588
892.471	4500
892.594	4656
892.717	4679
892.839	4668
892.962	4653
893.085	4656
893.207	4664
893.33	4504
893.452	4535
893.575	4714
893.697	4592
893.819	4767
893.941	4850
894.064	4805
894.186	4607
894.308	4577
894.43	4778
894.552	4835
894.674	4759
894.796	4615
894.918	4622
895.04	4615
895.161	4763
895.283	4714
895.405	4630
895.526	4660
895.648	4755
895.769	4710
895.891	4714
896.012	4717
896.134	4729
896.255	4668
896.376	4702
896.498	4698
896.619	4721
896.74	4622
896.861	4698
896.982	4949
897.103	5052
897.224	4835
897.345	4809
897.466	4706
897.587	4748
897.708	4858
897.828	4805
897.949	4729
898.07	4558
898.19	4672
898.311	4904
898.431	4683
898.552	4786
898.672	4835
898.792	4870
898.913	4748
899.033	4660
899.153	4596
899.273	4443
899.393	4538
899.513	4542
899.633	4580
899.753	4596
899.873	4538
899.993	4599
900.113	4565
900.232	4645
900.352	4607
900.472	4489
900.591	4424
900.711	4504
900.83	4421
900.95	4649
901.069	4733
901.189	4542
901.308	4424
901.427	4352
901.546	4421
901.665	4478
901.784	4542
901.904	4398
902.023	4379
902.141	4230
902.26	4223
902.379	4367
902.498	4234
902.617	4249
902.735	4428
902.854	4443
902.973	4390
903.091	4249
903.21	4246
903.328	4291
903.446	4322
903.565	4265
903.683	4390
903.801	4303
903.919	4447
904.038	4413
904.156	4352
904.274	4459
904.392	4443
904.51	4428
904.627	4459
904.745	4634
904.863	4679
904.981	4428
905.098	4333
905.216	4379
905.334	4504
905.451	4466
905.569	4451
905.686	4607
905.803	4603
905.921	4451
906.038	4615
906.155	4516
906.272	4451
906.389	4478
906.506	4424
906.623	4363
906.74	4436
906.857	4360
906.974	4421
907.091	4596
907.208	4752
907.324	4626
907.441	4531
907.557	4375
907.674	4405
907.79	4322
907.907	4428
908.023	4512
908.139	4474
908.256	4470
908.372	4531
908.488	4470
908.604	4371
908.72	4379
908.836	4451
908.952	4436
909.068	4455
909.184	4569
909.3	4493
909.415	4641
909.531	4565
909.647	4375
909.762	4421
909.878	4375
909.993	4512
910.108	4424
910.224	4447
910.339	4497
910.454	4428
910.57	4402
910.685	4333
910.8	4675
910.915	4618
911.03	4512
911.145	4360
911.259	4375
911.374	4386
911.489	4280
911.604	4276
911.718	4207
911.833	4234
911.947	4101
912.062	4021
912.176	4249
912.291	4261
912.405	4291
912.519	4451
912.633	4516
912.748	4375
912.862	4341
912.976	4188
913.09	4124
913.204	4192
913.318	4310
913.431	4409
913.545	4390
913.659	4447
913.772	4386
913.886	4280
914	4227
914.113	4443
914.226	4451
914.34	4402
914.453	4284
914.566	4447
914.68	4318
914.793	4352
914.906	4166
915.019	4181
915.132	4124
915.245	4200
915.358	4173
915.47	4265
915.583	4261
915.696	4348
915.809	4436
915.921	4428
916.034	4287
916.146	4242
916.259	4280
916.371	4405
916.483	4379
916.595	4272
916.708	4363
916.82	4344
916.932	4352
917.044	4363
917.156	4329
917.268	4223
917.38	4306
917.491	4287
917.603	4379
917.715	4470
917.826	4462
917.938	4348
918.049	4257
918.161	4432
918.272	4565
918.384	4580
918.495	4462
918.606	4352
918.717	4272
918.828	4383
918.939	4375
919.05	4322
919.161	4409
919.272	4181
919.383	4253
919.494	4504
919.604	4630
919.715	4470
919.826	4329
919.936	4459
920.047	4542
920.157	4481
920.267	4729
920.378	4546
920.488	4538
920.598	4714
920.708	4900
920.818	4736
920.928	4854
921.038	4961
921.148	4911
921.258	4656
921.368	4596
921.477	4527
921.587	4481
921.697	4383
921.806	4550
921.916	4485
922.025	4284
922.134	4325
922.244	4261
922.353	4413
922.462	4207
922.571	4185
922.68	4044
922.789	3975
922.898	4036
923.007	4006
923.116	4063
923.224	4063
923.333	4101
923.442	3987
923.55	3975
923.659	4032
923.767	4128
923.876	4017
923.984	4135
924.092	4002
924.201	4078
924.309	4116
924.417	4177
924.525	4055
924.633	4131
924.741	5056
924.849	3926
924.956	4150
925.064	3972
925.172	3915
925.279	3987
925.387	4078
925.494	4071
925.602	4230
925.709	4215
925.816	4071
925.924	4158
926.031	4242
926.138	4166
926.245	4204
926.352	4086
926.459	4280
926.566	4371
926.673	4181
926.779	4067
926.886	4162
926.993	3964
927.099	3972
927.206	3953
927.312	3987
927.419	4051
927.525	4078
927.631	4162
927.737	3953
927.843	3945
927.95	3857
928.056	3949
928.162	4013
928.267	4055
928.373	4626
928.479	4135
928.585	3888
928.69	4025
928.796	4082
928.901	3979
929.007	3880
929.112	3968
929.218	3953
929.323	3937
929.428	3983
929.533	4097
929.638	3945
929.743	3960
929.848	4048
929.953	4006
930.058	3975
930.163	3800
930.267	3835
930.372	3983
930.477	3857
930.581	4105
930.685	3983
930.79	3804
930.894	3899
930.998	3888
931.103	4071
931.207	3720
931.311	3736
931.415	3698
931.519	3511
931.623	3549
