Data from test_V78500241_1699.txt Node
Date: Fri Mar 25 17:00:48 CST 2022
User: usil
Spectrometer: V785-0024
Trigger mode: 0
Integration Time (sec): 4.000000E-1
Scans to average: 1
Nonlinearity correction enabled: false
Boxcar width: 0
Storing dark spectrum: false
XAxis mode: Wavelengths
Number of Pixels in Spectrum: 1024
>>>>>Begin Spectral Data<<<<<
801.071	7951
801.214	8008
801.356	7856
801.499	7795
801.641	7871
801.783	7837
801.926	7936
802.068	7932
802.211	8008
802.353	7967
802.496	7830
802.638	7883
802.78	7974
802.923	7894
803.065	7792
803.208	7807
803.35	7993
803.492	8077
803.635	8138
803.777	7967
803.919	8062
804.061	8408
804.204	8183
804.346	7982
804.488	7967
804.63	8142
804.773	7993
804.915	8145
805.057	8218
805.199	8126
805.341	8202
805.483	8259
805.626	8107
805.768	8130
805.91	8191
806.052	8202
806.194	8157
806.336	8225
806.478	8050
806.62	8065
806.762	8111
806.904	8256
807.046	8499
807.188	8309
807.33	8282
807.472	8309
807.614	8142
807.756	8142
807.898	7951
808.04	7902
808.182	7940
808.324	7864
808.465	7894
808.607	8081
808.749	8077
808.891	8195
809.033	8282
809.174	8138
809.316	8065
809.458	8092
809.6	7955
809.741	8035
809.883	7993
810.025	8130
810.166	8065
810.308	8027
810.45	7959
810.591	7868
810.733	7655
810.875	7655
811.016	7483
811.158	7468
811.299	7533
811.441	7689
811.582	7662
811.724	7609
811.865	7506
812.007	7597
812.148	7601
812.29	7658
812.431	7761
812.573	7936
812.714	7963
812.855	8084
812.997	8237
813.138	8267
813.279	8172
813.421	8081
813.562	7963
813.703	7811
813.845	7712
813.986	7449
814.127	7213
814.268	7217
814.41	7232
814.551	7179
814.692	7209
814.833	7107
814.974	7050
815.115	7107
815.256	6973
815.397	6947
815.539	6962
815.68	6825
815.821	6814
815.962	6875
816.103	6779
816.244	6650
816.385	6570
816.526	6612
816.666	6479
816.807	6372
816.948	6532
817.089	6467
817.23	6414
817.371	6391
817.512	6395
817.653	6353
817.793	6315
817.934	6399
818.075	6361
818.216	6441
818.356	6376
818.497	6281
818.638	6136
818.778	6136
818.919	6182
819.06	6144
819.2	6361
819.341	6357
819.481	6361
819.622	6566
819.762	6700
819.903	6688
820.043	6589
820.184	6574
820.324	6620
820.465	6730
820.605	6669
820.746	6662
820.886	6517
821.026	6620
821.167	6703
821.307	6707
821.447	6753
821.588	6582
821.728	6597
821.868	6483
822.008	6292
822.149	6361
822.289	6296
822.429	6136
822.569	6083
822.709	6110
822.849	5954
822.99	5882
823.13	5931
823.27	5855
823.41	5764
823.55	5767
823.69	5779
823.83	5752
823.97	5653
824.11	5505
824.25	5459
824.389	5558
824.529	5570
824.669	5512
824.809	5634
824.949	5649
825.089	5623
825.228	5539
825.368	5360
825.508	5311
825.648	5379
825.787	5360
825.927	5334
826.067	5265
826.206	5235
826.346	5391
826.485	5395
826.625	5376
826.765	5520
826.904	5421
827.044	5261
827.183	5235
827.323	5147
827.462	5284
827.601	5143
827.741	5204
827.88	5197
828.02	5151
828.159	5254
828.298	5326
828.437	5387
828.577	5360
828.716	5482
828.855	5353
828.994	5159
829.134	5216
829.273	5201
829.412	5204
829.551	5098
829.69	5178
829.829	5223
829.968	5376
830.107	5311
830.246	5288
830.385	5166
830.524	5170
830.663	5079
830.802	4953
830.941	4911
831.08	4919
831.219	4987
831.357	4968
831.496	5204
831.635	4919
831.774	4877
831.913	4858
832.051	4820
832.19	4793
832.329	4850
832.467	4740
832.606	4683
832.744	4801
832.883	4759
833.022	4767
833.16	4809
833.299	4835
833.437	4873
833.576	4862
833.714	4885
833.852	4889
833.991	4991
834.129	5018
834.267	4980
834.406	4942
834.544	4999
834.682	5018
834.821	4976
834.959	5189
835.097	5025
835.235	5208
835.373	5075
835.511	5166
835.65	5071
835.788	5124
835.926	4919
836.064	4942
836.202	4972
836.34	5185
836.478	5250
836.615	5197
836.753	5239
836.891	5292
837.029	5280
837.167	5235
837.305	5231
837.443	5178
837.58	5113
837.718	5311
837.856	5231
837.993	5208
838.131	5269
838.269	5239
838.406	5261
838.544	5231
838.681	5079
838.819	5010
838.956	4927
839.094	4961
839.231	4976
839.369	5113
839.506	5425
839.643	5299
839.781	5098
839.918	5056
840.055	5132
840.193	5136
840.33	5117
840.467	5143
840.604	5189
840.742	5463
840.879	5109
841.016	5045
841.153	5174
841.29	5360
841.427	5330
841.564	5345
841.701	5387
841.838	5299
841.975	5261
842.112	5280
842.249	5170
842.385	5178
842.522	5345
842.659	5143
842.796	5204
842.933	5239
843.069	5208
843.206	5258
843.343	5341
843.479	5315
843.616	5231
843.752	5075
843.889	5048
844.025	5250
844.162	5029
844.298	5185
844.435	5067
844.571	5098
844.708	5220
844.844	5299
844.98	5368
845.117	5303
845.253	5159
845.389	5124
845.525	5181
845.661	5174
845.798	5060
845.934	5174
846.07	5079
846.206	5273
846.342	5337
846.478	5246
846.614	5064
846.75	5014
846.886	5029
847.022	5181
847.158	5086
847.294	5086
847.429	5147
847.565	5128
847.701	5360
847.837	4881
847.972	4843
848.108	4976
848.244	4949
848.379	4850
848.515	4752
848.65	4797
848.786	4778
848.921	4801
849.057	4881
849.192	4949
849.328	4870
849.463	4862
849.598	4820
849.734	4805
849.869	4736
850.004	4641
850.14	4717
850.275	4618
850.41	4573
850.545	4607
850.68	4656
850.815	4637
850.95	4664
851.085	4873
851.22	4786
851.355	4702
851.49	4634
851.625	4675
851.76	4656
851.895	4596
852.03	4565
852.165	4637
852.299	4790
852.434	4767
852.569	4782
852.703	4797
852.838	4843
852.973	4980
853.107	4938
853.242	4759
853.376	4641
853.511	4611
853.645	4626
853.78	4824
853.914	4710
854.048	4691
854.183	4630
854.317	4733
854.451	4816
854.585	4691
854.72	4668
854.854	4763
854.988	4645
855.122	4660
855.256	4569
855.39	4641
855.524	4828
855.658	4759
855.792	4740
855.926	4774
856.06	4740
856.194	4854
856.327	4714
856.461	4656
856.595	4660
856.729	4679
856.862	4755
856.996	4710
857.13	4736
857.263	4790
857.397	4824
857.53	4660
857.664	4740
857.797	4805
857.931	4778
858.064	4702
858.197	4748
858.331	4630
858.464	4668
858.597	4550
858.731	4649
858.864	4675
858.997	4603
859.13	4649
859.263	4668
859.396	4687
859.529	4675
859.662	4607
859.795	4577
859.928	4622
860.061	4759
860.194	4805
860.327	4694
860.46	4626
860.592	4694
860.725	4774
860.858	4767
860.99	4603
861.123	4554
861.256	4538
861.388	4588
861.521	5254
861.653	4546
861.786	4409
861.918	4489
862.05	4577
862.183	4558
862.315	4630
862.447	4637
862.58	4538
862.712	4398
862.844	4295
862.976	4481
863.108	4462
863.24	4904
863.372	4329
863.504	4409
863.636	4386
863.768	4485
863.9	4470
864.032	4398
864.164	4443
864.296	4470
864.428	4611
864.559	4573
864.691	4523
864.823	4569
864.954	4554
865.086	4523
865.217	4478
865.349	4474
865.48	4493
865.612	4535
865.743	4660
865.875	4421
866.006	4421
866.137	4512
866.269	4462
866.4	4413
866.531	4440
866.662	4436
866.793	4390
866.924	4462
867.055	4531
867.186	4489
867.317	4443
867.448	4409
867.579	4451
867.71	4455
867.841	4375
867.972	4493
868.103	4561
868.233	4443
868.364	4459
868.495	4455
868.625	4687
868.756	4828
868.886	4596
869.017	4607
869.147	4839
869.278	4793
869.408	4687
869.539	4687
869.669	4702
869.799	4702
869.929	4744
870.06	4748
870.19	4980
870.32	4972
870.45	4949
870.58	5056
870.71	5098
870.84	5140
870.97	4938
871.1	4961
871.23	5109
871.36	5128
871.489	5048
871.619	5124
871.749	5124
871.879	5121
872.008	5193
872.138	5102
872.267	5010
872.397	4854
872.526	4835
872.656	4733
872.785	4797
872.915	4896
873.044	5064
873.173	4961
873.303	5041
873.432	4972
873.561	4965
873.69	4858
873.819	4896
873.948	4934
874.077	4858
874.206	4778
874.335	4824
874.464	4927
874.593	5109
874.722	4987
874.851	5170
874.979	5045
875.108	5090
875.237	4965
875.365	4904
875.494	4873
875.623	4965
875.751	4847
875.88	4900
876.008	4991
876.136	5052
876.265	5220
876.393	5364
876.521	5258
876.65	5246
876.778	5159
876.906	5075
877.034	4980
877.162	5098
877.29	5003
877.418	5025
877.546	5052
877.674	5022
877.802	5037
877.93	5041
878.058	4908
878.185	4900
878.313	4961
878.441	4968
878.568	4778
878.696	4934
878.824	4984
878.951	4980
879.079	5159
879.206	5303
879.333	5121
879.461	4942
879.588	4995
879.715	5117
879.842	5231
879.97	5014
880.097	4778
880.224	4797
880.351	4782
880.478	4839
880.605	4816
880.732	4812
880.859	5090
880.986	4908
881.112	4927
881.239	4831
881.366	4645
881.493	4599
881.619	4656
881.746	4634
881.872	4653
881.999	4664
882.125	4721
882.252	4816
882.378	4801
882.505	4984
882.631	4835
882.757	4691
882.883	4797
883.01	4782
883.136	4656
883.262	4596
883.388	4622
883.514	4824
883.64	4858
883.766	4805
883.892	4672
884.018	4733
884.143	4949
884.269	4999
884.395	4691
884.52	4672
884.646	4698
884.772	4592
884.897	4592
885.023	4675
885.148	4812
885.274	4881
885.399	4778
885.524	4675
885.65	4733
885.775	4774
885.9	4725
886.025	4908
886.15	4801
886.275	4744
886.4	4672
886.525	4717
886.65	4725
886.775	4721
886.9	4946
887.025	5086
887.149	4820
887.274	4687
887.399	4577
887.523	4630
887.648	4607
887.773	4577
887.897	4733
888.021	4858
888.146	4717
888.27	4805
888.395	4896
888.519	4793
888.643	4831
888.767	4793
888.891	4687
889.015	4611
889.139	4645
889.263	4599
889.387	4748
889.511	4858
889.635	4801
889.759	4634
889.883	4660
890.006	4691
890.13	4828
890.254	4599
890.377	4641
890.501	4542
890.624	4546
890.748	4630
890.871	4504
890.995	4432
891.118	4363
891.241	4542
891.364	4599
891.488	4698
891.611	4512
891.734	4519
891.857	4599
891.98	4611
892.103	4687
892.226	4611
892.349	4592
892.471	4428
892.594	4569
892.717	4611
892.839	4554
892.962	4622
893.085	4653
893.207	4584
893.33	4459
893.452	4558
893.575	4694
893.697	4561
893.819	4782
893.941	4847
894.064	4744
894.186	4554
894.308	4565
894.43	4767
894.552	4828
894.674	4782
894.796	4592
894.918	4577
895.04	4653
895.161	4710
895.283	4725
895.405	4554
895.526	4615
895.648	4668
895.769	4729
895.891	4759
896.012	4733
896.134	4797
896.255	4702
896.376	4649
896.498	4641
896.619	4744
896.74	4573
896.861	4694
896.982	4915
897.103	5071
897.224	4881
897.345	4778
897.466	4717
897.587	4782
897.708	4854
897.828	4820
897.949	4683
898.07	4554
898.19	4664
898.311	4843
898.431	4672
898.552	4736
898.672	4831
898.792	4812
898.913	4744
899.033	4649
899.153	4497
899.273	4394
899.393	4500
899.513	4542
899.633	4516
899.753	4554
899.873	4519
899.993	4569
900.113	4531
900.232	4588
900.352	4500
900.472	4542
900.591	4409
900.711	4523
900.83	4432
900.95	4622
901.069	4668
901.189	4565
901.308	4341
901.427	4356
901.546	4367
901.665	4538
901.784	4462
901.904	4398
902.023	4360
902.141	4200
902.26	4188
902.379	4344
902.498	4238
902.617	4234
902.735	4402
902.854	4344
902.973	4386
903.091	4204
903.21	4276
903.328	4360
903.446	4287
903.565	4261
903.683	4379
903.801	4253
903.919	4417
904.038	4424
904.156	4337
904.274	4417
904.392	4428
904.51	4443
904.627	4459
904.745	4592
904.863	4630
904.981	4394
905.098	4306
905.216	4341
905.334	4436
905.451	4424
905.569	4474
905.686	4569
905.803	4569
905.921	4402
906.038	4573
906.155	4462
906.272	4390
906.389	4440
906.506	4337
906.623	4352
906.74	4405
906.857	4299
906.974	4390
907.091	4596
907.208	4717
907.324	4554
907.441	4538
907.557	4337
907.674	4329
907.79	4322
907.907	4367
908.023	4451
908.139	4478
908.256	4440
908.372	4474
908.488	4440
908.604	4352
908.72	4314
908.836	4363
908.952	4413
909.068	4466
909.184	4596
909.3	4489
909.415	4599
909.531	4607
909.647	4356
909.762	4348
909.878	4348
909.993	4398
910.108	4459
910.224	4474
910.339	4504
910.454	4417
910.57	4341
910.685	4329
910.8	4641
910.915	4565
911.03	4519
911.145	4344
911.259	4363
911.374	4402
911.489	4291
911.604	4276
911.718	4196
911.833	4223
911.947	4097
912.062	3983
912.176	4215
912.291	4246
912.405	4223
912.519	4474
912.633	4432
912.748	4363
912.862	4303
912.976	4234
913.09	4086
913.204	4120
913.318	4268
913.431	4348
913.545	4371
913.659	4436
913.772	4363
913.886	4268
914	4223
914.113	4371
914.226	4451
914.34	4424
914.453	4280
914.566	4436
914.68	4318
914.793	4333
914.906	4188
915.019	4147
915.132	4078
915.245	4188
915.358	4223
915.47	4238
915.583	4280
915.696	4318
915.809	4352
915.921	4398
916.034	4287
916.146	4253
916.259	4230
916.371	4344
916.483	4375
916.595	4272
916.708	4287
916.82	4333
916.932	4325
917.044	4329
917.156	4348
917.268	4211
917.38	4303
917.491	4272
917.603	4371
917.715	4398
917.826	4428
917.938	4356
918.049	4207
918.161	4398
918.272	4550
918.384	4550
918.495	4428
918.606	4249
918.717	4230
918.828	4325
918.939	4310
919.05	4295
919.161	4325
919.272	4128
919.383	4314
919.494	4424
919.604	4615
919.715	4398
919.826	4390
919.936	4432
920.047	4516
920.157	4455
920.267	4717
920.378	4561
920.488	4542
920.598	4729
920.708	4896
920.818	4793
920.928	4767
921.038	4946
921.148	4908
921.258	4599
921.368	4546
921.477	4500
921.587	4523
921.697	4367
921.806	4527
921.916	4451
922.025	4306
922.134	4253
922.244	4234
922.353	4295
922.462	4192
922.571	4097
922.68	3998
922.789	4013
922.898	3994
923.007	4002
923.116	4074
923.224	4074
923.333	4021
923.442	3998
923.55	4017
923.659	4040
923.767	4071
923.876	4029
923.984	4147
924.092	3998
924.201	4093
924.309	4074
924.417	4124
924.525	4063
924.633	4105
924.741	4877
924.849	3918
924.956	4101
925.064	4002
925.172	3949
925.279	4032
925.387	4036
925.494	4063
925.602	4219
925.709	4177
925.816	4032
925.924	4139
926.031	4200
926.138	4135
926.245	4192
926.352	4093
926.459	4265
926.566	4322
926.673	4131
926.779	4078
926.886	4063
926.993	3972
927.099	3945
927.206	3934
927.312	3934
927.419	4048
927.525	4071
927.631	4097
927.737	3968
927.843	3926
927.95	3823
928.056	3960
928.162	3987
928.267	4074
928.373	4683
928.479	4105
928.585	3899
928.69	4029
928.796	4078
928.901	3934
929.007	3793
929.112	4006
929.218	3937
929.323	3953
929.428	3926
929.533	4093
929.638	3930
929.743	3953
929.848	4013
929.953	4006
930.058	3937
930.163	3759
930.267	3835
930.372	3972
930.477	3812
930.581	4090
930.685	3949
930.79	3808
930.894	3880
930.998	3880
931.103	4059
931.207	3705
931.311	3728
931.415	3644
931.519	3477
931.623	3568
