Data from test_V78500241_2570.txt Node
Date: Fri Mar 25 17:06:52 CST 2022
User: usil
Spectrometer: V785-0024
Trigger mode: 0
Integration Time (sec): 4.000000E-1
Scans to average: 1
Nonlinearity correction enabled: false
Boxcar width: 0
Storing dark spectrum: false
XAxis mode: Wavelengths
Number of Pixels in Spectrum: 1024
>>>>>Begin Spectral Data<<<<<
801.071	8088
801.214	7955
801.356	7849
801.499	7970
801.641	7765
801.783	7890
801.926	7982
802.068	8008
802.211	8073
802.353	8012
802.496	7936
802.638	7928
802.78	7928
802.923	7997
803.065	7898
803.208	7906
803.35	7974
803.492	8134
803.635	8172
803.777	8107
803.919	8096
804.061	8488
804.204	8237
804.346	8084
804.488	8054
804.63	8115
804.773	8050
804.915	8199
805.057	8317
805.199	8176
805.341	8161
805.483	8290
805.626	8347
805.768	8221
805.91	8183
806.052	8183
806.194	8237
806.336	8317
806.478	8161
806.62	8100
806.762	8119
806.904	8259
807.046	8469
807.188	8396
807.33	8320
807.472	8309
807.614	8172
807.756	8221
807.898	8058
808.04	7871
808.182	7963
808.324	7887
808.465	7944
808.607	8065
808.749	8103
808.891	8256
809.033	8400
809.174	8271
809.316	8142
809.458	8069
809.6	8043
809.741	8046
809.883	8111
810.025	8145
810.166	7997
810.308	8020
810.45	8062
810.591	7940
810.733	7723
810.875	7639
811.016	7636
811.158	7571
811.299	7624
811.441	7693
811.582	7757
811.724	7594
811.865	7563
812.007	7651
812.148	7647
812.29	7677
812.431	7727
812.573	7890
812.714	8031
812.855	8153
812.997	8199
813.138	8351
813.279	8210
813.421	8103
813.562	8031
813.703	7894
813.845	7792
813.986	7499
814.127	7259
814.268	7171
814.41	7209
814.551	7228
814.692	7259
814.833	7129
814.974	7175
815.115	7133
815.256	7046
815.397	6962
815.539	6973
815.68	6848
815.821	6848
815.962	6909
816.103	6890
816.244	6738
816.385	6608
816.526	6597
816.666	6521
816.807	6331
816.948	6426
817.089	6448
817.23	6441
817.371	6452
817.512	6426
817.653	6433
817.793	6437
817.934	6456
818.075	6521
818.216	6452
818.356	6403
818.497	6273
818.638	6194
818.778	6201
818.919	6152
819.06	6194
819.2	6380
819.341	6395
819.481	6346
819.622	6509
819.762	6787
819.903	6684
820.043	6654
820.184	6635
820.324	6604
820.465	6745
820.605	6696
820.746	6662
820.886	6566
821.026	6719
821.167	6802
821.307	6818
821.447	6871
821.588	6764
821.728	6677
821.868	6528
822.008	6388
822.149	6372
822.289	6384
822.429	6175
822.569	6159
822.709	6190
822.849	5961
822.99	5931
823.13	5980
823.27	5950
823.41	5821
823.55	5844
823.69	5824
823.83	5821
823.97	5665
824.11	5585
824.25	5505
824.389	5547
824.529	5600
824.669	5604
824.809	5649
824.949	5665
825.089	5615
825.228	5539
825.368	5433
825.508	5337
825.648	5364
825.787	5402
825.927	5353
826.067	5334
826.206	5322
826.346	5368
826.485	5364
826.625	5414
826.765	5562
826.904	5512
827.044	5292
827.183	5277
827.323	5151
827.462	5239
827.601	5223
827.741	5208
827.88	5223
828.02	5155
828.159	5280
828.298	5273
828.437	5345
828.577	5330
828.716	5497
828.855	5345
828.994	5155
829.134	5197
829.273	5197
829.412	5147
829.551	5197
829.69	5185
829.829	5220
829.968	5383
830.107	5334
830.246	5239
830.385	5269
830.524	5151
830.663	5098
830.802	5018
830.941	4904
831.08	4915
831.219	5003
831.357	5018
831.496	5193
831.635	4953
831.774	4904
831.913	4854
832.051	4740
832.19	4767
832.329	4911
832.467	4767
832.606	4618
832.744	4759
832.883	4710
833.022	4714
833.16	4790
833.299	4828
833.437	4862
833.576	4847
833.714	4885
833.852	4885
833.991	4911
834.129	4968
834.267	5006
834.406	4900
834.544	4949
834.682	5041
834.821	5018
834.959	5170
835.097	5003
835.235	5162
835.373	5086
835.511	5098
835.65	5064
835.788	5025
835.926	4881
836.064	4908
836.202	4965
836.34	5174
836.478	5227
836.615	5147
836.753	5254
836.891	5303
837.029	5254
837.167	5212
837.305	5197
837.443	5159
837.58	5105
837.718	5284
837.856	5204
837.993	5208
838.131	5258
838.269	5280
838.406	5204
838.544	5258
838.681	5060
838.819	5075
838.956	4896
839.094	4930
839.231	4999
839.369	5105
839.506	5421
839.643	5292
839.781	5098
839.918	5033
840.055	5128
840.193	5109
840.33	5113
840.467	5162
840.604	5170
840.742	5455
840.879	5147
841.016	5121
841.153	5155
841.29	5364
841.427	5334
841.564	5368
841.701	5376
841.838	5311
841.975	5242
842.112	5277
842.249	5170
842.385	5067
842.522	5368
842.659	5181
842.796	5147
842.933	5212
843.069	5166
843.206	5136
843.343	5307
843.479	5284
843.616	5216
843.752	5037
843.889	5010
844.025	5246
844.162	5029
844.298	5261
844.435	5132
844.571	5071
844.708	5223
844.844	5296
844.98	5349
845.117	5318
845.253	5143
845.389	5079
845.525	5189
845.661	5185
845.798	5060
845.934	5124
846.07	5071
846.206	5235
846.342	5318
846.478	5185
846.614	5048
846.75	4995
846.886	4942
847.022	5166
847.158	5052
847.294	5041
847.429	5060
847.565	5086
847.701	5341
847.837	4816
847.972	4850
848.108	4946
848.244	4934
848.379	4809
848.515	4740
848.65	4752
848.786	4763
848.921	4805
849.057	4889
849.192	4900
849.328	4881
849.463	4843
849.598	4812
849.734	4805
849.869	4683
850.004	4649
850.14	4672
850.275	4649
850.41	4550
850.545	4634
850.68	4641
850.815	4691
850.95	4649
851.085	4858
851.22	4793
851.355	4649
851.49	4649
851.625	4664
851.76	4660
851.895	4618
852.03	4554
852.165	4675
852.299	4755
852.434	4847
852.569	4736
852.703	4809
852.838	4850
852.973	4904
853.107	4953
853.242	4755
853.376	4698
853.511	4554
853.645	4656
853.78	4786
853.914	4717
854.048	4683
854.183	4679
854.317	4717
854.451	4862
854.585	4714
854.72	4607
854.854	4771
854.988	4656
855.122	4637
855.256	4535
855.39	4702
855.524	4805
855.658	4736
855.792	4748
855.926	4748
856.06	4740
856.194	4771
856.327	4668
856.461	4634
856.595	4626
856.729	4637
856.862	4733
856.996	4702
857.13	4698
857.263	4778
857.397	4767
857.53	4656
857.664	4752
857.797	4809
857.931	4774
858.064	4668
858.197	4744
858.331	4649
858.464	4622
858.597	4580
858.731	4577
858.864	4649
858.997	4615
859.13	4702
859.263	4683
859.396	4679
859.529	4573
859.662	4599
859.795	4554
859.928	4618
860.061	4740
860.194	4767
860.327	4618
860.46	4622
860.592	4740
860.725	4698
860.858	4744
860.99	4542
861.123	4508
861.256	4546
861.388	4603
861.521	5277
861.653	4527
861.786	4470
861.918	4504
862.05	4538
862.183	4577
862.315	4565
862.447	4714
862.58	4569
862.712	4413
862.844	4363
862.976	4474
863.108	4462
863.24	4763
863.372	4306
863.504	4405
863.636	4447
863.768	4474
863.9	4432
864.032	4344
864.164	4394
864.296	4531
864.428	4569
864.559	4596
864.691	4542
864.823	4519
864.954	4443
865.086	4565
865.217	4481
865.349	4443
865.48	4402
865.612	4523
865.743	4603
865.875	4493
866.006	4481
866.137	4443
866.269	4474
866.4	4451
866.531	4436
866.662	4398
866.793	4413
866.924	4394
867.055	4485
867.186	4478
867.317	4409
867.448	4398
867.579	4386
867.71	4390
867.841	4344
867.972	4455
868.103	4478
868.233	4478
868.364	4466
868.495	4466
868.625	4675
868.756	4767
868.886	4569
869.017	4649
869.147	4793
869.278	4805
869.408	4687
869.539	4679
869.669	4710
869.799	4664
869.929	4759
870.06	4736
870.19	4999
870.32	4957
870.45	4984
870.58	5010
870.71	5086
870.84	5113
870.97	4972
871.1	4942
871.23	5128
871.36	5117
871.489	5018
871.619	5105
871.749	5121
871.879	5098
872.008	5231
872.138	5086
872.267	4965
872.397	4824
872.526	4809
872.656	4729
872.785	4801
872.915	4991
873.044	5056
873.173	4927
873.303	4949
873.432	4984
873.561	4972
873.69	4850
873.819	4854
873.948	4919
874.077	4873
874.206	4797
874.335	4801
874.464	4919
874.593	5003
874.722	5025
874.851	5022
874.979	5083
875.108	5022
875.237	4892
875.365	4900
875.494	4881
875.623	5018
875.751	4862
875.88	4881
876.008	4942
876.136	5041
876.265	5227
876.393	5379
876.521	5277
876.65	5231
876.778	5109
876.906	5128
877.034	5025
877.162	5037
877.29	4987
877.418	5010
877.546	5048
877.674	5052
877.802	5006
877.93	4999
878.058	4946
878.185	4904
878.313	4968
878.441	4930
878.568	4812
878.696	4885
878.824	4927
878.951	4968
879.079	5170
879.206	5307
879.333	5075
879.461	4980
879.588	4984
879.715	5071
879.842	5235
879.97	4984
880.097	4771
880.224	4706
880.351	4835
880.478	4850
880.605	4793
880.732	4793
880.859	5098
880.986	4908
881.112	4881
881.239	4774
881.366	4664
881.493	4622
881.619	4603
881.746	4607
881.872	4675
881.999	4653
882.125	4729
882.252	4767
882.378	4809
882.505	4961
882.631	4820
882.757	4683
882.883	4725
883.01	4714
883.136	4706
883.262	4527
883.388	4656
883.514	4824
883.64	4820
883.766	4778
883.892	4656
884.018	4675
884.143	4949
884.269	4980
884.395	4683
884.52	4599
884.646	4679
884.772	4535
884.897	4558
885.023	4698
885.148	4767
885.274	4873
885.399	4816
885.524	4767
885.65	4733
885.775	4733
885.9	4710
886.025	4877
886.15	4748
886.275	4755
886.4	4656
886.525	4748
886.65	4637
886.775	4687
886.9	4885
887.025	5014
887.149	4797
887.274	4710
887.399	4596
887.523	4626
887.648	4622
887.773	4618
887.897	4790
888.021	4805
888.146	4702
888.27	4820
888.395	4965
888.519	4790
888.643	4812
888.767	4873
888.891	4679
889.015	4603
889.139	4683
889.263	4634
889.387	4763
889.511	4862
889.635	4793
889.759	4607
889.883	4656
890.006	4740
890.13	4870
890.254	4577
890.377	4660
890.501	4550
890.624	4542
890.748	4584
890.871	4512
890.995	4436
891.118	4371
891.241	4481
891.364	4531
891.488	4615
891.611	4527
891.734	4512
891.857	4641
891.98	4580
892.103	4675
892.226	4561
892.349	4554
892.471	4390
892.594	4546
892.717	4592
892.839	4531
892.962	4599
893.085	4664
893.207	4573
893.33	4413
893.452	4512
893.575	4626
893.697	4535
893.819	4786
893.941	4862
894.064	4793
894.186	4569
894.308	4580
894.43	4725
894.552	4854
894.674	4778
894.796	4531
894.918	4618
895.04	4550
895.161	4694
895.283	4660
895.405	4603
895.526	4607
895.648	4672
895.769	4725
895.891	4721
896.012	4736
896.134	4710
896.255	4672
896.376	4645
896.498	4626
896.619	4637
896.74	4588
896.861	4622
896.982	4892
897.103	5056
897.224	4843
897.345	4694
897.466	4634
897.587	4721
897.708	4843
897.828	4748
897.949	4656
898.07	4577
898.19	4626
898.311	4828
898.431	4668
898.552	4706
898.672	4828
898.792	4847
898.913	4710
899.033	4626
899.153	4481
899.273	4383
899.393	4542
899.513	4542
899.633	4535
899.753	4554
899.873	4531
899.993	4554
900.113	4516
900.232	4596
900.352	4538
900.472	4466
900.591	4417
900.711	4512
900.83	4432
900.95	4603
901.069	4721
901.189	4592
901.308	4386
901.427	4287
901.546	4402
901.665	4478
901.784	4481
901.904	4386
902.023	4261
902.141	4238
902.26	4139
902.379	4276
902.498	4219
902.617	4280
902.735	4352
902.854	4390
902.973	4398
903.091	4215
903.21	4177
903.328	4306
903.446	4242
903.565	4227
903.683	4306
903.801	4257
903.919	4405
904.038	4440
904.156	4310
904.274	4451
904.392	4386
904.51	4466
904.627	4489
904.745	4558
904.863	4641
904.981	4379
905.098	4287
905.216	4409
905.334	4409
905.451	4413
905.569	4440
905.686	4561
905.803	4584
905.921	4440
906.038	4554
906.155	4508
906.272	4379
906.389	4489
906.506	4329
906.623	4375
906.74	4363
906.857	4341
906.974	4367
907.091	4622
907.208	4687
907.324	4588
907.441	4485
907.557	4352
907.674	4337
907.79	4322
907.907	4356
908.023	4474
908.139	4413
908.256	4402
908.372	4508
908.488	4443
908.604	4310
908.72	4318
908.836	4318
908.952	4363
909.068	4447
909.184	4580
909.3	4440
909.415	4584
909.531	4497
909.647	4341
909.762	4375
909.878	4348
909.993	4470
910.108	4398
910.224	4428
910.339	4497
910.454	4413
910.57	4356
910.685	4310
910.8	4679
910.915	4626
911.03	4459
911.145	4318
911.259	4322
911.374	4341
911.489	4295
911.604	4287
911.718	4147
911.833	4230
911.947	4055
912.062	3994
912.176	4207
912.291	4253
912.405	4253
912.519	4474
912.633	4500
912.748	4417
912.862	4344
912.976	4227
913.09	4044
913.204	4207
913.318	4295
913.431	4303
913.545	4390
913.659	4443
913.772	4348
913.886	4261
914	4249
914.113	4386
914.226	4470
914.34	4375
914.453	4238
914.566	4447
914.68	4276
914.793	4284
914.906	4124
915.019	4105
915.132	4078
915.245	4204
915.358	4227
915.47	4215
915.583	4257
915.696	4280
915.809	4440
915.921	4421
916.034	4257
916.146	4325
916.259	4238
916.371	4386
916.483	4329
916.595	4268
916.708	4318
916.82	4299
916.932	4318
917.044	4295
917.156	4303
917.268	4200
917.38	4341
917.491	4238
917.603	4325
917.715	4405
917.826	4462
917.938	4329
918.049	4242
918.161	4405
918.272	4500
918.384	4554
918.495	4440
918.606	4280
918.717	4196
918.828	4306
918.939	4386
919.05	4261
919.161	4318
919.272	4139
919.383	4207
919.494	4451
919.604	4584
919.715	4459
919.826	4333
919.936	4348
920.047	4550
920.157	4493
920.267	4694
920.378	4523
920.488	4516
920.598	4717
920.708	4915
920.818	4774
920.928	4714
921.038	4908
921.148	4927
921.258	4664
921.368	4538
921.477	4451
921.587	4474
921.697	4394
921.806	4535
921.916	4432
922.025	4268
922.134	4299
922.244	4234
922.353	4325
922.462	4173
922.571	4090
922.68	4010
922.789	3960
922.898	4025
923.007	4013
923.116	4154
923.224	4036
923.333	4025
923.442	3972
923.55	3960
923.659	4067
923.767	4093
923.876	4032
923.984	4086
924.092	3937
924.201	4074
924.309	4067
924.417	4105
924.525	4051
924.633	4112
924.741	5060
924.849	3888
924.956	4166
925.064	3994
925.172	3926
925.279	3956
925.387	4086
925.494	4017
925.602	4219
925.709	4242
925.816	4036
925.924	4166
926.031	4219
926.138	4169
926.245	4219
926.352	4055
926.459	4219
926.566	4299
926.673	4154
926.779	4128
926.886	4059
926.993	3953
927.099	3934
927.206	3926
927.312	3922
927.419	4044
927.525	4021
927.631	4101
927.737	3960
927.843	3975
927.95	3800
928.056	3922
928.162	4013
928.267	4086
928.373	4607
928.479	4135
928.585	3876
928.69	3998
928.796	4048
928.901	3975
929.007	3884
929.112	3979
929.218	3907
929.323	3979
929.428	3907
929.533	4135
929.638	3983
929.743	3953
929.848	4006
929.953	3968
930.058	3911
930.163	3759
930.267	3827
930.372	3975
930.477	3800
930.581	4055
930.685	3968
930.79	3823
930.894	3903
930.998	3850
931.103	3987
931.207	3740
931.311	3690
931.415	3686
931.519	3511
931.623	3568
