Data from test_V78500241_1598.txt Node
Date: Fri Mar 25 17:00:06 CST 2022
User: usil
Spectrometer: V785-0024
Trigger mode: 0
Integration Time (sec): 4.000000E-1
Scans to average: 1
Nonlinearity correction enabled: false
Boxcar width: 0
Storing dark spectrum: false
XAxis mode: Wavelengths
Number of Pixels in Spectrum: 1024
>>>>>Begin Spectral Data<<<<<
801.071	7986
801.214	7951
801.356	7811
801.499	7887
801.641	7700
801.783	7803
801.926	7978
802.068	7887
802.211	8008
802.353	7997
802.496	7818
802.638	7830
802.78	7860
802.923	7913
803.065	7757
803.208	7833
803.35	7940
803.492	8054
803.635	8134
803.777	7993
803.919	8138
804.061	8351
804.204	8172
804.346	8043
804.488	7917
804.63	8043
804.773	7974
804.915	8027
805.057	8237
805.199	8134
805.341	8195
805.483	8282
805.626	8172
805.768	8138
805.91	8214
806.052	8210
806.194	8084
806.336	8263
806.478	8043
806.62	8058
806.762	8134
806.904	8267
807.046	8412
807.188	8336
807.33	8313
807.472	8298
807.614	8161
807.756	8111
807.898	7970
808.04	7909
808.182	7928
808.324	7898
808.465	7936
808.607	8077
808.749	8046
808.891	8176
809.033	8339
809.174	8183
809.316	8069
809.458	8043
809.6	7955
809.741	8096
809.883	8031
810.025	8096
810.166	8100
810.308	8016
810.45	7986
810.591	7879
810.733	7727
810.875	7670
811.016	7426
811.158	7491
811.299	7506
811.441	7712
811.582	7677
811.724	7616
811.865	7472
812.007	7563
812.148	7563
812.29	7571
812.431	7693
812.573	7841
812.714	8008
812.855	8081
812.997	8123
813.138	8279
813.279	8218
813.421	8073
813.562	7928
813.703	7769
813.845	7753
813.986	7434
814.127	7255
814.268	7194
814.41	7225
814.551	7141
814.692	7198
814.833	7019
814.974	7107
815.115	7122
815.256	6935
815.397	6863
815.539	6890
815.68	6837
815.821	6753
815.962	6863
816.103	6772
816.244	6650
816.385	6608
816.526	6589
816.666	6448
816.807	6289
816.948	6403
817.089	6483
817.23	6384
817.371	6350
817.512	6357
817.653	6376
817.793	6407
817.934	6388
818.075	6403
818.216	6361
818.356	6357
818.497	6220
818.638	6121
818.778	6190
818.919	6155
819.06	6121
819.2	6361
819.341	6323
819.481	6429
819.622	6502
819.762	6757
819.903	6753
820.043	6570
820.184	6532
820.324	6589
820.465	6662
820.605	6715
820.746	6669
820.886	6532
821.026	6582
821.167	6692
821.307	6825
821.447	6749
821.588	6703
821.728	6582
821.868	6536
822.008	6338
822.149	6361
822.289	6292
822.429	6114
822.569	6091
822.709	6083
822.849	5965
822.99	5874
823.13	5946
823.27	5859
823.41	5798
823.55	5805
823.69	5718
823.83	5764
823.97	5680
824.11	5554
824.25	5455
824.389	5539
824.529	5604
824.669	5493
824.809	5615
824.949	5703
825.089	5630
825.228	5535
825.368	5372
825.508	5284
825.648	5299
825.787	5349
825.927	5334
826.067	5288
826.206	5318
826.346	5406
826.485	5372
826.625	5349
826.765	5570
826.904	5471
827.044	5250
827.183	5170
827.323	5113
827.462	5269
827.601	5140
827.741	5227
827.88	5189
828.02	5147
828.159	5231
828.298	5261
828.437	5360
828.577	5273
828.716	5429
828.855	5296
828.994	5147
829.134	5113
829.273	5159
829.412	5132
829.551	5105
829.69	5189
829.829	5296
829.968	5341
830.107	5246
830.246	5284
830.385	5155
830.524	5098
830.663	5006
830.802	4930
830.941	4839
831.08	4873
831.219	4972
831.357	4984
831.496	5151
831.635	4866
831.774	4831
831.913	4828
832.051	4736
832.19	4771
832.329	4839
832.467	4710
832.606	4656
832.744	4706
832.883	4691
833.022	4717
833.16	4812
833.299	4866
833.437	4801
833.576	4763
833.714	4850
833.852	4881
833.991	4824
834.129	4866
834.267	4923
834.406	4930
834.544	4980
834.682	4942
834.821	4938
834.959	5166
835.097	4953
835.235	5132
835.373	5041
835.511	5128
835.65	5045
835.788	4972
835.926	4843
836.064	4866
836.202	4942
836.34	5136
836.478	5201
836.615	5136
836.753	5197
836.891	5254
837.029	5242
837.167	5159
837.305	5109
837.443	5174
837.58	5075
837.718	5261
837.856	5201
837.993	5117
838.131	5170
838.269	5273
838.406	5231
838.544	5166
838.681	5079
838.819	5014
838.956	4828
839.094	4873
839.231	4984
839.369	5128
839.506	5360
839.643	5242
839.781	5052
839.918	4999
840.055	5067
840.193	5071
840.33	5090
840.467	5166
840.604	5189
840.742	5372
840.879	5006
841.016	5071
841.153	5170
841.29	5357
841.427	5315
841.564	5334
841.701	5341
841.838	5254
841.975	5193
842.112	5258
842.249	5113
842.385	5109
842.522	5334
842.659	5117
842.796	5083
842.933	5166
843.069	5132
843.206	5140
843.343	5284
843.479	5201
843.616	5318
843.752	5037
843.889	5006
844.025	5181
844.162	5045
844.298	5178
844.435	5094
844.571	5010
844.708	5181
844.844	5250
844.98	5288
845.117	5296
845.253	5159
845.389	5025
845.525	5174
845.661	5140
845.798	5029
845.934	5117
846.07	5029
846.206	5181
846.342	5315
846.478	5132
846.614	5022
846.75	4938
846.886	4923
847.022	5143
847.158	5010
847.294	5071
847.429	5090
847.565	5025
847.701	5296
847.837	4847
847.972	4790
848.108	4942
848.244	4911
848.379	4782
848.515	4733
848.65	4702
848.786	4801
848.921	4736
849.057	4812
849.192	4843
849.328	4767
849.463	4847
849.598	4774
849.734	4717
849.869	4698
850.004	4649
850.14	4672
850.275	4573
850.41	4508
850.545	4558
850.68	4618
850.815	4584
850.95	4653
851.085	4793
851.22	4721
851.355	4702
851.49	4599
851.625	4592
851.76	4637
851.895	4565
852.03	4519
852.165	4641
852.299	4725
852.434	4790
852.569	4767
852.703	4771
852.838	4824
852.973	4900
853.107	4934
853.242	4736
853.376	4668
853.511	4535
853.645	4637
853.78	4812
853.914	4710
854.048	4683
854.183	4656
854.317	4672
854.451	4820
854.585	4645
854.72	4634
854.854	4729
854.988	4634
855.122	4634
855.256	4500
855.39	4660
855.524	4767
855.658	4763
855.792	4641
855.926	4664
856.06	4717
856.194	4839
856.327	4706
856.461	4596
856.595	4660
856.729	4641
856.862	4778
856.996	4698
857.13	4710
857.263	4759
857.397	4793
857.53	4607
857.664	4706
857.797	4759
857.931	4778
858.064	4645
858.197	4683
858.331	4660
858.464	4584
858.597	4523
858.731	4641
858.864	4656
858.997	4554
859.13	4668
859.263	4660
859.396	4698
859.529	4626
859.662	4512
859.795	4531
859.928	4618
860.061	4763
860.194	4740
860.327	4565
860.46	4592
860.592	4729
860.725	4748
860.858	4706
860.99	4584
861.123	4504
861.256	4561
861.388	4611
861.521	5216
861.653	4489
861.786	4462
861.918	4466
862.05	4512
862.183	4611
862.315	4561
862.447	4645
862.58	4508
862.712	4421
862.844	4306
862.976	4447
863.108	4417
863.24	4744
863.372	4337
863.504	4383
863.636	4421
863.768	4474
863.9	4443
864.032	4360
864.164	4421
864.296	4459
864.428	4516
864.559	4569
864.691	4497
864.823	4497
864.954	4523
865.086	4481
865.217	4424
865.349	4394
865.48	4394
865.612	4481
865.743	4641
865.875	4485
866.006	4436
866.137	4394
866.269	4428
866.4	4386
866.531	4478
866.662	4383
866.793	4432
866.924	4386
867.055	4421
867.186	4478
867.317	4440
867.448	4413
867.579	4386
867.71	4375
867.841	4348
867.972	4443
868.103	4516
868.233	4462
868.364	4428
868.495	4474
868.625	4622
868.756	4774
868.886	4497
869.017	4596
869.147	4782
869.278	4755
869.408	4653
869.539	4630
869.669	4698
869.799	4656
869.929	4786
870.06	4714
870.19	4965
870.32	4862
870.45	4934
870.58	4972
870.71	5048
870.84	5067
870.97	4892
871.1	4877
871.23	5109
871.36	5136
871.489	5041
871.619	5014
871.749	5056
871.879	5109
872.008	5204
872.138	5022
872.267	4968
872.397	4831
872.526	4778
872.656	4714
872.785	4809
872.915	4934
873.044	5003
873.173	4911
873.303	4965
873.432	4961
873.561	4938
873.69	4885
873.819	4812
873.948	4919
874.077	4828
874.206	4771
874.335	4797
874.464	4911
874.593	5052
874.722	4934
874.851	5067
874.979	5113
875.108	5060
875.237	4896
875.365	4889
875.494	4911
875.623	4968
875.751	4805
875.88	4854
876.008	4972
876.136	5033
876.265	5212
876.393	5322
876.521	5246
876.65	5242
876.778	5140
876.906	5033
877.034	4984
877.162	5048
877.29	4999
877.418	5060
877.546	5067
877.674	5025
877.802	5041
877.93	5018
878.058	4892
878.185	4877
878.313	4991
878.441	4972
878.568	4801
878.696	4870
878.824	4946
878.951	5006
879.079	5162
879.206	5299
879.333	5025
879.461	4957
879.588	4976
879.715	5090
879.842	5227
879.97	5041
880.097	4778
880.224	4752
880.351	4831
880.478	4786
880.605	4828
880.732	4790
880.859	5102
880.986	4873
881.112	4877
881.239	4782
881.366	4672
881.493	4599
881.619	4542
881.746	4641
881.872	4664
881.999	4649
882.125	4694
882.252	4805
882.378	4774
882.505	4957
882.631	4767
882.757	4664
882.883	4752
883.01	4752
883.136	4653
883.262	4599
883.388	4607
883.514	4824
883.64	4847
883.766	4843
883.892	4675
884.018	4717
884.143	4816
884.269	4995
884.395	4660
884.52	4641
884.646	4622
884.772	4607
884.897	4558
885.023	4641
885.148	4797
885.274	4820
885.399	4805
885.524	4729
885.65	4691
885.775	4740
885.9	4786
886.025	4809
886.15	4755
886.275	4679
886.4	4641
886.525	4740
886.65	4630
886.775	4687
886.9	4889
887.025	5006
887.149	4790
887.274	4618
887.399	4550
887.523	4569
887.648	4538
887.773	4577
887.897	4774
888.021	4809
888.146	4675
888.27	4850
888.395	4866
888.519	4801
888.643	4786
888.767	4854
888.891	4698
889.015	4565
889.139	4596
889.263	4527
889.387	4767
889.511	4873
889.635	4786
889.759	4592
889.883	4618
890.006	4702
890.13	4805
890.254	4611
890.377	4702
890.501	4561
890.624	4466
890.748	4626
890.871	4447
890.995	4443
891.118	4325
891.241	4497
891.364	4519
891.488	4615
891.611	4466
891.734	4527
891.857	4580
891.98	4535
892.103	4569
892.226	4558
892.349	4535
892.471	4432
892.594	4569
892.717	4573
892.839	4561
892.962	4596
893.085	4653
893.207	4573
893.33	4466
893.452	4493
893.575	4611
893.697	4554
893.819	4786
893.941	4812
894.064	4721
894.186	4580
894.308	4599
894.43	4755
894.552	4812
894.674	4733
894.796	4542
894.918	4611
895.04	4554
895.161	4649
895.283	4672
895.405	4584
895.526	4618
895.648	4694
895.769	4637
895.891	4714
896.012	4782
896.134	4698
896.255	4668
896.376	4653
896.498	4580
896.619	4656
896.74	4615
896.861	4626
896.982	4908
897.103	5022
897.224	4850
897.345	4740
897.466	4645
897.587	4702
897.708	4858
897.828	4755
897.949	4660
898.07	4516
898.19	4596
898.311	4854
898.431	4588
898.552	4706
898.672	4786
898.792	4767
898.913	4744
899.033	4580
899.153	4462
899.273	4390
899.393	4474
899.513	4481
899.633	4497
899.753	4561
899.873	4531
899.993	4584
900.113	4516
900.232	4527
900.352	4558
900.472	4455
900.591	4394
900.711	4436
900.83	4478
900.95	4611
901.069	4653
901.189	4489
901.308	4333
901.427	4284
901.546	4356
901.665	4481
901.784	4455
901.904	4356
902.023	4287
902.141	4143
902.26	4154
902.379	4337
902.498	4253
902.617	4200
902.735	4352
902.854	4413
902.973	4325
903.091	4166
903.21	4223
903.328	4280
903.446	4253
903.565	4299
903.683	4402
903.801	4265
903.919	4409
904.038	4424
904.156	4272
904.274	4405
904.392	4413
904.51	4462
904.627	4417
904.745	4569
904.863	4645
904.981	4371
905.098	4280
905.216	4322
905.334	4417
905.451	4432
905.569	4432
905.686	4554
905.803	4546
905.921	4398
906.038	4519
906.155	4443
906.272	4432
906.389	4447
906.506	4367
906.623	4428
906.74	4367
906.857	4246
906.974	4352
907.091	4535
907.208	4694
907.324	4603
907.441	4512
907.557	4280
907.674	4360
907.79	4341
907.907	4379
908.023	4451
908.139	4462
908.256	4371
908.372	4466
908.488	4413
908.604	4341
908.72	4299
908.836	4356
908.952	4413
909.068	4421
909.184	4519
909.3	4443
909.415	4554
909.531	4508
909.647	4352
909.762	4341
909.878	4352
909.993	4421
910.108	4436
910.224	4363
910.339	4466
910.454	4417
910.57	4314
910.685	4322
910.8	4641
910.915	4577
911.03	4462
911.145	4318
911.259	4295
911.374	4363
911.489	4219
911.604	4295
911.718	4204
911.833	4196
911.947	4074
912.062	4032
912.176	4219
912.291	4257
912.405	4253
912.519	4451
912.633	4481
912.748	4318
912.862	4352
912.976	4154
913.09	4078
913.204	4166
913.318	4268
913.431	4344
913.545	4360
913.659	4451
913.772	4390
913.886	4223
914	4188
914.113	4405
914.226	4432
914.34	4344
914.453	4230
914.566	4413
914.68	4306
914.793	4360
914.906	4173
915.019	4120
915.132	4010
915.245	4162
915.358	4154
915.47	4215
915.583	4230
915.696	4284
915.809	4363
915.921	4402
916.034	4227
916.146	4204
916.259	4185
916.371	4352
916.483	4329
916.595	4234
916.708	4344
916.82	4322
916.932	4318
917.044	4295
917.156	4348
917.268	4249
917.38	4238
917.491	4291
917.603	4329
917.715	4421
917.826	4466
917.938	4337
918.049	4284
918.161	4371
918.272	4527
918.384	4485
918.495	4424
918.606	4249
918.717	4204
918.828	4375
918.939	4356
919.05	4177
919.161	4291
919.272	4135
919.383	4211
919.494	4424
919.604	4596
919.715	4451
919.826	4348
919.936	4390
920.047	4538
920.157	4478
920.267	4649
920.378	4550
920.488	4489
920.598	4714
920.708	4889
920.818	4782
920.928	4759
921.038	4892
921.148	4919
921.258	4683
921.368	4611
921.477	4478
921.587	4417
921.697	4360
921.806	4580
921.916	4421
922.025	4299
922.134	4306
922.244	4230
922.353	4333
922.462	4219
922.571	4166
922.68	4017
922.789	4006
922.898	4036
923.007	4017
923.116	4124
923.224	4124
923.333	4097
923.442	3998
923.55	3994
923.659	4067
923.767	4150
923.876	4021
923.984	4147
924.092	4010
924.201	4135
924.309	4116
924.417	4120
924.525	4048
924.633	4112
924.741	4892
924.849	3930
924.956	4192
925.064	3983
925.172	3941
925.279	4002
925.387	4067
925.494	4112
925.602	4253
925.709	4223
925.816	4067
925.924	4139
926.031	4287
926.138	4196
926.245	4246
926.352	4093
926.459	4276
926.566	4329
926.673	4173
926.779	4154
926.886	4128
926.993	4048
927.099	4010
927.206	3968
927.312	4010
927.419	4105
927.525	4097
927.631	4120
927.737	4021
927.843	4006
927.95	3880
928.056	3972
928.162	4006
928.267	4120
928.373	4637
928.479	4173
928.585	3945
928.69	4074
928.796	4093
928.901	4017
929.007	3888
929.112	4051
929.218	3983
929.323	4010
929.428	4002
929.533	4173
929.638	3949
929.743	4017
929.848	4086
929.953	4044
930.058	3972
930.163	3789
930.267	3857
930.372	3968
930.477	3869
930.581	4109
930.685	3991
930.79	3865
930.894	3941
930.998	3888
931.103	4051
931.207	3766
931.311	3736
931.415	3743
931.519	3561
931.623	3584
