Data from test_V78500241_2379.txt Node
Date: Fri Mar 25 17:05:32 CST 2022
User: usil
Spectrometer: V785-0024
Trigger mode: 0
Integration Time (sec): 4.000000E-1
Scans to average: 1
Nonlinearity correction enabled: false
Boxcar width: 0
Storing dark spectrum: false
XAxis mode: Wavelengths
Number of Pixels in Spectrum: 1024
>>>>>Begin Spectral Data<<<<<
801.071	7947
801.214	7913
801.356	7860
801.499	7799
801.641	7772
801.783	7814
801.926	7986
802.068	7944
802.211	8031
802.353	8073
802.496	7837
802.638	7868
802.78	7898
802.923	7932
803.065	7883
803.208	7826
803.35	7921
803.492	8050
803.635	8153
803.777	8039
803.919	8107
804.061	8427
804.204	8180
804.346	8107
804.488	7989
804.63	8050
804.773	8035
804.915	8027
805.057	8267
805.199	8168
805.341	8153
805.483	8210
805.626	8229
805.768	8123
805.91	8233
806.052	8164
806.194	8058
806.336	8271
806.478	8024
806.62	8103
806.762	8145
806.904	8202
807.046	8450
807.188	8412
807.33	8305
807.472	8294
807.614	8149
807.756	8100
807.898	7997
808.04	7906
808.182	7845
808.324	7887
808.465	7902
808.607	8020
808.749	8096
808.891	8172
809.033	8252
809.174	8275
809.316	8092
809.458	8039
809.6	7925
809.741	8058
809.883	7959
810.025	8157
810.166	8100
810.308	8046
810.45	7993
810.591	7883
810.733	7712
810.875	7700
811.016	7525
811.158	7521
811.299	7548
811.441	7708
811.582	7693
811.724	7590
811.865	7548
812.007	7639
812.148	7594
812.29	7715
812.431	7700
812.573	7913
812.714	7997
812.855	8145
812.997	8267
813.138	8305
813.279	8206
813.421	8103
813.562	7982
813.703	7898
813.845	7727
813.986	7506
814.127	7324
814.268	7225
814.41	7179
814.551	7164
814.692	7240
814.833	7091
814.974	7133
815.115	7145
815.256	7004
815.397	6924
815.539	6993
815.68	6875
815.821	6776
815.962	6829
816.103	6798
816.244	6715
816.385	6627
816.526	6627
816.666	6490
816.807	6327
816.948	6448
817.089	6475
817.23	6399
817.371	6395
817.512	6422
817.653	6441
817.793	6391
817.934	6441
818.075	6525
818.216	6475
818.356	6399
818.497	6247
818.638	6144
818.778	6155
818.919	6110
819.06	6194
819.2	6353
819.341	6289
819.481	6414
819.622	6582
819.762	6783
819.903	6684
820.043	6532
820.184	6585
820.324	6601
820.465	6707
820.605	6593
820.746	6639
820.886	6540
821.026	6677
821.167	6722
821.307	6837
821.447	6810
821.588	6681
821.728	6616
821.868	6540
822.008	6350
822.149	6399
822.289	6380
822.429	6194
822.569	6175
822.709	6117
822.849	5923
822.99	5912
823.13	5958
823.27	5920
823.41	5779
823.55	5821
823.69	5748
823.83	5805
823.97	5684
824.11	5554
824.25	5543
824.389	5512
824.529	5532
824.669	5478
824.809	5680
824.949	5699
825.089	5661
825.228	5528
825.368	5391
825.508	5337
825.648	5372
825.787	5425
825.927	5391
826.067	5311
826.206	5303
826.346	5357
826.485	5364
826.625	5349
826.765	5566
826.904	5512
827.044	5227
827.183	5197
827.323	5121
827.462	5261
827.601	5132
827.741	5223
827.88	5162
828.02	5147
828.159	5201
828.298	5288
828.437	5296
828.577	5246
828.716	5490
828.855	5307
828.994	5140
829.134	5136
829.273	5185
829.412	5128
829.551	5155
829.69	5136
829.829	5216
829.968	5368
830.107	5299
830.246	5292
830.385	5189
830.524	5151
830.663	5071
830.802	4984
830.941	4858
831.08	4854
831.219	5003
831.357	5025
831.496	5189
831.635	4877
831.774	4797
831.913	4824
832.051	4729
832.19	4759
832.329	4831
832.467	4706
832.606	4641
832.744	4744
832.883	4759
833.022	4721
833.16	4755
833.299	4824
833.437	4862
833.576	4858
833.714	4908
833.852	4877
833.991	4858
834.129	4976
834.267	4900
834.406	4908
834.544	4968
834.682	4976
834.821	4984
834.959	5143
835.097	5037
835.235	5136
835.373	5090
835.511	5132
835.65	5071
835.788	5014
835.926	4900
836.064	4908
836.202	4911
836.34	5174
836.478	5216
836.615	5117
836.753	5223
836.891	5311
837.029	5235
837.167	5201
837.305	5128
837.443	5124
837.58	5113
837.718	5235
837.856	5174
837.993	5140
838.131	5197
838.269	5178
838.406	5189
838.544	5132
838.681	5064
838.819	4972
838.956	4919
839.094	4911
839.231	4968
839.369	5014
839.506	5398
839.643	5216
839.781	4995
839.918	5010
840.055	5086
840.193	5143
840.33	5132
840.467	5162
840.604	5170
840.742	5444
840.879	5117
841.016	5098
841.153	5174
841.29	5364
841.427	5326
841.564	5318
841.701	5368
841.838	5360
841.975	5212
842.112	5273
842.249	5102
842.385	5124
842.522	5337
842.659	5185
842.796	5128
842.933	5178
843.069	5151
843.206	5178
843.343	5254
843.479	5254
843.616	5288
843.752	5045
843.889	5003
844.025	5201
844.162	5006
844.298	5235
844.435	5041
844.571	5079
844.708	5189
844.844	5261
844.98	5330
845.117	5250
845.253	5143
845.389	5105
845.525	5181
845.661	5121
845.798	5075
845.934	5086
846.07	5048
846.206	5223
846.342	5273
846.478	5124
846.614	4976
846.75	5003
846.886	4930
847.022	5185
847.158	4972
847.294	5067
847.429	5067
847.565	5045
847.701	5315
847.837	4824
847.972	4801
848.108	4953
848.244	4911
848.379	4786
848.515	4740
848.65	4714
848.786	4752
848.921	4843
849.057	4866
849.192	4877
849.328	4786
849.463	4839
849.598	4782
849.734	4740
849.869	4656
850.004	4592
850.14	4637
850.275	4649
850.41	4527
850.545	4542
850.68	4630
850.815	4622
850.95	4611
851.085	4858
851.22	4717
851.355	4668
851.49	4626
851.625	4599
851.76	4630
851.895	4523
852.03	4516
852.165	4679
852.299	4744
852.434	4793
852.569	4793
852.703	4816
852.838	4843
852.973	4961
853.107	4900
853.242	4767
853.376	4714
853.511	4550
853.645	4592
853.78	4793
853.914	4656
854.048	4649
854.183	4630
854.317	4660
854.451	4812
854.585	4645
854.72	4645
854.854	4721
854.988	4611
855.122	4615
855.256	4470
855.39	4698
855.524	4778
855.658	4778
855.792	4706
855.926	4710
856.06	4744
856.194	4812
856.327	4694
856.461	4561
856.595	4615
856.729	4607
856.862	4740
856.996	4679
857.13	4694
857.263	4706
857.397	4850
857.53	4615
857.664	4698
857.797	4767
857.931	4778
858.064	4694
858.197	4733
858.331	4649
858.464	4649
858.597	4554
858.731	4615
858.864	4675
858.997	4607
859.13	4721
859.263	4675
859.396	4668
859.529	4573
859.662	4561
859.795	4527
859.928	4622
860.061	4748
860.194	4714
860.327	4634
860.46	4523
860.592	4721
860.725	4710
860.858	4679
860.99	4592
861.123	4531
861.256	4508
861.388	4565
861.521	5341
861.653	4523
861.786	4390
861.918	4474
862.05	4531
862.183	4527
862.315	4577
862.447	4672
862.58	4577
862.712	4421
862.844	4333
862.976	4466
863.108	4436
863.24	4805
863.372	4348
863.504	4428
863.636	4360
863.768	4481
863.9	4459
864.032	4367
864.164	4436
864.296	4504
864.428	4588
864.559	4516
864.691	4497
864.823	4512
864.954	4485
865.086	4500
865.217	4481
865.349	4413
865.48	4440
865.612	4497
865.743	4622
865.875	4462
866.006	4455
866.137	4485
866.269	4451
866.4	4466
866.531	4428
866.662	4405
866.793	4428
866.924	4405
867.055	4504
867.186	4531
867.317	4432
867.448	4424
867.579	4409
867.71	4375
867.841	4363
867.972	4474
868.103	4447
868.233	4455
868.364	4451
868.495	4481
868.625	4694
868.756	4774
868.886	4504
869.017	4588
869.147	4740
869.278	4759
869.408	4687
869.539	4656
869.669	4714
869.799	4672
869.929	4740
870.06	4729
870.19	4930
870.32	4908
870.45	4934
870.58	5029
870.71	5102
870.84	5121
870.97	4976
871.1	4896
871.23	5128
871.36	5124
871.489	5022
871.619	5090
871.749	5132
871.879	5124
872.008	5174
872.138	5041
872.267	4976
872.397	4831
872.526	4797
872.656	4725
872.785	4816
872.915	4942
873.044	5006
873.173	4942
873.303	4923
873.432	4904
873.561	4866
873.69	4908
873.819	4854
873.948	4896
874.077	4805
874.206	4752
874.335	4828
874.464	4900
874.593	5052
874.722	4972
874.851	5128
874.979	5045
875.108	5010
875.237	4896
875.365	4870
875.494	4892
875.623	4984
875.751	4850
875.88	4854
876.008	4976
876.136	4976
876.265	5212
876.393	5337
876.521	5223
876.65	5170
876.778	5155
876.906	5048
877.034	5041
877.162	5067
877.29	4995
877.418	5064
877.546	4999
877.674	5045
877.802	5025
877.93	5033
878.058	4934
878.185	4866
878.313	4961
878.441	4999
878.568	4790
878.696	4850
878.824	4965
878.951	4991
879.079	5143
879.206	5345
879.333	5102
879.461	4957
879.588	4999
879.715	5113
879.842	5231
879.97	5022
880.097	4782
880.224	4755
880.351	4752
880.478	4828
880.605	4831
880.732	4733
880.859	5102
880.986	4862
881.112	4923
881.239	4805
881.366	4668
881.493	4596
881.619	4580
881.746	4611
881.872	4653
881.999	4607
882.125	4660
882.252	4763
882.378	4843
882.505	4896
882.631	4782
882.757	4660
882.883	4744
883.01	4725
883.136	4641
883.262	4588
883.388	4611
883.514	4809
883.64	4877
883.766	4793
883.892	4618
884.018	4714
884.143	4858
884.269	4968
884.395	4615
884.52	4603
884.646	4599
884.772	4615
884.897	4558
885.023	4618
885.148	4786
885.274	4790
885.399	4797
885.524	4698
885.65	4698
885.775	4759
885.9	4672
886.025	4839
886.15	4778
886.275	4717
886.4	4641
886.525	4694
886.65	4675
886.775	4679
886.9	4877
887.025	5033
887.149	4816
887.274	4656
887.399	4599
887.523	4580
887.648	4599
887.773	4546
887.897	4740
888.021	4790
888.146	4698
888.27	4862
888.395	4877
888.519	4839
888.643	4847
888.767	4824
888.891	4729
889.015	4641
889.139	4687
889.263	4637
889.387	4782
889.511	4850
889.635	4835
889.759	4656
889.883	4702
890.006	4744
890.13	4839
890.254	4641
890.377	4721
890.501	4519
890.624	4573
890.748	4698
890.871	4580
890.995	4516
891.118	4413
891.241	4561
891.364	4542
891.488	4668
891.611	4493
891.734	4603
891.857	4603
891.98	4603
892.103	4637
892.226	4607
892.349	4527
892.471	4459
892.594	4603
892.717	4664
892.839	4615
892.962	4603
893.085	4664
893.207	4668
893.33	4527
893.452	4569
893.575	4733
893.697	4630
893.819	4812
893.941	4873
894.064	4839
894.186	4584
894.308	4615
894.43	4755
894.552	4862
894.674	4854
894.796	4592
894.918	4637
895.04	4599
895.161	4748
895.283	4714
895.405	4645
895.526	4679
895.648	4706
895.769	4687
895.891	4805
896.012	4786
896.134	4831
896.255	4706
896.376	4664
896.498	4630
896.619	4710
896.74	4630
896.861	4664
896.982	4946
897.103	5140
897.224	4858
897.345	4771
897.466	4752
897.587	4790
897.708	4862
897.828	4843
897.949	4774
898.07	4550
898.19	4721
898.311	4881
898.431	4656
898.552	4778
898.672	4877
898.792	4824
898.913	4854
899.033	4660
899.153	4577
899.273	4516
899.393	4535
899.513	4580
899.633	4550
899.753	4607
899.873	4569
899.993	4603
900.113	4561
900.232	4634
900.352	4599
900.472	4523
900.591	4493
900.711	4535
900.83	4481
900.95	4725
901.069	4733
901.189	4577
901.308	4417
901.427	4356
901.546	4417
901.665	4500
901.784	4577
901.904	4421
902.023	4314
902.141	4196
902.26	4166
902.379	4394
902.498	4227
902.617	4280
902.735	4363
902.854	4398
902.973	4386
903.091	4276
903.21	4268
903.328	4310
903.446	4325
903.565	4306
903.683	4352
903.801	4318
903.919	4394
904.038	4462
904.156	4318
904.274	4485
904.392	4352
904.51	4440
904.627	4523
904.745	4664
904.863	4702
904.981	4443
905.098	4363
905.216	4440
905.334	4466
905.451	4474
905.569	4455
905.686	4599
905.803	4622
905.921	4455
906.038	4538
906.155	4512
906.272	4424
906.389	4523
906.506	4398
906.623	4409
906.74	4443
906.857	4352
906.974	4413
907.091	4615
907.208	4683
907.324	4679
907.441	4504
907.557	4363
907.674	4363
907.79	4379
907.907	4398
908.023	4504
908.139	4485
908.256	4436
908.372	4527
908.488	4500
908.604	4413
908.72	4333
908.836	4428
908.952	4371
909.068	4466
909.184	4630
909.3	4527
909.415	4599
909.531	4630
909.647	4398
909.762	4394
909.878	4363
909.993	4466
910.108	4417
910.224	4440
910.339	4497
910.454	4394
910.57	4402
910.685	4329
910.8	4691
910.915	4660
911.03	4512
911.145	4367
911.259	4402
911.374	4386
911.489	4329
911.604	4306
911.718	4211
911.833	4272
911.947	4124
912.062	4029
912.176	4261
912.291	4268
912.405	4276
912.519	4443
912.633	4489
912.748	4363
912.862	4322
912.976	4268
913.09	4128
913.204	4169
913.318	4242
913.431	4394
913.545	4413
913.659	4424
913.772	4386
913.886	4261
914	4280
914.113	4451
914.226	4470
914.34	4432
914.453	4242
914.566	4440
914.68	4352
914.793	4356
914.906	4192
915.019	4135
915.132	4097
915.245	4215
915.358	4261
915.47	4280
915.583	4287
915.696	4295
915.809	4424
915.921	4451
916.034	4295
916.146	4284
916.259	4268
916.371	4440
916.483	4405
916.595	4295
916.708	4363
916.82	4383
916.932	4360
917.044	4383
917.156	4352
917.268	4253
917.38	4318
917.491	4348
917.603	4356
917.715	4447
917.826	4398
917.938	4348
918.049	4280
918.161	4394
918.272	4569
918.384	4573
918.495	4451
918.606	4344
918.717	4287
918.828	4383
918.939	4375
919.05	4322
919.161	4375
919.272	4162
919.383	4215
919.494	4421
919.604	4622
919.715	4447
919.826	4371
919.936	4440
920.047	4542
920.157	4538
920.267	4725
920.378	4550
920.488	4512
920.598	4752
920.708	4980
920.818	4752
920.928	4771
921.038	4934
921.148	4881
921.258	4691
921.368	4561
921.477	4497
921.587	4538
921.697	4390
921.806	4519
921.916	4447
922.025	4303
922.134	4306
922.244	4238
922.353	4348
922.462	4204
922.571	4147
922.68	4067
922.789	4006
922.898	4040
923.007	4032
923.116	4116
923.224	4093
923.333	4105
923.442	4006
923.55	3979
923.659	4055
923.767	4112
923.876	4017
923.984	4200
924.092	3991
924.201	4105
924.309	4143
924.417	4131
924.525	4013
924.633	4105
924.741	5064
924.849	3956
924.956	4158
925.064	4006
925.172	3964
925.279	4029
925.387	4017
925.494	4048
925.602	4261
925.709	4295
925.816	4063
925.924	4124
926.031	4257
926.138	4139
926.245	4238
926.352	4086
926.459	4284
926.566	4325
926.673	4230
926.779	4135
926.886	4097
926.993	4025
927.099	3968
927.206	3934
927.312	3991
927.419	4071
927.525	4044
927.631	4131
927.737	3979
927.843	3968
927.95	3857
928.056	3983
928.162	4025
928.267	4013
928.373	4573
928.479	4131
928.585	3899
928.69	4051
928.796	4120
928.901	4017
929.007	3880
929.112	3987
929.218	4006
929.323	3960
929.428	3953
929.533	4135
929.638	3937
929.743	4025
929.848	4067
929.953	4010
930.058	3956
930.163	3823
930.267	3827
930.372	3975
930.477	3857
930.581	4071
930.685	3983
930.79	3846
930.894	3907
930.998	3861
931.103	4036
931.207	3713
931.311	3698
931.415	3701
931.519	3553
931.623	3564
