Data from test_V78500241_1858.txt Node
Date: Fri Mar 25 17:01:55 CST 2022
User: usil
Spectrometer: V785-0024
Trigger mode: 0
Integration Time (sec): 4.000000E-1
Scans to average: 1
Nonlinearity correction enabled: false
Boxcar width: 0
Storing dark spectrum: false
XAxis mode: Wavelengths
Number of Pixels in Spectrum: 1024
>>>>>Begin Spectral Data<<<<<
801.071	7890
801.214	7940
801.356	7909
801.499	7811
801.641	7830
801.783	7784
801.926	7944
802.068	7875
802.211	7940
802.353	8027
802.496	7856
802.638	7875
802.78	7864
802.923	7932
803.065	7860
803.208	7807
803.35	7909
803.492	8054
803.635	8168
803.777	7963
803.919	8149
804.061	8446
804.204	8183
804.346	8012
804.488	7902
804.63	8107
804.773	8020
804.915	8138
805.057	8240
805.199	8138
805.341	8161
805.483	8233
805.626	8244
805.768	8115
805.91	8218
806.052	8225
806.194	8115
806.336	8286
806.478	8031
806.62	8054
806.762	8142
806.904	8298
807.046	8446
807.188	8347
807.33	8339
807.472	8290
807.614	8187
807.756	8111
807.898	7959
808.04	7875
808.182	7883
808.324	7879
808.465	7913
808.607	8035
808.749	8077
808.891	8233
809.033	8233
809.174	8191
809.316	8107
809.458	8107
809.6	8039
809.741	8096
809.883	7997
810.025	8054
810.166	8005
810.308	7944
810.45	7909
810.591	7936
810.733	7746
810.875	7662
811.016	7563
811.158	7491
811.299	7548
811.441	7719
811.582	7708
811.724	7548
811.865	7563
812.007	7567
812.148	7556
812.29	7632
812.431	7795
812.573	7841
812.714	7944
812.855	8111
812.997	8157
813.138	8301
813.279	8157
813.421	8054
813.562	7986
813.703	7769
813.845	7738
813.986	7407
814.127	7240
814.268	7213
814.41	7152
814.551	7225
814.692	7251
814.833	7088
814.974	7057
815.115	7069
815.256	6981
815.397	6920
815.539	6901
815.68	6829
815.821	6810
815.962	6783
816.103	6829
816.244	6719
816.385	6604
816.526	6658
816.666	6517
816.807	6338
816.948	6418
817.089	6498
817.23	6475
817.371	6342
817.512	6308
817.653	6346
817.793	6323
817.934	6429
818.075	6460
818.216	6460
818.356	6361
818.497	6262
818.638	6091
818.778	6171
818.919	6091
819.06	6144
819.2	6315
819.341	6300
819.481	6353
819.622	6490
819.762	6741
819.903	6738
820.043	6631
820.184	6597
820.324	6582
820.465	6722
820.605	6669
820.746	6722
820.886	6509
821.026	6665
821.167	6772
821.307	6802
821.447	6806
821.588	6688
821.728	6597
821.868	6486
822.008	6334
822.149	6357
822.289	6361
822.429	6121
822.569	6140
822.709	6091
822.849	5927
822.99	5954
823.13	5889
823.27	5885
823.41	5786
823.55	5729
823.69	5802
823.83	5737
823.97	5672
824.11	5524
824.25	5562
824.389	5516
824.529	5539
824.669	5551
824.809	5604
824.949	5665
825.089	5630
825.228	5516
825.368	5364
825.508	5315
825.648	5406
825.787	5391
825.927	5345
826.067	5280
826.206	5265
826.346	5334
826.485	5433
826.625	5383
826.765	5524
826.904	5478
827.044	5231
827.183	5185
827.323	5094
827.462	5242
827.601	5170
827.741	5181
827.88	5193
828.02	5094
828.159	5239
828.298	5307
828.437	5296
828.577	5326
828.716	5459
828.855	5288
828.994	5124
829.134	5113
829.273	5159
829.412	5159
829.551	5086
829.69	5151
829.829	5216
829.968	5360
830.107	5277
830.246	5284
830.385	5151
830.524	5105
830.663	5075
830.802	4957
830.941	4942
831.08	4881
831.219	4976
831.357	4957
831.496	5121
831.635	4949
831.774	4828
831.913	4858
832.051	4668
832.19	4721
832.329	4816
832.467	4714
832.606	4622
832.744	4668
832.883	4672
833.022	4683
833.16	4797
833.299	4809
833.437	4873
833.576	4778
833.714	4835
833.852	4896
833.991	4915
834.129	4911
834.267	4984
834.406	4862
834.544	4987
834.682	4949
834.821	5003
834.959	5212
835.097	5037
835.235	5143
835.373	5094
835.511	5090
835.65	5022
835.788	5045
835.926	4919
836.064	4866
836.202	4923
836.34	5136
836.478	5223
836.615	5075
836.753	5193
836.891	5242
837.029	5223
837.167	5181
837.305	5174
837.443	5079
837.58	5090
837.718	5250
837.856	5178
837.993	5132
838.131	5216
838.269	5193
838.406	5208
838.544	5185
838.681	5064
838.819	5006
838.956	4896
839.094	4911
839.231	4957
839.369	5052
839.506	5436
839.643	5250
839.781	5006
839.918	5045
840.055	5147
840.193	5098
840.33	5105
840.467	5109
840.604	5185
840.742	5471
840.879	5098
841.016	5022
841.153	5113
841.29	5353
841.427	5299
841.564	5349
841.701	5334
841.838	5223
841.975	5242
842.112	5220
842.249	5128
842.385	5079
842.522	5299
842.659	5170
842.796	5124
842.933	5147
843.069	5212
843.206	5143
843.343	5303
843.479	5242
843.616	5258
843.752	5003
843.889	4984
844.025	5189
844.162	5033
844.298	5197
844.435	5064
844.571	5029
844.708	5223
844.844	5292
844.98	5315
845.117	5246
845.253	5121
845.389	5113
845.525	5143
845.661	5132
845.798	5041
845.934	5147
846.07	5045
846.206	5178
846.342	5269
846.478	5185
846.614	5056
846.75	4976
846.886	4942
847.022	5105
847.158	4999
847.294	5071
847.429	5128
847.565	5064
847.701	5277
847.837	4824
847.972	4782
848.108	4968
848.244	4949
848.379	4782
848.515	4740
848.65	4729
848.786	4725
848.921	4755
849.057	4850
849.192	4896
849.328	4805
849.463	4870
849.598	4805
849.734	4771
849.869	4698
850.004	4641
850.14	4675
850.275	4618
850.41	4565
850.545	4558
850.68	4615
850.815	4630
850.95	4615
851.085	4816
851.22	4786
851.355	4683
851.49	4618
851.625	4596
851.76	4622
851.895	4599
852.03	4546
852.165	4618
852.299	4675
852.434	4759
852.569	4736
852.703	4820
852.838	4839
852.973	4889
853.107	4866
853.242	4721
853.376	4664
853.511	4561
853.645	4611
853.78	4801
853.914	4637
854.048	4706
854.183	4641
854.317	4656
854.451	4809
854.585	4691
854.72	4599
854.854	4755
854.988	4550
855.122	4641
855.256	4493
855.39	4698
855.524	4805
855.658	4668
855.792	4660
855.926	4698
856.06	4774
856.194	4782
856.327	4714
856.461	4637
856.595	4618
856.729	4588
856.862	4767
856.996	4710
857.13	4736
857.263	4740
857.397	4793
857.53	4615
857.664	4664
857.797	4736
857.931	4790
858.064	4660
858.197	4759
858.331	4687
858.464	4554
858.597	4538
858.731	4611
858.864	4615
858.997	4546
859.13	4599
859.263	4714
859.396	4702
859.529	4569
859.662	4577
859.795	4523
859.928	4626
860.061	4771
860.194	4752
860.327	4622
860.46	4558
860.592	4683
860.725	4675
860.858	4717
860.99	4565
861.123	4481
861.256	4535
861.388	4653
861.521	5357
861.653	4474
861.786	4428
861.918	4451
862.05	4558
862.183	4538
862.315	4596
862.447	4664
862.58	4527
862.712	4413
862.844	4310
862.976	4474
863.108	4451
863.24	4889
863.372	4318
863.504	4424
863.636	4375
863.768	4497
863.9	4436
864.032	4333
864.164	4379
864.296	4470
864.428	4481
864.559	4580
864.691	4538
864.823	4535
864.954	4470
865.086	4512
865.217	4519
865.349	4459
865.48	4451
865.612	4455
865.743	4607
865.875	4447
866.006	4398
866.137	4459
866.269	4443
866.4	4436
866.531	4360
866.662	4421
866.793	4379
866.924	4386
867.055	4573
867.186	4436
867.317	4367
867.448	4379
867.579	4360
867.71	4367
867.841	4371
867.972	4459
868.103	4409
868.233	4489
868.364	4421
868.495	4497
868.625	4687
868.756	4771
868.886	4554
869.017	4641
869.147	4736
869.278	4725
869.408	4679
869.539	4668
869.669	4702
869.799	4637
869.929	4710
870.06	4733
870.19	4946
870.32	4904
870.45	4923
870.58	4999
870.71	5075
870.84	5033
870.97	4889
871.1	4896
871.23	5151
871.36	5102
871.489	5022
871.619	5041
871.749	5098
871.879	5113
872.008	5201
872.138	5075
872.267	4915
872.397	4835
872.526	4755
872.656	4748
872.785	4797
872.915	4908
873.044	4984
873.173	4908
873.303	4934
873.432	4957
873.561	4896
873.69	4850
873.819	4839
873.948	4942
874.077	4812
874.206	4744
874.335	4812
874.464	4923
874.593	5071
874.722	4987
874.851	5143
874.979	5060
875.108	4991
875.237	4847
875.365	4896
875.494	4877
875.623	4965
875.751	4847
875.88	4858
876.008	4957
876.136	5029
876.265	5193
876.393	5395
876.521	5201
876.65	5197
876.778	5162
876.906	5052
877.034	5029
877.162	5075
877.29	4930
877.418	5067
877.546	4999
877.674	4984
877.802	5014
877.93	5029
878.058	4862
878.185	4881
878.313	4999
878.441	4923
878.568	4809
878.696	4892
878.824	4972
878.951	4976
879.079	5132
879.206	5341
879.333	5109
879.461	4972
879.588	5037
879.715	5067
879.842	5242
879.97	4999
880.097	4748
880.224	4714
880.351	4809
880.478	4801
880.605	4733
880.732	4778
880.859	5075
880.986	4892
881.112	4946
881.239	4824
881.366	4660
881.493	4622
881.619	4637
881.746	4637
881.872	4634
881.999	4634
882.125	4649
882.252	4854
882.378	4801
882.505	4908
882.631	4790
882.757	4683
882.883	4790
883.01	4736
883.136	4634
883.262	4622
883.388	4592
883.514	4847
883.64	4873
883.766	4778
883.892	4698
884.018	4736
884.143	4866
884.269	5018
884.395	4675
884.52	4603
884.646	4672
884.772	4554
884.897	4527
885.023	4664
885.148	4755
885.274	4847
885.399	4793
885.524	4744
885.65	4714
885.775	4717
885.9	4664
886.025	4858
886.15	4782
886.275	4710
886.4	4622
886.525	4729
886.65	4710
886.775	4668
886.9	4866
887.025	5052
887.149	4797
887.274	4649
887.399	4580
887.523	4596
887.648	4538
887.773	4542
887.897	4801
888.021	4767
888.146	4702
888.27	4793
888.395	4915
888.519	4805
888.643	4820
888.767	4816
888.891	4675
889.015	4645
889.139	4641
889.263	4561
889.387	4763
889.511	4839
889.635	4835
889.759	4649
889.883	4599
890.006	4767
890.13	4839
890.254	4622
890.377	4653
890.501	4538
890.624	4546
890.748	4626
890.871	4523
890.995	4409
891.118	4375
891.241	4538
891.364	4493
891.488	4641
891.611	4481
891.734	4550
891.857	4584
891.98	4508
892.103	4618
892.226	4599
892.349	4550
892.471	4390
892.594	4493
892.717	4527
892.839	4516
892.962	4611
893.085	4683
893.207	4580
893.33	4424
893.452	4516
893.575	4679
893.697	4558
893.819	4733
893.941	4824
894.064	4714
894.186	4561
894.308	4535
894.43	4740
894.552	4843
894.674	4725
894.796	4531
894.918	4565
895.04	4550
895.161	4656
895.283	4607
895.405	4573
895.526	4668
895.648	4641
895.769	4668
895.891	4694
896.012	4721
896.134	4717
896.255	4683
896.376	4622
896.498	4580
896.619	4656
896.74	4596
896.861	4588
896.982	4946
897.103	5029
897.224	4816
897.345	4744
897.466	4611
897.587	4683
897.708	4801
897.828	4809
897.949	4679
898.07	4508
898.19	4668
898.311	4835
898.431	4698
898.552	4710
898.672	4824
898.792	4744
898.913	4687
899.033	4596
899.153	4527
899.273	4386
899.393	4512
899.513	4538
899.633	4561
899.753	4561
899.873	4519
899.993	4573
900.113	4531
900.232	4592
900.352	4531
900.472	4451
900.591	4451
900.711	4481
900.83	4421
900.95	4546
901.069	4691
901.189	4516
901.308	4379
901.427	4341
901.546	4405
901.665	4478
901.784	4512
901.904	4386
902.023	4303
902.141	4211
902.26	4207
902.379	4303
902.498	4246
902.617	4227
902.735	4375
902.854	4356
902.973	4379
903.091	4227
903.21	4261
903.328	4303
903.446	4291
903.565	4234
903.683	4344
903.801	4257
903.919	4398
904.038	4436
904.156	4344
904.274	4432
904.392	4432
904.51	4440
904.627	4447
904.745	4580
904.863	4622
904.981	4398
905.098	4314
905.216	4329
905.334	4440
905.451	4489
905.569	4432
905.686	4558
905.803	4573
905.921	4398
906.038	4535
906.155	4497
906.272	4383
906.389	4436
906.506	4344
906.623	4371
906.74	4348
906.857	4295
906.974	4337
907.091	4569
907.208	4672
907.324	4569
907.441	4485
907.557	4322
907.674	4333
907.79	4344
907.907	4386
908.023	4455
908.139	4481
908.256	4371
908.372	4493
908.488	4409
908.604	4367
908.72	4310
908.836	4333
908.952	4341
909.068	4398
909.184	4565
909.3	4485
909.415	4580
909.531	4538
909.647	4348
909.762	4371
909.878	4375
909.993	4375
910.108	4402
910.224	4379
910.339	4489
910.454	4432
910.57	4352
910.685	4303
910.8	4683
910.915	4538
911.03	4462
911.145	4337
911.259	4261
911.374	4356
911.489	4344
911.604	4322
911.718	4147
911.833	4227
911.947	4093
912.062	4017
912.176	4219
912.291	4246
912.405	4268
912.519	4402
912.633	4497
912.748	4383
912.862	4287
912.976	4185
913.09	4105
913.204	4150
913.318	4272
913.431	4379
913.545	4356
913.659	4474
913.772	4356
913.886	4230
914	4223
914.113	4386
914.226	4409
914.34	4462
914.453	4257
914.566	4424
914.68	4367
914.793	4329
914.906	4177
915.019	4135
915.132	4090
915.245	4177
915.358	4188
915.47	4249
915.583	4215
915.696	4303
915.809	4413
915.921	4394
916.034	4268
916.146	4242
916.259	4219
916.371	4348
916.483	4356
916.595	4303
916.708	4325
916.82	4310
916.932	4291
917.044	4356
917.156	4356
917.268	4246
917.38	4303
917.491	4272
917.603	4352
917.715	4428
917.826	4386
917.938	4394
918.049	4246
918.161	4390
918.272	4592
918.384	4516
918.495	4447
918.606	4299
918.717	4207
918.828	4322
918.939	4325
919.05	4295
919.161	4291
919.272	4150
919.383	4204
919.494	4413
919.604	4626
919.715	4424
919.826	4424
919.936	4386
920.047	4561
920.157	4474
920.267	4687
920.378	4493
920.488	4459
920.598	4660
920.708	4892
920.818	4725
920.928	4793
921.038	4961
921.148	4942
921.258	4622
921.368	4561
921.477	4462
921.587	4459
921.697	4390
921.806	4516
921.916	4436
922.025	4242
922.134	4200
922.244	4188
922.353	4352
922.462	4166
922.571	4150
922.68	3983
922.789	3987
922.898	4006
923.007	4017
923.116	4128
923.224	4048
923.333	4055
923.442	3983
923.55	3964
923.659	4040
923.767	4078
923.876	3983
923.984	4093
924.092	3979
924.201	4071
924.309	4082
924.417	4112
924.525	4051
924.633	4158
924.741	5067
924.849	3907
924.956	4154
925.064	3949
925.172	3953
925.279	3987
925.387	4059
925.494	4025
925.602	4234
925.709	4185
925.816	4040
925.924	4082
926.031	4234
926.138	4158
926.245	4200
926.352	4124
926.459	4249
926.566	4329
926.673	4120
926.779	4105
926.886	4040
926.993	3991
927.099	3945
927.206	3945
927.312	3934
927.419	4055
927.525	4032
927.631	4139
927.737	3960
927.843	3941
927.95	3831
928.056	3983
928.162	3926
928.267	4048
928.373	4565
928.479	4162
928.585	3865
928.69	3991
928.796	4090
928.901	3937
929.007	3857
929.112	3983
929.218	3972
929.323	3888
929.428	3926
929.533	4109
929.638	3915
929.743	3945
929.848	4051
929.953	3968
930.058	4010
930.163	3800
930.267	3808
930.372	3975
930.477	3774
930.581	4051
930.685	3953
930.79	3804
930.894	3918
930.998	3846
931.103	4017
931.207	3728
931.311	3698
931.415	3663
931.519	3526
931.623	3511
