Data from test_V78500241_2018.txt Node
Date: Fri Mar 25 17:03:01 CST 2022
User: usil
Spectrometer: V785-0024
Trigger mode: 0
Integration Time (sec): 4.000000E-1
Scans to average: 1
Nonlinearity correction enabled: false
Boxcar width: 0
Storing dark spectrum: false
XAxis mode: Wavelengths
Number of Pixels in Spectrum: 1024
>>>>>Begin Spectral Data<<<<<
801.071	8005
801.214	8012
801.356	7875
801.499	7879
801.641	7788
801.783	7799
801.926	7890
802.068	8012
802.211	7898
802.353	7970
802.496	7818
802.638	7780
802.78	7822
802.923	7860
803.065	7871
803.208	7849
803.35	7982
803.492	8035
803.635	8119
803.777	8031
803.919	8107
804.061	8377
804.204	8142
804.346	8092
804.488	7928
804.63	8050
804.773	8054
804.915	8035
805.057	8282
805.199	8168
805.341	8263
805.483	8225
805.626	8183
805.768	8069
805.91	8267
806.052	8210
806.194	8130
806.336	8244
806.478	8134
806.62	8065
806.762	8119
806.904	8225
807.046	8511
807.188	8320
807.33	8324
807.472	8343
807.614	8195
807.756	8111
807.898	7959
808.04	7879
808.182	7837
808.324	7856
808.465	7951
808.607	8016
808.749	8153
808.891	8187
809.033	8290
809.174	8180
809.316	8035
809.458	8035
809.6	7986
809.741	8073
809.883	7982
810.025	8138
810.166	8054
810.308	8027
810.45	7978
810.591	7860
810.733	7738
810.875	7643
811.016	7483
811.158	7480
811.299	7559
811.441	7727
811.582	7674
811.724	7613
811.865	7594
812.007	7556
812.148	7632
812.29	7662
812.431	7765
812.573	7868
812.714	8005
812.855	8088
812.997	8233
813.138	8252
813.279	8161
813.421	8077
813.562	7898
813.703	7811
813.845	7757
813.986	7407
814.127	7255
814.268	7171
814.41	7152
814.551	7156
814.692	7221
814.833	7088
814.974	7129
815.115	7103
815.256	6973
815.397	6932
815.539	6966
815.68	6757
815.821	6711
815.962	6913
816.103	6810
816.244	6726
816.385	6608
816.526	6563
816.666	6513
816.807	6357
816.948	6357
817.089	6452
817.23	6452
817.371	6369
817.512	6376
817.653	6369
817.793	6323
817.934	6426
818.075	6471
818.216	6422
818.356	6414
818.497	6258
818.638	6224
818.778	6148
818.919	6117
819.06	6213
819.2	6319
819.341	6319
819.481	6353
819.622	6559
819.762	6760
819.903	6726
820.043	6566
820.184	6585
820.324	6551
820.465	6681
820.605	6642
820.746	6665
820.886	6456
821.026	6612
821.167	6703
821.307	6844
821.447	6749
821.588	6639
821.728	6627
821.868	6525
822.008	6331
822.149	6315
822.289	6292
822.429	6148
822.569	5996
822.709	6087
822.849	5904
822.99	5935
823.13	5935
823.27	5863
823.41	5748
823.55	5718
823.69	5802
823.83	5760
823.97	5684
824.11	5524
824.25	5532
824.389	5505
824.529	5596
824.669	5509
824.809	5630
824.949	5649
825.089	5615
825.228	5562
825.368	5391
825.508	5345
825.648	5341
825.787	5402
825.927	5379
826.067	5318
826.206	5296
826.346	5402
826.485	5341
826.625	5448
826.765	5535
826.904	5474
827.044	5208
827.183	5174
827.323	5155
827.462	5193
827.601	5170
827.741	5212
827.88	5197
828.02	5098
828.159	5170
828.298	5345
828.437	5284
828.577	5318
828.716	5444
828.855	5357
828.994	5162
829.134	5162
829.273	5208
829.412	5121
829.551	5121
829.69	5208
829.829	5265
829.968	5341
830.107	5250
830.246	5296
830.385	5162
830.524	5098
830.663	5045
830.802	4991
830.941	4870
831.08	4828
831.219	4953
831.357	4980
831.496	5143
831.635	4984
831.774	4831
831.913	4797
832.051	4733
832.19	4782
832.329	4862
832.467	4710
832.606	4615
832.744	4729
832.883	4656
833.022	4752
833.16	4835
833.299	4793
833.437	4831
833.576	4824
833.714	4908
833.852	4862
833.991	4862
834.129	4930
834.267	4953
834.406	4870
834.544	4991
834.682	4900
834.821	4965
834.959	5162
835.097	4976
835.235	5166
835.373	5048
835.511	5083
835.65	4976
835.788	4995
835.926	4877
836.064	4900
836.202	4870
836.34	5162
836.478	5197
836.615	5140
836.753	5235
836.891	5254
837.029	5250
837.167	5193
837.305	5128
837.443	5189
837.58	5064
837.718	5261
837.856	5162
837.993	5162
838.131	5246
838.269	5204
838.406	5181
838.544	5189
838.681	4999
838.819	5018
838.956	4843
839.094	4862
839.231	5022
839.369	5124
839.506	5337
839.643	5277
839.781	5014
839.918	5010
840.055	5113
840.193	5079
840.33	5083
840.467	5147
840.604	5174
840.742	5395
840.879	5105
841.016	5109
841.153	5162
841.29	5421
841.427	5330
841.564	5258
841.701	5341
841.838	5303
841.975	5193
842.112	5277
842.249	5166
842.385	5094
842.522	5322
842.659	5174
842.796	5147
842.933	5197
843.069	5140
843.206	5193
843.343	5307
843.479	5261
843.616	5246
843.752	5037
843.889	4987
844.025	5284
844.162	5018
844.298	5235
844.435	5117
844.571	5018
844.708	5204
844.844	5265
844.98	5284
845.117	5307
845.253	5166
845.389	5079
845.525	5162
845.661	5162
845.798	5071
845.934	5121
846.07	5045
846.206	5181
846.342	5277
846.478	5216
846.614	5037
846.75	5025
846.886	4892
847.022	5067
847.158	5014
847.294	5025
847.429	5086
847.565	5037
847.701	5322
847.837	4862
847.972	4805
848.108	4968
848.244	4927
848.379	4710
848.515	4687
848.65	4668
848.786	4759
848.921	4774
849.057	4873
849.192	4892
849.328	4820
849.463	4790
849.598	4793
849.734	4759
849.869	4675
850.004	4630
850.14	4656
850.275	4637
850.41	4535
850.545	4554
850.68	4599
850.815	4603
850.95	4641
851.085	4854
851.22	4710
851.355	4687
851.49	4645
851.625	4596
851.76	4626
851.895	4542
852.03	4580
852.165	4649
852.299	4683
852.434	4759
852.569	4740
852.703	4843
852.838	4820
852.973	4923
853.107	4915
853.242	4714
853.376	4668
853.511	4531
853.645	4611
853.78	4767
853.914	4706
854.048	4649
854.183	4615
854.317	4725
854.451	4862
854.585	4664
854.72	4615
854.854	4763
854.988	4603
855.122	4637
855.256	4466
855.39	4664
855.524	4805
855.658	4733
855.792	4691
855.926	4710
856.06	4767
856.194	4831
856.327	4679
856.461	4596
856.595	4577
856.729	4641
856.862	4793
856.996	4683
857.13	4725
857.263	4774
857.397	4809
857.53	4607
857.664	4710
857.797	4744
857.931	4752
858.064	4664
858.197	4702
858.331	4607
858.464	4554
858.597	4508
858.731	4641
858.864	4634
858.997	4634
859.13	4634
859.263	4653
859.396	4683
859.529	4603
859.662	4603
859.795	4519
859.928	4653
860.061	4725
860.194	4763
860.327	4637
860.46	4577
860.592	4733
860.725	4782
860.858	4706
860.99	4573
861.123	4481
861.256	4508
861.388	4611
861.521	5315
861.653	4497
861.786	4481
861.918	4474
862.05	4512
862.183	4558
862.315	4607
862.447	4622
862.58	4500
862.712	4363
862.844	4284
862.976	4508
863.108	4421
863.24	4778
863.372	4352
863.504	4409
863.636	4428
863.768	4497
863.9	4489
864.032	4360
864.164	4405
864.296	4428
864.428	4531
864.559	4535
864.691	4519
864.823	4531
864.954	4455
865.086	4546
865.217	4447
865.349	4436
865.48	4447
865.612	4508
865.743	4584
865.875	4500
866.006	4409
866.137	4512
866.269	4421
866.4	4440
866.531	4413
866.662	4375
866.793	4409
866.924	4375
867.055	4497
867.186	4489
867.317	4371
867.448	4356
867.579	4356
867.71	4417
867.841	4363
867.972	4478
868.103	4462
868.233	4447
868.364	4440
868.495	4519
868.625	4637
868.756	4744
868.886	4592
869.017	4615
869.147	4797
869.278	4752
869.408	4626
869.539	4672
869.669	4714
869.799	4660
869.929	4755
870.06	4740
870.19	4965
870.32	4957
870.45	4889
870.58	5048
870.71	5090
870.84	5102
870.97	4915
871.1	4877
871.23	5147
871.36	5121
871.489	5071
871.619	5083
871.749	5045
871.879	5185
872.008	5102
872.138	5056
872.267	5010
872.397	4805
872.526	4774
872.656	4698
872.785	4763
872.915	4957
873.044	5014
873.173	4949
873.303	4984
873.432	4991
873.561	4953
873.69	4847
873.819	4862
873.948	4942
874.077	4835
874.206	4744
874.335	4771
874.464	4957
874.593	5064
874.722	4915
874.851	5037
874.979	5056
875.108	5048
875.237	4881
875.365	4839
875.494	4881
875.623	5018
875.751	4797
875.88	4862
876.008	4968
876.136	5033
876.265	5166
876.393	5372
876.521	5307
876.65	5258
876.778	5170
876.906	5090
877.034	5060
877.162	5033
877.29	4980
877.418	5060
877.546	5033
877.674	5033
877.802	5037
877.93	5010
878.058	4900
878.185	4911
878.313	4949
878.441	4976
878.568	4835
878.696	4835
878.824	4953
878.951	5025
879.079	5109
879.206	5254
879.333	5102
879.461	4984
879.588	5014
879.715	5143
879.842	5246
879.97	5033
880.097	4812
880.224	4748
880.351	4805
880.478	4885
880.605	4809
880.732	4786
880.859	5109
880.986	4904
881.112	4866
881.239	4790
881.366	4664
881.493	4626
881.619	4607
881.746	4664
881.872	4630
881.999	4630
882.125	4630
882.252	4778
882.378	4809
882.505	4965
882.631	4782
882.757	4710
882.883	4767
883.01	4740
883.136	4733
883.262	4546
883.388	4611
883.514	4862
883.64	4866
883.766	4759
883.892	4653
884.018	4691
884.143	4930
884.269	4999
884.395	4672
884.52	4618
884.646	4634
884.772	4588
884.897	4531
885.023	4664
885.148	4782
885.274	4866
885.399	4820
885.524	4725
885.65	4672
885.775	4771
885.9	4672
886.025	4873
886.15	4752
886.275	4706
886.4	4694
886.525	4694
886.65	4687
886.775	4637
886.9	4889
887.025	5071
887.149	4809
887.274	4672
887.399	4592
887.523	4577
887.648	4535
887.773	4569
887.897	4740
888.021	4793
888.146	4683
888.27	4824
888.395	4843
888.519	4847
888.643	4809
888.767	4854
888.891	4660
889.015	4637
889.139	4637
889.263	4599
889.387	4736
889.511	4873
889.635	4736
889.759	4626
889.883	4615
890.006	4725
890.13	4866
890.254	4584
890.377	4698
890.501	4561
890.624	4497
890.748	4679
890.871	4519
890.995	4451
891.118	4409
891.241	4550
891.364	4512
891.488	4634
891.611	4508
891.734	4558
891.857	4607
891.98	4588
892.103	4649
892.226	4577
892.349	4535
892.471	4413
892.594	4569
892.717	4573
892.839	4580
892.962	4626
893.085	4691
893.207	4588
893.33	4447
893.452	4519
893.575	4672
893.697	4561
893.819	4778
893.941	4790
894.064	4721
894.186	4588
894.308	4558
894.43	4767
894.552	4771
894.674	4790
894.796	4607
894.918	4592
895.04	4554
895.161	4672
895.283	4630
895.405	4554
895.526	4607
895.648	4675
895.769	4694
895.891	4717
896.012	4729
896.134	4664
896.255	4672
896.376	4653
896.498	4611
896.619	4656
896.74	4630
896.861	4660
896.982	4885
897.103	5098
897.224	4847
897.345	4740
897.466	4668
897.587	4717
897.708	4839
897.828	4774
897.949	4668
898.07	4535
898.19	4622
898.311	4786
898.431	4736
898.552	4717
898.672	4740
898.792	4816
898.913	4740
899.033	4649
899.153	4508
899.273	4478
899.393	4516
899.513	4577
899.633	4527
899.753	4500
899.873	4478
899.993	4622
900.113	4523
900.232	4630
900.352	4531
900.472	4546
900.591	4432
900.711	4508
900.83	4489
900.95	4596
901.069	4714
901.189	4516
901.308	4386
901.427	4272
901.546	4402
901.665	4451
901.784	4527
901.904	4398
902.023	4284
902.141	4192
902.26	4158
902.379	4284
902.498	4162
902.617	4246
902.735	4337
902.854	4367
902.973	4344
903.091	4177
903.21	4261
903.328	4303
903.446	4287
903.565	4253
903.683	4371
903.801	4249
903.919	4360
904.038	4455
904.156	4318
904.274	4455
904.392	4398
904.51	4421
904.627	4440
904.745	4538
904.863	4668
904.981	4398
905.098	4276
905.216	4409
905.334	4436
905.451	4405
905.569	4371
905.686	4512
905.803	4554
905.921	4394
906.038	4550
906.155	4497
906.272	4409
906.389	4402
906.506	4367
906.623	4405
906.74	4367
906.857	4356
906.974	4348
907.091	4519
907.208	4630
907.324	4565
907.441	4489
907.557	4352
907.674	4375
907.79	4318
907.907	4386
908.023	4516
908.139	4398
908.256	4516
908.372	4466
908.488	4481
908.604	4310
908.72	4333
908.836	4348
908.952	4375
909.068	4432
909.184	4561
909.3	4424
909.415	4565
909.531	4577
909.647	4375
909.762	4379
909.878	4303
909.993	4440
910.108	4417
910.224	4402
910.339	4474
910.454	4398
910.57	4318
910.685	4329
910.8	4603
910.915	4653
911.03	4500
911.145	4310
911.259	4280
911.374	4344
911.489	4287
911.604	4284
911.718	4173
911.833	4173
911.947	4101
912.062	4051
912.176	4188
912.291	4242
912.405	4257
912.519	4470
912.633	4478
912.748	4344
912.862	4287
912.976	4162
913.09	4143
913.204	4192
913.318	4280
913.431	4341
913.545	4367
913.659	4478
913.772	4390
913.886	4246
914	4230
914.113	4310
914.226	4447
914.34	4383
914.453	4238
914.566	4402
914.68	4287
914.793	4325
914.906	4169
915.019	4169
915.132	4097
915.245	4173
915.358	4211
915.47	4227
915.583	4246
915.696	4280
915.809	4424
915.921	4421
916.034	4249
916.146	4253
916.259	4246
916.371	4360
916.483	4371
916.595	4284
916.708	4318
916.82	4291
916.932	4337
917.044	4337
917.156	4287
917.268	4234
917.38	4287
917.491	4253
917.603	4341
917.715	4451
917.826	4478
917.938	4352
918.049	4227
918.161	4405
918.272	4516
918.384	4561
918.495	4447
918.606	4348
918.717	4242
918.828	4363
918.939	4402
919.05	4265
919.161	4299
919.272	4120
919.383	4242
919.494	4489
919.604	4649
919.715	4470
919.826	4363
919.936	4375
920.047	4481
920.157	4478
920.267	4664
920.378	4527
920.488	4527
920.598	4729
920.708	4885
920.818	4782
920.928	4774
921.038	5010
921.148	4908
921.258	4691
921.368	4584
921.477	4493
921.587	4474
921.697	4360
921.806	4584
921.916	4481
922.025	4234
922.134	4234
922.244	4211
922.353	4329
922.462	4158
922.571	4120
922.68	4002
922.789	4013
922.898	4021
923.007	4032
923.116	4105
923.224	4063
923.333	4090
923.442	3994
923.55	3975
923.659	4032
923.767	4109
923.876	3991
923.984	4082
924.092	4021
924.201	4074
924.309	4078
924.417	4120
924.525	4051
924.633	4150
924.741	5037
924.849	3911
924.956	4147
925.064	3987
925.172	3865
925.279	3964
925.387	4055
925.494	4036
925.602	4242
925.709	4158
925.816	4055
925.924	4147
926.031	4192
926.138	4188
926.245	4154
926.352	4135
926.459	4265
926.566	4268
926.673	4169
926.779	4086
926.886	4040
926.993	3968
927.099	3945
927.206	3964
927.312	3968
927.419	4029
927.525	4013
927.631	4074
927.737	3926
927.843	3949
927.95	3888
928.056	3972
928.162	4002
928.267	4048
928.373	4546
928.479	4116
928.585	3846
928.69	4029
928.796	4090
928.901	3964
929.007	3869
929.112	3983
929.218	3945
929.323	3994
929.428	3937
929.533	4097
929.638	3899
929.743	3968
929.848	4051
929.953	4029
930.058	3907
930.163	3774
930.267	3812
930.372	3979
930.477	3823
930.581	4086
930.685	3915
930.79	3854
930.894	3857
930.998	3831
931.103	4002
931.207	3690
931.311	3652
931.415	3660
931.519	3545
931.623	3542
