Data from test_V78500241_1029.txt Node
Date: Fri Mar 25 16:56:09 CST 2022
User: usil
Spectrometer: V785-0024
Trigger mode: 0
Integration Time (sec): 4.000000E-1
Scans to average: 1
Nonlinearity correction enabled: false
Boxcar width: 0
Storing dark spectrum: false
XAxis mode: Wavelengths
Number of Pixels in Spectrum: 1024
>>>>>Begin Spectral Data<<<<<
801.071	8111
801.214	8020
801.356	7944
801.499	7845
801.641	7727
801.783	7852
801.926	7982
802.068	7951
802.211	7928
802.353	7967
802.496	7784
802.638	7845
802.78	7951
802.923	7932
803.065	7898
803.208	7940
803.35	8016
803.492	8187
803.635	8172
803.777	8012
803.919	8145
804.061	8427
804.204	8092
804.346	8065
804.488	7963
804.63	8035
804.773	7993
804.915	8065
805.057	8389
805.199	8115
805.341	8142
805.483	8244
805.626	8157
805.768	8164
805.91	8195
806.052	8081
806.194	8069
806.336	8282
806.478	8088
806.62	8043
806.762	8058
806.904	8309
807.046	8423
807.188	8343
807.33	8244
807.472	8362
807.614	8168
807.756	8050
807.898	7967
808.04	7906
808.182	7845
808.324	7921
808.465	7894
808.607	8043
808.749	8065
808.891	8218
809.033	8286
809.174	8229
809.316	8050
809.458	8035
809.6	7951
809.741	8050
809.883	7963
810.025	8046
810.166	8035
810.308	7986
810.45	7993
810.591	7906
810.733	7727
810.875	7647
811.016	7472
811.158	7533
811.299	7609
811.441	7696
811.582	7696
811.724	7563
811.865	7487
812.007	7533
812.148	7590
812.29	7677
812.431	7765
812.573	7765
812.714	7986
812.855	8092
812.997	8157
813.138	8290
813.279	8176
813.421	8012
813.562	8016
813.703	7833
813.845	7769
813.986	7464
814.127	7259
814.268	7240
814.41	7232
814.551	7129
814.692	7202
814.833	7076
814.974	7088
815.115	7042
815.256	6981
815.397	6916
815.539	6871
815.68	6821
815.821	6852
815.962	6867
816.103	6798
816.244	6749
816.385	6639
816.526	6631
816.666	6506
816.807	6262
816.948	6418
817.089	6456
817.23	6464
817.371	6342
817.512	6369
817.653	6407
817.793	6372
817.934	6410
818.075	6342
818.216	6391
818.356	6376
818.497	6232
818.638	6110
818.778	6159
818.919	6159
819.06	6171
819.2	6270
819.341	6327
819.481	6376
819.622	6502
819.762	6700
819.903	6719
820.043	6627
820.184	6555
820.324	6551
820.465	6616
820.605	6642
820.746	6601
820.886	6483
821.026	6639
821.167	6692
821.307	6787
821.447	6730
821.588	6639
821.728	6540
821.868	6471
822.008	6311
822.149	6395
822.289	6281
822.429	6098
822.569	6079
822.709	6095
822.849	5874
822.99	5916
823.13	5950
823.27	5920
823.41	5767
823.55	5741
823.69	5672
823.83	5824
823.97	5649
824.11	5516
824.25	5478
824.389	5505
824.529	5547
824.669	5478
824.809	5630
824.949	5627
825.089	5600
825.228	5589
825.368	5357
825.508	5357
825.648	5318
825.787	5383
825.927	5406
826.067	5322
826.206	5311
826.346	5395
826.485	5429
826.625	5391
826.765	5539
826.904	5482
827.044	5303
827.183	5235
827.323	5124
827.462	5265
827.601	5178
827.741	5212
827.88	5265
828.02	5136
828.159	5315
828.298	5273
828.437	5372
828.577	5277
828.716	5474
828.855	5330
828.994	5155
829.134	5166
829.273	5227
829.412	5181
829.551	5197
829.69	5197
829.829	5273
829.968	5368
830.107	5288
830.246	5315
830.385	5197
830.524	5204
830.663	5109
830.802	5022
830.941	4991
831.08	4896
831.219	4953
831.357	4995
831.496	5136
831.635	4957
831.774	4915
831.913	4835
832.051	4740
832.19	4786
832.329	4881
832.467	4752
832.606	4641
832.744	4748
832.883	4759
833.022	4786
833.16	4858
833.299	4824
833.437	4896
833.576	4831
833.714	4915
833.852	4850
833.991	4953
834.129	5014
834.267	5006
834.406	4911
834.544	5029
834.682	5006
834.821	4968
834.959	5208
835.097	5025
835.235	5136
835.373	5113
835.511	5155
835.65	5025
835.788	5094
835.926	4930
836.064	4892
836.202	4984
836.34	5159
836.478	5288
836.615	5151
836.753	5223
836.891	5334
837.029	5273
837.167	5273
837.305	5193
837.443	5159
837.58	5105
837.718	5284
837.856	5193
837.993	5064
838.131	5208
838.269	5273
838.406	5147
838.544	5181
838.681	5022
838.819	5041
838.956	4927
839.094	4919
839.231	5010
839.369	5140
839.506	5444
839.643	5315
839.781	5086
839.918	5060
840.055	5121
840.193	5140
840.33	5147
840.467	5155
840.604	5254
840.742	5444
840.879	5098
841.016	5155
841.153	5132
841.29	5433
841.427	5391
841.564	5360
841.701	5368
841.838	5303
841.975	5277
842.112	5227
842.249	5117
842.385	5151
842.522	5368
842.659	5185
842.796	5162
842.933	5216
843.069	5216
843.206	5159
843.343	5311
843.479	5258
843.616	5303
843.752	5102
843.889	4987
844.025	5265
844.162	5048
844.298	5220
844.435	5067
844.571	5090
844.708	5193
844.844	5368
844.98	5353
845.117	5311
845.253	5197
845.389	5128
845.525	5166
845.661	5174
845.798	5018
845.934	5147
846.07	5098
846.206	5143
846.342	5273
846.478	5185
846.614	5025
846.75	5018
846.886	4984
847.022	5193
847.158	5064
847.294	5052
847.429	5064
847.565	5060
847.701	5330
847.837	4885
847.972	4850
848.108	4980
848.244	4930
848.379	4786
848.515	4752
848.65	4744
848.786	4801
848.921	4797
849.057	4896
849.192	4843
849.328	4843
849.463	4927
849.598	4824
849.734	4771
849.869	4744
850.004	4672
850.14	4694
850.275	4622
850.41	4485
850.545	4588
850.68	4634
850.815	4611
850.95	4672
851.085	4831
851.22	4782
851.355	4710
851.49	4637
851.625	4641
851.76	4656
851.895	4584
852.03	4519
852.165	4687
852.299	4733
852.434	4767
852.569	4752
852.703	4733
852.838	4885
852.973	4930
853.107	4892
853.242	4778
853.376	4668
853.511	4615
853.645	4675
853.78	4850
853.914	4736
854.048	4694
854.183	4694
854.317	4702
854.451	4850
854.585	4710
854.72	4649
854.854	4778
854.988	4603
855.122	4668
855.256	4527
855.39	4691
855.524	4828
855.658	4801
855.792	4687
855.926	4744
856.06	4812
856.194	4809
856.327	4710
856.461	4596
856.595	4660
856.729	4645
856.862	4782
856.996	4702
857.13	4714
857.263	4828
857.397	4809
857.53	4672
857.664	4782
857.797	4774
857.931	4793
858.064	4714
858.197	4729
858.331	4660
858.464	4622
858.597	4535
858.731	4641
858.864	4710
858.997	4599
859.13	4626
859.263	4702
859.396	4702
859.529	4584
859.662	4573
859.795	4519
859.928	4660
860.061	4782
860.194	4790
860.327	4615
860.46	4584
860.592	4683
860.725	4729
860.858	4706
860.99	4573
861.123	4558
861.256	4565
861.388	4630
861.521	5303
861.653	4516
861.786	4436
861.918	4466
862.05	4565
862.183	4607
862.315	4558
862.447	4641
862.58	4535
862.712	4417
862.844	4341
862.976	4459
863.108	4478
863.24	4828
863.372	4360
863.504	4443
863.636	4424
863.768	4523
863.9	4443
864.032	4455
864.164	4440
864.296	4516
864.428	4573
864.559	4611
864.691	4546
864.823	4542
864.954	4523
865.086	4546
865.217	4493
865.349	4409
865.48	4447
865.612	4481
865.743	4664
865.875	4478
866.006	4421
866.137	4500
866.269	4394
866.4	4451
866.531	4432
866.662	4352
866.793	4451
866.924	4424
867.055	4538
867.186	4443
867.317	4417
867.448	4405
867.579	4386
867.71	4379
867.841	4413
867.972	4489
868.103	4497
868.233	4481
868.364	4470
868.495	4504
868.625	4672
868.756	4755
868.886	4588
869.017	4645
869.147	4790
869.278	4793
869.408	4702
869.539	4615
869.669	4691
869.799	4687
869.929	4759
870.06	4752
870.19	5022
870.32	4923
870.45	4953
870.58	4995
870.71	5124
870.84	5052
870.97	4976
871.1	4930
871.23	5151
871.36	5147
871.489	4976
871.619	5155
871.749	5075
871.879	5136
872.008	5208
872.138	5045
872.267	4957
872.397	4862
872.526	4786
872.656	4755
872.785	4820
872.915	4984
873.044	5037
873.173	4942
873.303	4999
873.432	4923
873.561	4968
873.69	4870
873.819	4885
873.948	4923
874.077	4816
874.206	4717
874.335	4824
874.464	4953
874.593	5071
874.722	4942
874.851	5128
874.979	5117
875.108	5052
875.237	4923
875.365	4870
875.494	4934
875.623	4938
875.751	4847
875.88	4896
876.008	5018
876.136	5029
876.265	5223
876.393	5330
876.521	5277
876.65	5235
876.778	5174
876.906	5064
877.034	5056
877.162	4991
877.29	5018
877.418	5083
877.546	5029
877.674	5052
877.802	5029
877.93	5037
878.058	4934
878.185	4850
878.313	4957
878.441	4949
878.568	4870
878.696	4870
878.824	5018
878.951	4984
879.079	5174
879.206	5296
879.333	5128
879.461	5006
879.588	5006
879.715	5193
879.842	5250
879.97	5045
880.097	4824
880.224	4782
880.351	4847
880.478	4801
880.605	4831
880.732	4816
880.859	5064
880.986	4919
881.112	4896
881.239	4797
881.366	4687
881.493	4618
881.619	4592
881.746	4694
881.872	4679
881.999	4630
882.125	4660
882.252	4835
882.378	4824
882.505	4995
882.631	4782
882.757	4694
882.883	4740
883.01	4752
883.136	4653
883.262	4580
883.388	4607
883.514	4809
883.64	4896
883.766	4763
883.892	4672
884.018	4725
884.143	4866
884.269	5033
884.395	4672
884.52	4694
884.646	4630
884.772	4615
884.897	4550
885.023	4645
885.148	4790
885.274	4831
885.399	4805
885.524	4687
885.65	4740
885.775	4767
885.9	4710
886.025	4847
886.15	4828
886.275	4702
886.4	4675
886.525	4763
886.65	4706
886.775	4691
886.9	4930
887.025	5041
887.149	4805
887.274	4649
887.399	4596
887.523	4622
887.648	4546
887.773	4630
887.897	4812
888.021	4835
888.146	4691
888.27	4812
888.395	4923
888.519	4812
888.643	4824
888.767	4858
888.891	4710
889.015	4607
889.139	4683
889.263	4622
889.387	4717
889.511	4877
889.635	4805
889.759	4637
889.883	4637
890.006	4721
890.13	4843
890.254	4656
890.377	4637
890.501	4531
890.624	4550
890.748	4660
890.871	4527
890.995	4428
891.118	4386
891.241	4527
891.364	4550
891.488	4679
891.611	4485
891.734	4516
891.857	4596
891.98	4611
892.103	4580
892.226	4630
892.349	4497
892.471	4421
892.594	4580
892.717	4569
892.839	4580
892.962	4618
893.085	4634
893.207	4588
893.33	4455
893.452	4481
893.575	4683
893.697	4554
893.819	4771
893.941	4866
894.064	4736
894.186	4580
894.308	4546
894.43	4759
894.552	4828
894.674	4763
894.796	4558
894.918	4607
895.04	4615
895.161	4729
895.283	4641
895.405	4565
895.526	4645
895.648	4721
895.769	4687
895.891	4744
896.012	4733
896.134	4755
896.255	4694
896.376	4664
896.498	4588
896.619	4694
896.74	4588
896.861	4649
896.982	4881
897.103	5086
897.224	4805
897.345	4714
897.466	4687
897.587	4706
897.708	4854
897.828	4801
897.949	4645
898.07	4558
898.19	4653
898.311	4858
898.431	4660
898.552	4717
898.672	4774
898.792	4805
898.913	4759
899.033	4615
899.153	4512
899.273	4394
899.393	4470
899.513	4508
899.633	4466
899.753	4535
899.873	4561
899.993	4599
900.113	4565
900.232	4618
900.352	4546
900.472	4478
900.591	4413
900.711	4519
900.83	4451
900.95	4664
901.069	4683
901.189	4481
901.308	4360
901.427	4348
901.546	4390
901.665	4481
901.784	4531
901.904	4462
902.023	4284
902.141	4188
902.26	4223
902.379	4314
902.498	4242
902.617	4207
902.735	4375
902.854	4394
902.973	4371
903.091	4211
903.21	4253
903.328	4284
903.446	4291
903.565	4253
903.683	4398
903.801	4280
903.919	4402
904.038	4455
904.156	4295
904.274	4455
904.392	4443
904.51	4455
904.627	4478
904.745	4577
904.863	4668
904.981	4394
905.098	4295
905.216	4348
905.334	4474
905.451	4409
905.569	4432
905.686	4523
905.803	4558
905.921	4405
906.038	4558
906.155	4459
906.272	4428
906.389	4409
906.506	4329
906.623	4383
906.74	4398
906.857	4375
906.974	4363
907.091	4588
907.208	4653
907.324	4615
907.441	4573
907.557	4325
907.674	4371
907.79	4306
907.907	4390
908.023	4478
908.139	4459
908.256	4394
908.372	4447
908.488	4447
908.604	4348
908.72	4352
908.836	4356
908.952	4390
909.068	4413
909.184	4580
909.3	4497
909.415	4580
909.531	4558
909.647	4390
909.762	4390
909.878	4360
909.993	4462
910.108	4421
910.224	4405
910.339	4519
910.454	4379
910.57	4383
910.685	4322
910.8	4664
910.915	4580
911.03	4481
911.145	4295
911.259	4322
911.374	4337
911.489	4295
911.604	4246
911.718	4169
911.833	4207
911.947	4109
912.062	4029
912.176	4219
912.291	4265
912.405	4215
912.519	4459
912.633	4493
912.748	4383
912.862	4291
912.976	4143
913.09	4154
913.204	4169
913.318	4242
913.431	4333
913.545	4390
913.659	4428
913.772	4344
913.886	4249
914	4246
914.113	4348
914.226	4379
914.34	4440
914.453	4257
914.566	4405
914.68	4303
914.793	4352
914.906	4124
915.019	4101
915.132	4109
915.245	4219
915.358	4215
915.47	4272
915.583	4238
915.696	4303
915.809	4386
915.921	4443
916.034	4242
916.146	4207
916.259	4188
916.371	4409
916.483	4344
916.595	4265
916.708	4329
916.82	4325
916.932	4329
917.044	4295
917.156	4352
917.268	4272
917.38	4322
917.491	4306
917.603	4325
917.715	4447
917.826	4451
917.938	4356
918.049	4215
918.161	4398
918.272	4497
918.384	4558
918.495	4459
918.606	4318
918.717	4246
918.828	4363
918.939	4371
919.05	4230
919.161	4306
919.272	4116
919.383	4234
919.494	4409
919.604	4599
919.715	4424
919.826	4390
919.936	4394
920.047	4550
920.157	4455
920.267	4736
920.378	4497
920.488	4470
920.598	4679
920.708	4904
920.818	4774
920.928	4733
921.038	4987
921.148	4919
921.258	4637
921.368	4577
921.477	4462
921.587	4470
921.697	4379
921.806	4538
921.916	4432
922.025	4257
922.134	4265
922.244	4230
922.353	4306
922.462	4158
922.571	4112
922.68	4040
922.789	3983
922.898	4032
923.007	3994
923.116	4105
923.224	4063
923.333	4036
923.442	4002
923.55	3945
923.659	4040
923.767	4135
923.876	3998
923.984	4139
924.092	4010
924.201	3994
924.309	4078
924.417	4109
924.525	4093
924.633	4105
924.741	5029
924.849	3899
924.956	4101
925.064	3945
925.172	3876
925.279	3956
925.387	4051
925.494	4090
925.602	4219
925.709	4154
925.816	4017
925.924	4109
926.031	4223
926.138	4169
926.245	4204
926.352	4029
926.459	4261
926.566	4306
926.673	4169
926.779	4105
926.886	4040
926.993	3979
927.099	3960
927.206	3968
927.312	3918
927.419	4048
927.525	4044
927.631	4086
927.737	3983
927.843	3987
927.95	3861
928.056	3968
928.162	4013
928.267	4082
928.373	4637
928.479	4101
928.585	3831
928.69	4017
928.796	4090
928.901	3994
929.007	3823
929.112	3991
929.218	4006
929.323	3922
929.428	4002
929.533	4067
929.638	3903
929.743	3991
929.848	4044
929.953	3964
930.058	3907
930.163	3762
930.267	3831
930.372	3964
930.477	3766
930.581	4097
930.685	3960
930.79	3861
930.894	3930
930.998	3861
931.103	3998
931.207	3728
931.311	3663
931.415	3671
931.519	3477
931.623	3561
