Data from test_V78500241_1037.txt Node
Date: Fri Mar 25 16:56:12 CST 2022
User: usil
Spectrometer: V785-0024
Trigger mode: 0
Integration Time (sec): 4.000000E-1
Scans to average: 1
Nonlinearity correction enabled: false
Boxcar width: 0
Storing dark spectrum: false
XAxis mode: Wavelengths
Number of Pixels in Spectrum: 1024
>>>>>Begin Spectral Data<<<<<
801.071	8054
801.214	8031
801.356	7883
801.499	7818
801.641	7837
801.783	7795
801.926	7974
802.068	7890
802.211	7967
802.353	7906
802.496	7875
802.638	7849
802.78	7875
802.923	7932
803.065	7868
803.208	7898
803.35	8016
803.492	8069
803.635	8115
803.777	7955
803.919	8077
804.061	8408
804.204	8191
804.346	8024
804.488	7978
804.63	8218
804.773	7993
804.915	8103
805.057	8374
805.199	8161
805.341	8199
805.483	8256
805.626	8210
805.768	8180
805.91	8248
806.052	8191
806.194	8039
806.336	8328
806.478	8103
806.62	8058
806.762	8164
806.904	8298
807.046	8484
807.188	8313
807.33	8374
807.472	8381
807.614	8191
807.756	8050
807.898	8024
808.04	7887
808.182	7947
808.324	7887
808.465	7955
808.607	8092
808.749	8202
808.891	8240
809.033	8309
809.174	8191
809.316	8088
809.458	8092
809.6	8050
809.741	8077
809.883	7989
810.025	8145
810.166	8088
810.308	8012
810.45	8016
810.591	7963
810.733	7830
810.875	7715
811.016	7559
811.158	7540
811.299	7597
811.441	7708
811.582	7712
811.724	7616
811.865	7548
812.007	7575
812.148	7636
812.29	7704
812.431	7765
812.573	7906
812.714	8035
812.855	8130
812.997	8199
813.138	8313
813.279	8259
813.421	8096
813.562	7951
813.703	7871
813.845	7780
813.986	7529
814.127	7350
814.268	7278
814.41	7225
814.551	7141
814.692	7209
814.833	7069
814.974	7114
815.115	7103
815.256	7038
815.397	6947
815.539	6966
815.68	6859
815.821	6810
815.962	6814
816.103	6863
816.244	6734
816.385	6665
816.526	6639
816.666	6532
816.807	6331
816.948	6475
817.089	6521
817.23	6456
817.371	6475
817.512	6372
817.653	6414
817.793	6399
817.934	6441
818.075	6486
818.216	6422
818.356	6391
818.497	6296
818.638	6129
818.778	6175
818.919	6152
819.06	6213
819.2	6289
819.341	6357
819.481	6437
819.622	6559
819.762	6741
819.903	6711
820.043	6593
820.184	6665
820.324	6589
820.465	6719
820.605	6673
820.746	6635
820.886	6506
821.026	6665
821.167	6665
821.307	6730
821.447	6783
821.588	6715
821.728	6521
821.868	6551
822.008	6308
822.149	6361
822.289	6357
822.429	6155
822.569	6091
822.709	6110
822.849	5946
822.99	5920
823.13	5923
823.27	5931
823.41	5836
823.55	5695
823.69	5748
823.83	5802
823.97	5676
824.11	5589
824.25	5505
824.389	5585
824.529	5592
824.669	5558
824.809	5615
824.949	5676
825.089	5615
825.228	5570
825.368	5459
825.508	5368
825.648	5330
825.787	5398
825.927	5357
826.067	5353
826.206	5337
826.346	5334
826.485	5474
826.625	5414
826.765	5539
826.904	5463
827.044	5353
827.183	5220
827.323	5170
827.462	5288
827.601	5212
827.741	5220
827.88	5201
828.02	5136
828.159	5239
828.298	5277
828.437	5349
828.577	5258
828.716	5497
828.855	5391
828.994	5204
829.134	5105
829.273	5227
829.412	5185
829.551	5128
829.69	5193
829.829	5280
829.968	5345
830.107	5315
830.246	5292
830.385	5242
830.524	5170
830.663	5102
830.802	4987
830.941	4877
831.08	4949
831.219	4995
831.357	4987
831.496	5250
831.635	4942
831.774	4858
831.913	4866
832.051	4820
832.19	4729
832.329	4915
832.467	4748
832.606	4660
832.744	4755
832.883	4736
833.022	4729
833.16	4816
833.299	4877
833.437	4862
833.576	4816
833.714	4908
833.852	4908
833.991	4908
834.129	4953
834.267	4942
834.406	4900
834.544	4987
834.682	5003
834.821	4961
834.959	5181
835.097	5014
835.235	5193
835.373	5121
835.511	5124
835.65	5083
835.788	5029
835.926	4949
836.064	4889
836.202	4961
836.34	5155
836.478	5296
836.615	5193
836.753	5231
836.891	5273
837.029	5261
837.167	5208
837.305	5189
837.443	5208
837.58	5048
837.718	5288
837.856	5189
837.993	5143
838.131	5258
838.269	5239
838.406	5235
838.544	5208
838.681	5067
838.819	5056
838.956	4889
839.094	4870
839.231	5014
839.369	5033
839.506	5410
839.643	5345
839.781	5083
839.918	5071
840.055	5067
840.193	5143
840.33	5079
840.467	5185
840.604	5212
840.742	5471
840.879	5124
841.016	5086
841.153	5162
841.29	5410
841.427	5345
841.564	5311
841.701	5334
841.838	5277
841.975	5235
842.112	5258
842.249	5151
842.385	5132
842.522	5326
842.659	5151
842.796	5216
842.933	5231
843.069	5147
843.206	5162
843.343	5292
843.479	5242
843.616	5250
843.752	5052
843.889	4987
844.025	5250
844.162	4987
844.298	5197
844.435	5067
844.571	5071
844.708	5121
844.844	5265
844.98	5349
845.117	5334
845.253	5136
845.389	5132
845.525	5178
845.661	5098
845.798	5029
845.934	5124
846.07	5109
846.206	5189
846.342	5246
846.478	5124
846.614	5079
846.75	4984
846.886	4972
847.022	5105
847.158	5033
847.294	5128
847.429	5109
847.565	5025
847.701	5322
847.837	4854
847.972	4854
848.108	4961
848.244	4908
848.379	4759
848.515	4752
848.65	4717
848.786	4755
848.921	4835
849.057	4885
849.192	4870
849.328	4820
849.463	4854
849.598	4805
849.734	4782
849.869	4721
850.004	4653
850.14	4736
850.275	4599
850.41	4584
850.545	4550
850.68	4649
850.815	4679
850.95	4626
851.085	4854
851.22	4771
851.355	4691
851.49	4645
851.625	4679
851.76	4641
851.895	4519
852.03	4538
852.165	4710
852.299	4721
852.434	4771
852.569	4717
852.703	4816
852.838	4809
852.973	4930
853.107	4919
853.242	4755
853.376	4683
853.511	4599
853.645	4603
853.78	4805
853.914	4664
854.048	4691
854.183	4656
854.317	4714
854.451	4862
854.585	4656
854.72	4649
854.854	4755
854.988	4637
855.122	4687
855.256	4554
855.39	4679
855.524	4771
855.658	4694
855.792	4637
855.926	4714
856.06	4763
856.194	4801
856.327	4725
856.461	4592
856.595	4596
856.729	4626
856.862	4698
856.996	4755
857.13	4706
857.263	4778
857.397	4793
857.53	4702
857.664	4767
857.797	4778
857.931	4778
858.064	4694
858.197	4744
858.331	4683
858.464	4672
858.597	4538
858.731	4668
858.864	4637
858.997	4596
859.13	4656
859.263	4641
859.396	4714
859.529	4607
859.662	4603
859.795	4550
859.928	4637
860.061	4759
860.194	4774
860.327	4611
860.46	4603
860.592	4759
860.725	4744
860.858	4717
860.99	4630
861.123	4516
861.256	4523
861.388	4592
861.521	5353
861.653	4519
861.786	4470
861.918	4440
862.05	4493
862.183	4531
862.315	4637
862.447	4664
862.58	4550
862.712	4432
862.844	4306
862.976	4440
863.108	4459
863.24	4866
863.372	4360
863.504	4432
863.636	4440
863.768	4481
863.9	4462
864.032	4367
864.164	4341
864.296	4424
864.428	4554
864.559	4542
864.691	4508
864.823	4535
864.954	4527
865.086	4474
865.217	4489
865.349	4440
865.48	4436
865.612	4478
865.743	4626
865.875	4443
866.006	4417
866.137	4519
866.269	4440
866.4	4386
866.531	4417
866.662	4428
866.793	4409
866.924	4386
867.055	4470
867.186	4470
867.317	4405
867.448	4398
867.579	4390
867.71	4386
867.841	4398
867.972	4531
868.103	4485
868.233	4451
868.364	4432
868.495	4493
868.625	4630
868.756	4721
868.886	4599
869.017	4691
869.147	4774
869.278	4752
869.408	4656
869.539	4630
869.669	4755
869.799	4634
869.929	4752
870.06	4755
870.19	4949
870.32	4946
870.45	4938
870.58	5025
870.71	5045
870.84	5151
870.97	4949
871.1	4911
871.23	5113
871.36	5086
871.489	5033
871.619	5109
871.749	5109
871.879	5143
872.008	5159
872.138	5033
872.267	5003
872.397	4809
872.526	4812
872.656	4740
872.785	4748
872.915	4980
873.044	5018
873.173	4908
873.303	4930
873.432	4995
873.561	4972
873.69	4835
873.819	4847
873.948	4911
874.077	4790
874.206	4774
874.335	4824
874.464	4908
874.593	5052
874.722	4976
874.851	5117
874.979	5079
875.108	5025
875.237	4942
875.365	4881
875.494	4866
875.623	4965
875.751	4835
875.88	4919
876.008	4984
876.136	4999
876.265	5174
876.393	5334
876.521	5280
876.65	5216
876.778	5201
876.906	5029
877.034	5022
877.162	5045
877.29	4968
877.418	5041
877.546	5041
877.674	5086
877.802	4980
877.93	4972
878.058	4904
878.185	4839
878.313	4961
878.441	4904
878.568	4786
878.696	4854
878.824	5003
878.951	4946
879.079	5132
879.206	5280
879.333	5083
879.461	4999
879.588	4984
879.715	5140
879.842	5204
879.97	5045
880.097	4858
880.224	4797
880.351	4816
880.478	4885
880.605	4786
880.732	4740
880.859	5056
880.986	4892
881.112	4946
881.239	4797
881.366	4702
881.493	4664
881.619	4672
881.746	4626
881.872	4702
881.999	4714
882.125	4736
882.252	4839
882.378	4866
882.505	4991
882.631	4850
882.757	4683
882.883	4763
883.01	4744
883.136	4698
883.262	4618
883.388	4630
883.514	4820
883.64	4881
883.766	4824
883.892	4717
884.018	4752
884.143	4889
884.269	5025
884.395	4733
884.52	4679
884.646	4698
884.772	4653
884.897	4603
885.023	4706
885.148	4843
885.274	4881
885.399	4847
885.524	4714
885.65	4748
885.775	4786
885.9	4755
886.025	4896
886.15	4816
886.275	4771
886.4	4725
886.525	4752
886.65	4717
886.775	4733
886.9	4953
887.025	5075
887.149	4820
887.274	4702
887.399	4626
887.523	4596
887.648	4561
887.773	4596
887.897	4850
888.021	4790
888.146	4698
888.27	4843
888.395	4946
888.519	4847
888.643	4877
888.767	4919
888.891	4668
889.015	4675
889.139	4660
889.263	4649
889.387	4763
889.511	4877
889.635	4816
889.759	4694
889.883	4630
890.006	4763
890.13	4870
890.254	4668
890.377	4702
890.501	4615
890.624	4546
890.748	4687
890.871	4565
890.995	4478
891.118	4428
891.241	4523
891.364	4580
891.488	4702
891.611	4565
891.734	4580
891.857	4637
891.98	4592
892.103	4710
892.226	4634
892.349	4584
892.471	4451
892.594	4584
892.717	4626
892.839	4596
892.962	4656
893.085	4717
893.207	4607
893.33	4481
893.452	4558
893.575	4683
893.697	4615
893.819	4805
893.941	4835
894.064	4809
894.186	4626
894.308	4565
894.43	4767
894.552	4839
894.674	4790
894.796	4611
894.918	4611
895.04	4596
895.161	4736
895.283	4721
895.405	4653
895.526	4626
895.648	4729
895.769	4759
895.891	4782
896.012	4778
896.134	4771
896.255	4729
896.376	4687
896.498	4679
896.619	4698
896.74	4649
896.861	4668
896.982	4949
897.103	5098
897.224	4847
897.345	4763
897.466	4672
897.587	4759
897.708	4854
897.828	4786
897.949	4717
898.07	4599
898.19	4626
898.311	4835
898.431	4653
898.552	4740
898.672	4862
898.792	4793
898.913	4790
899.033	4615
899.153	4577
899.273	4462
899.393	4535
899.513	4569
899.633	4550
899.753	4611
899.873	4497
899.993	4592
900.113	4531
900.232	4611
900.352	4561
900.472	4538
900.591	4421
900.711	4554
900.83	4432
900.95	4626
901.069	4702
901.189	4599
901.308	4405
901.427	4344
901.546	4402
901.665	4440
901.784	4558
901.904	4390
902.023	4314
902.141	4242
902.26	4204
902.379	4348
902.498	4303
902.617	4227
902.735	4413
902.854	4402
902.973	4405
903.091	4234
903.21	4257
903.328	4318
903.446	4268
903.565	4322
903.683	4398
903.801	4314
903.919	4443
904.038	4432
904.156	4398
904.274	4459
904.392	4455
904.51	4451
904.627	4516
904.745	4634
904.863	4637
904.981	4443
905.098	4341
905.216	4398
905.334	4447
905.451	4497
905.569	4474
905.686	4561
905.803	4573
905.921	4440
906.038	4599
906.155	4485
906.272	4424
906.389	4478
906.506	4360
906.623	4413
906.74	4432
906.857	4310
906.974	4386
907.091	4607
907.208	4733
907.324	4622
907.441	4535
907.557	4417
907.674	4379
907.79	4329
907.907	4428
908.023	4485
908.139	4516
908.256	4455
908.372	4474
908.488	4493
908.604	4405
908.72	4325
908.836	4394
908.952	4363
909.068	4402
909.184	4584
909.3	4550
909.415	4588
909.531	4569
909.647	4367
909.762	4405
909.878	4394
909.993	4447
910.108	4462
910.224	4424
910.339	4481
910.454	4409
910.57	4413
910.685	4333
910.8	4702
910.915	4626
911.03	4493
911.145	4325
911.259	4337
911.374	4413
911.489	4325
911.604	4325
911.718	4188
911.833	4238
911.947	4067
912.062	4051
912.176	4211
912.291	4284
912.405	4284
912.519	4462
912.633	4497
912.748	4398
912.862	4303
912.976	4253
913.09	4147
913.204	4181
913.318	4295
913.431	4398
913.545	4352
913.659	4443
913.772	4333
913.886	4268
914	4265
914.113	4344
914.226	4451
914.34	4390
914.453	4287
914.566	4367
914.68	4322
914.793	4360
914.906	4207
915.019	4166
915.132	4101
915.245	4234
915.358	4242
915.47	4227
915.583	4295
915.696	4265
915.809	4455
915.921	4440
916.034	4261
916.146	4303
916.259	4242
916.371	4455
916.483	4402
916.595	4303
916.708	4310
916.82	4341
916.932	4341
917.044	4371
917.156	4329
917.268	4261
917.38	4295
917.491	4280
917.603	4375
917.715	4390
917.826	4440
917.938	4348
918.049	4303
918.161	4390
918.272	4558
918.384	4546
918.495	4481
918.606	4314
918.717	4287
918.828	4356
918.939	4337
919.05	4276
919.161	4291
919.272	4169
919.383	4253
919.494	4432
919.604	4637
919.715	4451
919.826	4314
919.936	4440
920.047	4523
920.157	4558
920.267	4706
920.378	4596
920.488	4538
920.598	4733
920.708	4889
920.818	4809
920.928	4786
921.038	4927
921.148	4961
921.258	4603
921.368	4580
921.477	4493
921.587	4474
921.697	4402
921.806	4531
921.916	4447
922.025	4276
922.134	4242
922.244	4265
922.353	4379
922.462	4196
922.571	4139
922.68	4025
922.789	4021
922.898	4063
923.007	3987
923.116	4147
923.224	4078
923.333	4101
923.442	4013
923.55	4010
923.659	4017
923.767	4135
923.876	4025
923.984	4112
924.092	3991
924.201	4120
924.309	4090
924.417	4131
924.525	4067
924.633	4109
924.741	5056
924.849	3915
924.956	4112
925.064	3987
925.172	3880
925.279	3998
925.387	4078
925.494	4071
925.602	4207
925.709	4192
925.816	4055
925.924	4124
926.031	4268
926.138	4211
926.245	4234
926.352	4044
926.459	4280
926.566	4310
926.673	4177
926.779	4135
926.886	4101
926.993	3972
927.099	3979
927.206	3945
927.312	4017
927.419	4032
927.525	4021
927.631	4139
927.737	3998
927.843	3945
927.95	3903
928.056	3949
928.162	4006
928.267	4048
928.373	4698
928.479	4105
928.585	3899
928.69	4036
928.796	4097
928.901	4036
929.007	3869
929.112	3991
929.218	3975
929.323	3937
929.428	3956
929.533	4124
929.638	3964
929.743	3949
929.848	4051
929.953	4017
930.058	3907
930.163	3804
930.267	3846
930.372	4029
930.477	3865
930.581	4097
930.685	3987
930.79	3831
930.894	3880
930.998	3831
931.103	4059
931.207	3732
931.311	3675
931.415	3698
931.519	3519
931.623	3553
