Data from test_V78500241_1218.txt Node
Date: Fri Mar 25 16:57:28 CST 2022
User: usil
Spectrometer: V785-0024
Trigger mode: 0
Integration Time (sec): 4.000000E-1
Scans to average: 1
Nonlinearity correction enabled: false
Boxcar width: 0
Storing dark spectrum: false
XAxis mode: Wavelengths
Number of Pixels in Spectrum: 1024
>>>>>Begin Spectral Data<<<<<
801.071	8035
801.214	8024
801.356	7799
801.499	7890
801.641	7799
801.783	7860
801.926	7978
802.068	7932
802.211	7955
802.353	8001
802.496	7807
802.638	7890
802.78	7982
802.923	7940
803.065	7879
803.208	7890
803.35	7989
803.492	8050
803.635	8214
803.777	8092
803.919	8168
804.061	8434
804.204	8172
804.346	8039
804.488	7963
804.63	8111
804.773	8005
804.915	8069
805.057	8358
805.199	8202
805.341	8164
805.483	8305
805.626	8229
805.768	8183
805.91	8252
806.052	8206
806.194	8138
806.336	8286
806.478	8123
806.62	8039
806.762	8130
806.904	8229
807.046	8431
807.188	8286
807.33	8259
807.472	8370
807.614	8126
807.756	8153
807.898	8035
808.04	7898
808.182	7928
808.324	7849
808.465	7974
808.607	8134
808.749	8111
808.891	8229
809.033	8279
809.174	8176
809.316	8084
809.458	7986
809.6	8001
809.741	7978
809.883	7978
810.025	8111
810.166	8100
810.308	8046
810.45	7989
810.591	7856
810.733	7704
810.875	7662
811.016	7552
811.158	7518
811.299	7594
811.441	7734
811.582	7734
811.724	7636
811.865	7563
812.007	7563
812.148	7597
812.29	7616
812.431	7750
812.573	7898
812.714	7928
812.855	8111
812.997	8145
813.138	8343
813.279	8195
813.421	8081
813.562	8016
813.703	7822
813.845	7757
813.986	7449
814.127	7293
814.268	7236
814.41	7209
814.551	7126
814.692	7240
814.833	7050
814.974	7099
815.115	7080
815.256	6996
815.397	6878
815.539	6932
815.68	6871
815.821	6776
815.962	6916
816.103	6878
816.244	6719
816.385	6692
816.526	6585
816.666	6471
816.807	6365
816.948	6486
817.089	6502
817.23	6422
817.371	6410
817.512	6334
817.653	6384
817.793	6369
817.934	6388
818.075	6471
818.216	6407
818.356	6445
818.497	6254
818.638	6121
818.778	6133
818.919	6186
819.06	6163
819.2	6331
819.341	6338
819.481	6372
819.622	6540
819.762	6730
819.903	6707
820.043	6566
820.184	6597
820.324	6635
820.465	6703
820.605	6688
820.746	6650
820.886	6490
821.026	6639
821.167	6662
821.307	6795
821.447	6677
821.588	6639
821.728	6551
821.868	6467
822.008	6376
822.149	6391
822.289	6319
822.429	6152
822.569	6091
822.709	6064
822.849	5927
822.99	5939
823.13	5859
823.27	5923
823.41	5851
823.55	5821
823.69	5737
823.83	5741
823.97	5676
824.11	5562
824.25	5505
824.389	5608
824.529	5604
824.669	5573
824.809	5600
824.949	5737
825.089	5642
825.228	5543
825.368	5398
825.508	5337
825.648	5372
825.787	5326
825.927	5387
826.067	5292
826.206	5318
826.346	5364
826.485	5433
826.625	5372
826.765	5505
826.904	5505
827.044	5265
827.183	5185
827.323	5117
827.462	5193
827.601	5201
827.741	5185
827.88	5231
828.02	5140
828.159	5227
828.298	5299
828.437	5414
828.577	5269
828.716	5444
828.855	5322
828.994	5231
829.134	5105
829.273	5143
829.412	5102
829.551	5143
829.69	5124
829.829	5216
829.968	5391
830.107	5242
830.246	5330
830.385	5155
830.524	5113
830.663	5048
830.802	4957
830.941	4816
831.08	4862
831.219	4942
831.357	4999
831.496	5124
831.635	4957
831.774	4816
831.913	4812
832.051	4744
832.19	4748
832.329	4797
832.467	4664
832.606	4603
832.744	4729
832.883	4641
833.022	4748
833.16	4748
833.299	4858
833.437	4786
833.576	4896
833.714	4854
833.852	4866
833.991	4839
834.129	4984
834.267	4908
834.406	4881
834.544	4972
834.682	4976
834.821	4946
834.959	5136
835.097	4995
835.235	5159
835.373	5083
835.511	5140
835.65	5006
835.788	5006
835.926	4904
836.064	4858
836.202	4900
836.34	5185
836.478	5220
836.615	5090
836.753	5220
836.891	5284
837.029	5242
837.167	5208
837.305	5147
837.443	5181
837.58	5071
837.718	5239
837.856	5185
837.993	5140
838.131	5239
838.269	5185
838.406	5223
838.544	5185
838.681	4999
838.819	5006
838.956	4923
839.094	4915
839.231	4999
839.369	5113
839.506	5395
839.643	5265
839.781	5064
839.918	5045
840.055	5105
840.193	5105
840.33	5071
840.467	5098
840.604	5178
840.742	5448
840.879	5105
841.016	5079
841.153	5140
841.29	5376
841.427	5360
841.564	5261
841.701	5368
841.838	5292
841.975	5258
842.112	5307
842.249	5140
842.385	5136
842.522	5303
842.659	5204
842.796	5128
842.933	5242
843.069	5121
843.206	5208
843.343	5303
843.479	5277
843.616	5220
843.752	5018
843.889	4995
844.025	5250
844.162	5014
844.298	5212
844.435	5006
844.571	5052
844.708	5201
844.844	5258
844.98	5376
845.117	5284
845.253	5121
845.389	5067
845.525	5140
845.661	5121
845.798	5033
845.934	5181
846.07	5048
846.206	5185
846.342	5284
846.478	5189
846.614	4999
846.75	4930
846.886	4972
847.022	5178
847.158	5041
847.294	5041
847.429	5071
847.565	5064
847.701	5307
847.837	4847
847.972	4831
848.108	4927
848.244	4984
848.379	4778
848.515	4733
848.65	4679
848.786	4714
848.921	4774
849.057	4824
849.192	4934
849.328	4820
849.463	4797
849.598	4771
849.734	4809
849.869	4687
850.004	4615
850.14	4668
850.275	4561
850.41	4531
850.545	4546
850.68	4599
850.815	4603
850.95	4580
851.085	4831
851.22	4729
851.355	4679
851.49	4611
851.625	4607
851.76	4660
851.895	4527
852.03	4558
852.165	4626
852.299	4744
852.434	4771
852.569	4717
852.703	4786
852.838	4847
852.973	4968
853.107	4934
853.242	4725
853.376	4603
853.511	4565
853.645	4584
853.78	4797
853.914	4641
854.048	4679
854.183	4641
854.317	4649
854.451	4812
854.585	4664
854.72	4653
854.854	4733
854.988	4630
855.122	4607
855.256	4542
855.39	4683
855.524	4717
855.658	4752
855.792	4706
855.926	4744
856.06	4748
856.194	4763
856.327	4706
856.461	4611
856.595	4603
856.729	4641
856.862	4767
856.996	4679
857.13	4755
857.263	4763
857.397	4778
857.53	4653
857.664	4740
857.797	4721
857.931	4812
858.064	4691
858.197	4714
858.331	4672
858.464	4615
858.597	4478
858.731	4622
858.864	4592
858.997	4668
859.13	4649
859.263	4656
859.396	4668
859.529	4588
859.662	4565
859.795	4592
859.928	4611
860.061	4774
860.194	4759
860.327	4573
860.46	4569
860.592	4668
860.725	4744
860.858	4668
860.99	4599
861.123	4531
861.256	4577
861.388	4580
861.521	5239
861.653	4455
861.786	4443
861.918	4436
862.05	4538
862.183	4558
862.315	4588
862.447	4615
862.58	4531
862.712	4413
862.844	4333
862.976	4470
863.108	4436
863.24	4812
863.372	4303
863.504	4383
863.636	4421
863.768	4504
863.9	4451
864.032	4367
864.164	4417
864.296	4451
864.428	4527
864.559	4577
864.691	4489
864.823	4481
864.954	4466
865.086	4497
865.217	4474
865.349	4405
865.48	4462
865.612	4436
865.743	4641
865.875	4436
866.006	4383
866.137	4508
866.269	4413
866.4	4504
866.531	4443
866.662	4405
866.793	4371
866.924	4398
867.055	4478
867.186	4440
867.317	4402
867.448	4405
867.579	4329
867.71	4360
867.841	4360
867.972	4459
868.103	4466
868.233	4417
868.364	4440
868.495	4466
868.625	4675
868.756	4790
868.886	4519
869.017	4611
869.147	4774
869.278	4805
869.408	4645
869.539	4645
869.669	4717
869.799	4664
869.929	4744
870.06	4733
870.19	4927
870.32	4915
870.45	4892
870.58	4987
870.71	5090
870.84	5086
870.97	4942
871.1	4870
871.23	5155
871.36	5102
871.489	5003
871.619	5075
871.749	5090
871.879	5090
872.008	5094
872.138	5083
872.267	4972
872.397	4820
872.526	4816
872.656	4755
872.785	4793
872.915	4919
873.044	5010
873.173	4949
873.303	4972
873.432	4900
873.561	4930
873.69	4831
873.819	4881
873.948	4889
874.077	4790
874.206	4725
874.335	4771
874.464	4930
874.593	5018
874.722	4927
874.851	5056
874.979	5022
875.108	5010
875.237	4904
875.365	4870
875.494	4843
875.623	4949
875.751	4850
875.88	4892
876.008	4984
876.136	4919
876.265	5227
876.393	5318
876.521	5242
876.65	5185
876.778	5151
876.906	5018
877.034	4995
877.162	5037
877.29	4976
877.418	5071
877.546	5010
877.674	5029
877.802	4972
877.93	4968
878.058	4877
878.185	4858
878.313	4949
878.441	4949
878.568	4809
878.696	4816
878.824	4942
878.951	4953
879.079	5121
879.206	5280
879.333	5052
879.461	4991
879.588	4987
879.715	5064
879.842	5223
879.97	5006
880.097	4771
880.224	4729
880.351	4801
880.478	4812
880.605	4733
880.732	4752
880.859	5113
880.986	4866
881.112	4850
881.239	4759
881.366	4634
881.493	4603
881.619	4523
881.746	4611
881.872	4634
881.999	4634
882.125	4721
882.252	4771
882.378	4831
882.505	4942
882.631	4752
882.757	4634
882.883	4698
883.01	4733
883.136	4653
883.262	4584
883.388	4611
883.514	4782
883.64	4862
883.766	4778
883.892	4733
884.018	4687
884.143	4900
884.269	5048
884.395	4630
884.52	4622
884.646	4611
884.772	4565
884.897	4538
885.023	4615
885.148	4797
885.274	4885
885.399	4805
885.524	4782
885.65	4717
885.775	4694
885.9	4691
886.025	4828
886.15	4774
886.275	4733
886.4	4645
886.525	4683
886.65	4668
886.775	4649
886.9	4919
887.025	5052
887.149	4725
887.274	4641
887.399	4592
887.523	4592
887.648	4599
887.773	4527
887.897	4729
888.021	4774
888.146	4675
888.27	4790
888.395	4904
888.519	4805
888.643	4790
888.767	4816
888.891	4664
889.015	4558
889.139	4672
889.263	4561
889.387	4710
889.511	4843
889.635	4729
889.759	4611
889.883	4656
890.006	4714
890.13	4847
890.254	4596
890.377	4702
890.501	4504
890.624	4558
890.748	4626
890.871	4478
890.995	4432
891.118	4398
891.241	4462
891.364	4493
891.488	4569
891.611	4474
891.734	4516
891.857	4607
891.98	4561
892.103	4641
892.226	4603
892.349	4489
892.471	4413
892.594	4554
892.717	4565
892.839	4596
892.962	4565
893.085	4645
893.207	4527
893.33	4443
893.452	4493
893.575	4660
893.697	4603
893.819	4801
893.941	4858
894.064	4755
894.186	4565
894.308	4554
894.43	4755
894.552	4816
894.674	4771
894.796	4584
894.918	4626
895.04	4558
895.161	4649
895.283	4656
895.405	4577
895.526	4698
895.648	4653
895.769	4672
895.891	4694
896.012	4752
896.134	4687
896.255	4660
896.376	4611
896.498	4618
896.619	4649
896.74	4577
896.861	4637
896.982	4911
897.103	5022
897.224	4820
897.345	4812
897.466	4694
897.587	4725
897.708	4881
897.828	4778
897.949	4668
898.07	4561
898.19	4637
898.311	4797
898.431	4664
898.552	4748
898.672	4771
898.792	4820
898.913	4694
899.033	4679
899.153	4497
899.273	4367
899.393	4516
899.513	4493
899.633	4535
899.753	4459
899.873	4474
899.993	4611
900.113	4497
900.232	4573
900.352	4504
900.472	4462
900.591	4440
900.711	4485
900.83	4436
900.95	4546
901.069	4672
901.189	4535
901.308	4284
901.427	4348
901.546	4424
901.665	4474
901.784	4462
901.904	4383
902.023	4333
902.141	4211
902.26	4143
902.379	4333
902.498	4238
902.617	4227
902.735	4390
902.854	4390
902.973	4356
903.091	4188
903.21	4219
903.328	4310
903.446	4268
903.565	4242
903.683	4383
903.801	4284
903.919	4379
904.038	4424
904.156	4329
904.274	4409
904.392	4394
904.51	4436
904.627	4497
904.745	4558
904.863	4615
904.981	4367
905.098	4322
905.216	4367
905.334	4413
905.451	4371
905.569	4428
905.686	4500
905.803	4584
905.921	4405
906.038	4531
906.155	4459
906.272	4443
906.389	4466
906.506	4348
906.623	4390
906.74	4363
906.857	4280
906.974	4352
907.091	4565
907.208	4634
907.324	4611
907.441	4466
907.557	4367
907.674	4386
907.79	4306
907.907	4352
908.023	4455
908.139	4493
908.256	4409
908.372	4478
908.488	4409
908.604	4299
908.72	4322
908.836	4352
908.952	4386
909.068	4394
909.184	4527
909.3	4527
909.415	4577
909.531	4523
909.647	4405
909.762	4371
909.878	4318
909.993	4485
910.108	4398
910.224	4421
910.339	4508
910.454	4440
910.57	4375
910.685	4306
910.8	4603
910.915	4592
911.03	4535
911.145	4303
911.259	4379
911.374	4314
911.489	4344
911.604	4238
911.718	4185
911.833	4215
911.947	4086
912.062	3994
912.176	4200
912.291	4219
912.405	4215
912.519	4428
912.633	4489
912.748	4322
912.862	4329
912.976	4215
913.09	4105
913.204	4177
913.318	4211
913.431	4325
913.545	4348
913.659	4398
913.772	4352
913.886	4200
914	4238
914.113	4325
914.226	4462
914.34	4394
914.453	4253
914.566	4409
914.68	4314
914.793	4322
914.906	4192
915.019	4116
915.132	4063
915.245	4131
915.358	4204
915.47	4246
915.583	4276
915.696	4299
915.809	4398
915.921	4402
916.034	4257
916.146	4242
916.259	4227
916.371	4333
916.483	4363
916.595	4253
916.708	4325
916.82	4329
916.932	4352
917.044	4352
917.156	4276
917.268	4230
917.38	4299
917.491	4276
917.603	4344
917.715	4443
917.826	4443
917.938	4337
918.049	4200
918.161	4398
918.272	4523
918.384	4538
918.495	4459
918.606	4276
918.717	4234
918.828	4329
918.939	4337
919.05	4204
919.161	4333
919.272	4143
919.383	4234
919.494	4432
919.604	4611
919.715	4443
919.826	4341
919.936	4405
920.047	4535
920.157	4474
920.267	4691
920.378	4573
920.488	4508
920.598	4717
920.708	4850
920.818	4763
920.928	4736
921.038	4915
921.148	4908
921.258	4580
921.368	4504
921.477	4485
921.587	4440
921.697	4379
921.806	4558
921.916	4421
922.025	4265
922.134	4227
922.244	4234
922.353	4329
922.462	4173
922.571	4090
922.68	4010
922.789	3949
922.898	4044
923.007	3979
923.116	4105
923.224	4044
923.333	4109
923.442	4002
923.55	3945
923.659	3991
923.767	4093
923.876	4002
923.984	4143
924.092	3960
924.201	4059
924.309	4063
924.417	4166
924.525	4067
924.633	4101
924.741	4991
924.849	3934
924.956	4097
925.064	3949
925.172	3846
925.279	3937
925.387	4067
925.494	4032
925.602	4219
925.709	4196
925.816	4002
925.924	4150
926.031	4181
926.138	4173
926.245	4223
926.352	4101
926.459	4257
926.566	4314
926.673	4143
926.779	4040
926.886	4097
926.993	3975
927.099	3922
927.206	3930
927.312	3915
927.419	4063
927.525	4048
927.631	4093
927.737	3994
927.843	3941
927.95	3865
928.056	3945
928.162	4006
928.267	4059
928.373	4653
928.479	4128
928.585	3892
928.69	4002
928.796	4078
928.901	3979
929.007	3823
929.112	3979
929.218	3968
929.323	3892
929.428	3994
929.533	4097
929.638	3892
929.743	3945
929.848	4032
929.953	4002
930.058	3953
930.163	3740
930.267	3838
930.372	3983
930.477	3785
930.581	4071
930.685	3949
930.79	3850
930.894	3896
930.998	3835
931.103	4055
931.207	3701
931.311	3713
931.415	3633
931.519	3523
931.623	3576
