Data from test_V78500241_206.txt Node
Date: Fri Mar 25 16:50:26 CST 2022
User: usil
Spectrometer: V785-0024
Trigger mode: 0
Integration Time (sec): 4.000000E-1
Scans to average: 1
Nonlinearity correction enabled: false
Boxcar width: 0
Storing dark spectrum: false
XAxis mode: Wavelengths
Number of Pixels in Spectrum: 1024
>>>>>Begin Spectral Data<<<<<
801.071	8050
801.214	8046
801.356	7898
801.499	7830
801.641	7871
801.783	7799
801.926	7986
802.068	7932
802.211	7993
802.353	8001
802.496	7940
802.638	7967
802.78	7902
802.923	7932
803.065	7879
803.208	7845
803.35	8031
803.492	8069
803.635	8195
803.777	7967
803.919	8134
804.061	8461
804.204	8145
804.346	8077
804.488	7955
804.63	8058
804.773	8001
804.915	8077
805.057	8259
805.199	8176
805.341	8195
805.483	8221
805.626	8149
805.768	8012
805.91	8161
806.052	8142
806.194	8153
806.336	8301
806.478	8065
806.62	8130
806.762	8168
806.904	8195
807.046	8412
807.188	8286
807.33	8244
807.472	8324
807.614	8111
807.756	8065
807.898	7989
808.04	7947
808.182	7913
808.324	7917
808.465	7864
808.607	8081
808.749	8183
808.891	8332
809.033	8271
809.174	8259
809.316	8020
809.458	8065
809.6	7959
809.741	8005
809.883	8077
810.025	8073
810.166	8050
810.308	8024
810.45	8027
810.591	7894
810.733	7826
810.875	7700
811.016	7544
811.158	7556
811.299	7613
811.441	7715
811.582	7677
811.724	7616
811.865	7567
812.007	7601
812.148	7571
812.29	7632
812.431	7799
812.573	7951
812.714	7993
812.855	8206
812.997	8294
813.138	8381
813.279	8218
813.421	8149
813.562	8062
813.703	7837
813.845	7841
813.986	7510
814.127	7293
814.268	7221
814.41	7285
814.551	7133
814.692	7171
814.833	7133
814.974	7126
815.115	7091
815.256	6958
815.397	6909
815.539	6977
815.68	6833
815.821	6886
815.962	6798
816.103	6802
816.244	6738
816.385	6692
816.526	6635
816.666	6486
816.807	6338
816.948	6422
817.089	6475
817.23	6448
817.371	6384
817.512	6380
817.653	6391
817.793	6342
817.934	6422
818.075	6429
818.216	6437
818.356	6399
818.497	6266
818.638	6155
818.778	6155
818.919	6095
819.06	6144
819.2	6315
819.341	6292
819.481	6338
819.622	6509
819.762	6806
819.903	6627
820.043	6582
820.184	6521
820.324	6601
820.465	6696
820.605	6711
820.746	6585
820.886	6525
821.026	6631
821.167	6764
821.307	6783
821.447	6837
821.588	6722
821.728	6623
821.868	6525
822.008	6346
822.149	6403
822.289	6361
822.429	6171
822.569	6159
822.709	6136
822.849	5935
822.99	5961
823.13	6030
823.27	5980
823.41	5859
823.55	5824
823.69	5798
823.83	5844
823.97	5741
824.11	5596
824.25	5554
824.389	5585
824.529	5638
824.669	5539
824.809	5665
824.949	5718
825.089	5619
825.228	5646
825.368	5436
825.508	5414
825.648	5372
825.787	5425
825.927	5444
826.067	5318
826.206	5334
826.346	5379
826.485	5455
826.625	5467
826.765	5589
826.904	5524
827.044	5288
827.183	5254
827.323	5239
827.462	5337
827.601	5246
827.741	5174
827.88	5242
828.02	5178
828.159	5307
828.298	5353
828.437	5383
828.577	5330
828.716	5554
828.855	5360
828.994	5227
829.134	5162
829.273	5239
829.412	5193
829.551	5162
829.69	5208
829.829	5296
829.968	5410
830.107	5322
830.246	5357
830.385	5227
830.524	5231
830.663	5094
830.802	4961
830.941	4934
831.08	4908
831.219	5018
831.357	4999
831.496	5147
831.635	4930
831.774	4896
831.913	4911
832.051	4755
832.19	4740
832.329	4870
832.467	4702
832.606	4710
832.744	4790
832.883	4755
833.022	4778
833.16	4900
833.299	4824
833.437	4839
833.576	4911
833.714	4870
833.852	4904
833.991	4949
834.129	5010
834.267	5041
834.406	4949
834.544	5010
834.682	5018
834.821	4980
834.959	5170
835.097	5045
835.235	5204
835.373	5174
835.511	5109
835.65	5083
835.788	5113
835.926	4946
836.064	4900
836.202	4949
836.34	5170
836.478	5280
836.615	5181
836.753	5280
836.891	5322
837.029	5235
837.167	5212
837.305	5147
837.443	5204
837.58	5155
837.718	5330
837.856	5227
837.993	5170
838.131	5311
838.269	5220
838.406	5223
838.544	5197
838.681	5102
838.819	5094
838.956	4999
839.094	4976
839.231	5029
839.369	5132
839.506	5414
839.643	5345
839.781	5083
839.918	5071
840.055	5151
840.193	5117
840.33	5132
840.467	5189
840.604	5246
840.742	5486
840.879	5113
841.016	5136
841.153	5223
841.29	5410
841.427	5322
841.564	5322
841.701	5429
841.838	5311
841.975	5280
842.112	5261
842.249	5178
842.385	5162
842.522	5383
842.659	5250
842.796	5185
842.933	5250
843.069	5105
843.206	5185
843.343	5364
843.479	5345
843.616	5254
843.752	5121
843.889	5014
844.025	5201
844.162	4987
844.298	5239
844.435	5109
844.571	5094
844.708	5212
844.844	5330
844.98	5337
845.117	5326
845.253	5189
845.389	5193
845.525	5204
845.661	5201
845.798	5052
845.934	5132
846.07	5071
846.206	5166
846.342	5322
846.478	5223
846.614	5033
846.75	5006
846.886	4976
847.022	5185
847.158	5041
847.294	5128
847.429	5143
847.565	5083
847.701	5357
847.837	4881
847.972	4873
848.108	4965
848.244	4953
848.379	4831
848.515	4755
848.65	4774
848.786	4778
848.921	4854
849.057	4957
849.192	4938
849.328	4862
849.463	4923
849.598	4820
849.734	4820
849.869	4755
850.004	4706
850.14	4694
850.275	4611
850.41	4569
850.545	4573
850.68	4622
850.815	4683
850.95	4687
851.085	4904
851.22	4797
851.355	4740
851.49	4634
851.625	4645
851.76	4736
851.895	4596
852.03	4596
852.165	4714
852.299	4733
852.434	4839
852.569	4801
852.703	4782
852.838	4889
852.973	4953
853.107	4965
853.242	4748
853.376	4672
853.511	4603
853.645	4656
853.78	4858
853.914	4733
854.048	4698
854.183	4672
854.317	4782
854.451	4877
854.585	4759
854.72	4714
854.854	4717
854.988	4634
855.122	4656
855.256	4580
855.39	4752
855.524	4805
855.658	4782
855.792	4744
855.926	4748
856.06	4797
856.194	4793
856.327	4694
856.461	4630
856.595	4641
856.729	4668
856.862	4755
856.996	4702
857.13	4755
857.263	4774
857.397	4790
857.53	4664
857.664	4759
857.797	4805
857.931	4790
858.064	4721
858.197	4782
858.331	4748
858.464	4668
858.597	4580
858.731	4675
858.864	4683
858.997	4622
859.13	4645
859.263	4714
859.396	4714
859.529	4599
859.662	4607
859.795	4542
859.928	4656
860.061	4828
860.194	4793
860.327	4645
860.46	4626
860.592	4744
860.725	4771
860.858	4767
860.99	4634
861.123	4527
861.256	4550
861.388	4687
861.521	5292
861.653	4546
861.786	4481
861.918	4489
862.05	4592
862.183	4577
862.315	4653
862.447	4679
862.58	4542
862.712	4455
862.844	4405
862.976	4523
863.108	4519
863.24	4923
863.372	4341
863.504	4489
863.636	4413
863.768	4424
863.9	4451
864.032	4390
864.164	4428
864.296	4497
864.428	4584
864.559	4580
864.691	4569
864.823	4603
864.954	4527
865.086	4535
865.217	4462
865.349	4462
865.48	4466
865.612	4519
865.743	4603
865.875	4459
866.006	4508
866.137	4500
866.269	4493
866.4	4443
866.531	4481
866.662	4459
866.793	4398
866.924	4489
867.055	4523
867.186	4497
867.317	4455
867.448	4398
867.579	4443
867.71	4405
867.841	4413
867.972	4531
868.103	4493
868.233	4523
868.364	4421
868.495	4516
868.625	4714
868.756	4790
868.886	4588
869.017	4615
869.147	4771
869.278	4778
869.408	4729
869.539	4672
869.669	4748
869.799	4679
869.929	4774
870.06	4767
870.19	4984
870.32	4938
870.45	4946
870.58	5018
870.71	5140
870.84	5102
870.97	5029
871.1	4953
871.23	5166
871.36	5140
871.489	5064
871.619	5140
871.749	5113
871.879	5151
872.008	5189
872.138	5064
872.267	5010
872.397	4885
872.526	4812
872.656	4733
872.785	4831
872.915	4995
873.044	5014
873.173	4927
873.303	5006
873.432	4961
873.561	5010
873.69	4949
873.819	4915
873.948	4961
874.077	4828
874.206	4793
874.335	4835
874.464	4949
874.593	5086
874.722	4942
874.851	5124
874.979	5113
875.108	5090
875.237	4915
875.365	4949
875.494	4896
875.623	5025
875.751	4881
875.88	4946
876.008	4972
876.136	5098
876.265	5223
876.393	5364
876.521	5284
876.65	5242
876.778	5201
876.906	5094
877.034	5045
877.162	5071
877.29	5033
877.418	5052
877.546	5022
877.674	5086
877.802	5056
877.93	5048
878.058	4942
878.185	4904
878.313	4987
878.441	4961
878.568	4767
878.696	4908
878.824	4930
878.951	5037
879.079	5132
879.206	5345
879.333	5109
879.461	4995
879.588	5037
879.715	5147
879.842	5227
879.97	5067
880.097	4816
880.224	4786
880.351	4835
880.478	4835
880.605	4843
880.732	4843
880.859	5166
880.986	4949
881.112	4957
881.239	4744
881.366	4706
881.493	4573
881.619	4607
881.746	4679
881.872	4679
881.999	4675
882.125	4748
882.252	4782
882.378	4889
882.505	5006
882.631	4797
882.757	4649
882.883	4797
883.01	4820
883.136	4729
883.262	4634
883.388	4645
883.514	4843
883.64	4919
883.766	4831
883.892	4675
884.018	4748
884.143	4915
884.269	5052
884.395	4725
884.52	4603
884.646	4687
884.772	4592
884.897	4546
885.023	4710
885.148	4793
885.274	4934
885.399	4828
885.524	4691
885.65	4721
885.775	4774
885.9	4694
886.025	4904
886.15	4843
886.275	4710
886.4	4714
886.525	4733
886.65	4740
886.775	4782
886.9	4904
887.025	5071
887.149	4820
887.274	4706
887.399	4573
887.523	4577
887.648	4618
887.773	4561
887.897	4816
888.021	4805
888.146	4694
888.27	4885
888.395	4889
888.519	4782
888.643	4831
888.767	4885
888.891	4725
889.015	4615
889.139	4725
889.263	4641
889.387	4733
889.511	4877
889.635	4782
889.759	4656
889.883	4675
890.006	4744
890.13	4843
890.254	4649
890.377	4706
890.501	4588
890.624	4569
890.748	4649
890.871	4497
890.995	4417
891.118	4436
891.241	4550
891.364	4535
891.488	4675
891.611	4485
891.734	4554
891.857	4588
891.98	4569
892.103	4645
892.226	4592
892.349	4538
892.471	4409
892.594	4561
892.717	4607
892.839	4577
892.962	4599
893.085	4721
893.207	4592
893.33	4451
893.452	4527
893.575	4691
893.697	4611
893.819	4782
893.941	4812
894.064	4797
894.186	4634
894.308	4596
894.43	4717
894.552	4809
894.674	4755
894.796	4542
894.918	4592
895.04	4512
895.161	4736
895.283	4672
895.405	4592
895.526	4675
895.648	4721
895.769	4725
895.891	4755
896.012	4752
896.134	4763
896.255	4710
896.376	4641
896.498	4637
896.619	4687
896.74	4645
896.861	4668
896.982	4896
897.103	5060
897.224	4847
897.345	4782
897.466	4698
897.587	4793
897.708	4881
897.828	4805
897.949	4679
898.07	4603
898.19	4611
898.311	4824
898.431	4710
898.552	4763
898.672	4847
898.792	4809
898.913	4774
899.033	4607
899.153	4535
899.273	4455
899.393	4542
899.513	4550
899.633	4542
899.753	4565
899.873	4538
899.993	4569
900.113	4558
900.232	4626
900.352	4580
900.472	4516
900.591	4402
900.711	4440
900.83	4474
900.95	4577
901.069	4702
901.189	4558
901.308	4363
901.427	4341
901.546	4386
901.665	4481
901.784	4550
901.904	4394
902.023	4322
902.141	4177
902.26	4185
902.379	4318
902.498	4268
902.617	4299
902.735	4390
902.854	4409
902.973	4390
903.091	4246
903.21	4227
903.328	4303
903.446	4318
903.565	4284
903.683	4348
903.801	4280
903.919	4421
904.038	4443
904.156	4322
904.274	4394
904.392	4440
904.51	4474
904.627	4481
904.745	4580
904.863	4637
904.981	4417
905.098	4314
905.216	4390
905.334	4443
905.451	4451
905.569	4466
905.686	4618
905.803	4558
905.921	4394
906.038	4558
906.155	4462
906.272	4390
906.389	4485
906.506	4371
906.623	4405
906.74	4421
906.857	4310
906.974	4394
907.091	4561
907.208	4706
907.324	4599
907.441	4519
907.557	4360
907.674	4356
907.79	4352
907.907	4379
908.023	4519
908.139	4459
908.256	4413
908.372	4436
908.488	4417
908.604	4360
908.72	4329
908.836	4348
908.952	4386
909.068	4474
909.184	4622
909.3	4504
909.415	4630
909.531	4558
909.647	4363
909.762	4341
909.878	4310
909.993	4443
910.108	4462
910.224	4409
910.339	4497
910.454	4447
910.57	4394
910.685	4344
910.8	4641
910.915	4615
911.03	4516
911.145	4371
911.259	4344
911.374	4356
911.489	4329
911.604	4265
911.718	4166
911.833	4242
911.947	4105
912.062	4055
912.176	4223
912.291	4303
912.405	4291
912.519	4497
912.633	4500
912.748	4386
912.862	4360
912.976	4188
913.09	4093
913.204	4188
913.318	4261
913.431	4341
913.545	4371
913.659	4440
913.772	4379
913.886	4268
914	4200
914.113	4383
914.226	4459
914.34	4367
914.453	4242
914.566	4409
914.68	4310
914.793	4318
914.906	4124
915.019	4120
915.132	4074
915.245	4215
915.358	4268
915.47	4234
915.583	4253
915.696	4306
915.809	4379
915.921	4443
916.034	4219
916.146	4280
916.259	4249
916.371	4379
916.483	4394
916.595	4310
916.708	4329
916.82	4360
916.932	4314
917.044	4329
917.156	4348
917.268	4249
917.38	4234
917.491	4280
917.603	4363
917.715	4413
917.826	4443
917.938	4322
918.049	4280
918.161	4413
918.272	4542
918.384	4542
918.495	4481
918.606	4356
918.717	4246
918.828	4348
918.939	4371
919.05	4337
919.161	4356
919.272	4147
919.383	4272
919.494	4455
919.604	4641
919.715	4455
919.826	4348
919.936	4428
920.047	4523
920.157	4493
920.267	4717
920.378	4596
920.488	4478
920.598	4748
920.708	4889
920.818	4774
920.928	4767
921.038	4915
921.148	4930
921.258	4675
921.368	4531
921.477	4493
921.587	4512
921.697	4402
921.806	4531
921.916	4466
922.025	4295
922.134	4280
922.244	4223
922.353	4360
922.462	4154
922.571	4173
922.68	4017
922.789	4021
922.898	4040
923.007	3968
923.116	4120
923.224	4086
923.333	4086
923.442	4013
923.55	4017
923.659	4032
923.767	4082
923.876	3994
923.984	4124
924.092	3994
924.201	4105
924.309	4090
924.417	4116
924.525	4063
924.633	4116
924.741	5048
924.849	3968
924.956	4150
925.064	3960
925.172	3899
925.279	3960
925.387	4124
925.494	4059
925.602	4200
925.709	4196
925.816	4112
925.924	4158
926.031	4227
926.138	4200
926.245	4215
926.352	4101
926.459	4253
926.566	4314
926.673	4207
926.779	4059
926.886	3998
926.993	3998
927.099	4013
927.206	3949
927.312	3972
927.419	4067
927.525	3998
927.631	4090
927.737	3968
927.843	3922
927.95	3873
928.056	3937
928.162	4002
928.267	4074
928.373	4702
928.479	4143
928.585	3884
928.69	4036
928.796	4051
928.901	3998
929.007	3873
929.112	4048
929.218	4025
929.323	3953
929.428	3975
929.533	4158
929.638	3934
929.743	3930
929.848	4059
929.953	3979
930.058	3926
930.163	3785
930.267	3842
930.372	3934
930.477	3781
930.581	4131
930.685	3964
930.79	3846
930.894	3896
930.998	3880
931.103	4044
931.207	3705
931.311	3728
931.415	3660
931.519	3500
931.623	3553
