Data from test_V78500241_2127.txt Node
Date: Fri Mar 25 17:03:47 CST 2022
User: usil
Spectrometer: V785-0024
Trigger mode: 0
Integration Time (sec): 4.000000E-1
Scans to average: 1
Nonlinearity correction enabled: false
Boxcar width: 0
Storing dark spectrum: false
XAxis mode: Wavelengths
Number of Pixels in Spectrum: 1024
>>>>>Begin Spectral Data<<<<<
801.071	7921
801.214	7963
801.356	7822
801.499	7845
801.641	7765
801.783	7849
801.926	7955
802.068	7974
802.211	7921
802.353	7944
802.496	7807
802.638	7883
802.78	7841
802.923	7852
803.065	7871
803.208	7887
803.35	7921
803.492	8077
803.635	8111
803.777	8024
803.919	8103
804.061	8351
804.204	8206
804.346	8054
804.488	7917
804.63	8084
804.773	7989
804.915	8081
805.057	8320
805.199	8214
805.341	8172
805.483	8252
805.626	8221
805.768	8103
805.91	8206
806.052	8199
806.194	8039
806.336	8317
806.478	8092
806.62	8043
806.762	8172
806.904	8263
807.046	8473
807.188	8351
807.33	8328
807.472	8404
807.614	8180
807.756	8103
807.898	7917
808.04	7871
808.182	7868
808.324	7883
808.465	7906
808.607	8031
808.749	8130
808.891	8225
809.033	8282
809.174	8195
809.316	8081
809.458	8111
809.6	7986
809.741	8016
809.883	8043
810.025	8058
810.166	8035
810.308	8039
810.45	8046
810.591	7849
810.733	7666
810.875	7616
811.016	7552
811.158	7430
811.299	7559
811.441	7746
811.582	7693
811.724	7628
811.865	7548
812.007	7578
812.148	7575
812.29	7597
812.431	7780
812.573	7849
812.714	8046
812.855	8043
812.997	8244
813.138	8309
813.279	8157
813.421	7970
813.562	7864
813.703	7887
813.845	7685
813.986	7464
814.127	7247
814.268	7164
814.41	7149
814.551	7160
814.692	7183
814.833	7050
814.974	7034
815.115	7107
815.256	6882
815.397	6916
815.539	6943
815.68	6760
815.821	6745
815.962	6871
816.103	6810
816.244	6688
816.385	6582
816.526	6608
816.666	6437
816.807	6338
816.948	6407
817.089	6490
817.23	6422
817.371	6342
817.512	6376
817.653	6308
817.793	6365
817.934	6395
818.075	6418
818.216	6407
818.356	6433
818.497	6300
818.638	6057
818.778	6140
818.919	6155
819.06	6144
819.2	6369
819.341	6342
819.481	6346
819.622	6532
819.762	6757
819.903	6677
820.043	6582
820.184	6551
820.324	6540
820.465	6722
820.605	6612
820.746	6669
820.886	6460
821.026	6616
821.167	6776
821.307	6776
821.447	6798
821.588	6696
821.728	6589
821.868	6506
822.008	6331
822.149	6365
822.289	6391
822.429	6148
822.569	6083
822.709	6106
822.849	5901
822.99	5874
823.13	5878
823.27	5908
823.41	5737
823.55	5794
823.69	5764
823.83	5737
823.97	5649
824.11	5509
824.25	5505
824.389	5535
824.529	5573
824.669	5543
824.809	5589
824.949	5638
825.089	5562
825.228	5558
825.368	5372
825.508	5303
825.648	5288
825.787	5376
825.927	5357
826.067	5284
826.206	5265
826.346	5368
826.485	5398
826.625	5402
826.765	5516
826.904	5497
827.044	5239
827.183	5201
827.323	5136
827.462	5208
827.601	5109
827.741	5178
827.88	5162
828.02	5113
828.159	5204
828.298	5277
828.437	5360
828.577	5250
828.716	5463
828.855	5334
828.994	5162
829.134	5105
829.273	5185
829.412	5124
829.551	5113
829.69	5174
829.829	5208
829.968	5349
830.107	5220
830.246	5277
830.385	5197
830.524	5086
830.663	5052
830.802	5003
830.941	4881
831.08	4847
831.219	4942
831.357	4968
831.496	5136
831.635	4881
831.774	4812
831.913	4831
832.051	4733
832.19	4710
832.329	4839
832.467	4721
832.606	4603
832.744	4740
832.883	4721
833.022	4755
833.16	4744
833.299	4854
833.437	4850
833.576	4812
833.714	4896
833.852	4858
833.991	4877
834.129	4915
834.267	4927
834.406	4953
834.544	4953
834.682	5010
834.821	4976
834.959	5223
835.097	5025
835.235	5143
835.373	5124
835.511	5098
835.65	5090
835.788	5033
835.926	4953
836.064	4881
836.202	4980
836.34	5181
836.478	5280
836.615	5204
836.753	5193
836.891	5292
837.029	5280
837.167	5273
837.305	5216
837.443	5239
837.58	5083
837.718	5341
837.856	5216
837.993	5201
838.131	5227
838.269	5254
838.406	5261
838.544	5220
838.681	5067
838.819	5045
838.956	4930
839.094	4961
839.231	5041
839.369	5067
839.506	5455
839.643	5284
839.781	5083
839.918	5075
840.055	5159
840.193	5109
840.33	5128
840.467	5124
840.604	5223
840.742	5471
840.879	5128
841.016	5094
841.153	5181
841.29	5444
841.427	5349
841.564	5311
841.701	5391
841.838	5273
841.975	5307
842.112	5254
842.249	5189
842.385	5117
842.522	5372
842.659	5242
842.796	5204
842.933	5208
843.069	5181
843.206	5212
843.343	5337
843.479	5189
843.616	5269
843.752	5060
843.889	5045
844.025	5288
844.162	5052
844.298	5242
844.435	5071
844.571	5067
844.708	5212
844.844	5277
844.98	5383
845.117	5292
845.253	5216
845.389	5102
845.525	5216
845.661	5193
845.798	5045
845.934	5143
846.07	5105
846.206	5223
846.342	5288
846.478	5128
846.614	5090
846.75	4980
846.886	4976
847.022	5166
847.158	5037
847.294	5105
847.429	5132
847.565	5075
847.701	5360
847.837	4957
847.972	4831
848.108	4949
848.244	4930
848.379	4809
848.515	4786
848.65	4748
848.786	4797
848.921	4843
849.057	4839
849.192	4915
849.328	4850
849.463	4911
849.598	4812
849.734	4755
849.869	4698
850.004	4656
850.14	4721
850.275	4596
850.41	4561
850.545	4565
850.68	4596
850.815	4660
850.95	4630
851.085	4877
851.22	4786
851.355	4714
851.49	4634
851.625	4653
851.76	4687
851.895	4554
852.03	4596
852.165	4683
852.299	4744
852.434	4809
852.569	4763
852.703	4797
852.838	4896
852.973	4938
853.107	4972
853.242	4786
853.376	4675
853.511	4603
853.645	4660
853.78	4793
853.914	4714
854.048	4725
854.183	4668
854.317	4717
854.451	4862
854.585	4675
854.72	4702
854.854	4778
854.988	4679
855.122	4675
855.256	4622
855.39	4675
855.524	4790
855.658	4691
855.792	4729
855.926	4778
856.06	4805
856.194	4782
856.327	4767
856.461	4653
856.595	4664
856.729	4668
856.862	4797
856.996	4774
857.13	4805
857.263	4835
857.397	4858
857.53	4683
857.664	4748
857.797	4801
857.931	4828
858.064	4717
858.197	4748
858.331	4675
858.464	4653
858.597	4573
858.731	4698
858.864	4664
858.997	4599
859.13	4714
859.263	4687
859.396	4710
859.529	4630
859.662	4596
859.795	4569
859.928	4687
860.061	4786
860.194	4790
860.327	4660
860.46	4580
860.592	4774
860.725	4725
860.858	4793
860.99	4637
861.123	4538
861.256	4542
861.388	4679
861.521	5417
861.653	4538
861.786	4455
861.918	4428
862.05	4527
862.183	4573
862.315	4611
862.447	4630
862.58	4542
862.712	4432
862.844	4329
862.976	4485
863.108	4508
863.24	4793
863.372	4333
863.504	4459
863.636	4462
863.768	4516
863.9	4443
864.032	4405
864.164	4424
864.296	4554
864.428	4546
864.559	4599
864.691	4569
864.823	4573
864.954	4535
865.086	4554
865.217	4443
865.349	4455
865.48	4413
865.612	4516
865.743	4672
865.875	4504
866.006	4466
866.137	4538
866.269	4481
866.4	4500
866.531	4481
866.662	4436
866.793	4413
866.924	4436
867.055	4519
867.186	4489
867.317	4398
867.448	4383
867.579	4417
867.71	4455
867.841	4386
867.972	4523
868.103	4462
868.233	4459
868.364	4470
868.495	4504
868.625	4675
868.756	4793
868.886	4588
869.017	4698
869.147	4831
869.278	4801
869.408	4679
869.539	4656
869.669	4786
869.799	4694
869.929	4763
870.06	4805
870.19	4892
870.32	4949
870.45	4938
870.58	5045
870.71	5086
870.84	5048
870.97	4953
871.1	4908
871.23	5159
871.36	5181
871.489	4999
871.619	5102
871.749	5117
871.879	5136
872.008	5220
872.138	5071
872.267	5003
872.397	4870
872.526	4824
872.656	4763
872.785	4793
872.915	4946
873.044	5071
873.173	4946
873.303	5037
873.432	4961
873.561	4961
873.69	4953
873.819	4877
873.948	4942
874.077	4870
874.206	4797
874.335	4816
874.464	4999
874.593	5113
874.722	5010
874.851	5128
874.979	5094
875.108	5064
875.237	4927
875.365	4911
875.494	4915
875.623	4972
875.751	4881
875.88	4987
876.008	5033
876.136	5029
876.265	5227
876.393	5349
876.521	5254
876.65	5235
876.778	5201
876.906	5162
877.034	5045
877.162	5041
877.29	4999
877.418	5045
877.546	5105
877.674	5113
877.802	5094
877.93	5041
878.058	4942
878.185	4866
878.313	5014
878.441	4965
878.568	4831
878.696	4896
878.824	4946
878.951	4976
879.079	5128
879.206	5277
879.333	5113
879.461	4972
879.588	5018
879.715	5136
879.842	5216
879.97	4991
880.097	4793
880.224	4771
880.351	4831
880.478	4877
880.605	4786
880.732	4797
880.859	5048
880.986	4930
881.112	4923
881.239	4847
881.366	4683
881.493	4630
881.619	4592
881.746	4653
881.872	4679
881.999	4710
882.125	4717
882.252	4809
882.378	4847
882.505	4972
882.631	4805
882.757	4710
882.883	4733
883.01	4771
883.136	4698
883.262	4649
883.388	4618
883.514	4858
883.64	4854
883.766	4824
883.892	4679
884.018	4748
884.143	4892
884.269	4968
884.395	4672
884.52	4656
884.646	4675
884.772	4611
884.897	4550
885.023	4660
885.148	4786
885.274	4908
885.399	4816
885.524	4714
885.65	4725
885.775	4733
885.9	4729
886.025	4862
886.15	4873
886.275	4710
886.4	4664
886.525	4725
886.65	4668
886.775	4729
886.9	4923
887.025	5041
887.149	4782
887.274	4645
887.399	4645
887.523	4626
887.648	4550
887.773	4615
887.897	4824
888.021	4812
888.146	4694
888.27	4820
888.395	4961
888.519	4763
888.643	4820
888.767	4828
888.891	4710
889.015	4592
889.139	4641
889.263	4592
889.387	4759
889.511	4915
889.635	4805
889.759	4656
889.883	4615
890.006	4748
890.13	4835
890.254	4622
890.377	4694
890.501	4558
890.624	4500
890.748	4634
890.871	4512
890.995	4436
891.118	4390
891.241	4512
891.364	4584
891.488	4653
891.611	4451
891.734	4535
891.857	4660
891.98	4542
892.103	4717
892.226	4649
892.349	4519
892.471	4451
892.594	4500
892.717	4641
892.839	4599
892.962	4603
893.085	4668
893.207	4588
893.33	4478
893.452	4527
893.575	4729
893.697	4618
893.819	4831
893.941	4820
894.064	4801
894.186	4607
894.308	4565
894.43	4706
894.552	4828
894.674	4744
894.796	4527
894.918	4615
895.04	4637
895.161	4710
895.283	4740
895.405	4649
895.526	4626
895.648	4691
895.769	4691
895.891	4710
896.012	4752
896.134	4694
896.255	4691
896.376	4664
896.498	4672
896.619	4687
896.74	4599
896.861	4618
896.982	4938
897.103	5094
897.224	4873
897.345	4717
897.466	4691
897.587	4706
897.708	4847
897.828	4782
897.949	4668
898.07	4596
898.19	4668
898.311	4778
898.431	4721
898.552	4736
898.672	4839
898.792	4820
898.913	4790
899.033	4599
899.153	4489
899.273	4459
899.393	4493
899.513	4546
899.633	4580
899.753	4561
899.873	4500
899.993	4588
900.113	4470
900.232	4573
900.352	4535
900.472	4485
900.591	4436
900.711	4550
900.83	4466
900.95	4584
901.069	4679
901.189	4538
901.308	4337
901.427	4371
901.546	4417
901.665	4478
901.784	4504
901.904	4390
902.023	4272
902.141	4207
902.26	4173
902.379	4314
902.498	4265
902.617	4249
902.735	4344
902.854	4379
902.973	4344
903.091	4219
903.21	4261
903.328	4344
903.446	4284
903.565	4246
903.683	4398
903.801	4314
903.919	4447
904.038	4428
904.156	4322
904.274	4421
904.392	4390
904.51	4424
904.627	4474
904.745	4588
904.863	4618
904.981	4409
905.098	4333
905.216	4371
905.334	4432
905.451	4443
905.569	4443
905.686	4531
905.803	4569
905.921	4447
906.038	4599
906.155	4466
906.272	4402
906.389	4474
906.506	4405
906.623	4402
906.74	4398
906.857	4291
906.974	4390
907.091	4580
907.208	4721
907.324	4622
907.441	4485
907.557	4367
907.674	4341
907.79	4360
907.907	4421
908.023	4500
908.139	4538
908.256	4447
908.372	4478
908.488	4489
908.604	4348
908.72	4367
908.836	4344
908.952	4386
909.068	4455
909.184	4592
909.3	4493
909.415	4637
909.531	4569
909.647	4405
909.762	4402
909.878	4390
909.993	4455
910.108	4428
910.224	4500
910.339	4508
910.454	4459
910.57	4428
910.685	4417
910.8	4653
910.915	4672
911.03	4512
911.145	4344
911.259	4390
911.374	4375
911.489	4352
911.604	4325
911.718	4268
911.833	4280
911.947	4147
912.062	4101
912.176	4253
912.291	4295
912.405	4295
912.519	4504
912.633	4478
912.748	4421
912.862	4398
912.976	4219
913.09	4139
913.204	4207
913.318	4322
913.431	4436
913.545	4367
913.659	4493
913.772	4413
913.886	4238
914	4242
914.113	4386
914.226	4481
914.34	4413
914.453	4295
914.566	4474
914.68	4291
914.793	4379
914.906	4192
915.019	4173
915.132	4131
915.245	4200
915.358	4223
915.47	4303
915.583	4360
915.696	4352
915.809	4398
915.921	4489
916.034	4261
916.146	4310
916.259	4303
916.371	4413
916.483	4421
916.595	4306
916.708	4402
916.82	4405
916.932	4344
917.044	4367
917.156	4402
917.268	4303
917.38	4318
917.491	4287
917.603	4386
917.715	4451
917.826	4470
917.938	4390
918.049	4287
918.161	4440
918.272	4577
918.384	4573
918.495	4493
918.606	4329
918.717	4303
918.828	4379
918.939	4367
919.05	4303
919.161	4363
919.272	4158
919.383	4268
919.494	4481
919.604	4656
919.715	4409
919.826	4371
919.936	4527
920.047	4603
920.157	4538
920.267	4736
920.378	4630
920.488	4523
920.598	4782
920.708	4927
920.818	4759
920.928	4793
921.038	4980
921.148	4942
921.258	4668
921.368	4611
921.477	4512
921.587	4508
921.697	4451
921.806	4622
921.916	4459
922.025	4329
922.134	4291
922.244	4257
922.353	4394
922.462	4234
922.571	4150
922.68	4029
922.789	3987
922.898	4124
923.007	4002
923.116	4188
923.224	4116
923.333	4124
923.442	4029
923.55	4006
923.659	4051
923.767	4162
923.876	4048
923.984	4128
924.092	4051
924.201	4086
924.309	4154
924.417	4158
924.525	4131
924.633	4135
924.741	5121
924.849	3960
924.956	4169
925.064	3987
925.172	3941
925.279	4002
925.387	4090
925.494	4105
925.602	4253
925.709	4242
925.816	4071
925.924	4192
926.031	4280
926.138	4192
926.245	4234
926.352	4124
926.459	4337
926.566	4337
926.673	4200
926.779	4071
926.886	4074
926.993	4032
927.099	4017
927.206	3972
927.312	3975
927.419	4109
927.525	4063
927.631	4139
927.737	3945
927.843	4013
927.95	3888
928.056	4006
928.162	4032
928.267	4112
928.373	4637
928.479	4185
928.585	3892
928.69	4067
928.796	4071
928.901	3972
929.007	3827
929.112	4071
929.218	3972
929.323	3949
929.428	3968
929.533	4109
929.638	3945
929.743	3991
929.848	4063
929.953	4048
930.058	3949
930.163	3823
930.267	3835
930.372	4044
930.477	3842
930.581	4090
930.685	3972
930.79	3812
930.894	3930
930.998	3873
931.103	4082
931.207	3751
931.311	3747
931.415	3686
931.519	3538
931.623	3595
