Data from test_V78500241_1154.txt Node
Date: Fri Mar 25 16:57:01 CST 2022
User: usil
Spectrometer: V785-0024
Trigger mode: 0
Integration Time (sec): 4.000000E-1
Scans to average: 1
Nonlinearity correction enabled: false
Boxcar width: 0
Storing dark spectrum: false
XAxis mode: Wavelengths
Number of Pixels in Spectrum: 1024
>>>>>Begin Spectral Data<<<<<
801.071	8062
801.214	8069
801.356	7944
801.499	7913
801.641	7780
801.783	7818
801.926	7997
802.068	8005
802.211	7925
802.353	7947
802.496	7841
802.638	7978
802.78	7928
802.923	8035
803.065	7982
803.208	7906
803.35	7997
803.492	8161
803.635	8210
803.777	8050
803.919	8195
804.061	8499
804.204	8168
804.346	8081
804.488	8043
804.63	8138
804.773	8111
804.915	8088
805.057	8393
805.199	8221
805.341	8195
805.483	8317
805.626	8259
805.768	8176
805.91	8145
806.052	8252
806.194	8195
806.336	8309
806.478	8145
806.62	8065
806.762	8187
806.904	8259
807.046	8530
807.188	8336
807.33	8275
807.472	8324
807.614	8161
807.756	8153
807.898	8100
808.04	7951
808.182	7959
808.324	7967
808.465	8001
808.607	8142
808.749	8172
808.891	8229
809.033	8301
809.174	8210
809.316	8092
809.458	8073
809.6	8039
809.741	8024
809.883	8024
810.025	8077
810.166	8123
810.308	8126
810.45	8027
810.591	7974
810.733	7788
810.875	7674
811.016	7544
811.158	7616
811.299	7632
811.441	7715
811.582	7689
811.724	7624
811.865	7502
812.007	7613
812.148	7651
812.29	7636
812.431	7753
812.573	7936
812.714	7974
812.855	8103
812.997	8202
813.138	8313
813.279	8214
813.421	8183
813.562	8050
813.703	7913
813.845	7753
813.986	7434
814.127	7297
814.268	7263
814.41	7278
814.551	7217
814.692	7221
814.833	7099
814.974	7114
815.115	7103
815.256	6996
815.397	6928
815.539	6951
815.68	6848
815.821	6738
815.962	6909
816.103	6810
816.244	6753
816.385	6616
816.526	6650
816.666	6486
816.807	6327
816.948	6369
817.089	6509
817.23	6445
817.371	6422
817.512	6429
817.653	6475
817.793	6414
817.934	6441
818.075	6502
818.216	6410
818.356	6456
818.497	6254
818.638	6186
818.778	6171
818.919	6152
819.06	6224
819.2	6338
819.341	6331
819.481	6388
819.622	6528
819.762	6772
819.903	6658
820.043	6646
820.184	6608
820.324	6627
820.465	6650
820.605	6738
820.746	6642
820.886	6525
821.026	6654
821.167	6741
821.307	6829
821.447	6776
821.588	6627
821.728	6589
821.868	6483
822.008	6319
822.149	6369
822.289	6369
822.429	6148
822.569	6098
822.709	6121
822.849	5950
822.99	5946
823.13	5859
823.27	5897
823.41	5798
823.55	5817
823.69	5741
823.83	5798
823.97	5695
824.11	5528
824.25	5528
824.389	5566
824.529	5581
824.669	5562
824.809	5627
824.949	5741
825.089	5619
825.228	5558
825.368	5376
825.508	5337
825.648	5368
825.787	5334
825.927	5452
826.067	5391
826.206	5204
826.346	5337
826.485	5368
826.625	5440
826.765	5573
826.904	5570
827.044	5303
827.183	5250
827.323	5147
827.462	5277
827.601	5204
827.741	5212
827.88	5261
828.02	5121
828.159	5204
828.298	5307
828.437	5417
828.577	5242
828.716	5528
828.855	5337
828.994	5174
829.134	5193
829.273	5151
829.412	5185
829.551	5178
829.69	5201
829.829	5288
829.968	5357
830.107	5292
830.246	5307
830.385	5140
830.524	5143
830.663	5056
830.802	5037
830.941	4911
831.08	4858
831.219	5056
831.357	5022
831.496	5140
831.635	4908
831.774	4847
831.913	4927
832.051	4763
832.19	4767
832.329	4885
832.467	4725
832.606	4634
832.744	4774
832.883	4755
833.022	4778
833.16	4782
833.299	4786
833.437	4896
833.576	4896
833.714	4847
833.852	4885
833.991	4892
834.129	4953
834.267	5003
834.406	4965
834.544	4980
834.682	5006
834.821	4965
834.959	5181
835.097	5010
835.235	5193
835.373	5132
835.511	5113
835.65	5060
835.788	5045
835.926	4889
836.064	4900
836.202	4972
836.34	5147
836.478	5185
836.615	5132
836.753	5212
836.891	5197
837.029	5318
837.167	5185
837.305	5197
837.443	5143
837.58	5064
837.718	5246
837.856	5185
837.993	5159
838.131	5254
838.269	5201
838.406	5197
838.544	5208
838.681	5033
838.819	5025
838.956	4858
839.094	4957
839.231	4987
839.369	5124
839.506	5398
839.643	5246
839.781	5033
839.918	5071
840.055	5117
840.193	5109
840.33	5105
840.467	5159
840.604	5212
840.742	5493
840.879	5147
841.016	5132
841.153	5174
841.29	5414
841.427	5337
841.564	5368
841.701	5322
841.838	5269
841.975	5280
842.112	5288
842.249	5159
842.385	5113
842.522	5296
842.659	5162
842.796	5132
842.933	5220
843.069	5166
843.206	5181
843.343	5315
843.479	5235
843.616	5258
843.752	4991
843.889	5003
844.025	5185
844.162	4999
844.298	5185
844.435	5083
844.571	5121
844.708	5208
844.844	5357
844.98	5307
845.117	5330
845.253	5143
845.389	5060
845.525	5159
845.661	5178
845.798	5045
845.934	5170
846.07	5014
846.206	5178
846.342	5299
846.478	5181
846.614	4995
846.75	4984
846.886	4968
847.022	5185
847.158	5102
847.294	5071
847.429	5147
847.565	5029
847.701	5337
847.837	4919
847.972	4782
848.108	4957
848.244	4946
848.379	4778
848.515	4694
848.65	4725
848.786	4752
848.921	4736
849.057	4870
849.192	4938
849.328	4835
849.463	4847
849.598	4801
849.734	4771
849.869	4725
850.004	4649
850.14	4675
850.275	4615
850.41	4535
850.545	4546
850.68	4611
850.815	4645
850.95	4637
851.085	4862
851.22	4820
851.355	4618
851.49	4660
851.625	4641
851.76	4694
851.895	4626
852.03	4497
852.165	4653
852.299	4725
852.434	4809
852.569	4752
852.703	4793
852.838	4881
852.973	4927
853.107	4987
853.242	4748
853.376	4691
853.511	4538
853.645	4618
853.78	4778
853.914	4717
854.048	4687
854.183	4615
854.317	4668
854.451	4870
854.585	4729
854.72	4683
854.854	4683
854.988	4630
855.122	4645
855.256	4504
855.39	4641
855.524	4782
855.658	4687
855.792	4691
855.926	4771
856.06	4809
856.194	4816
856.327	4679
856.461	4577
856.595	4596
856.729	4649
856.862	4733
856.996	4675
857.13	4740
857.263	4767
857.397	4763
857.53	4702
857.664	4687
857.797	4736
857.931	4782
858.064	4755
858.197	4721
858.331	4630
858.464	4603
858.597	4546
858.731	4630
858.864	4592
858.997	4615
859.13	4611
859.263	4687
859.396	4710
859.529	4565
859.662	4603
859.795	4519
859.928	4683
860.061	4801
860.194	4774
860.327	4634
860.46	4580
860.592	4698
860.725	4748
860.858	4710
860.99	4634
861.123	4542
861.256	4493
861.388	4653
861.521	5227
861.653	4508
861.786	4474
861.918	4481
862.05	4489
862.183	4550
862.315	4653
862.447	4668
862.58	4584
862.712	4428
862.844	4344
862.976	4470
863.108	4466
863.24	4873
863.372	4360
863.504	4409
863.636	4428
863.768	4421
863.9	4440
864.032	4417
864.164	4417
864.296	4466
864.428	4546
864.559	4622
864.691	4546
864.823	4569
864.954	4500
865.086	4523
865.217	4489
865.349	4394
865.48	4447
865.612	4489
865.743	4626
865.875	4462
866.006	4424
866.137	4500
866.269	4481
866.4	4432
866.531	4440
866.662	4390
866.793	4409
866.924	4451
867.055	4535
867.186	4485
867.317	4424
867.448	4424
867.579	4390
867.71	4462
867.841	4337
867.972	4478
868.103	4447
868.233	4436
868.364	4421
868.495	4531
868.625	4641
868.756	4774
868.886	4527
869.017	4599
869.147	4755
869.278	4725
869.408	4675
869.539	4599
869.669	4687
869.799	4660
869.929	4744
870.06	4778
870.19	4911
870.32	4953
870.45	4934
870.58	5006
870.71	5094
870.84	5056
870.97	4949
871.1	4889
871.23	5143
871.36	5102
871.489	5033
871.619	5102
871.749	5121
871.879	5136
872.008	5159
872.138	5025
872.267	4980
872.397	4835
872.526	4793
872.656	4721
872.785	4767
872.915	4896
873.044	5010
873.173	4976
873.303	4949
873.432	4946
873.561	4946
873.69	4923
873.819	4828
873.948	4911
874.077	4828
874.206	4759
874.335	4790
874.464	4908
874.593	5098
874.722	5033
874.851	5067
874.979	5029
875.108	5048
875.237	4930
875.365	4862
875.494	4881
875.623	4984
875.751	4828
875.88	4938
876.008	5003
876.136	5029
876.265	5246
876.393	5326
876.521	5235
876.65	5239
876.778	5178
876.906	5067
877.034	5018
877.162	5041
877.29	4923
877.418	5071
877.546	5033
877.674	5052
877.802	5010
877.93	4965
878.058	4934
878.185	4896
878.313	4953
878.441	4984
878.568	4885
878.696	4831
878.824	4923
878.951	5022
879.079	5086
879.206	5299
879.333	5045
879.461	4995
879.588	5010
879.715	5079
879.842	5227
879.97	4972
880.097	4771
880.224	4748
880.351	4782
880.478	4816
880.605	4755
880.732	4790
880.859	5079
880.986	4900
881.112	4889
881.239	4759
881.366	4672
881.493	4634
881.619	4637
881.746	4641
881.872	4672
881.999	4641
882.125	4702
882.252	4759
882.378	4835
882.505	4946
882.631	4839
882.757	4687
882.883	4702
883.01	4729
883.136	4656
883.262	4577
883.388	4615
883.514	4812
883.64	4873
883.766	4797
883.892	4694
884.018	4694
884.143	4938
884.269	4995
884.395	4675
884.52	4584
884.646	4656
884.772	4580
884.897	4580
885.023	4679
885.148	4759
885.274	4877
885.399	4793
885.524	4675
885.65	4683
885.775	4698
885.9	4710
886.025	4847
886.15	4767
886.275	4714
886.4	4653
886.525	4717
886.65	4664
886.775	4656
886.9	4873
887.025	4991
887.149	4771
887.274	4641
887.399	4584
887.523	4607
887.648	4588
887.773	4592
887.897	4759
888.021	4835
888.146	4653
888.27	4843
888.395	4915
888.519	4797
888.643	4771
888.767	4828
888.891	4672
889.015	4596
889.139	4641
889.263	4573
889.387	4698
889.511	4938
889.635	4763
889.759	4618
889.883	4660
890.006	4763
890.13	4828
890.254	4660
890.377	4694
890.501	4527
890.624	4535
890.748	4634
890.871	4474
890.995	4443
891.118	4383
891.241	4516
891.364	4538
891.488	4634
891.611	4485
891.734	4538
891.857	4615
891.98	4588
892.103	4675
892.226	4603
892.349	4504
892.471	4409
892.594	4535
892.717	4630
892.839	4523
892.962	4599
893.085	4698
893.207	4573
893.33	4474
893.452	4512
893.575	4691
893.697	4596
893.819	4828
893.941	4812
894.064	4790
894.186	4580
894.308	4542
894.43	4782
894.552	4843
894.674	4759
894.796	4558
894.918	4565
895.04	4580
895.161	4710
895.283	4687
895.405	4607
895.526	4660
895.648	4694
895.769	4679
895.891	4694
896.012	4733
896.134	4683
896.255	4687
896.376	4641
896.498	4622
896.619	4675
896.74	4531
896.861	4645
896.982	4946
897.103	5052
897.224	4828
897.345	4759
897.466	4630
897.587	4763
897.708	4831
897.828	4805
897.949	4717
898.07	4554
898.19	4626
898.311	4854
898.431	4660
898.552	4687
898.672	4771
898.792	4809
898.913	4733
899.033	4653
899.153	4455
899.273	4447
899.393	4462
899.513	4542
899.633	4500
899.753	4500
899.873	4523
899.993	4580
900.113	4527
900.232	4588
900.352	4504
900.472	4493
900.591	4459
900.711	4459
900.83	4455
900.95	4649
901.069	4717
901.189	4516
901.308	4348
901.427	4337
901.546	4341
901.665	4462
901.784	4546
901.904	4325
902.023	4314
902.141	4154
902.26	4192
902.379	4303
902.498	4242
902.617	4181
902.735	4386
902.854	4424
902.973	4318
903.091	4215
903.21	4249
903.328	4306
903.446	4268
903.565	4295
903.683	4413
903.801	4295
903.919	4432
904.038	4405
904.156	4318
904.274	4436
904.392	4356
904.51	4421
904.627	4512
904.745	4535
904.863	4649
904.981	4375
905.098	4261
905.216	4371
905.334	4421
905.451	4462
905.569	4436
905.686	4569
905.803	4569
905.921	4413
906.038	4550
906.155	4462
906.272	4390
906.389	4459
906.506	4352
906.623	4363
906.74	4386
906.857	4310
906.974	4344
907.091	4558
907.208	4672
907.324	4596
907.441	4508
907.557	4337
907.674	4352
907.79	4276
907.907	4363
908.023	4485
908.139	4443
908.256	4443
908.372	4474
908.488	4481
908.604	4360
908.72	4322
908.836	4356
908.952	4310
909.068	4394
909.184	4611
909.3	4455
909.415	4580
909.531	4535
909.647	4329
909.762	4383
909.878	4303
909.993	4443
910.108	4436
910.224	4379
910.339	4451
910.454	4394
910.57	4341
910.685	4348
910.8	4618
910.915	4607
911.03	4481
911.145	4333
911.259	4299
911.374	4325
911.489	4306
911.604	4257
911.718	4181
911.833	4204
911.947	4124
912.062	4029
912.176	4219
912.291	4215
912.405	4223
912.519	4409
912.633	4512
912.748	4413
912.862	4280
912.976	4253
913.09	4082
913.204	4181
913.318	4295
913.431	4348
913.545	4402
913.659	4421
913.772	4360
913.886	4284
914	4215
914.113	4409
914.226	4436
914.34	4386
914.453	4230
914.566	4443
914.68	4333
914.793	4310
914.906	4109
915.019	4124
915.132	4097
915.245	4185
915.358	4204
915.47	4200
915.583	4238
915.696	4306
915.809	4390
915.921	4436
916.034	4238
916.146	4291
916.259	4227
916.371	4360
916.483	4337
916.595	4196
916.708	4303
916.82	4284
916.932	4287
917.044	4287
917.156	4325
917.268	4196
917.38	4322
917.491	4261
917.603	4390
917.715	4470
917.826	4443
917.938	4379
918.049	4207
918.161	4421
918.272	4546
918.384	4573
918.495	4455
918.606	4280
918.717	4238
918.828	4325
918.939	4325
919.05	4249
919.161	4344
919.272	4169
919.383	4238
919.494	4390
919.604	4603
919.715	4474
919.826	4333
919.936	4367
920.047	4565
920.157	4485
920.267	4710
920.378	4580
920.488	4493
920.598	4698
920.708	4839
920.818	4771
920.928	4736
921.038	4942
921.148	4934
921.258	4626
921.368	4554
921.477	4512
921.587	4455
921.697	4363
921.806	4538
921.916	4451
922.025	4207
922.134	4268
922.244	4211
922.353	4299
922.462	4128
922.571	4105
922.68	3998
922.789	3983
922.898	4006
923.007	4010
923.116	4090
923.224	4059
923.333	4048
923.442	3994
923.55	3991
923.659	3998
923.767	4086
923.876	4021
923.984	4177
924.092	3972
924.201	4109
924.309	4090
924.417	4139
924.525	4029
924.633	4090
924.741	5048
924.849	3911
924.956	4109
925.064	3975
925.172	3876
925.279	3953
925.387	4048
925.494	4074
925.602	4211
925.709	4158
925.816	3994
925.924	4071
926.031	4215
926.138	4188
926.245	4177
926.352	4109
926.459	4196
926.566	4291
926.673	4169
926.779	4063
926.886	4059
926.993	3956
927.099	3972
927.206	3934
927.312	3926
927.419	4078
927.525	4051
927.631	4074
927.737	3956
927.843	3903
927.95	3873
928.056	3934
928.162	4002
928.267	4059
928.373	4694
928.479	4093
928.585	3941
928.69	4017
928.796	4032
928.901	3960
929.007	3835
929.112	4002
929.218	3968
929.323	3941
929.428	3922
929.533	4086
929.638	3911
929.743	3964
929.848	4048
929.953	3953
930.058	3953
930.163	3755
930.267	3880
930.372	3941
930.477	3823
930.581	4044
930.685	3945
930.79	3861
930.894	3873
930.998	3880
931.103	4044
931.207	3705
931.311	3728
931.415	3663
931.519	3519
931.623	3496
