Data from test_V78500241_784.txt Node
Date: Fri Mar 25 16:54:27 CST 2022
User: usil
Spectrometer: V785-0024
Trigger mode: 0
Integration Time (sec): 4.000000E-1
Scans to average: 1
Nonlinearity correction enabled: false
Boxcar width: 0
Storing dark spectrum: false
XAxis mode: Wavelengths
Number of Pixels in Spectrum: 1024
>>>>>Begin Spectral Data<<<<<
801.071	8046
801.214	8043
801.356	7909
801.499	7864
801.641	7837
801.783	7909
801.926	8039
802.068	7921
802.211	8016
802.353	7940
802.496	7890
802.638	7883
802.78	7898
802.923	7932
803.065	7879
803.208	7852
803.35	8031
803.492	8176
803.635	8206
803.777	8035
803.919	8119
804.061	8423
804.204	8103
804.346	7982
804.488	8012
804.63	8092
804.773	7986
804.915	8142
805.057	8275
805.199	8218
805.341	8210
805.483	8275
805.626	8225
805.768	8115
805.91	8225
806.052	8229
806.194	8130
806.336	8313
806.478	8088
806.62	8058
806.762	8130
806.904	8218
807.046	8495
807.188	8343
807.33	8290
807.472	8347
807.614	8237
807.756	8100
807.898	8005
808.04	7841
808.182	7879
808.324	7902
808.465	7898
808.607	8046
808.749	8107
808.891	8195
809.033	8320
809.174	8271
809.316	8164
809.458	8031
809.6	7982
809.741	8043
809.883	8084
810.025	8092
810.166	8069
810.308	8039
810.45	8069
810.591	7894
810.733	7772
810.875	7674
811.016	7552
811.158	7480
811.299	7571
811.441	7738
811.582	7696
811.724	7502
811.865	7552
812.007	7533
812.148	7578
812.29	7620
812.431	7704
812.573	7814
812.714	7959
812.855	8134
812.997	8202
813.138	8320
813.279	8237
813.421	8126
813.562	7986
813.703	7879
813.845	7670
813.986	7464
814.127	7335
814.268	7209
814.41	7194
814.551	7099
814.692	7122
814.833	7038
814.974	7061
815.115	7103
815.256	6943
815.397	6939
815.539	7008
815.68	6776
815.821	6787
815.962	6848
816.103	6814
816.244	6741
816.385	6700
816.526	6627
816.666	6490
816.807	6331
816.948	6426
817.089	6555
817.23	6460
817.371	6342
817.512	6433
817.653	6418
817.793	6369
817.934	6464
818.075	6456
818.216	6445
818.356	6391
818.497	6232
818.638	6129
818.778	6167
818.919	6178
819.06	6106
819.2	6296
819.341	6331
819.481	6376
819.622	6601
819.762	6760
819.903	6738
820.043	6642
820.184	6528
820.324	6608
820.465	6707
820.605	6730
820.746	6635
820.886	6517
821.026	6612
821.167	6741
821.307	6810
821.447	6753
821.588	6658
821.728	6517
821.868	6536
822.008	6334
822.149	6414
822.289	6365
822.429	6213
822.569	6072
822.709	6133
822.849	5912
822.99	5908
823.13	5961
823.27	5969
823.41	5745
823.55	5809
823.69	5707
823.83	5805
823.97	5695
824.11	5532
824.25	5592
824.389	5524
824.529	5581
824.669	5528
824.809	5577
824.949	5668
825.089	5634
825.228	5543
825.368	5376
825.508	5391
825.648	5345
825.787	5406
825.927	5383
826.067	5299
826.206	5284
826.346	5379
826.485	5368
826.625	5379
826.765	5493
826.904	5478
827.044	5311
827.183	5216
827.323	5113
827.462	5242
827.601	5185
827.741	5201
827.88	5204
828.02	5124
828.159	5231
828.298	5261
828.437	5341
828.577	5258
828.716	5539
828.855	5311
828.994	5227
829.134	5181
829.273	5208
829.412	5128
829.551	5155
829.69	5178
829.829	5220
829.968	5265
830.107	5284
830.246	5273
830.385	5193
830.524	5143
830.663	5109
830.802	4953
830.941	4900
831.08	4885
831.219	5010
831.357	4961
831.496	5201
831.635	4923
831.774	4854
831.913	4835
832.051	4706
832.19	4744
832.329	4828
832.467	4702
832.606	4683
832.744	4714
832.883	4710
833.022	4790
833.16	4820
833.299	4786
833.437	4809
833.576	4835
833.714	4877
833.852	4881
833.991	4896
834.129	4984
834.267	4961
834.406	4904
834.544	4995
834.682	4923
834.821	4987
834.959	5208
835.097	4961
835.235	5170
835.373	5022
835.511	5090
835.65	5064
835.788	5052
835.926	4953
836.064	4915
836.202	4908
836.34	5151
836.478	5201
836.615	5143
836.753	5235
836.891	5288
837.029	5220
837.167	5170
837.305	5174
837.443	5162
837.58	5048
837.718	5246
837.856	5166
837.993	5117
838.131	5261
838.269	5216
838.406	5216
838.544	5223
838.681	5025
838.819	5045
838.956	4900
839.094	4919
839.231	4972
839.369	5094
839.506	5448
839.643	5239
839.781	5045
839.918	5041
840.055	5079
840.193	5132
840.33	5105
840.467	5136
840.604	5250
840.742	5391
840.879	5071
841.016	5071
841.153	5189
841.29	5391
841.427	5334
841.564	5284
841.701	5330
841.838	5269
841.975	5250
842.112	5311
842.249	5143
842.385	5132
842.522	5337
842.659	5121
842.796	5174
842.933	5181
843.069	5136
843.206	5185
843.343	5318
843.479	5223
843.616	5223
843.752	5067
843.889	5003
844.025	5231
844.162	5014
844.298	5212
844.435	5109
844.571	5045
844.708	5193
844.844	5258
844.98	5360
845.117	5322
845.253	5094
845.389	5079
845.525	5128
845.661	5159
845.798	5045
845.934	5140
846.07	5022
846.206	5132
846.342	5296
846.478	5159
846.614	5041
846.75	4980
846.886	4984
847.022	5178
847.158	5003
847.294	5052
847.429	5147
847.565	5048
847.701	5307
847.837	4915
847.972	4835
848.108	4980
848.244	4900
848.379	4763
848.515	4797
848.65	4694
848.786	4698
848.921	4740
849.057	4850
849.192	4915
849.328	4835
849.463	4873
849.598	4717
849.734	4733
849.869	4649
850.004	4592
850.14	4660
850.275	4577
850.41	4531
850.545	4641
850.68	4634
850.815	4679
850.95	4672
851.085	4831
851.22	4748
851.355	4645
851.49	4611
851.625	4630
851.76	4675
851.895	4565
852.03	4580
852.165	4653
852.299	4721
852.434	4805
852.569	4694
852.703	4801
852.838	4839
852.973	4915
853.107	4930
853.242	4725
853.376	4668
853.511	4569
853.645	4596
853.78	4839
853.914	4714
854.048	4660
854.183	4656
854.317	4714
854.451	4854
854.585	4634
854.72	4660
854.854	4767
854.988	4580
855.122	4607
855.256	4516
855.39	4637
855.524	4782
855.658	4694
855.792	4664
855.926	4694
856.06	4759
856.194	4759
856.327	4702
856.461	4599
856.595	4618
856.729	4599
856.862	4710
856.996	4691
857.13	4694
857.263	4717
857.397	4782
857.53	4672
857.664	4694
857.797	4748
857.931	4755
858.064	4698
858.197	4748
858.331	4599
858.464	4630
858.597	4508
858.731	4637
858.864	4611
858.997	4584
859.13	4691
859.263	4729
859.396	4675
859.529	4546
859.662	4523
859.795	4577
859.928	4626
860.061	4782
860.194	4790
860.327	4588
860.46	4554
860.592	4653
860.725	4714
860.858	4767
860.99	4599
861.123	4500
861.256	4531
861.388	4565
861.521	5269
861.653	4535
861.786	4508
861.918	4455
862.05	4523
862.183	4527
862.315	4611
862.447	4683
862.58	4523
862.712	4348
862.844	4314
862.976	4493
863.108	4443
863.24	4919
863.372	4318
863.504	4462
863.636	4360
863.768	4489
863.9	4424
864.032	4337
864.164	4402
864.296	4455
864.428	4538
864.559	4565
864.691	4546
864.823	4531
864.954	4466
865.086	4523
865.217	4455
865.349	4405
865.48	4466
865.612	4493
865.743	4626
865.875	4481
866.006	4428
866.137	4470
866.269	4440
866.4	4421
866.531	4470
866.662	4428
866.793	4344
866.924	4390
867.055	4504
867.186	4459
867.317	4402
867.448	4398
867.579	4386
867.71	4371
867.841	4367
867.972	4451
868.103	4493
868.233	4436
868.364	4455
868.495	4516
868.625	4649
868.756	4759
868.886	4569
869.017	4607
869.147	4801
869.278	4733
869.408	4668
869.539	4618
869.669	4714
869.799	4656
869.929	4771
870.06	4733
870.19	4991
870.32	4877
870.45	4892
870.58	4949
870.71	5102
870.84	5121
870.97	4938
871.1	4908
871.23	5105
871.36	5132
871.489	5022
871.619	5041
871.749	5075
871.879	5132
872.008	5212
872.138	5079
872.267	4987
872.397	4877
872.526	4763
872.656	4740
872.785	4835
872.915	4927
873.044	5037
873.173	4889
873.303	4953
873.432	4961
873.561	4934
873.69	4862
873.819	4839
873.948	4904
874.077	4797
874.206	4759
874.335	4843
874.464	4900
874.593	5037
874.722	4919
874.851	5117
874.979	5037
875.108	5045
875.237	4930
875.365	4881
875.494	4847
875.623	5025
875.751	4793
875.88	4889
876.008	4995
876.136	5071
876.265	5193
876.393	5284
876.521	5220
876.65	5197
876.778	5136
876.906	5025
877.034	5037
877.162	5033
877.29	4904
877.418	5037
877.546	5006
877.674	4980
877.802	5041
877.93	5056
878.058	4953
878.185	4870
878.313	4949
878.441	4934
878.568	4793
878.696	4911
878.824	4911
878.951	4991
879.079	5117
879.206	5269
879.333	5105
879.461	4999
879.588	4961
879.715	5071
879.842	5246
879.97	4965
880.097	4767
880.224	4702
880.351	4771
880.478	4866
880.605	4809
880.732	4782
880.859	5071
880.986	4900
881.112	4946
881.239	4786
881.366	4691
881.493	4565
881.619	4607
881.746	4626
881.872	4596
881.999	4672
882.125	4721
882.252	4839
882.378	4809
882.505	4930
882.631	4786
882.757	4679
882.883	4778
883.01	4725
883.136	4717
883.262	4588
883.388	4584
883.514	4771
883.64	4877
883.766	4778
883.892	4672
884.018	4729
884.143	4915
884.269	4991
884.395	4664
884.52	4664
884.646	4637
884.772	4603
884.897	4550
885.023	4691
885.148	4820
885.274	4858
885.399	4790
885.524	4679
885.65	4675
885.775	4725
885.9	4668
886.025	4847
886.15	4755
886.275	4702
886.4	4672
886.525	4710
886.65	4675
886.775	4698
886.9	4919
887.025	5014
887.149	4835
887.274	4653
887.399	4592
887.523	4637
887.648	4577
887.773	4577
887.897	4725
888.021	4790
888.146	4668
888.27	4820
888.395	4885
888.519	4790
888.643	4771
888.767	4805
888.891	4656
889.015	4618
889.139	4664
889.263	4592
889.387	4786
889.511	4809
889.635	4763
889.759	4656
889.883	4668
890.006	4706
890.13	4801
890.254	4641
890.377	4649
890.501	4561
890.624	4474
890.748	4645
890.871	4542
890.995	4424
891.118	4383
891.241	4516
891.364	4538
891.488	4565
891.611	4497
891.734	4584
891.857	4577
891.98	4569
892.103	4626
892.226	4569
892.349	4584
892.471	4363
892.594	4500
892.717	4603
892.839	4580
892.962	4607
893.085	4641
893.207	4637
893.33	4451
893.452	4481
893.575	4649
893.697	4542
893.819	4748
893.941	4850
894.064	4767
894.186	4599
894.308	4577
894.43	4672
894.552	4809
894.674	4698
894.796	4565
894.918	4580
895.04	4558
895.161	4706
895.283	4649
895.405	4577
895.526	4630
895.648	4698
895.769	4714
895.891	4698
896.012	4710
896.134	4706
896.255	4668
896.376	4622
896.498	4588
896.619	4660
896.74	4584
896.861	4679
896.982	4927
897.103	5098
897.224	4828
897.345	4786
897.466	4675
897.587	4755
897.708	4862
897.828	4809
897.949	4672
898.07	4584
898.19	4611
898.311	4831
898.431	4675
898.552	4771
898.672	4790
898.792	4793
898.913	4774
899.033	4569
899.153	4512
899.273	4436
899.393	4508
899.513	4538
899.633	4462
899.753	4523
899.873	4508
899.993	4561
900.113	4531
900.232	4626
900.352	4565
900.472	4497
900.591	4386
900.711	4485
900.83	4390
900.95	4641
901.069	4675
901.189	4527
901.308	4367
901.427	4303
901.546	4428
901.665	4459
901.784	4466
901.904	4459
902.023	4325
902.141	4166
902.26	4154
902.379	4310
902.498	4227
902.617	4223
902.735	4348
902.854	4363
902.973	4352
903.091	4207
903.21	4227
903.328	4272
903.446	4234
903.565	4234
903.683	4352
903.801	4280
903.919	4367
904.038	4424
904.156	4318
904.274	4413
904.392	4360
904.51	4424
904.627	4447
904.745	4580
904.863	4603
904.981	4405
905.098	4333
905.216	4363
905.334	4451
905.451	4436
905.569	4424
905.686	4527
905.803	4550
905.921	4459
906.038	4542
906.155	4451
906.272	4451
906.389	4485
906.506	4360
906.623	4352
906.74	4409
906.857	4341
906.974	4352
907.091	4565
907.208	4668
907.324	4584
907.441	4455
907.557	4363
907.674	4341
907.79	4234
907.907	4383
908.023	4489
908.139	4470
908.256	4413
908.372	4424
908.488	4443
908.604	4348
908.72	4329
908.836	4363
908.952	4394
909.068	4474
909.184	4546
909.3	4489
909.415	4569
909.531	4558
909.647	4375
909.762	4390
909.878	4360
909.993	4432
910.108	4367
910.224	4379
910.339	4466
910.454	4386
910.57	4390
910.685	4348
910.8	4622
910.915	4569
911.03	4523
911.145	4322
911.259	4299
911.374	4363
911.489	4322
911.604	4295
911.718	4143
911.833	4230
911.947	4086
912.062	4055
912.176	4257
912.291	4272
912.405	4242
912.519	4500
912.633	4478
912.748	4405
912.862	4322
912.976	4246
913.09	4074
913.204	4109
913.318	4272
913.431	4325
913.545	4356
913.659	4455
913.772	4341
913.886	4253
914	4181
914.113	4386
914.226	4436
914.34	4421
914.453	4227
914.566	4402
914.68	4325
914.793	4352
914.906	4147
915.019	4120
915.132	4086
915.245	4177
915.358	4223
915.47	4234
915.583	4272
915.696	4306
915.809	4390
915.921	4398
916.034	4257
916.146	4246
916.259	4238
916.371	4386
916.483	4398
916.595	4257
916.708	4371
916.82	4348
916.932	4314
917.044	4287
917.156	4337
917.268	4227
917.38	4261
917.491	4253
917.603	4352
917.715	4413
917.826	4462
917.938	4337
918.049	4291
918.161	4405
918.272	4542
918.384	4508
918.495	4451
918.606	4287
918.717	4249
918.828	4303
918.939	4413
919.05	4257
919.161	4314
919.272	4105
919.383	4246
919.494	4436
919.604	4615
919.715	4383
919.826	4383
919.936	4413
920.047	4519
920.157	4500
920.267	4694
920.378	4508
920.488	4481
920.598	4710
920.708	4900
920.818	4767
920.928	4805
921.038	4930
921.148	4908
921.258	4626
921.368	4542
921.477	4428
921.587	4432
921.697	4413
921.806	4504
921.916	4402
922.025	4227
922.134	4280
922.244	4169
922.353	4322
922.462	4162
922.571	4143
922.68	4006
922.789	3983
922.898	4002
923.007	4013
923.116	4048
923.224	4116
923.333	4071
923.442	4013
923.55	3979
923.659	3998
923.767	4086
923.876	3987
923.984	4112
924.092	3953
924.201	4032
924.309	4086
924.417	4082
924.525	4086
924.633	4120
924.741	4927
924.849	3930
924.956	4116
925.064	3934
925.172	3915
925.279	3960
925.387	4086
925.494	4120
925.602	4207
925.709	4196
925.816	4055
925.924	4093
926.031	4227
926.138	4143
926.245	4181
926.352	4109
926.459	4227
926.566	4272
926.673	4135
926.779	4093
926.886	4040
926.993	3979
927.099	3949
927.206	3918
927.312	3907
927.419	4032
927.525	4036
927.631	4074
927.737	3972
927.843	3922
927.95	3812
928.056	3930
928.162	3956
928.267	4067
928.373	4668
928.479	4093
928.585	3937
928.69	3983
928.796	4105
928.901	3945
929.007	3823
929.112	3972
929.218	3949
929.323	3960
929.428	3964
929.533	4086
929.638	3888
929.743	3915
929.848	4040
929.953	3964
930.058	3934
930.163	3789
930.267	3812
930.372	4010
930.477	3793
930.581	4067
930.685	3972
930.79	3785
930.894	3857
930.998	3865
931.103	4002
931.207	3755
931.311	3682
931.415	3648
931.519	3515
931.623	3553
