Data from test_V78500241_2347.txt Node
Date: Fri Mar 25 17:05:19 CST 2022
User: usil
Spectrometer: V785-0024
Trigger mode: 0
Integration Time (sec): 4.000000E-1
Scans to average: 1
Nonlinearity correction enabled: false
Boxcar width: 0
Storing dark spectrum: false
XAxis mode: Wavelengths
Number of Pixels in Spectrum: 1024
>>>>>Begin Spectral Data<<<<<
801.071	7978
801.214	7963
801.356	7860
801.499	7845
801.641	7780
801.783	7936
801.926	8008
802.068	7928
802.211	7997
802.353	8035
802.496	7868
802.638	7967
802.78	7940
802.923	7967
803.065	7883
803.208	7890
803.35	8031
803.492	8084
803.635	8115
803.777	8035
803.919	8180
804.061	8454
804.204	8157
804.346	8088
804.488	7959
804.63	8092
804.773	8024
804.915	8103
805.057	8271
805.199	8138
805.341	8199
805.483	8229
805.626	8199
805.768	8164
805.91	8180
806.052	8225
806.194	8062
806.336	8240
806.478	8100
806.62	8058
806.762	8123
806.904	8210
807.046	8434
807.188	8332
807.33	8244
807.472	8324
807.614	8180
807.756	8187
807.898	8012
808.04	7902
808.182	7898
808.324	7932
808.465	7917
808.607	8088
808.749	8107
808.891	8259
809.033	8286
809.174	8233
809.316	8218
809.458	8107
809.6	8005
809.741	8058
809.883	8054
810.025	8077
810.166	8138
810.308	8039
810.45	7989
810.591	7845
810.733	7723
810.875	7639
811.016	7472
811.158	7453
811.299	7605
811.441	7689
811.582	7731
811.724	7590
811.865	7521
812.007	7525
812.148	7609
812.29	7609
812.431	7715
812.573	7906
812.714	7967
812.855	8092
812.997	8180
813.138	8328
813.279	8050
813.421	8096
813.562	7955
813.703	7852
813.845	7757
813.986	7453
814.127	7194
814.268	7232
814.41	7255
814.551	7152
814.692	7221
814.833	7069
814.974	7072
815.115	7084
815.256	6981
815.397	6947
815.539	6928
815.68	6852
815.821	6810
815.962	6916
816.103	6833
816.244	6715
816.385	6604
816.526	6639
816.666	6506
816.807	6296
816.948	6448
817.089	6464
817.23	6437
817.371	6350
817.512	6296
817.653	6376
817.793	6357
817.934	6456
818.075	6456
818.216	6399
818.356	6388
818.497	6266
818.638	6110
818.778	6129
818.919	6175
819.06	6186
819.2	6391
819.341	6315
819.481	6346
819.622	6582
819.762	6722
819.903	6646
820.043	6566
820.184	6593
820.324	6582
820.465	6692
820.605	6745
820.746	6703
820.886	6551
821.026	6631
821.167	6738
821.307	6791
821.447	6791
821.588	6715
821.728	6604
821.868	6574
822.008	6342
822.149	6395
822.289	6422
822.429	6152
822.569	6144
822.709	6178
822.849	5939
822.99	5897
823.13	5984
823.27	5958
823.41	5813
823.55	5794
823.69	5783
823.83	5824
823.97	5726
824.11	5581
824.25	5520
824.389	5539
824.529	5611
824.669	5596
824.809	5646
824.949	5714
825.089	5642
825.228	5562
825.368	5440
825.508	5436
825.648	5402
825.787	5421
825.927	5406
826.067	5315
826.206	5357
826.346	5391
826.485	5429
826.625	5421
826.765	5611
826.904	5532
827.044	5326
827.183	5246
827.323	5162
827.462	5284
827.601	5208
827.741	5284
827.88	5235
828.02	5147
828.159	5311
828.298	5341
828.437	5414
828.577	5368
828.716	5543
828.855	5315
828.994	5239
829.134	5201
829.273	5155
829.412	5151
829.551	5140
829.69	5235
829.829	5296
829.968	5395
830.107	5315
830.246	5299
830.385	5227
830.524	5189
830.663	5075
830.802	5064
830.941	4934
831.08	4915
831.219	4995
831.357	5029
831.496	5208
831.635	4987
831.774	4889
831.913	4934
832.051	4774
832.19	4717
832.329	4870
832.467	4759
832.606	4687
832.744	4782
832.883	4752
833.022	4778
833.16	4831
833.299	4873
833.437	4877
833.576	4873
833.714	4889
833.852	4904
833.991	4896
834.129	4961
834.267	5022
834.406	4984
834.544	5010
834.682	5018
834.821	4991
834.959	5159
835.097	5052
835.235	5197
835.373	5121
835.511	5124
835.65	4999
835.788	5079
835.926	4953
836.064	4904
836.202	4953
836.34	5227
836.478	5296
836.615	5140
836.753	5273
836.891	5246
837.029	5292
837.167	5227
837.305	5227
837.443	5201
837.58	5117
837.718	5261
837.856	5246
837.993	5204
838.131	5269
838.269	5269
838.406	5235
838.544	5261
838.681	5132
838.819	5056
838.956	4938
839.094	4968
839.231	5037
839.369	5117
839.506	5459
839.643	5292
839.781	5064
839.918	5045
840.055	5140
840.193	5166
840.33	5143
840.467	5155
840.604	5220
840.742	5436
840.879	5140
841.016	5189
841.153	5181
841.29	5414
841.427	5353
841.564	5368
841.701	5402
841.838	5296
841.975	5235
842.112	5284
842.249	5136
842.385	5143
842.522	5368
842.659	5208
842.796	5212
842.933	5235
843.069	5124
843.206	5159
843.343	5326
843.479	5269
843.616	5299
843.752	5079
843.889	5025
844.025	5277
844.162	5048
844.298	5254
844.435	5170
844.571	5075
844.708	5208
844.844	5307
844.98	5311
845.117	5318
845.253	5201
845.389	5166
845.525	5193
845.661	5155
845.798	5045
845.934	5128
846.07	5136
846.206	5235
846.342	5292
846.478	5162
846.614	5033
846.75	4976
846.886	4980
847.022	5136
847.158	5075
847.294	5094
847.429	5178
847.565	5060
847.701	5315
847.837	4847
847.972	4809
848.108	5045
848.244	4976
848.379	4782
848.515	4790
848.65	4721
848.786	4771
848.921	4847
849.057	4873
849.192	4987
849.328	4850
849.463	4877
849.598	4763
849.734	4816
849.869	4752
850.004	4584
850.14	4687
850.275	4603
850.41	4558
850.545	4561
850.68	4634
850.815	4668
850.95	4660
851.085	4858
851.22	4744
851.355	4717
851.49	4630
851.625	4645
851.76	4664
851.895	4615
852.03	4546
852.165	4660
852.299	4759
852.434	4744
852.569	4786
852.703	4847
852.838	4934
852.973	4976
853.107	4946
853.242	4805
853.376	4698
853.511	4565
853.645	4641
853.78	4866
853.914	4725
854.048	4691
854.183	4687
854.317	4698
854.451	4870
854.585	4740
854.72	4679
854.854	4790
854.988	4626
855.122	4660
855.256	4508
855.39	4733
855.524	4870
855.658	4767
855.792	4740
855.926	4744
856.06	4805
856.194	4805
856.327	4687
856.461	4622
856.595	4710
856.729	4664
856.862	4801
856.996	4714
857.13	4752
857.263	4774
857.397	4831
857.53	4721
857.664	4755
857.797	4755
857.931	4801
858.064	4736
858.197	4763
858.331	4717
858.464	4645
858.597	4554
858.731	4626
858.864	4637
858.997	4611
859.13	4679
859.263	4683
859.396	4748
859.529	4599
859.662	4622
859.795	4554
859.928	4634
860.061	4774
860.194	4824
860.327	4622
860.46	4622
860.592	4729
860.725	4744
860.858	4767
860.99	4573
861.123	4546
861.256	4592
861.388	4649
861.521	5315
861.653	4531
861.786	4462
861.918	4470
862.05	4485
862.183	4554
862.315	4622
862.447	4664
862.58	4546
862.712	4405
862.844	4379
862.976	4481
863.108	4459
863.24	4896
863.372	4367
863.504	4485
863.636	4443
863.768	4497
863.9	4508
864.032	4398
864.164	4489
864.296	4516
864.428	4538
864.559	4596
864.691	4607
864.823	4558
864.954	4516
865.086	4546
865.217	4474
865.349	4489
865.48	4459
865.612	4481
865.743	4607
865.875	4474
866.006	4455
866.137	4481
866.269	4519
866.4	4466
866.531	4462
866.662	4424
866.793	4440
866.924	4436
867.055	4516
867.186	4489
867.317	4421
867.448	4405
867.579	4447
867.71	4443
867.841	4367
867.972	4500
868.103	4504
868.233	4470
868.364	4466
868.495	4474
868.625	4691
868.756	4767
868.886	4599
869.017	4668
869.147	4805
869.278	4755
869.408	4653
869.539	4694
869.669	4755
869.799	4702
869.929	4774
870.06	4744
870.19	4976
870.32	4949
870.45	4987
870.58	4953
870.71	5140
870.84	5094
870.97	4972
871.1	4915
871.23	5231
871.36	5162
871.489	5056
871.619	5094
871.749	5094
871.879	5121
872.008	5166
872.138	5105
872.267	5033
872.397	4889
872.526	4866
872.656	4721
872.785	4801
872.915	4942
873.044	5045
873.173	5003
873.303	4934
873.432	4995
873.561	4915
873.69	4942
873.819	4854
873.948	4900
874.077	4847
874.206	4790
874.335	4809
874.464	4961
874.593	5060
874.722	4953
874.851	5113
874.979	5105
875.108	5033
875.237	4927
875.365	4900
875.494	4908
875.623	5025
875.751	4850
875.88	4900
876.008	5010
876.136	5056
876.265	5197
876.393	5334
876.521	5303
876.65	5246
876.778	5121
876.906	5083
877.034	5067
877.162	5048
877.29	5029
877.418	5094
877.546	5064
877.674	5086
877.802	5102
877.93	5029
878.058	4987
878.185	4915
878.313	4984
878.441	5006
878.568	4862
878.696	4881
878.824	4957
878.951	5045
879.079	5181
879.206	5277
879.333	5090
879.461	4999
879.588	5014
879.715	5151
879.842	5250
879.97	5025
880.097	4812
880.224	4797
880.351	4809
880.478	4889
880.605	4816
880.732	4790
880.859	5143
880.986	4923
881.112	4949
881.239	4790
881.366	4675
881.493	4656
881.619	4618
881.746	4546
881.872	4656
881.999	4653
882.125	4694
882.252	4809
882.378	4824
882.505	4980
882.631	4812
882.757	4660
882.883	4736
883.01	4790
883.136	4683
883.262	4603
883.388	4603
883.514	4858
883.64	4873
883.766	4797
883.892	4653
884.018	4740
884.143	4892
884.269	5029
884.395	4740
884.52	4664
884.646	4694
884.772	4637
884.897	4569
885.023	4714
885.148	4812
885.274	4862
885.399	4793
885.524	4706
885.65	4725
885.775	4748
885.9	4725
886.025	4831
886.15	4793
886.275	4733
886.4	4679
886.525	4744
886.65	4740
886.775	4683
886.9	4923
887.025	5022
887.149	4847
887.274	4702
887.399	4618
887.523	4656
887.648	4573
887.773	4569
887.897	4755
888.021	4793
888.146	4706
888.27	4862
888.395	4927
888.519	4801
888.643	4824
888.767	4843
888.891	4664
889.015	4584
889.139	4683
889.263	4580
889.387	4717
889.511	4870
889.635	4816
889.759	4672
889.883	4618
890.006	4774
890.13	4862
890.254	4577
890.377	4698
890.501	4554
890.624	4523
890.748	4698
890.871	4508
890.995	4440
891.118	4386
891.241	4554
891.364	4565
891.488	4641
891.611	4535
891.734	4558
891.857	4630
891.98	4516
892.103	4649
892.226	4596
892.349	4577
892.471	4386
892.594	4580
892.717	4607
892.839	4634
892.962	4588
893.085	4664
893.207	4603
893.33	4478
893.452	4542
893.575	4698
893.697	4577
893.819	4820
893.941	4835
894.064	4748
894.186	4596
894.308	4554
894.43	4759
894.552	4778
894.674	4717
894.796	4531
894.918	4637
895.04	4607
895.161	4698
895.283	4698
895.405	4580
895.526	4664
895.648	4729
895.769	4683
895.891	4740
896.012	4710
896.134	4710
896.255	4664
896.376	4645
896.498	4599
896.619	4683
896.74	4588
896.861	4672
896.982	4904
897.103	5083
897.224	4828
897.345	4759
897.466	4599
897.587	4710
897.708	4881
897.828	4767
897.949	4694
898.07	4580
898.19	4599
898.311	4858
898.431	4691
898.552	4744
898.672	4812
898.792	4767
898.913	4744
899.033	4641
899.153	4550
899.273	4493
899.393	4489
899.513	4561
899.633	4538
899.753	4542
899.873	4535
899.993	4596
900.113	4538
900.232	4615
900.352	4519
900.472	4512
900.591	4394
900.711	4527
900.83	4455
900.95	4588
901.069	4660
901.189	4561
901.308	4394
901.427	4337
901.546	4417
901.665	4428
901.784	4455
901.904	4386
902.023	4341
902.141	4162
902.26	4173
902.379	4303
902.498	4238
902.617	4257
902.735	4386
902.854	4371
902.973	4371
903.091	4169
903.21	4200
903.328	4280
903.446	4272
903.565	4272
903.683	4383
903.801	4306
903.919	4402
904.038	4432
904.156	4303
904.274	4428
904.392	4348
904.51	4421
904.627	4474
904.745	4626
904.863	4637
904.981	4405
905.098	4341
905.216	4318
905.334	4417
905.451	4428
905.569	4409
905.686	4550
905.803	4611
905.921	4459
906.038	4561
906.155	4462
906.272	4360
906.389	4481
906.506	4371
906.623	4394
906.74	4363
906.857	4257
906.974	4352
907.091	4584
907.208	4687
907.324	4611
907.441	4508
907.557	4375
907.674	4310
907.79	4356
907.907	4356
908.023	4470
908.139	4531
908.256	4417
908.372	4474
908.488	4489
908.604	4371
908.72	4333
908.836	4375
908.952	4360
909.068	4451
909.184	4558
909.3	4485
909.415	4577
909.531	4535
909.647	4325
909.762	4379
909.878	4405
909.993	4489
910.108	4402
910.224	4436
910.339	4451
910.454	4363
910.57	4383
910.685	4325
910.8	4675
910.915	4569
911.03	4527
911.145	4329
911.259	4310
911.374	4337
911.489	4276
911.604	4287
911.718	4150
911.833	4230
911.947	4044
912.062	4036
912.176	4211
912.291	4173
912.405	4272
912.519	4466
912.633	4478
912.748	4383
912.862	4310
912.976	4211
913.09	4128
913.204	4211
913.318	4242
913.431	4333
913.545	4367
913.659	4421
913.772	4386
913.886	4219
914	4223
914.113	4386
914.226	4413
914.34	4333
914.453	4257
914.566	4451
914.68	4333
914.793	4303
914.906	4147
915.019	4154
915.132	4067
915.245	4173
915.358	4173
915.47	4234
915.583	4268
915.696	4325
915.809	4424
915.921	4409
916.034	4227
916.146	4238
916.259	4196
916.371	4367
916.483	4375
916.595	4261
916.708	4291
916.82	4333
916.932	4352
917.044	4295
917.156	4310
917.268	4234
917.38	4253
917.491	4234
917.603	4360
917.715	4409
917.826	4409
917.938	4432
918.049	4215
918.161	4390
918.272	4573
918.384	4508
918.495	4459
918.606	4284
918.717	4257
918.828	4333
918.939	4341
919.05	4242
919.161	4356
919.272	4105
919.383	4211
919.494	4455
919.604	4618
919.715	4421
919.826	4352
919.936	4405
920.047	4516
920.157	4459
920.267	4714
920.378	4542
920.488	4531
920.598	4691
920.708	4900
920.818	4782
920.928	4771
921.038	4961
921.148	4870
921.258	4641
921.368	4531
921.477	4478
921.587	4455
921.697	4367
921.806	4531
921.916	4443
922.025	4253
922.134	4253
922.244	4246
922.353	4318
922.462	4211
922.571	4143
922.68	3975
922.789	3972
922.898	3983
923.007	3991
923.116	4067
923.224	4063
923.333	4093
923.442	4002
923.55	3972
923.659	4040
923.767	4158
923.876	3994
923.984	4131
924.092	4025
924.201	4093
924.309	4101
924.417	4124
924.525	4055
924.633	4105
924.741	5010
924.849	3949
924.956	4147
925.064	3983
925.172	3903
925.279	3926
925.387	4105
925.494	4048
925.602	4200
925.709	4177
925.816	4067
925.924	4120
926.031	4169
926.138	4169
926.245	4219
926.352	4074
926.459	4223
926.566	4299
926.673	4200
926.779	4093
926.886	4071
926.993	3937
927.099	3918
927.206	3960
927.312	3941
927.419	4051
927.525	4051
927.631	4082
927.737	3960
927.843	3937
927.95	3827
928.056	3934
928.162	3979
928.267	4013
928.373	4592
928.479	4128
928.585	3880
928.69	3998
928.796	4055
928.901	3983
929.007	3884
929.112	3994
929.218	3979
929.323	3941
929.428	3922
929.533	4101
929.638	3896
929.743	3956
929.848	4071
929.953	4021
930.058	3941
930.163	3781
930.267	3861
930.372	3983
930.477	3827
930.581	4109
930.685	3922
930.79	3835
930.894	3865
930.998	3831
931.103	4006
931.207	3740
931.311	3694
931.415	3679
931.519	3496
931.623	3545
