Data from test_V78500241_2148.txt Node
Date: Fri Mar 25 17:03:56 CST 2022
User: usil
Spectrometer: V785-0024
Trigger mode: 0
Integration Time (sec): 4.000000E-1
Scans to average: 1
Nonlinearity correction enabled: false
Boxcar width: 0
Storing dark spectrum: false
XAxis mode: Wavelengths
Number of Pixels in Spectrum: 1024
>>>>>Begin Spectral Data<<<<<
801.071	7940
801.214	7951
801.356	7894
801.499	7807
801.641	7807
801.783	7841
801.926	7959
802.068	7978
802.211	7925
802.353	8020
802.496	7887
802.638	7898
802.78	7833
802.923	7898
803.065	7868
803.208	7856
803.35	7970
803.492	8077
803.635	8119
803.777	8020
803.919	8081
804.061	8495
804.204	8134
804.346	7986
804.488	7868
804.63	8058
804.773	7963
804.915	8031
805.057	8317
805.199	8176
805.341	8199
805.483	8313
805.626	8202
805.768	8081
805.91	8195
806.052	8237
806.194	8103
806.336	8339
806.478	8103
806.62	8123
806.762	8202
806.904	8214
807.046	8446
807.188	8381
807.33	8282
807.472	8317
807.614	8161
807.756	8111
807.898	7959
808.04	7883
808.182	7902
808.324	7818
808.465	7921
808.607	8096
808.749	8157
808.891	8164
809.033	8240
809.174	8183
809.316	8027
809.458	8069
809.6	7997
809.741	8081
809.883	8058
810.025	8130
810.166	8005
810.308	8005
810.45	7947
810.591	7769
810.733	7731
810.875	7662
811.016	7514
811.158	7502
811.299	7563
811.441	7723
811.582	7643
811.724	7540
811.865	7559
812.007	7567
812.148	7518
812.29	7544
812.431	7715
812.573	7868
812.714	8039
812.855	8183
812.997	8157
813.138	8259
813.279	8138
813.421	8016
813.562	7875
813.703	7845
813.845	7685
813.986	7449
814.127	7266
814.268	7187
814.41	7175
814.551	7141
814.692	7247
814.833	7057
814.974	7091
815.115	7065
815.256	6920
815.397	6897
815.539	6878
815.68	6863
815.821	6818
815.962	6852
816.103	6833
816.244	6726
816.385	6608
816.526	6547
816.666	6521
816.807	6346
816.948	6403
817.089	6483
817.23	6471
817.371	6334
817.512	6433
817.653	6361
817.793	6292
817.934	6350
818.075	6460
818.216	6502
818.356	6361
818.497	6277
818.638	6140
818.778	6148
818.919	6144
819.06	6133
819.2	6315
819.341	6315
819.481	6342
819.622	6585
819.762	6814
819.903	6688
820.043	6597
820.184	6616
820.324	6566
820.465	6665
820.605	6627
820.746	6566
820.886	6483
821.026	6631
821.167	6642
821.307	6783
821.447	6776
821.588	6635
821.728	6597
821.868	6471
822.008	6300
822.149	6388
822.289	6361
822.429	6171
822.569	6144
822.709	6121
822.849	5988
822.99	5866
823.13	5942
823.27	5920
823.41	5783
823.55	5752
823.69	5783
823.83	5794
823.97	5634
824.11	5509
824.25	5490
824.389	5509
824.529	5543
824.669	5543
824.809	5600
824.949	5668
825.089	5642
825.228	5509
825.368	5395
825.508	5322
825.648	5330
825.787	5372
825.927	5425
826.067	5318
826.206	5269
826.346	5372
826.485	5433
826.625	5360
826.765	5528
826.904	5429
827.044	5239
827.183	5162
827.323	5208
827.462	5292
827.601	5132
827.741	5178
827.88	5208
828.02	5121
828.159	5212
828.298	5269
828.437	5360
828.577	5280
828.716	5429
828.855	5322
828.994	5174
829.134	5067
829.273	5151
829.412	5143
829.551	5109
829.69	5201
829.829	5231
829.968	5368
830.107	5284
830.246	5258
830.385	5121
830.524	5124
830.663	5060
830.802	4972
830.941	4900
831.08	4923
831.219	4991
831.357	4984
831.496	5147
831.635	4911
831.774	4801
831.913	4843
832.051	4702
832.19	4752
832.329	4843
832.467	4691
832.606	4675
832.744	4675
832.883	4687
833.022	4717
833.16	4774
833.299	4805
833.437	4759
833.576	4850
833.714	4885
833.852	4797
833.991	4873
834.129	4927
834.267	4957
834.406	4927
834.544	4961
834.682	4972
834.821	4980
834.959	5147
835.097	4961
835.235	5128
835.373	5052
835.511	5075
835.65	5048
835.788	4984
835.926	4831
836.064	4881
836.202	4930
836.34	5140
836.478	5204
836.615	5124
836.753	5174
836.891	5284
837.029	5185
837.167	5181
837.305	5159
837.443	5083
837.58	5075
837.718	5261
837.856	5208
837.993	5121
838.131	5220
838.269	5250
838.406	5185
838.544	5166
838.681	4987
838.819	4972
838.956	4850
839.094	4870
839.231	4984
839.369	5003
839.506	5395
839.643	5254
839.781	5018
839.918	4987
840.055	5075
840.193	5098
840.33	5102
840.467	5105
840.604	5159
840.742	5398
840.879	5105
841.016	5041
841.153	5155
841.29	5330
841.427	5277
841.564	5292
841.701	5364
841.838	5208
841.975	5239
842.112	5265
842.249	5174
842.385	5094
842.522	5315
842.659	5132
842.796	5159
842.933	5151
843.069	5140
843.206	5086
843.343	5296
843.479	5208
843.616	5277
843.752	5041
843.889	5060
844.025	5212
844.162	4976
844.298	5216
844.435	5056
844.571	5037
844.708	5178
844.844	5337
844.98	5360
845.117	5246
845.253	5140
845.389	5029
845.525	5151
845.661	5159
845.798	5071
845.934	5136
846.07	5029
846.206	5189
846.342	5273
846.478	5136
846.614	5071
846.75	4946
846.886	4942
847.022	5136
847.158	5014
847.294	5033
847.429	5121
847.565	5041
847.701	5334
847.837	4835
847.972	4812
848.108	4976
848.244	4873
848.379	4767
848.515	4714
848.65	4733
848.786	4717
848.921	4801
849.057	4900
849.192	4881
849.328	4793
849.463	4812
849.598	4778
849.734	4763
849.869	4694
850.004	4596
850.14	4702
850.275	4550
850.41	4512
850.545	4546
850.68	4622
850.815	4611
850.95	4622
851.085	4847
851.22	4736
851.355	4687
851.49	4626
851.625	4626
851.76	4649
851.895	4569
852.03	4478
852.165	4641
852.299	4740
852.434	4752
852.569	4702
852.703	4759
852.838	4835
852.973	4923
853.107	4934
853.242	4714
853.376	4683
853.511	4558
853.645	4603
853.78	4828
853.914	4653
854.048	4645
854.183	4618
854.317	4702
854.451	4843
854.585	4675
854.72	4645
854.854	4744
854.988	4565
855.122	4637
855.256	4519
855.39	4645
855.524	4752
855.658	4687
855.792	4637
855.926	4740
856.06	4725
856.194	4812
856.327	4706
856.461	4645
856.595	4599
856.729	4626
856.862	4755
856.996	4683
857.13	4710
857.263	4771
857.397	4759
857.53	4653
857.664	4698
857.797	4755
857.931	4759
858.064	4622
858.197	4717
858.331	4626
858.464	4649
858.597	4512
858.731	4577
858.864	4630
858.997	4607
859.13	4630
859.263	4641
859.396	4668
859.529	4592
859.662	4558
859.795	4535
859.928	4573
860.061	4752
860.194	4786
860.327	4584
860.46	4611
860.592	4691
860.725	4759
860.858	4725
860.99	4565
861.123	4512
861.256	4546
861.388	4634
861.521	5425
861.653	4527
861.786	4440
861.918	4523
862.05	4519
862.183	4554
862.315	4630
862.447	4615
862.58	4550
862.712	4363
862.844	4344
862.976	4459
863.108	4417
863.24	4702
863.372	4287
863.504	4405
863.636	4394
863.768	4455
863.9	4436
864.032	4375
864.164	4405
864.296	4451
864.428	4500
864.559	4565
864.691	4565
864.823	4523
864.954	4485
865.086	4538
865.217	4451
865.349	4421
865.48	4466
865.612	4485
865.743	4573
865.875	4455
866.006	4443
866.137	4470
866.269	4394
866.4	4440
866.531	4413
866.662	4379
866.793	4413
866.924	4402
867.055	4459
867.186	4402
867.317	4394
867.448	4375
867.579	4405
867.71	4394
867.841	4356
867.972	4447
868.103	4417
868.233	4417
868.364	4459
868.495	4481
868.625	4599
868.756	4748
868.886	4603
869.017	4596
869.147	4786
869.278	4744
869.408	4656
869.539	4634
869.669	4683
869.799	4683
869.929	4691
870.06	4721
870.19	4946
870.32	4961
870.45	4957
870.58	5029
870.71	5071
870.84	5098
870.97	4938
871.1	4847
871.23	5113
871.36	5143
871.489	5006
871.619	5064
871.749	5079
871.879	5132
872.008	5174
872.138	5056
872.267	4976
872.397	4812
872.526	4748
872.656	4672
872.785	4771
872.915	4961
873.044	5029
873.173	4927
873.303	4980
873.432	4938
873.561	4938
873.69	4892
873.819	4828
873.948	4908
874.077	4831
874.206	4752
874.335	4854
874.464	4968
874.593	5071
874.722	4915
874.851	5102
874.979	5109
875.108	5006
875.237	4896
875.365	4866
875.494	4828
875.623	4919
875.751	4771
875.88	4896
876.008	4957
876.136	5041
876.265	5136
876.393	5326
876.521	5258
876.65	5273
876.778	5143
876.906	5109
877.034	5006
877.162	5010
877.29	4991
877.418	5052
877.546	5041
877.674	5056
877.802	4995
877.93	5033
878.058	4919
878.185	4885
878.313	4980
878.441	4946
878.568	4793
878.696	4839
878.824	4938
878.951	4995
879.079	5109
879.206	5280
879.333	5109
879.461	4984
879.588	4987
879.715	5090
879.842	5216
879.97	5022
880.097	4786
880.224	4736
880.351	4786
880.478	4843
880.605	4782
880.732	4778
880.859	5094
880.986	4896
881.112	4873
881.239	4755
881.366	4641
881.493	4607
881.619	4542
881.746	4637
881.872	4634
881.999	4649
882.125	4702
882.252	4805
882.378	4828
882.505	4965
882.631	4763
882.757	4656
882.883	4729
883.01	4744
883.136	4664
883.262	4584
883.388	4622
883.514	4816
883.64	4877
883.766	4793
883.892	4645
884.018	4706
884.143	4923
884.269	5029
884.395	4649
884.52	4645
884.646	4668
884.772	4611
884.897	4500
885.023	4687
885.148	4805
885.274	4839
885.399	4759
885.524	4725
885.65	4714
885.775	4759
885.9	4717
886.025	4885
886.15	4797
886.275	4691
886.4	4664
886.525	4752
886.65	4668
886.775	4618
886.9	4915
887.025	5064
887.149	4824
887.274	4660
887.399	4618
887.523	4592
887.648	4615
887.773	4618
887.897	4763
888.021	4774
888.146	4656
888.27	4824
888.395	4904
888.519	4752
888.643	4763
888.767	4774
888.891	4698
889.015	4599
889.139	4626
889.263	4580
889.387	4767
889.511	4854
889.635	4854
889.759	4637
889.883	4653
890.006	4694
890.13	4835
890.254	4626
890.377	4641
890.501	4493
890.624	4512
890.748	4603
890.871	4497
890.995	4447
891.118	4333
891.241	4516
891.364	4504
891.488	4637
891.611	4531
891.734	4519
891.857	4580
891.98	4531
892.103	4622
892.226	4580
892.349	4497
892.471	4421
892.594	4519
892.717	4618
892.839	4542
892.962	4542
893.085	4618
893.207	4584
893.33	4428
893.452	4508
893.575	4672
893.697	4535
893.819	4790
893.941	4778
894.064	4820
894.186	4554
894.308	4573
894.43	4725
894.552	4816
894.674	4683
894.796	4546
894.918	4554
895.04	4565
895.161	4691
895.283	4668
895.405	4550
895.526	4622
895.648	4664
895.769	4691
895.891	4706
896.012	4744
896.134	4649
896.255	4668
896.376	4618
896.498	4599
896.619	4626
896.74	4569
896.861	4660
896.982	4908
897.103	5083
897.224	4809
897.345	4755
897.466	4672
897.587	4694
897.708	4839
897.828	4736
897.949	4679
898.07	4573
898.19	4649
898.311	4831
898.431	4641
898.552	4698
898.672	4831
898.792	4835
898.913	4763
899.033	4611
899.153	4470
899.273	4432
899.393	4481
899.513	4558
899.633	4497
899.753	4542
899.873	4462
899.993	4611
900.113	4497
900.232	4580
900.352	4516
900.472	4493
900.591	4390
900.711	4493
900.83	4455
900.95	4626
901.069	4687
901.189	4519
901.308	4367
901.427	4352
901.546	4352
901.665	4466
901.784	4516
901.904	4371
902.023	4314
902.141	4192
902.26	4204
902.379	4291
902.498	4272
902.617	4230
902.735	4337
902.854	4405
902.973	4360
903.091	4207
903.21	4173
903.328	4272
903.446	4272
903.565	4280
903.683	4341
903.801	4295
903.919	4386
904.038	4402
904.156	4322
904.274	4398
904.392	4367
904.51	4421
904.627	4519
904.745	4561
904.863	4603
904.981	4398
905.098	4310
905.216	4333
905.334	4451
905.451	4398
905.569	4398
905.686	4531
905.803	4519
905.921	4367
906.038	4535
906.155	4459
906.272	4356
906.389	4421
906.506	4310
906.623	4363
906.74	4405
906.857	4310
906.974	4352
907.091	4565
907.208	4687
907.324	4550
907.441	4527
907.557	4341
907.674	4322
907.79	4306
907.907	4371
908.023	4474
908.139	4466
908.256	4405
908.372	4455
908.488	4443
908.604	4325
908.72	4303
908.836	4405
908.952	4367
909.068	4390
909.184	4588
909.3	4504
909.415	4569
909.531	4558
909.647	4363
909.762	4417
909.878	4337
909.993	4383
910.108	4455
910.224	4413
910.339	4474
910.454	4352
910.57	4356
910.685	4310
910.8	4664
910.915	4550
911.03	4462
911.145	4291
911.259	4284
911.374	4337
911.489	4265
911.604	4272
911.718	4162
911.833	4166
911.947	4055
912.062	4044
912.176	4207
912.291	4207
912.405	4249
912.519	4474
912.633	4447
912.748	4409
912.862	4329
912.976	4211
913.09	4071
913.204	4173
913.318	4242
913.431	4383
913.545	4383
913.659	4436
913.772	4341
913.886	4211
914	4253
914.113	4306
914.226	4436
914.34	4386
914.453	4253
914.566	4421
914.68	4325
914.793	4337
914.906	4158
915.019	4177
915.132	4101
915.245	4192
915.358	4234
915.47	4280
915.583	4337
915.696	4341
915.809	4409
915.921	4432
916.034	4249
916.146	4303
916.259	4257
916.371	4379
916.483	4394
916.595	4272
916.708	4371
916.82	4375
916.932	4390
917.044	4348
917.156	4341
917.268	4227
917.38	4325
917.491	4295
917.603	4367
917.715	4459
917.826	4447
917.938	4383
918.049	4207
918.161	4443
918.272	4611
918.384	4626
918.495	4466
918.606	4390
918.717	4295
918.828	4344
918.939	4386
919.05	4284
919.161	4363
919.272	4207
919.383	4215
919.494	4485
919.604	4698
919.715	4462
919.826	4367
919.936	4447
920.047	4577
920.157	4500
920.267	4767
920.378	4554
920.488	4527
920.598	4767
920.708	4904
920.818	4767
920.928	4797
921.038	4980
921.148	4946
921.258	4656
921.368	4607
921.477	4542
921.587	4497
921.697	4432
921.806	4561
921.916	4455
922.025	4337
922.134	4352
922.244	4306
922.353	4363
922.462	4196
922.571	4188
922.68	4048
922.789	3975
922.898	4055
923.007	4040
923.116	4128
923.224	4116
923.333	4097
923.442	4048
923.55	4036
923.659	4029
923.767	4162
923.876	3991
923.984	4147
924.092	4029
924.201	4109
924.309	4116
924.417	4139
924.525	4086
924.633	4162
924.741	5102
924.849	3926
924.956	4162
925.064	4036
925.172	3915
925.279	3941
925.387	4051
925.494	4131
925.602	4257
925.709	4207
925.816	4044
925.924	4169
926.031	4272
926.138	4196
926.245	4200
926.352	4097
926.459	4242
926.566	4303
926.673	4196
926.779	4128
926.886	4147
926.993	4059
927.099	3991
927.206	4002
927.312	3987
927.419	4051
927.525	4071
927.631	4109
927.737	4006
927.843	4029
927.95	3911
928.056	3960
928.162	4010
928.267	4090
928.373	4683
928.479	4169
928.585	3926
928.69	4074
928.796	4097
928.901	4002
929.007	3876
929.112	4055
929.218	3983
929.323	4021
929.428	3937
929.533	4139
929.638	3930
929.743	3941
929.848	4032
929.953	4032
930.058	3941
930.163	3762
930.267	3865
930.372	3998
930.477	3854
930.581	4139
930.685	3956
930.79	3838
930.894	3926
930.998	3884
931.103	4063
931.207	3778
931.311	3709
931.415	3671
931.519	3538
931.623	3561
