Data from test_V78500241_943.txt Node
Date: Fri Mar 25 16:55:33 CST 2022
User: usil
Spectrometer: V785-0024
Trigger mode: 0
Integration Time (sec): 4.000000E-1
Scans to average: 1
Nonlinearity correction enabled: false
Boxcar width: 0
Storing dark spectrum: false
XAxis mode: Wavelengths
Number of Pixels in Spectrum: 1024
>>>>>Begin Spectral Data<<<<<
801.071	8050
801.214	8027
801.356	7940
801.499	7936
801.641	7772
801.783	7814
801.926	7967
802.068	7906
802.211	7917
802.353	7993
802.496	7856
802.638	7833
802.78	7955
802.923	7936
803.065	7849
803.208	7906
803.35	7986
803.492	8103
803.635	8168
803.777	7970
803.919	8054
804.061	8476
804.204	8115
804.346	7970
804.488	8016
804.63	8069
804.773	7989
804.915	8134
805.057	8267
805.199	8123
805.341	8218
805.483	8153
805.626	8134
805.768	8107
805.91	8195
806.052	8206
806.194	8126
806.336	8248
806.478	8020
806.62	8073
806.762	8161
806.904	8237
807.046	8507
807.188	8298
807.33	8263
807.472	8294
807.614	8123
807.756	8084
807.898	8012
808.04	7913
808.182	7928
808.324	7826
808.465	7925
808.607	8008
808.749	8073
808.891	8107
809.033	8290
809.174	8157
809.316	8115
809.458	8050
809.6	7978
809.741	8031
809.883	7997
810.025	8130
810.166	7989
810.308	7978
810.45	7970
810.591	7845
810.733	7685
810.875	7670
811.016	7518
811.158	7487
811.299	7540
811.441	7643
811.582	7670
811.724	7609
811.865	7548
812.007	7586
812.148	7559
812.29	7639
812.431	7685
812.573	7894
812.714	7982
812.855	8111
812.997	8229
813.138	8252
813.279	8218
813.421	8107
813.562	8050
813.703	7887
813.845	7738
813.986	7468
814.127	7316
814.268	7240
814.41	7183
814.551	7118
814.692	7160
814.833	6989
814.974	7034
815.115	7099
815.256	6905
815.397	6928
815.539	6932
815.68	6798
815.821	6749
815.962	6818
816.103	6875
816.244	6669
816.385	6608
816.526	6654
816.666	6509
816.807	6270
816.948	6395
817.089	6502
817.23	6456
817.371	6357
817.512	6365
817.653	6338
817.793	6350
817.934	6376
818.075	6418
818.216	6376
818.356	6365
818.497	6175
818.638	6144
818.778	6087
818.919	6155
819.06	6133
819.2	6300
819.341	6311
819.481	6365
819.622	6460
819.762	6681
819.903	6734
820.043	6547
820.184	6631
820.324	6654
820.465	6616
820.605	6681
820.746	6673
820.886	6509
821.026	6654
821.167	6681
821.307	6715
821.447	6715
821.588	6662
821.728	6563
821.868	6486
822.008	6334
822.149	6376
822.289	6315
822.429	6178
822.569	6030
822.709	6083
822.849	5863
822.99	5878
823.13	5904
823.27	5927
823.41	5813
823.55	5775
823.69	5764
823.83	5817
823.97	5646
824.11	5478
824.25	5471
824.389	5490
824.529	5562
824.669	5455
824.809	5638
824.949	5627
825.089	5585
825.228	5551
825.368	5349
825.508	5326
825.648	5334
825.787	5330
825.927	5360
826.067	5284
826.206	5269
826.346	5326
826.485	5402
826.625	5395
826.765	5524
826.904	5471
827.044	5212
827.183	5212
827.323	5075
827.462	5212
827.601	5166
827.741	5201
827.88	5170
828.02	5090
828.159	5220
828.298	5326
828.437	5341
828.577	5265
828.716	5474
828.855	5273
828.994	5159
829.134	5086
829.273	5155
829.412	5086
829.551	5132
829.69	5140
829.829	5223
829.968	5364
830.107	5288
830.246	5216
830.385	5136
830.524	5102
830.663	4999
830.802	4968
830.941	4923
831.08	4900
831.219	4961
831.357	4972
831.496	5143
831.635	4877
831.774	4824
831.913	4824
832.051	4725
832.19	4733
832.329	4793
832.467	4694
832.606	4660
832.744	4649
832.883	4702
833.022	4706
833.16	4786
833.299	4774
833.437	4790
833.576	4790
833.714	4839
833.852	4877
833.991	4828
834.129	5003
834.267	4915
834.406	4873
834.544	4980
834.682	4976
834.821	4949
834.959	5147
835.097	4984
835.235	5128
835.373	5025
835.511	5090
835.65	4999
835.788	5056
835.926	4881
836.064	4949
836.202	4911
836.34	5162
836.478	5239
836.615	5102
836.753	5189
836.891	5216
837.029	5265
837.167	5155
837.305	5132
837.443	5128
837.58	5102
837.718	5235
837.856	5140
837.993	5132
838.131	5197
838.269	5258
838.406	5201
838.544	5197
838.681	4999
838.819	5052
838.956	4923
839.094	4873
839.231	4995
839.369	5014
839.506	5467
839.643	5258
839.781	5025
839.918	4976
840.055	5083
840.193	5094
840.33	5052
840.467	5124
840.604	5197
840.742	5417
840.879	5075
841.016	5117
841.153	5162
841.29	5357
841.427	5322
841.564	5299
841.701	5341
841.838	5258
841.975	5208
842.112	5258
842.249	5143
842.385	5098
842.522	5315
842.659	5143
842.796	5083
842.933	5162
843.069	5193
843.206	5140
843.343	5311
843.479	5273
843.616	5227
843.752	5022
843.889	5018
844.025	5140
844.162	4934
844.298	5250
844.435	5033
844.571	5006
844.708	5166
844.844	5250
844.98	5311
845.117	5273
845.253	5140
845.389	5086
845.525	5109
845.661	5105
845.798	5041
845.934	5147
846.07	5045
846.206	5170
846.342	5261
846.478	5162
846.614	5003
846.75	4919
846.886	4927
847.022	5121
847.158	4995
847.294	5075
847.429	5136
847.565	5022
847.701	5292
847.837	4828
847.972	4820
848.108	4968
848.244	4919
848.379	4797
848.515	4694
848.65	4672
848.786	4725
848.921	4778
849.057	4885
849.192	4858
849.328	4812
849.463	4763
849.598	4820
849.734	4752
849.869	4706
850.004	4645
850.14	4675
850.275	4607
850.41	4504
850.545	4523
850.68	4622
850.815	4649
850.95	4599
851.085	4885
851.22	4721
851.355	4679
851.49	4569
851.625	4599
851.76	4634
851.895	4481
852.03	4561
852.165	4649
852.299	4748
852.434	4790
852.569	4721
852.703	4736
852.838	4801
852.973	4889
853.107	4915
853.242	4725
853.376	4660
853.511	4542
853.645	4588
853.78	4843
853.914	4683
854.048	4679
854.183	4596
854.317	4668
854.451	4774
854.585	4637
854.72	4634
854.854	4767
854.988	4531
855.122	4569
855.256	4523
855.39	4660
855.524	4774
855.658	4702
855.792	4672
855.926	4714
856.06	4752
856.194	4782
856.327	4691
856.461	4618
856.595	4603
856.729	4626
856.862	4721
856.996	4733
857.13	4660
857.263	4744
857.397	4805
857.53	4649
857.664	4698
857.797	4702
857.931	4744
858.064	4668
858.197	4733
858.331	4626
858.464	4577
858.597	4519
858.731	4641
858.864	4630
858.997	4596
859.13	4622
859.263	4634
859.396	4645
859.529	4558
859.662	4523
859.795	4527
859.928	4607
860.061	4744
860.194	4740
860.327	4569
860.46	4546
860.592	4694
860.725	4706
860.858	4672
860.99	4538
861.123	4531
861.256	4489
861.388	4634
861.521	5143
861.653	4474
861.786	4440
861.918	4451
862.05	4497
862.183	4497
862.315	4542
862.447	4603
862.58	4531
862.712	4417
862.844	4325
862.976	4424
863.108	4451
863.24	4771
863.372	4306
863.504	4424
863.636	4405
863.768	4470
863.9	4447
864.032	4344
864.164	4394
864.296	4489
864.428	4508
864.559	4531
864.691	4489
864.823	4493
864.954	4493
865.086	4516
865.217	4455
865.349	4356
865.48	4451
865.612	4478
865.743	4599
865.875	4493
866.006	4421
866.137	4455
866.269	4474
866.4	4413
866.531	4363
866.662	4371
866.793	4352
866.924	4413
867.055	4466
867.186	4428
867.317	4451
867.448	4402
867.579	4333
867.71	4348
867.841	4386
867.972	4474
868.103	4462
868.233	4455
868.364	4436
868.495	4481
868.625	4626
868.756	4694
868.886	4527
869.017	4615
869.147	4744
869.278	4763
869.408	4641
869.539	4626
869.669	4706
869.799	4641
869.929	4717
870.06	4706
870.19	4938
870.32	4938
870.45	4919
870.58	4995
870.71	5060
870.84	5056
870.97	4904
871.1	4839
871.23	5075
871.36	5064
871.489	4946
871.619	4991
871.749	5048
871.879	5117
872.008	5132
872.138	5041
872.267	4915
872.397	4805
872.526	4790
872.656	4755
872.785	4702
872.915	4908
873.044	4987
873.173	4965
873.303	4930
873.432	4896
873.561	4934
873.69	4877
873.819	4896
873.948	4854
874.077	4778
874.206	4721
874.335	4805
874.464	4961
874.593	5037
874.722	4976
874.851	5098
874.979	5064
875.108	5025
875.237	4873
875.365	4843
875.494	4835
875.623	4915
875.751	4812
875.88	4904
876.008	4908
876.136	5006
876.265	5185
876.393	5307
876.521	5246
876.65	5227
876.778	5181
876.906	5083
877.034	4949
877.162	5033
877.29	4949
877.418	5056
877.546	5006
877.674	4999
877.802	4980
877.93	5010
878.058	4885
878.185	4908
878.313	4942
878.441	4949
878.568	4797
878.696	4835
878.824	4904
878.951	4991
879.079	5105
879.206	5299
879.333	5041
879.461	4976
879.588	4976
879.715	5140
879.842	5204
879.97	5045
880.097	4778
880.224	4755
880.351	4786
880.478	4778
880.605	4835
880.732	4733
880.859	5022
880.986	4862
881.112	4885
881.239	4744
881.366	4672
881.493	4634
881.619	4542
881.746	4637
881.872	4611
881.999	4664
882.125	4679
882.252	4828
882.378	4805
882.505	4923
882.631	4824
882.757	4660
882.883	4706
883.01	4656
883.136	4668
883.262	4577
883.388	4561
883.514	4805
883.64	4866
883.766	4786
883.892	4637
884.018	4683
884.143	4892
884.269	4957
884.395	4683
884.52	4580
884.646	4618
884.772	4611
884.897	4542
885.023	4668
885.148	4767
885.274	4843
885.399	4820
885.524	4706
885.65	4668
885.775	4736
885.9	4744
886.025	4862
886.15	4763
886.275	4702
886.4	4641
886.525	4702
886.65	4668
886.775	4679
886.9	4881
887.025	5010
887.149	4778
887.274	4626
887.399	4584
887.523	4611
887.648	4523
887.773	4626
887.897	4767
888.021	4759
888.146	4706
888.27	4793
888.395	4862
888.519	4774
888.643	4786
888.767	4786
888.891	4618
889.015	4542
889.139	4634
889.263	4626
889.387	4710
889.511	4831
889.635	4786
889.759	4599
889.883	4675
890.006	4714
890.13	4752
890.254	4615
890.377	4679
890.501	4493
890.624	4489
890.748	4618
890.871	4493
890.995	4421
891.118	4348
891.241	4489
891.364	4500
891.488	4618
891.611	4485
891.734	4531
891.857	4580
891.98	4481
892.103	4592
892.226	4580
892.349	4497
892.471	4383
892.594	4466
892.717	4622
892.839	4508
892.962	4527
893.085	4611
893.207	4561
893.33	4394
893.452	4508
893.575	4622
893.697	4531
893.819	4782
893.941	4801
894.064	4828
894.186	4493
894.308	4516
894.43	4721
894.552	4782
894.674	4740
894.796	4508
894.918	4554
895.04	4531
895.161	4706
895.283	4622
895.405	4546
895.526	4580
895.648	4641
895.769	4679
895.891	4717
896.012	4763
896.134	4675
896.255	4672
896.376	4630
896.498	4588
896.619	4683
896.74	4573
896.861	4687
896.982	4896
897.103	5025
897.224	4793
897.345	4714
897.466	4626
897.587	4729
897.708	4873
897.828	4759
897.949	4675
898.07	4523
898.19	4653
898.311	4809
898.431	4649
898.552	4694
898.672	4771
898.792	4763
898.913	4759
899.033	4596
899.153	4497
899.273	4440
899.393	4466
899.513	4573
899.633	4546
899.753	4584
899.873	4508
899.993	4588
900.113	4584
900.232	4580
900.352	4542
900.472	4466
900.591	4409
900.711	4516
900.83	4519
900.95	4630
901.069	4736
901.189	4622
901.308	4394
901.427	4310
901.546	4379
901.665	4474
901.784	4550
901.904	4398
902.023	4375
902.141	4211
902.26	4188
902.379	4303
902.498	4295
902.617	4249
902.735	4409
902.854	4417
902.973	4394
903.091	4211
903.21	4257
903.328	4322
903.446	4291
903.565	4299
903.683	4367
903.801	4348
903.919	4481
904.038	4493
904.156	4344
904.274	4447
904.392	4413
904.51	4443
904.627	4474
904.745	4626
904.863	4637
904.981	4417
905.098	4333
905.216	4356
905.334	4443
905.451	4493
905.569	4489
905.686	4615
905.803	4592
905.921	4432
906.038	4596
906.155	4493
906.272	4428
906.389	4413
906.506	4371
906.623	4386
906.74	4417
906.857	4356
906.974	4424
907.091	4618
907.208	4717
907.324	4626
907.441	4531
907.557	4356
907.674	4375
907.79	4314
907.907	4428
908.023	4466
908.139	4512
908.256	4470
908.372	4523
908.488	4516
908.604	4375
908.72	4337
908.836	4432
908.952	4367
909.068	4489
909.184	4592
909.3	4508
909.415	4603
909.531	4573
909.647	4421
909.762	4413
909.878	4363
909.993	4489
910.108	4466
910.224	4402
910.339	4459
910.454	4409
910.57	4398
910.685	4341
910.8	4622
910.915	4577
911.03	4504
911.145	4341
911.259	4383
911.374	4402
911.489	4333
911.604	4276
911.718	4242
911.833	4227
911.947	4112
912.062	4093
912.176	4223
912.291	4227
912.405	4329
912.519	4485
912.633	4519
912.748	4390
912.862	4314
912.976	4253
913.09	4120
913.204	4188
913.318	4261
913.431	4360
913.545	4398
913.659	4424
913.772	4383
913.886	4280
914	4265
914.113	4398
914.226	4451
914.34	4436
914.453	4219
914.566	4409
914.68	4299
914.793	4363
914.906	4143
915.019	4158
915.132	4067
915.245	4219
915.358	4238
915.47	4253
915.583	4257
915.696	4306
915.809	4344
915.921	4421
916.034	4242
916.146	4284
916.259	4234
916.371	4405
916.483	4375
916.595	4265
916.708	4352
916.82	4348
916.932	4333
917.044	4356
917.156	4352
917.268	4284
917.38	4333
917.491	4306
917.603	4375
917.715	4451
917.826	4489
917.938	4375
918.049	4280
918.161	4394
918.272	4558
918.384	4542
918.495	4451
918.606	4322
918.717	4234
918.828	4383
918.939	4386
919.05	4280
919.161	4303
919.272	4166
919.383	4257
919.494	4478
919.604	4603
919.715	4428
919.826	4333
919.936	4451
920.047	4508
920.157	4500
920.267	4748
920.378	4531
920.488	4500
920.598	4763
920.708	4881
920.818	4771
920.928	4816
921.038	4999
921.148	4961
921.258	4637
921.368	4596
921.477	4569
921.587	4493
921.697	4371
921.806	4538
921.916	4440
922.025	4329
922.134	4329
922.244	4242
922.353	4367
922.462	4196
922.571	4154
922.68	4040
922.789	3987
922.898	4021
923.007	4002
923.116	4128
923.224	4082
923.333	4101
923.442	4029
923.55	3991
923.659	4013
923.767	4097
923.876	3994
923.984	4147
924.092	3968
924.201	4128
924.309	4101
924.417	4139
924.525	4105
924.633	4124
924.741	5102
924.849	4013
924.956	4131
925.064	3987
925.172	3922
925.279	3968
925.387	4051
925.494	4097
925.602	4242
925.709	4207
925.816	4040
925.924	4131
926.031	4276
926.138	4188
926.245	4257
926.352	4124
926.459	4268
926.566	4310
926.673	4143
926.779	4116
926.886	4128
926.993	3994
927.099	3964
927.206	3918
927.312	3926
927.419	4086
927.525	4059
927.631	4128
927.737	3994
927.843	3937
927.95	3850
928.056	3964
928.162	3953
928.267	4093
928.373	4714
928.479	4139
928.585	3918
928.69	4055
928.796	4067
928.901	4013
929.007	3850
929.112	4017
929.218	4029
929.323	3987
929.428	3899
929.533	4093
929.638	3945
929.743	3983
929.848	4055
929.953	4025
930.058	3922
930.163	3793
930.267	3854
930.372	3979
930.477	3816
930.581	4090
930.685	3945
930.79	3842
930.894	3911
930.998	3880
931.103	4078
931.207	3736
931.311	3717
931.415	3694
931.519	3542
931.623	3542
