Data from test_V78500241_530.txt Node
Date: Fri Mar 25 16:52:41 CST 2022
User: usil
Spectrometer: V785-0024
Trigger mode: 0
Integration Time (sec): 4.000000E-1
Scans to average: 1
Nonlinearity correction enabled: false
Boxcar width: 0
Storing dark spectrum: false
XAxis mode: Wavelengths
Number of Pixels in Spectrum: 1024
>>>>>Begin Spectral Data<<<<<
801.071	8046
801.214	7974
801.356	7856
801.499	7814
801.641	7750
801.783	7792
801.926	8012
802.068	7997
802.211	8024
802.353	7955
802.496	7925
802.638	7871
802.78	7871
802.923	7955
803.065	7818
803.208	7807
803.35	7974
803.492	8050
803.635	8100
803.777	7932
803.919	8092
804.061	8404
804.204	8149
804.346	8005
804.488	7902
804.63	8062
804.773	7959
804.915	8020
805.057	8282
805.199	8172
805.341	8172
805.483	8298
805.626	8157
805.768	8054
805.91	8180
806.052	8164
806.194	8119
806.336	8358
806.478	8084
806.62	8024
806.762	8130
806.904	8282
807.046	8362
807.188	8309
807.33	8214
807.472	8267
807.614	8115
807.756	8062
807.898	7932
808.04	7807
808.182	7928
808.324	7928
808.465	7871
808.607	8027
808.749	8103
808.891	8263
809.033	8271
809.174	8183
809.316	8012
809.458	7982
809.6	7947
809.741	8035
809.883	7982
810.025	8050
810.166	8073
810.308	8054
810.45	7963
810.591	7761
810.733	7723
810.875	7689
811.016	7502
811.158	7487
811.299	7624
811.441	7700
811.582	7750
811.724	7616
811.865	7525
812.007	7605
812.148	7575
812.29	7613
812.431	7708
812.573	7894
812.714	7986
812.855	8130
812.997	8233
813.138	8343
813.279	8244
813.421	8206
813.562	8043
813.703	7864
813.845	7833
813.986	7525
814.127	7365
814.268	7312
814.41	7247
814.551	7187
814.692	7168
814.833	7053
814.974	7072
815.115	7141
815.256	7008
815.397	6913
815.539	6928
815.68	6715
815.821	6844
815.962	6806
816.103	6833
816.244	6726
816.385	6616
816.526	6616
816.666	6547
816.807	6338
816.948	6456
817.089	6456
817.23	6479
817.371	6331
817.512	6418
817.653	6410
817.793	6357
817.934	6391
818.075	6437
818.216	6350
818.356	6403
818.497	6213
818.638	6053
818.778	6072
818.919	6148
819.06	6228
819.2	6285
819.341	6311
819.481	6277
819.622	6509
819.762	6665
819.903	6669
820.043	6536
820.184	6513
820.324	6525
820.465	6696
820.605	6642
820.746	6612
820.886	6483
821.026	6623
821.167	6722
821.307	6741
821.447	6738
821.588	6658
821.728	6570
821.868	6479
822.008	6292
822.149	6372
822.289	6323
822.429	6152
822.569	6079
822.709	6095
822.849	5878
822.99	5893
823.13	5931
823.27	5859
823.41	5741
823.55	5794
823.69	5767
823.83	5809
823.97	5672
824.11	5554
824.25	5467
824.389	5554
824.529	5589
824.669	5547
824.809	5657
824.949	5684
825.089	5642
825.228	5611
825.368	5452
825.508	5334
825.648	5402
825.787	5414
825.927	5471
826.067	5326
826.206	5337
826.346	5417
826.485	5417
826.625	5452
826.765	5547
826.904	5512
827.044	5288
827.183	5280
827.323	5162
827.462	5261
827.601	5132
827.741	5216
827.88	5181
828.02	5178
828.159	5216
828.298	5353
828.437	5406
828.577	5299
828.716	5524
828.855	5376
828.994	5235
829.134	5201
829.273	5258
829.412	5201
829.551	5109
829.69	5151
829.829	5254
829.968	5318
830.107	5299
830.246	5242
830.385	5155
830.524	5201
830.663	5064
830.802	4999
830.941	4965
831.08	4938
831.219	5067
831.357	5029
831.496	5166
831.635	4999
831.774	4877
831.913	4828
832.051	4797
832.19	4801
832.329	4850
832.467	4744
832.606	4706
832.744	4767
832.883	4736
833.022	4748
833.16	4850
833.299	4866
833.437	4843
833.576	4870
833.714	4870
833.852	4915
833.991	4942
834.129	5037
834.267	4976
834.406	4942
834.544	4991
834.682	5022
834.821	4991
834.959	5189
835.097	5033
835.235	5174
835.373	5151
835.511	5147
835.65	5010
835.788	5086
835.926	4976
836.064	4896
836.202	4942
836.34	5223
836.478	5273
836.615	5109
836.753	5254
836.891	5330
837.029	5242
837.167	5246
837.305	5181
837.443	5174
837.58	5143
837.718	5296
837.856	5208
837.993	5185
838.131	5269
838.269	5261
838.406	5250
838.544	5216
838.681	5029
838.819	5109
838.956	4908
839.094	4938
839.231	5003
839.369	5086
839.506	5497
839.643	5303
839.781	5098
839.918	5071
840.055	5143
840.193	5136
840.33	5174
840.467	5121
840.604	5212
840.742	5448
840.879	5079
841.016	5136
841.153	5140
841.29	5376
841.427	5417
841.564	5402
841.701	5417
841.838	5334
841.975	5254
842.112	5326
842.249	5189
842.385	5136
842.522	5364
842.659	5201
842.796	5166
842.933	5231
843.069	5124
843.206	5185
843.343	5326
843.479	5292
843.616	5292
843.752	5121
843.889	5018
844.025	5162
844.162	5052
844.298	5261
844.435	5151
844.571	5117
844.708	5220
844.844	5357
844.98	5387
845.117	5307
845.253	5128
845.389	5128
845.525	5155
845.661	5174
845.798	5067
845.934	5227
846.07	5048
846.206	5242
846.342	5296
846.478	5258
846.614	5041
846.75	5052
846.886	4980
847.022	5117
847.158	5060
847.294	5086
847.429	5124
847.565	5090
847.701	5330
847.837	4915
847.972	4816
848.108	4999
848.244	5003
848.379	4763
848.515	4763
848.65	4721
848.786	4759
848.921	4850
849.057	4892
849.192	4911
849.328	4839
849.463	4885
849.598	4778
849.734	4740
849.869	4740
850.004	4664
850.14	4725
850.275	4630
850.41	4580
850.545	4603
850.68	4668
850.815	4664
850.95	4634
851.085	4881
851.22	4752
851.355	4744
851.49	4611
851.625	4615
851.76	4622
851.895	4588
852.03	4584
852.165	4717
852.299	4790
852.434	4828
852.569	4744
852.703	4786
852.838	4858
852.973	4953
853.107	4889
853.242	4797
853.376	4691
853.511	4599
853.645	4714
853.78	4809
853.914	4698
854.048	4755
854.183	4634
854.317	4740
854.451	4885
854.585	4725
854.72	4664
854.854	4759
854.988	4569
855.122	4641
855.256	4584
855.39	4683
855.524	4744
855.658	4771
855.792	4736
855.926	4771
856.06	4801
856.194	4831
856.327	4740
856.461	4649
856.595	4664
856.729	4637
856.862	4748
856.996	4679
857.13	4774
857.263	4793
857.397	4782
857.53	4679
857.664	4744
857.797	4824
857.931	4763
858.064	4733
858.197	4790
858.331	4698
858.464	4660
858.597	4512
858.731	4656
858.864	4656
858.997	4611
859.13	4668
859.263	4687
859.396	4744
859.529	4626
859.662	4565
859.795	4558
859.928	4664
860.061	4752
860.194	4801
860.327	4615
860.46	4584
860.592	4721
860.725	4725
860.858	4763
860.99	4618
861.123	4577
861.256	4535
861.388	4634
861.521	5478
861.653	4516
861.786	4500
861.918	4478
862.05	4558
862.183	4596
862.315	4641
862.447	4679
862.58	4580
862.712	4421
862.844	4356
862.976	4504
863.108	4455
863.24	4866
863.372	4367
863.504	4421
863.636	4428
863.768	4558
863.9	4489
864.032	4413
864.164	4413
864.296	4516
864.428	4596
864.559	4588
864.691	4497
864.823	4516
864.954	4493
865.086	4531
865.217	4500
865.349	4428
865.48	4489
865.612	4497
865.743	4660
865.875	4470
866.006	4459
866.137	4497
866.269	4436
866.4	4443
866.531	4409
866.662	4451
866.793	4421
866.924	4436
867.055	4535
867.186	4466
867.317	4402
867.448	4436
867.579	4436
867.71	4436
867.841	4394
867.972	4485
868.103	4474
868.233	4519
868.364	4470
868.495	4485
868.625	4679
868.756	4793
868.886	4649
869.017	4637
869.147	4812
869.278	4801
869.408	4668
869.539	4634
869.669	4740
869.799	4656
869.929	4752
870.06	4786
870.19	4968
870.32	4946
870.45	4999
870.58	5029
870.71	5079
870.84	5105
870.97	4946
871.1	4923
871.23	5185
871.36	5162
871.489	5075
871.619	5086
871.749	5132
871.879	5140
872.008	5170
872.138	5033
872.267	5018
872.397	4877
872.526	4801
872.656	4759
872.785	4831
872.915	4984
873.044	5079
873.173	4968
873.303	4991
873.432	4984
873.561	5025
873.69	4870
873.819	4900
873.948	4949
874.077	4862
874.206	4748
874.335	4843
874.464	4976
874.593	5014
874.722	5018
874.851	5143
874.979	5060
875.108	5014
875.237	4911
875.365	4892
875.494	4873
875.623	4991
875.751	4877
875.88	4942
876.008	4972
876.136	5052
876.265	5178
876.393	5417
876.521	5311
876.65	5246
876.778	5136
876.906	5102
877.034	5014
877.162	5060
877.29	5006
877.418	5056
877.546	5056
877.674	5056
877.802	5056
877.93	5033
878.058	5003
878.185	4889
878.313	5022
878.441	5033
878.568	4850
878.696	4858
878.824	5045
878.951	5003
879.079	5189
879.206	5303
879.333	5143
879.461	5033
879.588	5014
879.715	5155
879.842	5220
879.97	5033
880.097	4774
880.224	4793
880.351	4816
880.478	4873
880.605	4809
880.732	4858
880.859	5132
880.986	4892
881.112	4896
881.239	4831
881.366	4714
881.493	4691
881.619	4611
881.746	4687
881.872	4637
881.999	4656
882.125	4691
882.252	4805
882.378	4793
882.505	4965
882.631	4782
882.757	4668
882.883	4767
883.01	4797
883.136	4691
883.262	4634
883.388	4683
883.514	4831
883.64	4908
883.766	4862
883.892	4660
884.018	4744
884.143	4938
884.269	5045
884.395	4687
884.52	4630
884.646	4702
884.772	4615
884.897	4611
885.023	4702
885.148	4858
885.274	4885
885.399	4805
885.524	4740
885.65	4748
885.775	4801
885.9	4698
886.025	4870
886.15	4790
886.275	4721
886.4	4717
886.525	4755
886.65	4679
886.775	4744
886.9	4949
887.025	5033
887.149	4828
887.274	4641
887.399	4599
887.523	4626
887.648	4542
887.773	4599
887.897	4748
888.021	4812
888.146	4694
888.27	4797
888.395	4927
888.519	4805
888.643	4828
888.767	4805
888.891	4694
889.015	4626
889.139	4649
889.263	4577
889.387	4759
889.511	4881
889.635	4828
889.759	4645
889.883	4649
890.006	4752
890.13	4870
890.254	4641
890.377	4641
890.501	4577
890.624	4546
890.748	4626
890.871	4512
890.995	4455
891.118	4402
891.241	4478
891.364	4535
891.488	4649
891.611	4538
891.734	4489
891.857	4599
891.98	4573
892.103	4668
892.226	4607
892.349	4546
892.471	4409
892.594	4554
892.717	4622
892.839	4561
892.962	4584
893.085	4656
893.207	4634
893.33	4508
893.452	4546
893.575	4694
893.697	4599
893.819	4774
893.941	4885
894.064	4820
894.186	4577
894.308	4634
894.43	4790
894.552	4763
894.674	4740
894.796	4577
894.918	4588
895.04	4592
895.161	4714
895.283	4660
895.405	4584
895.526	4637
895.648	4683
895.769	4694
895.891	4698
896.012	4759
896.134	4759
896.255	4641
896.376	4637
896.498	4645
896.619	4729
896.74	4596
896.861	4672
896.982	4938
897.103	5094
897.224	4790
897.345	4744
897.466	4668
897.587	4755
897.708	4862
897.828	4752
897.949	4721
898.07	4561
898.19	4584
898.311	4824
898.431	4714
898.552	4774
898.672	4866
898.792	4752
898.913	4767
899.033	4668
899.153	4577
899.273	4527
899.393	4573
899.513	4546
899.633	4516
899.753	4569
899.873	4531
899.993	4584
900.113	4554
900.232	4599
900.352	4580
900.472	4470
900.591	4390
900.711	4466
900.83	4497
900.95	4607
901.069	4645
901.189	4535
901.308	4405
901.427	4394
901.546	4390
901.665	4459
901.784	4516
901.904	4352
902.023	4333
902.141	4234
902.26	4169
902.379	4329
902.498	4280
902.617	4246
902.735	4360
902.854	4421
902.973	4299
903.091	4173
903.21	4169
903.328	4299
903.446	4284
903.565	4303
903.683	4344
903.801	4318
903.919	4436
904.038	4462
904.156	4341
904.274	4466
904.392	4390
904.51	4402
904.627	4512
904.745	4573
904.863	4660
904.981	4409
905.098	4306
905.216	4383
905.334	4424
905.451	4485
905.569	4440
905.686	4538
905.803	4599
905.921	4443
906.038	4546
906.155	4519
906.272	4405
906.389	4451
906.506	4371
906.623	4436
906.74	4405
906.857	4329
906.974	4348
907.091	4558
907.208	4694
907.324	4573
907.441	4535
907.557	4363
907.674	4375
907.79	4329
907.907	4424
908.023	4508
908.139	4481
908.256	4383
908.372	4489
908.488	4421
908.604	4421
908.72	4306
908.836	4402
908.952	4462
909.068	4424
909.184	4565
909.3	4516
909.415	4538
909.531	4580
909.647	4356
909.762	4344
909.878	4360
909.993	4474
910.108	4466
910.224	4417
910.339	4497
910.454	4333
910.57	4398
910.685	4360
910.8	4702
910.915	4618
911.03	4497
911.145	4341
911.259	4314
911.374	4394
911.489	4306
911.604	4306
911.718	4188
911.833	4234
911.947	4040
912.062	4025
912.176	4272
912.291	4261
912.405	4253
912.519	4440
912.633	4478
912.748	4371
912.862	4344
912.976	4227
913.09	4131
913.204	4147
913.318	4284
913.431	4375
913.545	4390
913.659	4432
913.772	4371
913.886	4261
914	4246
914.113	4352
914.226	4443
914.34	4390
914.453	4280
914.566	4462
914.68	4341
914.793	4348
914.906	4188
915.019	4071
915.132	4120
915.245	4188
915.358	4173
915.47	4280
915.583	4261
915.696	4348
915.809	4398
915.921	4413
916.034	4276
916.146	4249
916.259	4227
916.371	4386
916.483	4363
916.595	4265
916.708	4337
916.82	4329
916.932	4329
917.044	4314
917.156	4352
917.268	4238
917.38	4325
917.491	4242
917.603	4303
917.715	4462
917.826	4459
917.938	4386
918.049	4276
918.161	4386
918.272	4565
918.384	4527
918.495	4447
918.606	4284
918.717	4246
918.828	4310
918.939	4348
919.05	4242
919.161	4322
919.272	4097
919.383	4204
919.494	4470
919.604	4622
919.715	4455
919.826	4405
919.936	4390
920.047	4527
920.157	4478
920.267	4714
920.378	4504
920.488	4527
920.598	4706
920.708	4847
920.818	4763
920.928	4759
921.038	4987
921.148	4908
921.258	4664
921.368	4603
921.477	4500
921.587	4470
921.697	4383
921.806	4489
921.916	4405
922.025	4280
922.134	4276
922.244	4211
922.353	4360
922.462	4204
922.571	4177
922.68	4044
922.789	4002
922.898	4059
923.007	3979
923.116	4120
923.224	4074
923.333	4093
923.442	3987
923.55	3991
923.659	4029
923.767	4105
923.876	3972
923.984	4101
924.092	3979
924.201	4109
924.309	4101
924.417	4173
924.525	4082
924.633	4109
924.741	5098
924.849	3930
924.956	4124
925.064	3975
925.172	3930
925.279	4010
925.387	4063
925.494	4059
925.602	4207
925.709	4204
925.816	4063
925.924	4173
926.031	4238
926.138	4169
926.245	4200
926.352	4093
926.459	4242
926.566	4329
926.673	4120
926.779	4101
926.886	4097
926.993	3922
927.099	4006
927.206	3949
927.312	3922
927.419	4029
927.525	4017
927.631	4097
927.737	3979
927.843	3937
927.95	3800
928.056	3949
928.162	3983
928.267	4048
928.373	4645
928.479	4101
928.585	3865
928.69	3998
928.796	4074
928.901	3934
929.007	3816
929.112	4017
929.218	4002
929.323	3975
929.428	3945
929.533	4131
929.638	3915
929.743	3972
929.848	4036
929.953	3975
930.058	3930
930.163	3808
930.267	3861
930.372	3945
930.477	3804
930.581	4067
930.685	3945
930.79	3804
930.894	3888
930.998	3854
931.103	4044
931.207	3747
931.311	3686
931.415	3660
931.519	3545
931.623	3553
