Data from test_V78500241_1241.txt Node
Date: Fri Mar 25 16:57:37 CST 2022
User: usil
Spectrometer: V785-0024
Trigger mode: 0
Integration Time (sec): 4.000000E-1
Scans to average: 1
Nonlinearity correction enabled: false
Boxcar width: 0
Storing dark spectrum: false
XAxis mode: Wavelengths
Number of Pixels in Spectrum: 1024
>>>>>Begin Spectral Data<<<<<
801.071	7978
801.214	8039
801.356	7894
801.499	7826
801.641	7765
801.783	7814
801.926	7944
802.068	7955
802.211	8020
802.353	7913
802.496	7769
802.638	7906
802.78	7906
802.923	7974
803.065	7917
803.208	7894
803.35	7970
803.492	8092
803.635	8172
803.777	8027
803.919	8164
804.061	8465
804.204	8191
804.346	8020
804.488	7978
804.63	8100
804.773	8016
804.915	8115
805.057	8328
805.199	8172
805.341	8256
805.483	8263
805.626	8168
805.768	8142
805.91	8210
806.052	8191
806.194	8123
806.336	8282
806.478	8054
806.62	8073
806.762	8103
806.904	8191
807.046	8480
807.188	8324
807.33	8305
807.472	8282
807.614	8107
807.756	8115
807.898	8008
808.04	7837
808.182	7936
808.324	7883
808.465	7921
808.607	8031
808.749	8107
808.891	8130
809.033	8279
809.174	8183
809.316	8084
809.458	8046
809.6	8046
809.741	8050
809.883	8005
810.025	8081
810.166	8024
810.308	8046
810.45	8046
810.591	7856
810.733	7776
810.875	7647
811.016	7540
811.158	7499
811.299	7575
811.441	7723
811.582	7628
811.724	7525
811.865	7510
812.007	7586
812.148	7597
812.29	7632
812.431	7693
812.573	7849
812.714	7970
812.855	8062
812.997	8187
813.138	8370
813.279	8229
813.421	8092
813.562	7967
813.703	7753
813.845	7738
813.986	7476
814.127	7187
814.268	7209
814.41	7156
814.551	7110
814.692	7168
814.833	7031
814.974	7061
815.115	7088
815.256	6958
815.397	6913
815.539	6977
815.68	6798
815.821	6806
815.962	6840
816.103	6852
816.244	6715
816.385	6608
816.526	6582
816.666	6479
816.807	6270
816.948	6502
817.089	6426
817.23	6486
817.371	6357
817.512	6369
817.653	6361
817.793	6395
817.934	6395
818.075	6445
818.216	6433
818.356	6350
818.497	6197
818.638	6064
818.778	6136
818.919	6167
819.06	6114
819.2	6308
819.341	6285
819.481	6380
819.622	6464
819.762	6757
819.903	6700
820.043	6604
820.184	6616
820.324	6555
820.465	6658
820.605	6654
820.746	6616
820.886	6498
821.026	6703
821.167	6684
821.307	6753
821.447	6745
821.588	6673
821.728	6502
821.868	6513
822.008	6281
822.149	6342
822.289	6346
822.429	6136
822.569	6053
822.709	6068
822.849	5969
822.99	5904
823.13	5897
823.27	5946
823.41	5745
823.55	5760
823.69	5767
823.83	5760
823.97	5695
824.11	5528
824.25	5486
824.389	5566
824.529	5562
824.669	5547
824.809	5646
824.949	5634
825.089	5604
825.228	5516
825.368	5364
825.508	5250
825.648	5292
825.787	5429
825.927	5330
826.067	5284
826.206	5261
826.346	5349
826.485	5341
826.625	5421
826.765	5539
826.904	5448
827.044	5242
827.183	5216
827.323	5155
827.462	5303
827.601	5212
827.741	5197
827.88	5220
828.02	5094
828.159	5246
828.298	5322
828.437	5341
828.577	5265
828.716	5410
828.855	5299
828.994	5178
829.134	5166
829.273	5193
829.412	5132
829.551	5121
829.69	5147
829.829	5181
829.968	5349
830.107	5231
830.246	5292
830.385	5223
830.524	5128
830.663	5067
830.802	4946
830.941	4850
831.08	4866
831.219	4949
831.357	4961
831.496	5109
831.635	4923
831.774	4892
831.913	4824
832.051	4672
832.19	4744
832.329	4824
832.467	4706
832.606	4618
832.744	4740
832.883	4717
833.022	4721
833.16	4714
833.299	4778
833.437	4782
833.576	4835
833.714	4873
833.852	4870
833.991	4889
834.129	4900
834.267	4919
834.406	4927
834.544	4923
834.682	4957
834.821	4938
834.959	5174
835.097	4984
835.235	5086
835.373	5045
835.511	5064
835.65	4984
835.788	4987
835.926	4885
836.064	4889
836.202	4946
836.34	5147
836.478	5242
836.615	5094
836.753	5185
836.891	5273
837.029	5235
837.167	5143
837.305	5166
837.443	5105
837.58	5083
837.718	5269
837.856	5151
837.993	5166
838.131	5208
838.269	5166
838.406	5143
838.544	5155
838.681	5052
838.819	5018
838.956	4866
839.094	4911
839.231	4961
839.369	5071
839.506	5436
839.643	5227
839.781	5064
839.918	4976
840.055	5060
840.193	5090
840.33	5086
840.467	5166
840.604	5151
840.742	5429
840.879	5048
841.016	5018
841.153	5159
841.29	5357
841.427	5315
841.564	5311
841.701	5372
841.838	5269
841.975	5220
842.112	5223
842.249	5162
842.385	5102
842.522	5357
842.659	5178
842.796	5094
842.933	5159
843.069	5117
843.206	5159
843.343	5223
843.479	5223
843.616	5296
843.752	4991
843.889	5003
844.025	5204
844.162	4984
844.298	5193
844.435	5052
844.571	5071
844.708	5155
844.844	5288
844.98	5288
845.117	5299
845.253	5128
845.389	5094
845.525	5128
845.661	5147
845.798	5014
845.934	5162
846.07	5045
846.206	5143
846.342	5299
846.478	5143
846.614	4987
846.75	4949
846.886	4908
847.022	5109
847.158	5006
847.294	5098
847.429	5132
847.565	5045
847.701	5288
847.837	4866
847.972	4812
848.108	4930
848.244	4915
848.379	4809
848.515	4744
848.65	4721
848.786	4755
848.921	4782
849.057	4843
849.192	4885
849.328	4809
849.463	4824
849.598	4793
849.734	4759
849.869	4691
850.004	4630
850.14	4664
850.275	4596
850.41	4554
850.545	4611
850.68	4637
850.815	4542
850.95	4611
851.085	4793
851.22	4763
851.355	4675
851.49	4599
851.625	4607
851.76	4626
851.895	4523
852.03	4538
852.165	4641
852.299	4714
852.434	4793
852.569	4668
852.703	4748
852.838	4824
852.973	4942
853.107	4938
853.242	4729
853.376	4668
853.511	4527
853.645	4580
853.78	4786
853.914	4653
854.048	4637
854.183	4618
854.317	4725
854.451	4782
854.585	4694
854.72	4645
854.854	4729
854.988	4573
855.122	4645
855.256	4508
855.39	4653
855.524	4793
855.658	4748
855.792	4660
855.926	4706
856.06	4748
856.194	4809
856.327	4691
856.461	4618
856.595	4558
856.729	4645
856.862	4767
856.996	4679
857.13	4710
857.263	4740
857.397	4824
857.53	4603
857.664	4721
857.797	4759
857.931	4793
858.064	4668
858.197	4744
858.331	4660
858.464	4596
858.597	4508
858.731	4634
858.864	4660
858.997	4542
859.13	4611
859.263	4634
859.396	4656
859.529	4573
859.662	4516
859.795	4542
859.928	4599
860.061	4809
860.194	4740
860.327	4596
860.46	4516
860.592	4668
860.725	4691
860.858	4675
860.99	4546
861.123	4500
861.256	4512
861.388	4603
861.521	5258
861.653	4447
861.786	4432
861.918	4489
862.05	4512
862.183	4516
862.315	4577
862.447	4618
862.58	4523
862.712	4383
862.844	4284
862.976	4405
863.108	4455
863.24	4911
863.372	4310
863.504	4462
863.636	4424
863.768	4474
863.9	4432
864.032	4352
864.164	4394
864.296	4493
864.428	4546
864.559	4561
864.691	4489
864.823	4523
864.954	4455
865.086	4519
865.217	4402
865.349	4443
865.48	4428
865.612	4512
865.743	4630
865.875	4527
866.006	4409
866.137	4398
866.269	4459
866.4	4421
866.531	4436
866.662	4379
866.793	4375
866.924	4432
867.055	4462
867.186	4421
867.317	4424
867.448	4329
867.579	4383
867.71	4390
867.841	4341
867.972	4447
868.103	4512
868.233	4447
868.364	4417
868.495	4481
868.625	4641
868.756	4721
868.886	4573
869.017	4618
869.147	4790
869.278	4733
869.408	4596
869.539	4630
869.669	4694
869.799	4630
869.929	4744
870.06	4706
870.19	4908
870.32	4889
870.45	4930
870.58	4984
870.71	5064
870.84	5064
870.97	4957
871.1	4930
871.23	5083
871.36	5090
871.489	5048
871.619	5064
871.749	5075
871.879	5140
872.008	5117
872.138	4965
872.267	4930
872.397	4862
872.526	4790
872.656	4710
872.785	4759
872.915	4942
873.044	5064
873.173	4919
873.303	4938
873.432	4938
873.561	4885
873.69	4847
873.819	4919
873.948	4870
874.077	4870
874.206	4736
874.335	4816
874.464	4877
874.593	5071
874.722	4949
874.851	5132
874.979	5098
875.108	5037
875.237	4927
875.365	4904
875.494	4877
875.623	4949
875.751	4835
875.88	4870
876.008	4976
876.136	5018
876.265	5235
876.393	5349
876.521	5242
876.65	5235
876.778	5128
876.906	5083
877.034	5003
877.162	5052
877.29	4995
877.418	5041
877.546	5022
877.674	5067
877.802	5006
877.93	4991
878.058	4900
878.185	4839
878.313	4915
878.441	4946
878.568	4786
878.696	4862
878.824	4908
878.951	4938
879.079	5128
879.206	5265
879.333	5090
879.461	4938
879.588	4965
879.715	5098
879.842	5216
879.97	4984
880.097	4759
880.224	4744
880.351	4820
880.478	4801
880.605	4759
880.732	4816
880.859	5079
880.986	4843
881.112	4927
881.239	4793
881.366	4710
881.493	4611
881.619	4588
881.746	4641
881.872	4664
881.999	4660
882.125	4637
882.252	4748
882.378	4786
882.505	4946
882.631	4801
882.757	4672
882.883	4748
883.01	4733
883.136	4653
883.262	4531
883.388	4561
883.514	4755
883.64	4854
883.766	4786
883.892	4634
884.018	4683
884.143	4927
884.269	4957
884.395	4672
884.52	4634
884.646	4679
884.772	4561
884.897	4519
885.023	4660
885.148	4809
885.274	4854
885.399	4755
885.524	4656
885.65	4687
885.775	4782
885.9	4729
886.025	4812
886.15	4805
886.275	4714
886.4	4592
886.525	4694
886.65	4660
886.775	4698
886.9	4896
887.025	4991
887.149	4710
887.274	4672
887.399	4588
887.523	4580
887.648	4580
887.773	4588
887.897	4748
888.021	4778
888.146	4645
888.27	4778
888.395	4870
888.519	4790
888.643	4854
888.767	4835
888.891	4660
889.015	4584
889.139	4622
889.263	4626
889.387	4721
889.511	4881
889.635	4786
889.759	4611
889.883	4683
890.006	4714
890.13	4816
890.254	4626
890.377	4694
890.501	4558
890.624	4508
890.748	4622
890.871	4535
890.995	4390
891.118	4371
891.241	4474
891.364	4489
891.488	4645
891.611	4500
891.734	4493
891.857	4599
891.98	4565
892.103	4596
892.226	4588
892.349	4508
892.471	4386
892.594	4523
892.717	4588
892.839	4577
892.962	4573
893.085	4645
893.207	4626
893.33	4470
893.452	4497
893.575	4675
893.697	4577
893.819	4736
893.941	4767
894.064	4736
894.186	4561
894.308	4569
894.43	4733
894.552	4805
894.674	4725
894.796	4550
894.918	4565
895.04	4584
895.161	4721
895.283	4641
895.405	4588
895.526	4637
895.648	4706
895.769	4717
895.891	4694
896.012	4725
896.134	4687
896.255	4656
896.376	4656
896.498	4641
896.619	4634
896.74	4592
896.861	4630
896.982	4938
897.103	5071
897.224	4839
897.345	4733
897.466	4687
897.587	4691
897.708	4782
897.828	4782
897.949	4691
898.07	4565
898.19	4618
898.311	4786
898.431	4653
898.552	4717
898.672	4793
898.792	4763
898.913	4744
899.033	4626
899.153	4508
899.273	4428
899.393	4474
899.513	4504
899.633	4531
899.753	4497
899.873	4580
899.993	4573
900.113	4504
900.232	4611
900.352	4527
900.472	4455
900.591	4443
900.711	4474
900.83	4451
900.95	4588
901.069	4687
901.189	4481
901.308	4363
901.427	4299
901.546	4367
901.665	4432
901.784	4508
901.904	4375
902.023	4276
902.141	4173
902.26	4139
902.379	4276
902.498	4234
902.617	4234
902.735	4344
902.854	4379
902.973	4363
903.091	4257
903.21	4196
903.328	4261
903.446	4246
903.565	4230
903.683	4363
903.801	4318
903.919	4394
904.038	4383
904.156	4329
904.274	4440
904.392	4367
904.51	4443
904.627	4440
904.745	4592
904.863	4634
904.981	4390
905.098	4268
905.216	4348
905.334	4451
905.451	4386
905.569	4409
905.686	4531
905.803	4561
905.921	4367
906.038	4569
906.155	4459
906.272	4386
906.389	4462
906.506	4333
906.623	4356
906.74	4421
906.857	4310
906.974	4371
907.091	4558
907.208	4656
907.324	4538
907.441	4497
907.557	4310
907.674	4310
907.79	4348
907.907	4383
908.023	4470
908.139	4424
908.256	4394
908.372	4459
908.488	4417
908.604	4272
908.72	4303
908.836	4367
908.952	4333
909.068	4402
909.184	4546
909.3	4455
909.415	4599
909.531	4535
909.647	4363
909.762	4344
909.878	4318
909.993	4413
910.108	4390
910.224	4428
910.339	4508
910.454	4379
910.57	4329
910.685	4257
910.8	4580
910.915	4645
911.03	4474
911.145	4322
911.259	4341
911.374	4360
911.489	4287
911.604	4249
911.718	4169
911.833	4158
911.947	4059
912.062	4010
912.176	4181
912.291	4200
912.405	4249
912.519	4421
912.633	4478
912.748	4386
912.862	4303
912.976	4215
913.09	4048
913.204	4169
913.318	4234
913.431	4352
913.545	4386
913.659	4440
913.772	4341
913.886	4230
914	4219
914.113	4402
914.226	4459
914.34	4333
914.453	4227
914.566	4390
914.68	4287
914.793	4329
914.906	4120
915.019	4067
915.132	4063
915.245	4173
915.358	4204
915.47	4207
915.583	4280
915.696	4303
915.809	4390
915.921	4394
916.034	4211
916.146	4253
916.259	4238
916.371	4337
916.483	4352
916.595	4276
916.708	4257
916.82	4333
916.932	4348
917.044	4325
917.156	4325
917.268	4230
917.38	4276
917.491	4242
917.603	4348
917.715	4390
917.826	4424
917.938	4363
918.049	4249
918.161	4375
918.272	4554
918.384	4504
918.495	4428
918.606	4291
918.717	4257
918.828	4341
918.939	4371
919.05	4211
919.161	4333
919.272	4124
919.383	4253
919.494	4436
919.604	4637
919.715	4440
919.826	4356
919.936	4383
920.047	4535
920.157	4504
920.267	4752
920.378	4535
920.488	4546
920.598	4714
920.708	4965
920.818	4755
920.928	4740
921.038	4965
921.148	4953
921.258	4645
921.368	4596
921.477	4527
921.587	4538
921.697	4402
921.806	4573
921.916	4455
922.025	4314
922.134	4287
922.244	4272
922.353	4409
922.462	4242
922.571	4173
922.68	4017
922.789	4021
922.898	4059
923.007	4036
923.116	4101
923.224	4150
923.333	4105
923.442	4059
923.55	4025
923.659	4059
923.767	4150
923.876	4006
923.984	4150
924.092	4010
924.201	4090
924.309	4139
924.417	4143
924.525	4112
924.633	4109
924.741	5117
924.849	3987
924.956	4147
925.064	3964
925.172	3918
925.279	3983
925.387	4063
925.494	4082
925.602	4204
925.709	4188
925.816	4082
925.924	4192
926.031	4230
926.138	4181
926.245	4219
926.352	4101
926.459	4352
926.566	4360
926.673	4188
926.779	4071
926.886	4090
926.993	4006
927.099	4010
927.206	3975
927.312	3975
927.419	4116
927.525	4051
927.631	4093
927.737	4010
927.843	3930
927.95	3831
928.056	3964
928.162	4055
928.267	4101
928.373	4714
928.479	4131
928.585	3892
928.69	4025
928.796	4112
928.901	4002
929.007	3865
929.112	4021
929.218	4017
929.323	4006
929.428	4002
929.533	4128
929.638	3949
929.743	4017
929.848	4036
929.953	4048
930.058	3956
930.163	3808
930.267	3835
930.372	4029
930.477	3838
930.581	4131
930.685	3968
930.79	3884
930.894	3941
930.998	3865
931.103	4090
931.207	3785
931.311	3698
931.415	3698
931.519	3545
931.623	3564
