Data from test_V78500241_2365.txt Node
Date: Fri Mar 25 17:05:26 CST 2022
User: usil
Spectrometer: V785-0024
Trigger mode: 0
Integration Time (sec): 4.000000E-1
Scans to average: 1
Nonlinearity correction enabled: false
Boxcar width: 0
Storing dark spectrum: false
XAxis mode: Wavelengths
Number of Pixels in Spectrum: 1024
>>>>>Begin Spectral Data<<<<<
801.071	8031
801.214	7959
801.356	7879
801.499	7814
801.641	7833
801.783	7830
801.926	7989
802.068	7921
802.211	7944
802.353	7913
802.496	7890
802.638	7913
802.78	7803
802.923	7871
803.065	7921
803.208	7894
803.35	7917
803.492	8081
803.635	8180
803.777	8081
803.919	8134
804.061	8431
804.204	8176
804.346	8050
804.488	7986
804.63	8077
804.773	7963
804.915	8126
805.057	8370
805.199	8149
805.341	8214
805.483	8206
805.626	8248
805.768	8103
805.91	8210
806.052	8168
806.194	8016
806.336	8282
806.478	8062
806.62	8024
806.762	8126
806.904	8233
807.046	8457
807.188	8366
807.33	8294
807.472	8339
807.614	8210
807.756	8157
807.898	7982
808.04	7925
808.182	7906
808.324	7868
808.465	7928
808.607	8043
808.749	8142
808.891	8229
809.033	8282
809.174	8195
809.316	8027
809.458	8088
809.6	7955
809.741	8065
809.883	7906
810.025	8043
810.166	8111
810.308	8050
810.45	8005
810.591	7837
810.733	7681
810.875	7582
811.016	7506
811.158	7472
811.299	7632
811.441	7750
811.582	7662
811.724	7655
811.865	7559
812.007	7620
812.148	7609
812.29	7601
812.431	7731
812.573	7795
812.714	7955
812.855	8130
812.997	8202
813.138	8252
813.279	8191
813.421	8107
813.562	7925
813.703	7830
813.845	7750
813.986	7430
814.127	7225
814.268	7198
814.41	7209
814.551	7217
814.692	7194
814.833	7110
814.974	7129
815.115	7080
815.256	6970
815.397	6985
815.539	6958
815.68	6787
815.821	6722
815.962	6901
816.103	6901
816.244	6681
816.385	6608
816.526	6616
816.666	6475
816.807	6334
816.948	6403
817.089	6464
817.23	6429
817.371	6410
817.512	6380
817.653	6342
817.793	6281
817.934	6380
818.075	6407
818.216	6407
818.356	6426
818.497	6289
818.638	6106
818.778	6194
818.919	6133
819.06	6155
819.2	6292
819.341	6365
819.481	6353
819.622	6540
819.762	6764
819.903	6688
820.043	6623
820.184	6566
820.324	6612
820.465	6684
820.605	6722
820.746	6715
820.886	6540
821.026	6654
821.167	6684
821.307	6821
821.447	6776
821.588	6726
821.728	6601
821.868	6502
822.008	6365
822.149	6384
822.289	6319
822.429	6186
822.569	6060
822.709	6125
822.849	5939
822.99	5874
823.13	5923
823.27	5931
823.41	5836
823.55	5817
823.69	5745
823.83	5775
823.97	5684
824.11	5543
824.25	5528
824.389	5535
824.529	5634
824.669	5528
824.809	5661
824.949	5684
825.089	5608
825.228	5558
825.368	5398
825.508	5372
825.648	5353
825.787	5417
825.927	5364
826.067	5353
826.206	5261
826.346	5326
826.485	5383
826.625	5429
826.765	5516
826.904	5482
827.044	5277
827.183	5170
827.323	5136
827.462	5261
827.601	5193
827.741	5201
827.88	5193
828.02	5105
828.159	5258
828.298	5269
828.437	5398
828.577	5330
828.716	5505
828.855	5258
828.994	5159
829.134	5151
829.273	5189
829.412	5128
829.551	5155
829.69	5147
829.829	5258
829.968	5341
830.107	5246
830.246	5326
830.385	5155
830.524	5121
830.663	5056
830.802	4984
830.941	4915
831.08	4854
831.219	4957
831.357	4995
831.496	5155
831.635	4923
831.774	4824
831.913	4835
832.051	4702
832.19	4714
832.329	4816
832.467	4729
832.606	4622
832.744	4748
832.883	4710
833.022	4740
833.16	4733
833.299	4820
833.437	4824
833.576	4816
833.714	4843
833.852	4854
833.991	4896
834.129	4934
834.267	4972
834.406	4908
834.544	4946
834.682	5006
834.821	4987
834.959	5151
835.097	4987
835.235	5166
835.373	5067
835.511	5136
835.65	5060
835.788	5018
835.926	4847
836.064	4908
836.202	4923
836.34	5201
836.478	5128
836.615	5102
836.753	5254
836.891	5273
837.029	5242
837.167	5159
837.305	5178
837.443	5155
837.58	5052
837.718	5292
837.856	5223
837.993	5140
838.131	5220
838.269	5239
838.406	5181
838.544	5174
838.681	5041
838.819	4995
838.956	4877
839.094	4942
839.231	4946
839.369	5094
839.506	5429
839.643	5307
839.781	5052
839.918	5086
840.055	5105
840.193	5113
840.33	5083
840.467	5121
840.604	5174
840.742	5425
840.879	5067
841.016	5083
841.153	5132
841.29	5410
841.427	5341
841.564	5277
841.701	5322
841.838	5280
841.975	5216
842.112	5273
842.249	5155
842.385	5124
842.522	5322
842.659	5216
842.796	5113
842.933	5197
843.069	5121
843.206	5166
843.343	5307
843.479	5258
843.616	5284
843.752	5010
843.889	4987
844.025	5239
844.162	5014
844.298	5193
844.435	5086
844.571	5025
844.708	5155
844.844	5280
844.98	5364
845.117	5277
845.253	5102
845.389	5060
845.525	5151
845.661	5086
845.798	5037
845.934	5151
846.07	5056
846.206	5197
846.342	5250
846.478	5147
846.614	5033
846.75	4915
846.886	4965
847.022	5140
847.158	5010
847.294	5010
847.429	5094
847.565	5056
847.701	5269
847.837	4831
847.972	4805
848.108	4930
848.244	4976
848.379	4748
848.515	4755
848.65	4710
848.786	4736
848.921	4778
849.057	4839
849.192	4896
849.328	4805
849.463	4839
849.598	4824
849.734	4733
849.869	4717
850.004	4630
850.14	4717
850.275	4691
850.41	4512
850.545	4615
850.68	4653
850.815	4615
850.95	4618
851.085	4873
851.22	4759
851.355	4691
851.49	4649
851.625	4630
851.76	4554
851.895	4554
852.03	4569
852.165	4611
852.299	4733
852.434	4797
852.569	4755
852.703	4767
852.838	4843
852.973	4915
853.107	4911
853.242	4725
853.376	4637
853.511	4516
853.645	4645
853.78	4831
853.914	4710
854.048	4679
854.183	4645
854.317	4706
854.451	4877
854.585	4729
854.72	4630
854.854	4752
854.988	4565
855.122	4656
855.256	4523
855.39	4630
855.524	4752
855.658	4736
855.792	4736
855.926	4767
856.06	4752
856.194	4797
856.327	4702
856.461	4577
856.595	4649
856.729	4592
856.862	4702
856.996	4702
857.13	4725
857.263	4725
857.397	4790
857.53	4630
857.664	4714
857.797	4752
857.931	4782
858.064	4687
858.197	4694
858.331	4653
858.464	4656
858.597	4538
858.731	4634
858.864	4668
858.997	4565
859.13	4645
859.263	4653
859.396	4622
859.529	4523
859.662	4569
859.795	4531
859.928	4615
860.061	4752
860.194	4771
860.327	4618
860.46	4535
860.592	4672
860.725	4714
860.858	4660
860.99	4569
861.123	4470
861.256	4527
861.388	4573
861.521	5353
861.653	4504
861.786	4440
861.918	4402
862.05	4466
862.183	4538
862.315	4588
862.447	4668
862.58	4523
862.712	4413
862.844	4325
862.976	4451
863.108	4432
863.24	4866
863.372	4337
863.504	4386
863.636	4443
863.768	4485
863.9	4440
864.032	4363
864.164	4405
864.296	4409
864.428	4489
864.559	4542
864.691	4481
864.823	4493
864.954	4489
865.086	4493
865.217	4455
865.349	4447
865.48	4455
865.612	4500
865.743	4615
865.875	4459
866.006	4409
866.137	4443
866.269	4447
866.4	4417
866.531	4421
866.662	4379
866.793	4360
866.924	4360
867.055	4523
867.186	4428
867.317	4383
867.448	4402
867.579	4386
867.71	4432
867.841	4356
867.972	4447
868.103	4440
868.233	4470
868.364	4462
868.495	4462
868.625	4634
868.756	4786
868.886	4607
869.017	4584
869.147	4755
869.278	4763
869.408	4691
869.539	4615
869.669	4698
869.799	4634
869.929	4812
870.06	4763
870.19	4919
870.32	4908
870.45	4904
870.58	5010
870.71	5121
870.84	5090
870.97	4873
871.1	4927
871.23	5143
871.36	5159
871.489	5037
871.619	5090
871.749	5094
871.879	5098
872.008	5155
872.138	5052
872.267	5029
872.397	4862
872.526	4835
872.656	4706
872.785	4835
872.915	4942
873.044	5018
873.173	4915
873.303	4984
873.432	4938
873.561	4900
873.69	4930
873.819	4877
873.948	4915
874.077	4828
874.206	4767
874.335	4835
874.464	4919
874.593	5060
874.722	4961
874.851	5079
874.979	5052
875.108	4999
875.237	4942
875.365	4862
875.494	4870
875.623	4965
875.751	4843
875.88	4904
876.008	4942
876.136	4991
876.265	5174
876.393	5334
876.521	5273
876.65	5258
876.778	5147
876.906	5064
877.034	4987
877.162	5064
877.29	5014
877.418	5029
877.546	5003
877.674	5033
877.802	5010
877.93	5029
878.058	4896
878.185	4927
878.313	4961
878.441	4927
878.568	4812
878.696	4835
878.824	4934
878.951	5003
879.079	5147
879.206	5292
879.333	5037
879.461	4957
879.588	5037
879.715	5109
879.842	5193
879.97	5006
880.097	4782
880.224	4740
880.351	4816
880.478	4824
880.605	4812
880.732	4812
880.859	5105
880.986	4870
881.112	4889
881.239	4763
881.366	4687
881.493	4584
881.619	4618
881.746	4672
881.872	4649
881.999	4645
882.125	4706
882.252	4801
882.378	4797
882.505	4976
882.631	4831
882.757	4710
882.883	4740
883.01	4752
883.136	4679
883.262	4592
883.388	4645
883.514	4797
883.64	4843
883.766	4752
883.892	4691
884.018	4710
884.143	4889
884.269	5045
884.395	4683
884.52	4607
884.646	4618
884.772	4584
884.897	4504
885.023	4698
885.148	4805
885.274	4858
885.399	4790
885.524	4687
885.65	4694
885.775	4725
885.9	4679
886.025	4908
886.15	4744
886.275	4721
886.4	4649
886.525	4729
886.65	4721
886.775	4691
886.9	4900
887.025	5048
887.149	4847
887.274	4649
887.399	4588
887.523	4561
887.648	4577
887.773	4558
887.897	4698
888.021	4774
888.146	4675
888.27	4778
888.395	4911
888.519	4843
888.643	4816
888.767	4824
888.891	4653
889.015	4580
889.139	4607
889.263	4569
889.387	4790
889.511	4877
889.635	4786
889.759	4626
889.883	4660
890.006	4733
890.13	4835
890.254	4645
890.377	4668
890.501	4527
890.624	4573
890.748	4649
890.871	4474
890.995	4443
891.118	4356
891.241	4504
891.364	4565
891.488	4645
891.611	4485
891.734	4485
891.857	4607
891.98	4508
892.103	4687
892.226	4554
892.349	4535
892.471	4352
892.594	4550
892.717	4603
892.839	4569
892.962	4603
893.085	4675
893.207	4626
893.33	4436
893.452	4497
893.575	4702
893.697	4538
893.819	4801
893.941	4828
894.064	4733
894.186	4573
894.308	4588
894.43	4740
894.552	4828
894.674	4771
894.796	4558
894.918	4550
895.04	4558
895.161	4691
895.283	4645
895.405	4489
895.526	4649
895.648	4687
895.769	4645
895.891	4683
896.012	4744
896.134	4706
896.255	4653
896.376	4645
896.498	4637
896.619	4615
896.74	4580
896.861	4645
896.982	4968
897.103	5109
897.224	4809
897.345	4725
897.466	4702
897.587	4691
897.708	4820
897.828	4763
897.949	4691
898.07	4580
898.19	4660
898.311	4858
898.431	4603
898.552	4691
898.672	4782
898.792	4771
898.913	4710
899.033	4580
899.153	4485
899.273	4413
899.393	4481
899.513	4493
899.633	4474
899.753	4538
899.873	4481
899.993	4550
900.113	4516
900.232	4588
900.352	4519
900.472	4493
900.591	4409
900.711	4523
900.83	4398
900.95	4607
901.069	4672
901.189	4512
901.308	4375
901.427	4268
901.546	4367
901.665	4451
901.784	4493
901.904	4341
902.023	4322
902.141	4188
902.26	4124
902.379	4234
902.498	4234
902.617	4230
902.735	4344
902.854	4417
902.973	4367
903.091	4223
903.21	4257
903.328	4280
903.446	4287
903.565	4257
903.683	4356
903.801	4287
903.919	4394
904.038	4402
904.156	4337
904.274	4440
904.392	4352
904.51	4417
904.627	4497
904.745	4611
904.863	4645
904.981	4394
905.098	4291
905.216	4409
905.334	4436
905.451	4512
905.569	4440
905.686	4561
905.803	4599
905.921	4398
906.038	4611
906.155	4523
906.272	4417
906.389	4459
906.506	4379
906.623	4409
906.74	4402
906.857	4341
906.974	4383
907.091	4637
907.208	4710
907.324	4573
907.441	4500
907.557	4432
907.674	4367
907.79	4367
907.907	4390
908.023	4531
908.139	4512
908.256	4440
908.372	4512
908.488	4466
908.604	4405
908.72	4363
908.836	4424
908.952	4424
909.068	4493
909.184	4615
909.3	4550
909.415	4580
909.531	4569
909.647	4451
909.762	4413
909.878	4375
909.993	4466
910.108	4462
910.224	4474
910.339	4500
910.454	4443
910.57	4413
910.685	4348
910.8	4687
910.915	4645
911.03	4546
911.145	4360
911.259	4424
911.374	4367
911.489	4367
911.604	4306
911.718	4192
911.833	4261
911.947	4116
912.062	4036
912.176	4234
912.291	4306
912.405	4333
912.519	4512
912.633	4573
912.748	4421
912.862	4360
912.976	4181
913.09	4192
913.204	4253
913.318	4295
913.431	4383
913.545	4409
913.659	4470
913.772	4417
913.886	4325
914	4234
914.113	4394
914.226	4455
914.34	4432
914.453	4253
914.566	4508
914.68	4363
914.793	4379
914.906	4188
915.019	4105
915.132	4143
915.245	4238
915.358	4276
915.47	4291
915.583	4322
915.696	4363
915.809	4459
915.921	4466
916.034	4310
916.146	4306
916.259	4234
916.371	4432
916.483	4371
916.595	4318
916.708	4394
916.82	4363
916.932	4352
917.044	4360
917.156	4363
917.268	4246
917.38	4303
917.491	4322
917.603	4341
917.715	4432
917.826	4485
917.938	4379
918.049	4223
918.161	4447
918.272	4607
918.384	4527
918.495	4459
918.606	4325
918.717	4242
918.828	4344
918.939	4394
919.05	4272
919.161	4360
919.272	4131
919.383	4268
919.494	4478
919.604	4637
919.715	4481
919.826	4379
919.936	4405
920.047	4626
920.157	4523
920.267	4763
920.378	4531
920.488	4516
920.598	4710
920.708	4911
920.818	4729
920.928	4752
921.038	5006
921.148	4915
921.258	4641
921.368	4561
921.477	4519
921.587	4523
921.697	4417
921.806	4607
921.916	4497
922.025	4329
922.134	4246
922.244	4227
922.353	4367
922.462	4211
922.571	4147
922.68	3987
922.789	4032
922.898	4097
923.007	4032
923.116	4139
923.224	4131
923.333	4097
923.442	4017
923.55	4021
923.659	4074
923.767	4128
923.876	4048
923.984	4135
924.092	4017
924.201	4090
924.309	4143
924.417	4173
924.525	4097
924.633	4120
924.741	5105
924.849	3964
924.956	4135
925.064	3991
925.172	3964
925.279	4013
925.387	4051
925.494	4124
925.602	4257
925.709	4185
925.816	4086
925.924	4139
926.031	4223
926.138	4207
926.245	4272
926.352	4139
926.459	4310
926.566	4367
926.673	4181
926.779	4109
926.886	4120
926.993	4013
927.099	3987
927.206	3960
927.312	3975
927.419	4131
927.525	4040
927.631	4139
927.737	3975
927.843	3975
927.95	3850
928.056	3987
928.162	3975
928.267	4082
928.373	4599
928.479	4154
928.585	3934
928.69	4044
928.796	4120
928.901	4006
929.007	3865
929.112	4059
929.218	3998
929.323	3926
929.428	3934
929.533	4143
929.638	3964
929.743	3991
929.848	4086
929.953	4078
930.058	3987
930.163	3865
930.267	3873
930.372	4006
930.477	3857
930.581	4093
930.685	3991
930.79	3896
930.894	3949
930.998	3865
931.103	4067
931.207	3766
931.311	3671
931.415	3663
931.519	3553
931.623	3561
