Data from test_V78500241_1681.txt Node
Date: Fri Mar 25 17:00:41 CST 2022
User: usil
Spectrometer: V785-0024
Trigger mode: 0
Integration Time (sec): 4.000000E-1
Scans to average: 1
Nonlinearity correction enabled: false
Boxcar width: 0
Storing dark spectrum: false
XAxis mode: Wavelengths
Number of Pixels in Spectrum: 1024
>>>>>Begin Spectral Data<<<<<
801.071	7959
801.214	8008
801.356	7868
801.499	7883
801.641	7818
801.783	7799
801.926	7947
802.068	7963
802.211	8035
802.353	7993
802.496	7845
802.638	7860
802.78	7864
802.923	7875
803.065	7795
803.208	7902
803.35	7936
803.492	8039
803.635	8096
803.777	7951
803.919	8107
804.061	8476
804.204	8168
804.346	8046
804.488	7925
804.63	8096
804.773	7940
804.915	8054
805.057	8221
805.199	8183
805.341	8187
805.483	8225
805.626	8130
805.768	8088
805.91	8172
806.052	8180
806.194	8145
806.336	8252
806.478	8123
806.62	8062
806.762	8115
806.904	8259
807.046	8533
807.188	8366
807.33	8286
807.472	8332
807.614	8103
807.756	8172
807.898	7955
808.04	7864
808.182	7928
808.324	7822
808.465	7890
808.607	8012
808.749	8081
808.891	8176
809.033	8317
809.174	8202
809.316	8092
809.458	8043
809.6	7993
809.741	8069
809.883	8008
810.025	8081
810.166	8069
810.308	8035
810.45	7993
810.591	7837
810.733	7700
810.875	7594
811.016	7487
811.158	7460
811.299	7567
811.441	7689
811.582	7681
811.724	7582
811.865	7529
812.007	7544
812.148	7518
812.29	7575
812.431	7784
812.573	7902
812.714	7993
812.855	8111
812.997	8199
813.138	8343
813.279	8172
813.421	8084
813.562	7997
813.703	7746
813.845	7696
813.986	7468
814.127	7270
814.268	7232
814.41	7251
814.551	7156
814.692	7206
814.833	7069
814.974	7069
815.115	7137
815.256	6981
815.397	6954
815.539	6920
815.68	6772
815.821	6798
815.962	6783
816.103	6779
816.244	6707
816.385	6566
816.526	6585
816.666	6456
816.807	6311
816.948	6456
817.089	6456
817.23	6399
817.371	6369
817.512	6338
817.653	6429
817.793	6342
817.934	6342
818.075	6418
818.216	6391
818.356	6422
818.497	6254
818.638	6129
818.778	6213
818.919	6098
819.06	6148
819.2	6296
819.341	6346
819.481	6403
819.622	6483
819.762	6734
819.903	6700
820.043	6616
820.184	6597
820.324	6540
820.465	6696
820.605	6665
820.746	6616
820.886	6418
821.026	6658
821.167	6688
821.307	6753
821.447	6707
821.588	6639
821.728	6616
821.868	6483
822.008	6311
822.149	6331
822.289	6319
822.429	6159
822.569	6072
822.709	6133
822.849	5965
822.99	5935
823.13	5923
823.27	5893
823.41	5813
823.55	5737
823.69	5767
823.83	5718
823.97	5672
824.11	5497
824.25	5543
824.389	5554
824.529	5573
824.669	5467
824.809	5672
824.949	5596
825.089	5516
825.228	5562
825.368	5360
825.508	5292
825.648	5349
825.787	5448
825.927	5334
826.067	5273
826.206	5307
826.346	5425
826.485	5387
826.625	5421
826.765	5551
826.904	5467
827.044	5258
827.183	5181
827.323	5113
827.462	5235
827.601	5178
827.741	5155
827.88	5204
828.02	5124
828.159	5220
828.298	5341
828.437	5349
828.577	5277
828.716	5448
828.855	5311
828.994	5170
829.134	5185
829.273	5170
829.412	5170
829.551	5166
829.69	5121
829.829	5250
829.968	5357
830.107	5292
830.246	5288
830.385	5227
830.524	5147
830.663	5102
830.802	5033
830.941	4854
831.08	4870
831.219	4999
831.357	5003
831.496	5185
831.635	4965
831.774	4892
831.913	4892
832.051	4828
832.19	4805
832.329	4854
832.467	4714
832.606	4653
832.744	4805
832.883	4710
833.022	4771
833.16	4858
833.299	4892
833.437	4824
833.576	4862
833.714	4877
833.852	4927
833.991	4957
834.129	5029
834.267	5022
834.406	4911
834.544	5006
834.682	5018
834.821	5006
834.959	5178
835.097	5067
835.235	5220
835.373	5159
835.511	5124
835.65	5010
835.788	5029
835.926	4942
836.064	4866
836.202	4957
836.34	5201
836.478	5204
836.615	5155
836.753	5239
836.891	5318
837.029	5250
837.167	5159
837.305	5189
837.443	5155
837.58	5086
837.718	5258
837.856	5231
837.993	5208
838.131	5277
838.269	5273
838.406	5220
838.544	5201
838.681	5105
838.819	5022
838.956	4911
839.094	4980
839.231	5060
839.369	5124
839.506	5395
839.643	5296
839.781	5105
839.918	4980
840.055	5113
840.193	5109
840.33	5124
840.467	5212
840.604	5208
840.742	5482
840.879	5060
841.016	5140
841.153	5178
841.29	5406
841.427	5406
841.564	5379
841.701	5417
841.838	5280
841.975	5269
842.112	5292
842.249	5151
842.385	5147
842.522	5330
842.659	5204
842.796	5170
842.933	5227
843.069	5140
843.206	5185
843.343	5334
843.479	5216
843.616	5277
843.752	5022
843.889	4991
844.025	5254
844.162	5052
844.298	5254
844.435	5052
844.571	5041
844.708	5204
844.844	5326
844.98	5395
845.117	5284
845.253	5151
845.389	5060
845.525	5132
845.661	5155
845.798	5052
845.934	5155
846.07	5105
846.206	5220
846.342	5315
846.478	5220
846.614	5064
846.75	5014
846.886	4949
847.022	5140
847.158	5048
847.294	5056
847.429	5166
847.565	5090
847.701	5353
847.837	4877
847.972	4831
848.108	4957
848.244	4965
848.379	4752
848.515	4786
848.65	4714
848.786	4801
848.921	4801
849.057	4858
849.192	4896
849.328	4778
849.463	4870
849.598	4839
849.734	4748
849.869	4767
850.004	4725
850.14	4702
850.275	4607
850.41	4573
850.545	4573
850.68	4630
850.815	4611
850.95	4664
851.085	4858
851.22	4805
851.355	4687
851.49	4580
851.625	4714
851.76	4664
851.895	4599
852.03	4542
852.165	4645
852.299	4714
852.434	4831
852.569	4759
852.703	4828
852.838	4904
852.973	4934
853.107	4915
853.242	4763
853.376	4717
853.511	4580
853.645	4637
853.78	4858
853.914	4706
854.048	4698
854.183	4691
854.317	4721
854.451	4831
854.585	4702
854.72	4694
854.854	4786
854.988	4588
855.122	4679
855.256	4569
855.39	4679
855.524	4801
855.658	4736
855.792	4759
855.926	4748
856.06	4797
856.194	4786
856.327	4710
856.461	4607
856.595	4634
856.729	4687
856.862	4809
856.996	4736
857.13	4786
857.263	4812
857.397	4866
857.53	4637
857.664	4740
857.797	4793
857.931	4793
858.064	4733
858.197	4744
858.331	4706
858.464	4611
858.597	4569
858.731	4694
858.864	4634
858.997	4596
859.13	4664
859.263	4714
859.396	4694
859.529	4588
859.662	4596
859.795	4592
859.928	4656
860.061	4858
860.194	4812
860.327	4691
860.46	4565
860.592	4717
860.725	4721
860.858	4763
860.99	4660
861.123	4531
861.256	4550
861.388	4656
861.521	5516
861.653	4516
861.786	4459
861.918	4500
862.05	4550
862.183	4565
862.315	4577
862.447	4653
862.58	4584
862.712	4428
862.844	4363
862.976	4519
863.108	4481
863.24	4786
863.372	4348
863.504	4459
863.636	4432
863.768	4493
863.9	4481
864.032	4413
864.164	4466
864.296	4519
864.428	4531
864.559	4577
864.691	4531
864.823	4535
864.954	4500
865.086	4512
865.217	4519
865.349	4421
865.48	4481
865.612	4508
865.743	4599
865.875	4493
866.006	4451
866.137	4455
866.269	4478
866.4	4481
866.531	4489
866.662	4402
866.793	4421
866.924	4440
867.055	4546
867.186	4409
867.317	4428
867.448	4371
867.579	4398
867.71	4447
867.841	4390
867.972	4485
868.103	4481
868.233	4504
868.364	4443
868.495	4527
868.625	4710
868.756	4740
868.886	4554
869.017	4611
869.147	4786
869.278	4763
869.408	4641
869.539	4660
869.669	4736
869.799	4660
869.929	4774
870.06	4752
870.19	4957
870.32	4957
870.45	5022
870.58	4995
870.71	5102
870.84	5105
870.97	4968
871.1	4957
871.23	5178
871.36	5124
871.489	5067
871.619	5140
871.749	5140
871.879	5098
872.008	5162
872.138	5075
872.267	5003
872.397	4843
872.526	4797
872.656	4759
872.785	4820
872.915	4968
873.044	5010
873.173	4949
873.303	4972
873.432	4999
873.561	4972
873.69	4904
873.819	4835
873.948	4961
874.077	4805
874.206	4805
874.335	4828
874.464	4949
874.593	5025
874.722	4980
874.851	5117
874.979	5109
875.108	5075
875.237	4942
875.365	4862
875.494	4908
875.623	5037
875.751	4812
875.88	4896
876.008	4968
876.136	5037
876.265	5258
876.393	5357
876.521	5265
876.65	5258
876.778	5220
876.906	5083
877.034	4991
877.162	5045
877.29	5022
877.418	5083
877.546	5048
877.674	5033
877.802	5045
877.93	5006
878.058	4953
878.185	4858
878.313	4965
878.441	5006
878.568	4790
878.696	4927
878.824	5018
878.951	5014
879.079	5132
879.206	5284
879.333	5162
879.461	5022
879.588	5003
879.715	5132
879.842	5242
879.97	5033
880.097	4820
880.224	4793
880.351	4843
880.478	4854
880.605	4752
880.732	4771
880.859	5117
880.986	4900
881.112	4968
881.239	4717
881.366	4672
881.493	4615
881.619	4577
881.746	4615
881.872	4698
881.999	4675
882.125	4725
882.252	4812
882.378	4820
882.505	4957
882.631	4816
882.757	4694
882.883	4786
883.01	4763
883.136	4675
883.262	4637
883.388	4622
883.514	4824
883.64	4877
883.766	4793
883.892	4694
884.018	4721
884.143	4915
884.269	4995
884.395	4702
884.52	4599
884.646	4691
884.772	4550
884.897	4558
885.023	4694
885.148	4793
885.274	4889
885.399	4835
885.524	4691
885.65	4683
885.775	4767
885.9	4755
886.025	4835
886.15	4831
886.275	4725
886.4	4668
886.525	4694
886.65	4729
886.775	4649
886.9	4919
887.025	5010
887.149	4816
887.274	4637
887.399	4577
887.523	4618
887.648	4573
887.773	4634
887.897	4805
888.021	4771
888.146	4675
888.27	4820
888.395	4911
888.519	4820
888.643	4790
888.767	4896
888.891	4717
889.015	4622
889.139	4656
889.263	4630
889.387	4774
889.511	4900
889.635	4778
889.759	4599
889.883	4649
890.006	4740
890.13	4847
890.254	4607
890.377	4672
890.501	4561
890.624	4516
890.748	4618
890.871	4542
890.995	4466
891.118	4390
891.241	4558
891.364	4615
891.488	4649
891.611	4527
891.734	4573
891.857	4603
891.98	4588
892.103	4653
892.226	4603
892.349	4546
892.471	4447
892.594	4538
892.717	4626
892.839	4584
892.962	4596
893.085	4649
893.207	4607
893.33	4493
893.452	4577
893.575	4672
893.697	4554
893.819	4812
893.941	4847
894.064	4733
894.186	4603
894.308	4596
894.43	4790
894.552	4767
894.674	4782
894.796	4596
894.918	4634
895.04	4656
895.161	4698
895.283	4679
895.405	4550
895.526	4660
895.648	4740
895.769	4714
895.891	4664
896.012	4767
896.134	4702
896.255	4660
896.376	4588
896.498	4637
896.619	4637
896.74	4577
896.861	4607
896.982	4930
897.103	5181
897.224	4873
897.345	4717
897.466	4767
897.587	4748
897.708	4870
897.828	4839
897.949	4687
898.07	4554
898.19	4599
898.311	4839
898.431	4733
898.552	4786
898.672	4774
898.792	4824
898.913	4729
899.033	4656
899.153	4474
899.273	4440
899.393	4466
899.513	4512
899.633	4527
899.753	4558
899.873	4546
899.993	4569
900.113	4538
900.232	4546
900.352	4569
900.472	4523
900.591	4432
900.711	4481
900.83	4451
900.95	4626
901.069	4679
901.189	4573
901.308	4360
901.427	4337
901.546	4379
901.665	4443
901.784	4512
901.904	4405
902.023	4291
902.141	4223
902.26	4166
902.379	4322
902.498	4242
902.617	4234
902.735	4394
902.854	4421
902.973	4360
903.091	4154
903.21	4253
903.328	4322
903.446	4227
903.565	4246
903.683	4322
903.801	4291
903.919	4409
904.038	4447
904.156	4303
904.274	4421
904.392	4417
904.51	4455
904.627	4474
904.745	4527
904.863	4577
904.981	4371
905.098	4329
905.216	4341
905.334	4417
905.451	4470
905.569	4436
905.686	4535
905.803	4531
905.921	4402
906.038	4569
906.155	4516
906.272	4405
906.389	4508
906.506	4337
906.623	4402
906.74	4386
906.857	4348
906.974	4379
907.091	4641
907.208	4694
907.324	4516
907.441	4542
907.557	4325
907.674	4375
907.79	4367
907.907	4363
908.023	4493
908.139	4474
908.256	4417
908.372	4478
908.488	4436
908.604	4371
908.72	4341
908.836	4341
908.952	4409
909.068	4428
909.184	4580
909.3	4443
909.415	4603
909.531	4577
909.647	4356
909.762	4386
909.878	4367
909.993	4436
910.108	4371
910.224	4436
910.339	4466
910.454	4421
910.57	4386
910.685	4299
910.8	4721
910.915	4637
911.03	4497
911.145	4299
911.259	4341
911.374	4333
911.489	4295
911.604	4246
911.718	4177
911.833	4196
911.947	4131
912.062	4032
912.176	4177
912.291	4268
912.405	4219
912.519	4470
912.633	4519
912.748	4348
912.862	4344
912.976	4257
913.09	4147
913.204	4154
913.318	4280
913.431	4421
913.545	4363
913.659	4440
913.772	4329
913.886	4204
914	4219
914.113	4375
914.226	4409
914.34	4375
914.453	4223
914.566	4443
914.68	4284
914.793	4322
914.906	4128
915.019	4105
915.132	4055
915.245	4162
915.358	4234
915.47	4185
915.583	4249
915.696	4329
915.809	4443
915.921	4432
916.034	4287
916.146	4272
916.259	4207
916.371	4363
916.483	4363
916.595	4249
916.708	4325
916.82	4291
916.932	4341
917.044	4310
917.156	4348
917.268	4265
917.38	4291
917.491	4261
917.603	4348
917.715	4428
917.826	4451
917.938	4341
918.049	4215
918.161	4394
918.272	4550
918.384	4546
918.495	4421
918.606	4291
918.717	4261
918.828	4341
918.939	4367
919.05	4249
919.161	4284
919.272	4150
919.383	4230
919.494	4405
919.604	4649
919.715	4443
919.826	4337
919.936	4402
920.047	4531
920.157	4512
920.267	4694
920.378	4603
920.488	4485
920.598	4725
920.708	4862
920.818	4831
920.928	4763
921.038	4976
921.148	4915
921.258	4607
921.368	4596
921.477	4504
921.587	4485
921.697	4341
921.806	4531
921.916	4455
922.025	4249
922.134	4287
922.244	4246
922.353	4333
922.462	4128
922.571	4150
922.68	3991
922.789	3983
922.898	4036
923.007	4017
923.116	4109
923.224	4097
923.333	4013
923.442	3983
923.55	3998
923.659	3998
923.767	4074
923.876	4021
923.984	4109
924.092	3987
924.201	4078
924.309	4074
924.417	4112
924.525	4082
924.633	4071
924.741	4915
924.849	3911
924.956	4135
925.064	3945
925.172	3861
925.279	3983
925.387	4025
925.494	4093
925.602	4227
925.709	4181
925.816	4074
925.924	4116
926.031	4200
926.138	4143
926.245	4207
926.352	4090
926.459	4253
926.566	4306
926.673	4173
926.779	4036
926.886	4097
926.993	3983
927.099	3949
927.206	3922
927.312	3945
927.419	4029
927.525	4078
927.631	4086
927.737	3949
927.843	3945
927.95	3831
928.056	3972
928.162	3983
928.267	4036
928.373	4637
928.479	4112
928.585	3827
928.69	4025
928.796	4074
928.901	3930
929.007	3854
929.112	3994
929.218	3945
929.323	3956
929.428	3960
929.533	4131
929.638	3934
929.743	3956
929.848	4093
929.953	3987
930.058	3930
930.163	3751
930.267	3861
930.372	3953
930.477	3812
930.581	4105
930.685	3960
930.79	3850
930.894	3873
930.998	3865
931.103	3994
931.207	3713
931.311	3656
931.415	3682
931.519	3534
931.623	3553
