Data from test_V78500241_2083.txt Node
Date: Fri Mar 25 17:03:29 CST 2022
User: usil
Spectrometer: V785-0024
Trigger mode: 0
Integration Time (sec): 4.000000E-1
Scans to average: 1
Nonlinearity correction enabled: false
Boxcar width: 0
Storing dark spectrum: false
XAxis mode: Wavelengths
Number of Pixels in Spectrum: 1024
>>>>>Begin Spectral Data<<<<<
801.071	7989
801.214	7974
801.356	7833
801.499	7807
801.641	7765
801.783	7746
801.926	7982
802.068	7909
802.211	7963
802.353	7967
802.496	7890
802.638	7841
802.78	7917
802.923	7902
803.065	7826
803.208	7871
803.35	7940
803.492	8050
803.635	8130
803.777	7959
803.919	8115
804.061	8438
804.204	8145
804.346	8020
804.488	7982
804.63	8039
804.773	8050
804.915	8107
805.057	8271
805.199	8123
805.341	8161
805.483	8248
805.626	8134
805.768	8069
805.91	8218
806.052	8180
806.194	8084
806.336	8324
806.478	8111
806.62	8054
806.762	8168
806.904	8324
807.046	8495
807.188	8358
807.33	8328
807.472	8313
807.614	8103
807.756	8168
807.898	7974
808.04	7928
808.182	7894
808.324	7928
808.465	7898
808.607	8092
808.749	8096
808.891	8206
809.033	8301
809.174	8214
809.316	8020
809.458	8050
809.6	7928
809.741	7997
809.883	7951
810.025	8024
810.166	8050
810.308	8024
810.45	8008
810.591	7830
810.733	7712
810.875	7666
811.016	7521
811.158	7476
811.299	7540
811.441	7704
811.582	7643
811.724	7544
811.865	7518
812.007	7594
812.148	7594
812.29	7597
812.431	7757
812.573	7841
812.714	7936
812.855	8081
812.997	8233
813.138	8286
813.279	8119
813.421	8107
813.562	7936
813.703	7803
813.845	7757
813.986	7407
814.127	7263
814.268	7244
814.41	7232
814.551	7133
814.692	7240
814.833	7084
814.974	7088
815.115	7129
815.256	6928
815.397	6890
815.539	6958
815.68	6802
815.821	6764
815.962	6852
816.103	6810
816.244	6673
816.385	6612
816.526	6631
816.666	6566
816.807	6327
816.948	6483
817.089	6509
817.23	6452
817.371	6365
817.512	6327
817.653	6334
817.793	6391
817.934	6395
818.075	6441
818.216	6418
818.356	6422
818.497	6289
818.638	6144
818.778	6194
818.919	6125
819.06	6106
819.2	6369
819.341	6334
819.481	6403
819.622	6517
819.762	6730
819.903	6665
820.043	6597
820.184	6574
820.324	6585
820.465	6692
820.605	6688
820.746	6669
820.886	6540
821.026	6642
821.167	6738
821.307	6856
821.447	6719
821.588	6662
821.728	6627
821.868	6456
822.008	6350
822.149	6391
822.289	6357
822.429	6129
822.569	6144
822.709	6098
822.849	5939
822.99	5851
823.13	5901
823.27	5859
823.41	5817
823.55	5764
823.69	5699
823.83	5771
823.97	5695
824.11	5505
824.25	5478
824.389	5585
824.529	5634
824.669	5543
824.809	5608
824.949	5661
825.089	5657
825.228	5585
825.368	5360
825.508	5303
825.648	5311
825.787	5349
825.927	5326
826.067	5330
826.206	5299
826.346	5341
826.485	5436
826.625	5391
826.765	5524
826.904	5471
827.044	5277
827.183	5181
827.323	5140
827.462	5220
827.601	5166
827.741	5189
827.88	5250
828.02	5098
828.159	5235
828.298	5269
828.437	5357
828.577	5292
828.716	5467
828.855	5307
828.994	5140
829.134	5162
829.273	5181
829.412	5162
829.551	5121
829.69	5143
829.829	5208
829.968	5345
830.107	5318
830.246	5277
830.385	5155
830.524	5162
830.663	5132
830.802	4976
830.941	4847
831.08	4873
831.219	4965
831.357	4930
831.496	5159
831.635	4957
831.774	4828
831.913	4889
832.051	4759
832.19	4774
832.329	4820
832.467	4683
832.606	4653
832.744	4736
832.883	4717
833.022	4710
833.16	4763
833.299	4771
833.437	4828
833.576	4831
833.714	4870
833.852	4854
833.991	4828
834.129	4949
834.267	4976
834.406	4946
834.544	4995
834.682	4961
834.821	4995
834.959	5143
835.097	4991
835.235	5170
835.373	5090
835.511	5090
835.65	5018
835.788	4980
835.926	4881
836.064	4873
836.202	4927
836.34	5113
836.478	5223
836.615	5090
836.753	5201
836.891	5288
837.029	5277
837.167	5178
837.305	5113
837.443	5124
837.58	5064
837.718	5296
837.856	5204
837.993	5140
838.131	5292
838.269	5181
838.406	5208
838.544	5220
838.681	4984
838.819	4961
838.956	4896
839.094	4870
839.231	5014
839.369	5025
839.506	5429
839.643	5250
839.781	5083
839.918	5022
840.055	5079
840.193	5037
840.33	5109
840.467	5136
840.604	5178
840.742	5429
840.879	5060
841.016	5094
841.153	5197
841.29	5402
841.427	5311
841.564	5292
841.701	5322
841.838	5261
841.975	5223
842.112	5277
842.249	5109
842.385	5121
842.522	5292
842.659	5178
842.796	5170
842.933	5143
843.069	5151
843.206	5212
843.343	5311
843.479	5288
843.616	5254
843.752	5041
843.889	5010
844.025	5208
844.162	5029
844.298	5216
844.435	5079
844.571	5033
844.708	5204
844.844	5307
844.98	5322
845.117	5277
845.253	5159
845.389	5090
845.525	5140
845.661	5105
845.798	4987
845.934	5155
846.07	5045
846.206	5208
846.342	5284
846.478	5166
846.614	5067
846.75	4938
846.886	4961
847.022	5178
847.158	5041
847.294	5090
847.429	5071
847.565	5052
847.701	5311
847.837	4831
847.972	4809
848.108	4968
848.244	4938
848.379	4828
848.515	4721
848.65	4710
848.786	4725
848.921	4778
849.057	4835
849.192	4900
849.328	4733
849.463	4854
849.598	4752
849.734	4812
849.869	4672
850.004	4683
850.14	4672
850.275	4569
850.41	4504
850.545	4538
850.68	4615
850.815	4664
850.95	4634
851.085	4847
851.22	4714
851.355	4660
851.49	4554
851.625	4656
851.76	4645
851.895	4607
852.03	4538
852.165	4641
852.299	4740
852.434	4698
852.569	4710
852.703	4771
852.838	4831
852.973	4930
853.107	4904
853.242	4763
853.376	4660
853.511	4550
853.645	4607
853.78	4752
853.914	4634
854.048	4626
854.183	4675
854.317	4752
854.451	4786
854.585	4702
854.72	4664
854.854	4759
854.988	4641
855.122	4649
855.256	4516
855.39	4672
855.524	4759
855.658	4706
855.792	4675
855.926	4740
856.06	4744
856.194	4805
856.327	4630
856.461	4588
856.595	4561
856.729	4634
856.862	4729
856.996	4653
857.13	4736
857.263	4759
857.397	4820
857.53	4611
857.664	4744
857.797	4771
857.931	4790
858.064	4672
858.197	4725
858.331	4641
858.464	4626
858.597	4504
858.731	4630
858.864	4630
858.997	4535
859.13	4672
859.263	4611
859.396	4694
859.529	4561
859.662	4561
859.795	4508
859.928	4626
860.061	4771
860.194	4786
860.327	4618
860.46	4512
860.592	4698
860.725	4668
860.858	4694
860.99	4596
861.123	4504
861.256	4538
861.388	4596
861.521	5357
861.653	4489
861.786	4436
861.918	4440
862.05	4531
862.183	4561
862.315	4569
862.447	4577
862.58	4519
862.712	4432
862.844	4337
862.976	4493
863.108	4440
863.24	4809
863.372	4363
863.504	4409
863.636	4375
863.768	4497
863.9	4466
864.032	4344
864.164	4367
864.296	4493
864.428	4527
864.559	4573
864.691	4550
864.823	4478
864.954	4474
865.086	4538
865.217	4428
865.349	4432
865.48	4436
865.612	4508
865.743	4618
865.875	4504
866.006	4413
866.137	4493
866.269	4455
866.4	4451
866.531	4436
866.662	4440
866.793	4466
866.924	4455
867.055	4470
867.186	4436
867.317	4398
867.448	4379
867.579	4409
867.71	4386
867.841	4390
867.972	4459
868.103	4432
868.233	4443
868.364	4398
868.495	4504
868.625	4630
868.756	4786
868.886	4558
869.017	4630
869.147	4755
869.278	4759
869.408	4660
869.539	4626
869.669	4706
869.799	4679
869.929	4748
870.06	4694
870.19	4915
870.32	4946
870.45	4900
870.58	5006
870.71	5033
870.84	5090
870.97	4961
871.1	4904
871.23	5098
871.36	5117
871.489	4995
871.619	5033
871.749	5083
871.879	5136
872.008	5166
872.138	5033
872.267	4999
872.397	4805
872.526	4816
872.656	4687
872.785	4809
872.915	4987
873.044	4987
873.173	4999
873.303	4915
873.432	4946
873.561	4961
873.69	4892
873.819	4820
873.948	4923
874.077	4843
874.206	4744
874.335	4752
874.464	4923
874.593	5045
874.722	4987
874.851	5098
874.979	5086
875.108	5052
875.237	4949
875.365	4896
875.494	4877
875.623	4968
875.751	4850
875.88	4896
876.008	4984
876.136	4991
876.265	5220
876.393	5341
876.521	5258
876.65	5235
876.778	5159
876.906	5045
877.034	5025
877.162	5048
877.29	4972
877.418	5048
877.546	5060
877.674	5029
877.802	5014
877.93	4987
878.058	4987
878.185	4915
878.313	4980
878.441	4934
878.568	4812
878.696	4839
878.824	4942
878.951	5003
879.079	5181
879.206	5250
879.333	5117
879.461	4934
879.588	5014
879.715	5098
879.842	5197
879.97	5037
880.097	4763
880.224	4714
880.351	4866
880.478	4835
880.605	4786
880.732	4835
880.859	5094
880.986	4858
881.112	4858
881.239	4755
881.366	4645
881.493	4664
881.619	4565
881.746	4599
881.872	4664
881.999	4645
882.125	4672
882.252	4755
882.378	4816
882.505	4938
882.631	4820
882.757	4641
882.883	4733
883.01	4759
883.136	4679
883.262	4596
883.388	4618
883.514	4771
883.64	4793
883.766	4805
883.892	4637
884.018	4691
884.143	4946
884.269	4991
884.395	4687
884.52	4630
884.646	4622
884.772	4611
884.897	4596
885.023	4622
885.148	4755
885.274	4812
885.399	4786
885.524	4752
885.65	4653
885.775	4763
885.9	4710
886.025	4889
886.15	4786
886.275	4774
886.4	4637
886.525	4774
886.65	4637
886.775	4691
886.9	4904
887.025	5052
887.149	4824
887.274	4691
887.399	4580
887.523	4538
887.648	4580
887.773	4565
887.897	4767
888.021	4801
888.146	4653
888.27	4839
888.395	4885
888.519	4820
888.643	4824
888.767	4850
888.891	4645
889.015	4599
889.139	4618
889.263	4603
889.387	4740
889.511	4873
889.635	4809
889.759	4630
889.883	4611
890.006	4698
890.13	4820
890.254	4588
890.377	4698
890.501	4592
890.624	4500
890.748	4618
890.871	4508
890.995	4455
891.118	4413
891.241	4546
891.364	4542
891.488	4645
891.611	4512
891.734	4527
891.857	4599
891.98	4554
892.103	4668
892.226	4626
892.349	4558
892.471	4474
892.594	4542
892.717	4592
892.839	4550
892.962	4577
893.085	4706
893.207	4599
893.33	4413
893.452	4554
893.575	4626
893.697	4577
893.819	4786
893.941	4843
894.064	4748
894.186	4565
894.308	4565
894.43	4714
894.552	4847
894.674	4778
894.796	4558
894.918	4626
895.04	4558
895.161	4660
895.283	4675
895.405	4531
895.526	4710
895.648	4702
895.769	4687
895.891	4710
896.012	4740
896.134	4729
896.255	4721
896.376	4607
896.498	4592
896.619	4664
896.74	4611
896.861	4626
896.982	4877
897.103	5033
897.224	4824
897.345	4698
897.466	4706
897.587	4759
897.708	4831
897.828	4759
897.949	4656
898.07	4577
898.19	4679
898.311	4801
898.431	4683
898.552	4702
898.672	4805
898.792	4816
898.913	4714
899.033	4611
899.153	4527
899.273	4432
899.393	4470
899.513	4485
899.633	4546
899.753	4546
899.873	4504
899.993	4611
900.113	4504
900.232	4618
900.352	4497
900.472	4459
900.591	4337
900.711	4462
900.83	4474
900.95	4634
901.069	4634
901.189	4523
901.308	4363
901.427	4306
901.546	4337
901.665	4497
901.784	4516
901.904	4394
902.023	4322
902.141	4204
902.26	4139
902.379	4303
902.498	4253
902.617	4200
902.735	4360
902.854	4383
902.973	4329
903.091	4230
903.21	4234
903.328	4325
903.446	4215
903.565	4223
903.683	4375
903.801	4303
903.919	4371
904.038	4436
904.156	4322
904.274	4424
904.392	4402
904.51	4428
904.627	4466
904.745	4554
904.863	4672
904.981	4379
905.098	4287
905.216	4367
905.334	4405
905.451	4409
905.569	4394
905.686	4588
905.803	4611
905.921	4398
906.038	4565
906.155	4466
906.272	4432
906.389	4428
906.506	4341
906.623	4348
906.74	4383
906.857	4329
906.974	4314
907.091	4577
907.208	4649
907.324	4573
907.441	4470
907.557	4379
907.674	4348
907.79	4253
907.907	4379
908.023	4474
908.139	4447
908.256	4417
908.372	4504
908.488	4432
908.604	4367
908.72	4348
908.836	4344
908.952	4344
909.068	4421
909.184	4622
909.3	4474
909.415	4577
909.531	4535
909.647	4318
909.762	4348
909.878	4329
909.993	4447
910.108	4398
910.224	4390
910.339	4485
910.454	4428
910.57	4394
910.685	4291
910.8	4618
910.915	4588
911.03	4428
911.145	4318
911.259	4333
911.374	4352
911.489	4344
911.604	4280
911.718	4219
911.833	4181
911.947	4078
912.062	4029
912.176	4139
912.291	4204
912.405	4215
912.519	4459
912.633	4508
912.748	4287
912.862	4329
912.976	4196
913.09	4116
913.204	4177
913.318	4230
913.431	4367
913.545	4371
913.659	4424
913.772	4386
913.886	4257
914	4200
914.113	4375
914.226	4466
914.34	4455
914.453	4223
914.566	4405
914.68	4268
914.793	4348
914.906	4135
915.019	4120
915.132	4051
915.245	4196
915.358	4215
915.47	4242
915.583	4276
915.696	4272
915.809	4383
915.921	4443
916.034	4242
916.146	4234
916.259	4246
916.371	4363
916.483	4352
916.595	4268
916.708	4318
916.82	4306
916.932	4329
917.044	4318
917.156	4268
917.268	4204
917.38	4253
917.491	4265
917.603	4356
917.715	4440
917.826	4432
917.938	4371
918.049	4246
918.161	4402
918.272	4531
918.384	4535
918.495	4451
918.606	4325
918.717	4192
918.828	4303
918.939	4417
919.05	4234
919.161	4318
919.272	4128
919.383	4261
919.494	4455
919.604	4626
919.715	4409
919.826	4371
919.936	4390
920.047	4542
920.157	4519
920.267	4687
920.378	4577
920.488	4474
920.598	4748
920.708	4854
920.818	4744
920.928	4774
921.038	4934
921.148	4862
921.258	4637
921.368	4538
921.477	4512
921.587	4466
921.697	4318
921.806	4550
921.916	4424
922.025	4246
922.134	4287
922.244	4242
922.353	4272
922.462	4173
922.571	4109
922.68	3964
922.789	3968
922.898	4071
923.007	3964
923.116	4112
923.224	4074
923.333	4067
923.442	3994
923.55	3968
923.659	4002
923.767	4090
923.876	4002
923.984	4124
924.092	3960
924.201	4059
924.309	4074
924.417	4128
924.525	4074
924.633	4063
924.741	5071
924.849	3941
924.956	4147
925.064	3922
925.172	3888
925.279	3991
925.387	4093
925.494	4059
925.602	4227
925.709	4173
925.816	4051
925.924	4139
926.031	4215
926.138	4143
926.245	4207
926.352	4093
926.459	4238
926.566	4306
926.673	4169
926.779	4090
926.886	4109
926.993	3926
927.099	3983
927.206	3964
927.312	3937
927.419	4063
927.525	4029
927.631	4071
927.737	3926
927.843	3949
927.95	3804
928.056	3964
928.162	3934
928.267	4036
928.373	4558
928.479	4112
928.585	3850
928.69	4002
928.796	4002
928.901	3983
929.007	3827
929.112	3994
929.218	3998
929.323	3930
929.428	3922
929.533	4147
929.638	3876
929.743	3979
929.848	4078
929.953	4029
930.058	3903
930.163	3751
930.267	3896
930.372	3994
930.477	3812
930.581	4086
930.685	3941
930.79	3812
930.894	3892
930.998	3808
931.103	4029
931.207	3732
931.311	3690
931.415	3690
931.519	3515
931.623	3515
