Data from test_V78500241_1512.txt Node
Date: Fri Mar 25 16:59:30 CST 2022
User: usil
Spectrometer: V785-0024
Trigger mode: 0
Integration Time (sec): 4.000000E-1
Scans to average: 1
Nonlinearity correction enabled: false
Boxcar width: 0
Storing dark spectrum: false
XAxis mode: Wavelengths
Number of Pixels in Spectrum: 1024
>>>>>Begin Spectral Data<<<<<
801.071	8012
801.214	8050
801.356	7902
801.499	7833
801.641	7765
801.783	7845
801.926	7932
802.068	7986
802.211	8046
802.353	8043
802.496	7830
802.638	7902
802.78	7875
802.923	7963
803.065	7830
803.208	7917
803.35	7944
803.492	8027
803.635	8119
803.777	7993
803.919	8187
804.061	8408
804.204	8149
804.346	7997
804.488	7925
804.63	8046
804.773	7963
804.915	8176
805.057	8313
805.199	8103
805.341	8248
805.483	8248
805.626	8153
805.768	8142
805.91	8218
806.052	8225
806.194	8107
806.336	8313
806.478	8172
806.62	8027
806.762	8142
806.904	8221
807.046	8415
807.188	8404
807.33	8339
807.472	8294
807.614	8115
807.756	8111
807.898	7932
808.04	7875
808.182	7883
808.324	7883
808.465	7936
808.607	8153
808.749	8187
808.891	8218
809.033	8248
809.174	8218
809.316	8111
809.458	8062
809.6	8027
809.741	8069
809.883	8062
810.025	8119
810.166	8039
810.308	8077
810.45	7989
810.591	7845
810.733	7689
810.875	7677
811.016	7521
811.158	7476
811.299	7658
811.441	7765
811.582	7696
811.724	7636
811.865	7491
812.007	7556
812.148	7567
812.29	7639
812.431	7712
812.573	7887
812.714	7978
812.855	8161
812.997	8252
813.138	8286
813.279	8172
813.421	8126
813.562	7974
813.703	7879
813.845	7715
813.986	7438
814.127	7247
814.268	7255
814.41	7206
814.551	7145
814.692	7171
814.833	7057
814.974	7091
815.115	7118
815.256	6913
815.397	6943
815.539	6939
815.68	6818
815.821	6791
815.962	6928
816.103	6783
816.244	6726
816.385	6578
816.526	6593
816.666	6498
816.807	6311
816.948	6445
817.089	6456
817.23	6467
817.371	6384
817.512	6369
817.653	6403
817.793	6308
817.934	6437
818.075	6460
818.216	6399
818.356	6331
818.497	6228
818.638	6144
818.778	6144
818.919	6163
819.06	6152
819.2	6289
819.341	6327
819.481	6399
819.622	6551
819.762	6760
819.903	6787
820.043	6601
820.184	6597
820.324	6536
820.465	6700
820.605	6642
820.746	6662
820.886	6490
821.026	6696
821.167	6669
821.307	6783
821.447	6806
821.588	6703
821.728	6582
821.868	6525
822.008	6319
822.149	6388
822.289	6365
822.429	6152
822.569	6038
822.709	6098
822.849	5901
822.99	5916
823.13	5882
823.27	5950
823.41	5794
823.55	5794
823.69	5760
823.83	5718
823.97	5634
824.11	5573
824.25	5524
824.389	5570
824.529	5570
824.669	5512
824.809	5619
824.949	5623
825.089	5665
825.228	5505
825.368	5379
825.508	5299
825.648	5334
825.787	5353
825.927	5376
826.067	5284
826.206	5311
826.346	5395
826.485	5433
826.625	5376
826.765	5501
826.904	5433
827.044	5242
827.183	5181
827.323	5159
827.462	5174
827.601	5151
827.741	5128
827.88	5239
828.02	5037
828.159	5204
828.298	5318
828.437	5337
828.577	5280
828.716	5452
828.855	5318
828.994	5162
829.134	5140
829.273	5136
829.412	5109
829.551	5162
829.69	5155
829.829	5201
829.968	5334
830.107	5220
830.246	5265
830.385	5136
830.524	5136
830.663	5029
830.802	5010
830.941	4885
831.08	4835
831.219	4972
831.357	5006
831.496	5132
831.635	4930
831.774	4839
831.913	4866
832.051	4664
832.19	4744
832.329	4873
832.467	4740
832.606	4656
832.744	4744
832.883	4721
833.022	4717
833.16	4774
833.299	4839
833.437	4774
833.576	4877
833.714	4885
833.852	4824
833.991	4896
834.129	4953
834.267	4934
834.406	4850
834.544	5037
834.682	4946
834.821	4938
834.959	5109
835.097	5029
835.235	5147
835.373	5052
835.511	5045
835.65	4995
835.788	5006
835.926	4881
836.064	4885
836.202	4885
836.34	5216
836.478	5193
836.615	5094
836.753	5189
836.891	5261
837.029	5246
837.167	5239
837.305	5166
837.443	5121
837.58	5083
837.718	5299
837.856	5132
837.993	5105
838.131	5189
838.269	5201
838.406	5201
838.544	5178
838.681	5045
838.819	5018
838.956	4930
839.094	4946
839.231	4968
839.369	5083
839.506	5414
839.643	5292
839.781	5064
839.918	5010
840.055	5109
840.193	5105
840.33	5102
840.467	5181
840.604	5121
840.742	5486
840.879	5045
841.016	5064
841.153	5132
841.29	5326
841.427	5315
841.564	5284
841.701	5349
841.838	5284
841.975	5208
842.112	5265
842.249	5174
842.385	5136
842.522	5315
842.659	5178
842.796	5113
842.933	5124
843.069	5071
843.206	5140
843.343	5345
843.479	5223
843.616	5261
843.752	4999
843.889	4987
844.025	5254
844.162	5041
844.298	5239
844.435	5090
844.571	5010
844.708	5170
844.844	5250
844.98	5299
845.117	5227
845.253	5155
845.389	5094
845.525	5140
845.661	5147
845.798	5067
845.934	5128
846.07	5033
846.206	5147
846.342	5250
846.478	5155
846.614	4976
846.75	4942
846.886	4923
847.022	5117
847.158	5018
847.294	5083
847.429	5098
847.565	5075
847.701	5292
847.837	4854
847.972	4805
848.108	4934
848.244	4896
848.379	4793
848.515	4717
848.65	4710
848.786	4706
848.921	4805
849.057	4843
849.192	4930
849.328	4824
849.463	4820
849.598	4816
849.734	4740
849.869	4679
850.004	4596
850.14	4637
850.275	4592
850.41	4497
850.545	4573
850.68	4588
850.815	4656
850.95	4592
851.085	4850
851.22	4721
851.355	4664
851.49	4622
851.625	4596
851.76	4683
851.895	4565
852.03	4508
852.165	4626
852.299	4752
852.434	4763
852.569	4698
852.703	4763
852.838	4790
852.973	4866
853.107	4911
853.242	4725
853.376	4653
853.511	4531
853.645	4558
853.78	4790
853.914	4641
854.048	4630
854.183	4630
854.317	4668
854.451	4801
854.585	4660
854.72	4649
854.854	4744
854.988	4577
855.122	4603
855.256	4523
855.39	4649
855.524	4782
855.658	4687
855.792	4653
855.926	4748
856.06	4778
856.194	4816
856.327	4675
856.461	4565
856.595	4611
856.729	4584
856.862	4733
856.996	4656
857.13	4725
857.263	4755
857.397	4771
857.53	4611
857.664	4725
857.797	4782
857.931	4774
858.064	4656
858.197	4721
858.331	4607
858.464	4580
858.597	4500
858.731	4615
858.864	4615
858.997	4634
859.13	4656
859.263	4656
859.396	4664
859.529	4558
859.662	4554
859.795	4531
859.928	4573
860.061	4702
860.194	4782
860.327	4588
860.46	4455
860.592	4702
860.725	4717
860.858	4714
860.99	4546
861.123	4516
861.256	4535
861.388	4615
861.521	5288
861.653	4432
861.786	4440
861.918	4440
862.05	4512
862.183	4519
862.315	4569
862.447	4615
862.58	4561
862.712	4371
862.844	4333
862.976	4459
863.108	4424
863.24	4748
863.372	4333
863.504	4413
863.636	4367
863.768	4459
863.9	4451
864.032	4394
864.164	4383
864.296	4459
864.428	4508
864.559	4580
864.691	4478
864.823	4527
864.954	4485
865.086	4538
865.217	4466
865.349	4344
865.48	4424
865.612	4470
865.743	4603
865.875	4459
866.006	4428
866.137	4474
866.269	4417
866.4	4470
866.531	4394
866.662	4383
866.793	4356
866.924	4398
867.055	4489
867.186	4455
867.317	4379
867.448	4413
867.579	4424
867.71	4398
867.841	4318
867.972	4470
868.103	4424
868.233	4447
868.364	4428
868.495	4497
868.625	4615
868.756	4759
868.886	4538
869.017	4596
869.147	4748
869.278	4778
869.408	4672
869.539	4626
869.669	4702
869.799	4603
869.929	4736
870.06	4687
870.19	4946
870.32	4911
870.45	4949
870.58	5003
870.71	5052
870.84	5067
870.97	4968
871.1	4866
871.23	5105
871.36	5174
871.489	5060
871.619	5041
871.749	5064
871.879	5025
872.008	5220
872.138	5075
872.267	4991
872.397	4831
872.526	4767
872.656	4714
872.785	4767
872.915	4927
873.044	5052
873.173	4953
873.303	4934
873.432	4923
873.561	4927
873.69	4831
873.819	4805
873.948	4896
874.077	4805
874.206	4725
874.335	4805
874.464	4946
874.593	5014
874.722	4919
874.851	5075
874.979	5086
875.108	5025
875.237	4919
875.365	4915
875.494	4904
875.623	4938
875.751	4839
875.88	4889
876.008	4923
876.136	5022
876.265	5208
876.393	5288
876.521	5235
876.65	5223
876.778	5124
876.906	5117
877.034	4991
877.162	5052
877.29	4999
877.418	5045
877.546	5014
877.674	4991
877.802	5018
877.93	4980
878.058	4930
878.185	4847
878.313	4972
878.441	4934
878.568	4759
878.696	4889
878.824	4934
878.951	5018
879.079	5124
879.206	5334
879.333	5079
879.461	5022
879.588	5018
879.715	5086
879.842	5258
879.97	4995
880.097	4748
880.224	4759
880.351	4774
880.478	4828
880.605	4790
880.732	4812
880.859	5117
880.986	4835
881.112	4908
881.239	4744
881.366	4634
881.493	4618
881.619	4577
881.746	4637
881.872	4607
881.999	4630
882.125	4630
882.252	4790
882.378	4831
882.505	4949
882.631	4759
882.757	4660
882.883	4687
883.01	4702
883.136	4660
883.262	4531
883.388	4603
883.514	4793
883.64	4877
883.766	4736
883.892	4645
884.018	4710
884.143	4870
884.269	4942
884.395	4687
884.52	4592
884.646	4637
884.772	4596
884.897	4573
885.023	4660
885.148	4797
885.274	4873
885.399	4793
885.524	4641
885.65	4645
885.775	4706
885.9	4702
886.025	4831
886.15	4786
886.275	4717
886.4	4641
886.525	4714
886.65	4702
886.775	4759
886.9	4934
887.025	4957
887.149	4809
887.274	4607
887.399	4565
887.523	4550
887.648	4561
887.773	4558
887.897	4797
888.021	4797
888.146	4683
888.27	4790
888.395	4870
888.519	4854
888.643	4847
888.767	4866
888.891	4634
889.015	4645
889.139	4615
889.263	4584
889.387	4778
889.511	4797
889.635	4767
889.759	4592
889.883	4694
890.006	4694
890.13	4820
890.254	4580
890.377	4664
890.501	4577
890.624	4497
890.748	4645
890.871	4443
890.995	4470
891.118	4352
891.241	4478
891.364	4569
891.488	4653
891.611	4485
891.734	4519
891.857	4592
891.98	4523
892.103	4626
892.226	4603
892.349	4489
892.471	4455
892.594	4558
892.717	4565
892.839	4569
892.962	4607
893.085	4668
893.207	4577
893.33	4455
893.452	4500
893.575	4668
893.697	4561
893.819	4771
893.941	4835
894.064	4774
894.186	4558
894.308	4554
894.43	4729
894.552	4774
894.674	4694
894.796	4497
894.918	4592
895.04	4569
895.161	4725
895.283	4656
895.405	4561
895.526	4645
895.648	4679
895.769	4698
895.891	4672
896.012	4679
896.134	4733
896.255	4694
896.376	4637
896.498	4637
896.619	4698
896.74	4607
896.861	4683
896.982	4938
897.103	5071
897.224	4824
897.345	4702
897.466	4664
897.587	4752
897.708	4843
897.828	4767
897.949	4672
898.07	4584
898.19	4592
898.311	4858
898.431	4653
898.552	4740
898.672	4866
898.792	4809
898.913	4691
899.033	4596
899.153	4508
899.273	4447
899.393	4508
899.513	4535
899.633	4470
899.753	4558
899.873	4531
899.993	4596
900.113	4478
900.232	4634
900.352	4535
900.472	4481
900.591	4367
900.711	4455
900.83	4432
900.95	4580
901.069	4630
901.189	4516
901.308	4341
901.427	4299
901.546	4394
901.665	4531
901.784	4497
901.904	4379
902.023	4341
902.141	4242
902.26	4196
902.379	4268
902.498	4223
902.617	4265
902.735	4360
902.854	4402
902.973	4363
903.091	4253
903.21	4196
903.328	4329
903.446	4295
903.565	4219
903.683	4383
903.801	4253
903.919	4348
904.038	4428
904.156	4276
904.274	4405
904.392	4413
904.51	4466
904.627	4478
904.745	4542
904.863	4634
904.981	4398
905.098	4284
905.216	4390
905.334	4451
905.451	4432
905.569	4447
905.686	4546
905.803	4565
905.921	4440
906.038	4497
906.155	4459
906.272	4367
906.389	4493
906.506	4299
906.623	4398
906.74	4375
906.857	4287
906.974	4367
907.091	4580
907.208	4649
907.324	4599
907.441	4519
907.557	4379
907.674	4318
907.79	4295
907.907	4348
908.023	4424
908.139	4489
908.256	4375
908.372	4413
908.488	4428
908.604	4341
908.72	4329
908.836	4367
908.952	4352
909.068	4455
909.184	4558
909.3	4500
909.415	4561
909.531	4523
909.647	4375
909.762	4375
909.878	4394
909.993	4428
910.108	4398
910.224	4363
910.339	4500
910.454	4375
910.57	4337
910.685	4322
910.8	4653
910.915	4550
911.03	4504
911.145	4314
911.259	4344
911.374	4367
911.489	4287
911.604	4303
911.718	4196
911.833	4166
911.947	4071
912.062	4006
912.176	4196
912.291	4215
912.405	4215
912.519	4451
912.633	4478
912.748	4337
912.862	4337
912.976	4200
913.09	4032
913.204	4188
913.318	4223
913.431	4367
913.545	4360
913.659	4360
913.772	4325
913.886	4280
914	4207
914.113	4318
914.226	4398
914.34	4386
914.453	4261
914.566	4451
914.68	4287
914.793	4322
914.906	4185
915.019	4105
915.132	4086
915.245	4230
915.358	4230
915.47	4211
915.583	4261
915.696	4249
915.809	4371
915.921	4379
916.034	4261
916.146	4268
916.259	4246
916.371	4390
916.483	4356
916.595	4246
916.708	4341
916.82	4348
916.932	4284
917.044	4352
917.156	4337
917.268	4166
917.38	4265
917.491	4303
917.603	4360
917.715	4390
917.826	4421
917.938	4325
918.049	4234
918.161	4398
918.272	4519
918.384	4561
918.495	4440
918.606	4318
918.717	4261
918.828	4325
918.939	4363
919.05	4272
919.161	4333
919.272	4097
919.383	4200
919.494	4360
919.604	4618
919.715	4440
919.826	4402
919.936	4402
920.047	4573
920.157	4500
920.267	4698
920.378	4512
920.488	4481
920.598	4729
920.708	4850
920.818	4733
920.928	4755
921.038	4911
921.148	4885
921.258	4626
921.368	4538
921.477	4489
921.587	4455
921.697	4360
921.806	4573
921.916	4447
922.025	4238
922.134	4284
922.244	4215
922.353	4329
922.462	4139
922.571	4166
922.68	4032
922.789	3964
922.898	4048
923.007	3998
923.116	4105
923.224	4029
923.333	4082
923.442	4002
923.55	3953
923.659	4025
923.767	4067
923.876	4013
923.984	4063
924.092	3979
924.201	4082
924.309	4112
924.417	4105
924.525	4040
924.633	4112
924.741	4889
924.849	3930
924.956	4124
925.064	3922
925.172	3934
925.279	3918
925.387	4051
925.494	4067
925.602	4185
925.709	4131
925.816	4048
925.924	4116
926.031	4211
926.138	4185
926.245	4166
926.352	4082
926.459	4268
926.566	4295
926.673	4116
926.779	4082
926.886	4097
926.993	3934
927.099	3964
927.206	3956
927.312	3960
927.419	4055
927.525	4017
927.631	4082
927.737	3960
927.843	3960
927.95	3873
928.056	3922
928.162	4055
928.267	4032
928.373	4588
928.479	4059
928.585	3880
928.69	3991
928.796	3998
928.901	3941
929.007	3812
929.112	4051
929.218	3953
929.323	3892
929.428	3941
929.533	4097
929.638	3865
929.743	3945
929.848	4021
929.953	3972
930.058	3922
930.163	3766
930.267	3785
930.372	3922
930.477	3774
930.581	4090
930.685	3945
930.79	3816
930.894	3884
930.998	3865
931.103	4006
931.207	3694
931.311	3694
931.415	3686
931.519	3511
931.623	3557
