Data from test_V78500241_440.txt Node
Date: Fri Mar 25 16:52:03 CST 2022
User: usil
Spectrometer: V785-0024
Trigger mode: 0
Integration Time (sec): 4.000000E-1
Scans to average: 1
Nonlinearity correction enabled: false
Boxcar width: 0
Storing dark spectrum: false
XAxis mode: Wavelengths
Number of Pixels in Spectrum: 1024
>>>>>Begin Spectral Data<<<<<
801.071	8123
801.214	8088
801.356	7955
801.499	7845
801.641	7875
801.783	7936
801.926	8073
802.068	8035
802.211	8073
802.353	8084
802.496	7944
802.638	7890
802.78	7944
802.923	8001
803.065	7947
803.208	7936
803.35	8016
803.492	8035
803.635	8180
803.777	8005
803.919	8153
804.061	8473
804.204	8130
804.346	8046
804.488	8005
804.63	8103
804.773	7967
804.915	8069
805.057	8351
805.199	8237
805.341	8259
805.483	8328
805.626	8149
805.768	8084
805.91	8142
806.052	8153
806.194	8126
806.336	8309
806.478	8199
806.62	8107
806.762	8092
806.904	8328
807.046	8461
807.188	8328
807.33	8313
807.472	8320
807.614	8183
807.756	8142
807.898	8077
808.04	7974
808.182	7967
808.324	7963
808.465	7890
808.607	8126
808.749	8149
808.891	8237
809.033	8328
809.174	8214
809.316	8107
809.458	8126
809.6	8008
809.741	8119
809.883	8103
810.025	8126
810.166	8145
810.308	8065
810.45	8016
810.591	7818
810.733	7784
810.875	7704
811.016	7567
811.158	7533
811.299	7731
811.441	7784
811.582	7712
811.724	7605
811.865	7605
812.007	7719
812.148	7674
812.29	7647
812.431	7818
812.573	8005
812.714	8126
812.855	8168
812.997	8309
813.138	8400
813.279	8267
813.421	8202
813.562	7989
813.703	7940
813.845	7795
813.986	7616
814.127	7324
814.268	7282
814.41	7301
814.551	7217
814.692	7289
814.833	7110
814.974	7118
815.115	7133
815.256	6966
815.397	6993
815.539	6962
815.68	6875
815.821	6821
815.962	6905
816.103	6875
816.244	6795
816.385	6681
816.526	6612
816.666	6551
816.807	6311
816.948	6429
817.089	6532
817.23	6490
817.371	6460
817.512	6441
817.653	6452
817.793	6369
817.934	6422
818.075	6467
818.216	6460
818.356	6422
818.497	6254
818.638	6159
818.778	6209
818.919	6152
819.06	6159
819.2	6296
819.341	6388
819.481	6407
819.622	6612
819.762	6795
819.903	6734
820.043	6658
820.184	6658
820.324	6639
820.465	6711
820.605	6631
820.746	6639
820.886	6513
821.026	6715
821.167	6764
821.307	6840
821.447	6745
821.588	6658
821.728	6578
821.868	6509
822.008	6331
822.149	6353
822.289	6388
822.429	6079
822.569	6148
822.709	6201
822.849	5965
822.99	5992
823.13	5901
823.27	5901
823.41	5821
823.55	5783
823.69	5821
823.83	5817
823.97	5726
824.11	5611
824.25	5581
824.389	5589
824.529	5611
824.669	5570
824.809	5672
824.949	5668
825.089	5668
825.228	5585
825.368	5425
825.508	5391
825.648	5360
825.787	5353
825.927	5360
826.067	5273
826.206	5315
826.346	5421
826.485	5414
826.625	5421
826.765	5551
826.904	5471
827.044	5326
827.183	5235
827.323	5124
827.462	5307
827.601	5159
827.741	5204
827.88	5242
828.02	5155
828.159	5284
828.298	5307
828.437	5345
828.577	5303
828.716	5547
828.855	5303
828.994	5174
829.134	5159
829.273	5201
829.412	5140
829.551	5109
829.69	5166
829.829	5250
829.968	5421
830.107	5269
830.246	5391
830.385	5223
830.524	5181
830.663	5109
830.802	4934
830.941	4900
831.08	4949
831.219	4946
831.357	4987
831.496	5181
831.635	4976
831.774	4847
831.913	4870
832.051	4786
832.19	4755
832.329	4896
832.467	4733
832.606	4694
832.744	4755
832.883	4744
833.022	4763
833.16	4809
833.299	4881
833.437	4843
833.576	4866
833.714	4892
833.852	4850
833.991	4965
834.129	4915
834.267	4938
834.406	4946
834.544	4980
834.682	4995
834.821	4984
834.959	5193
835.097	5014
835.235	5181
835.373	5121
835.511	5136
835.65	5052
835.788	5083
835.926	4919
836.064	4953
836.202	4938
836.34	5216
836.478	5246
836.615	5121
836.753	5231
836.891	5269
837.029	5254
837.167	5227
837.305	5223
837.443	5155
837.58	5094
837.718	5242
837.856	5204
837.993	5155
838.131	5227
838.269	5216
838.406	5178
838.544	5239
838.681	5045
838.819	5098
838.956	4927
839.094	4900
839.231	4980
839.369	5136
839.506	5436
839.643	5273
839.781	5060
839.918	5006
840.055	5094
840.193	5113
840.33	5109
840.467	5121
840.604	5212
840.742	5452
840.879	5098
841.016	5140
841.153	5143
841.29	5436
841.427	5341
841.564	5345
841.701	5372
841.838	5258
841.975	5250
842.112	5261
842.249	5193
842.385	5178
842.522	5315
842.659	5227
842.796	5220
842.933	5208
843.069	5178
843.206	5155
843.343	5341
843.479	5265
843.616	5341
843.752	5071
843.889	5029
844.025	5280
844.162	5045
844.298	5212
844.435	5140
844.571	5041
844.708	5178
844.844	5322
844.98	5303
845.117	5307
845.253	5147
845.389	5075
845.525	5212
845.661	5147
845.798	5052
845.934	5174
846.07	5075
846.206	5216
846.342	5299
846.478	5189
846.614	5067
846.75	5041
846.886	5010
847.022	5113
847.158	5006
847.294	5098
847.429	5094
847.565	5064
847.701	5376
847.837	4866
847.972	4812
848.108	4987
848.244	4987
848.379	4790
848.515	4725
848.65	4740
848.786	4793
848.921	4809
849.057	4831
849.192	4904
849.328	4847
849.463	4854
849.598	4790
849.734	4778
849.869	4721
850.004	4634
850.14	4668
850.275	4668
850.41	4523
850.545	4550
850.68	4622
850.815	4607
850.95	4656
851.085	4828
851.22	4812
851.355	4691
851.49	4630
851.625	4649
851.76	4637
851.895	4599
852.03	4516
852.165	4649
852.299	4729
852.434	4797
852.569	4771
852.703	4774
852.838	4881
852.973	4965
853.107	4881
853.242	4714
853.376	4675
853.511	4569
853.645	4649
853.78	4793
853.914	4725
854.048	4717
854.183	4698
854.317	4698
854.451	4881
854.585	4702
854.72	4637
854.854	4729
854.988	4618
855.122	4683
855.256	4508
855.39	4679
855.524	4755
855.658	4767
855.792	4771
855.926	4744
856.06	4790
856.194	4820
856.327	4694
856.461	4618
856.595	4573
856.729	4672
856.862	4733
856.996	4683
857.13	4729
857.263	4805
857.397	4774
857.53	4660
857.664	4740
857.797	4733
857.931	4824
858.064	4717
858.197	4744
858.331	4634
858.464	4626
858.597	4558
858.731	4615
858.864	4645
858.997	4565
859.13	4637
859.263	4691
859.396	4668
859.529	4569
859.662	4569
859.795	4538
859.928	4637
860.061	4778
860.194	4793
860.327	4622
860.46	4580
860.592	4698
860.725	4694
860.858	4736
860.99	4569
861.123	4508
861.256	4508
861.388	4622
861.521	5471
861.653	4493
861.786	4455
861.918	4478
862.05	4523
862.183	4546
862.315	4577
862.447	4645
862.58	4573
862.712	4394
862.844	4363
862.976	4451
863.108	4459
863.24	4786
863.372	4360
863.504	4440
863.636	4402
863.768	4478
863.9	4451
864.032	4333
864.164	4379
864.296	4466
864.428	4580
864.559	4573
864.691	4558
864.823	4527
864.954	4550
865.086	4500
865.217	4447
865.349	4413
865.48	4466
865.612	4512
865.743	4634
865.875	4493
866.006	4443
866.137	4474
866.269	4470
866.4	4432
866.531	4417
866.662	4428
866.793	4424
866.924	4424
867.055	4500
867.186	4481
867.317	4443
867.448	4375
867.579	4398
867.71	4394
867.841	4379
867.972	4478
868.103	4462
868.233	4466
868.364	4466
868.495	4489
868.625	4691
868.756	4733
868.886	4603
869.017	4626
869.147	4793
869.278	4786
869.408	4691
869.539	4664
869.669	4721
869.799	4668
869.929	4744
870.06	4740
870.19	4976
870.32	4923
870.45	4976
870.58	5010
870.71	5105
870.84	5079
870.97	4957
871.1	4957
871.23	5162
871.36	5121
871.489	5060
871.619	5102
871.749	5102
871.879	5136
872.008	5197
872.138	5029
872.267	4965
872.397	4870
872.526	4831
872.656	4752
872.785	4828
872.915	4949
873.044	5037
873.173	4961
873.303	5018
873.432	4949
873.561	4930
873.69	4889
873.819	4877
873.948	4949
874.077	4858
874.206	4771
874.335	4786
874.464	4934
874.593	5090
874.722	4942
874.851	5136
874.979	5132
875.108	5045
875.237	4946
875.365	4835
875.494	4854
875.623	4991
875.751	4801
875.88	4934
876.008	4995
876.136	5041
876.265	5265
876.393	5379
876.521	5311
876.65	5231
876.778	5193
876.906	5083
877.034	5075
877.162	5098
877.29	4995
877.418	5041
877.546	5086
877.674	5025
877.802	5029
877.93	5018
878.058	4957
878.185	4892
878.313	4957
878.441	5006
878.568	4767
878.696	4923
878.824	4991
878.951	5003
879.079	5124
879.206	5242
879.333	5147
879.461	5037
879.588	5045
879.715	5143
879.842	5246
879.97	5025
880.097	4812
880.224	4767
880.351	4801
880.478	4812
880.605	4850
880.732	4801
880.859	5132
880.986	4873
881.112	4930
881.239	4805
881.366	4702
881.493	4615
881.619	4660
881.746	4687
881.872	4660
881.999	4691
882.125	4717
882.252	4831
882.378	4835
882.505	4930
882.631	4778
882.757	4675
882.883	4771
883.01	4752
883.136	4683
883.262	4558
883.388	4653
883.514	4831
883.64	4881
883.766	4809
883.892	4634
884.018	4759
884.143	4881
884.269	4980
884.395	4702
884.52	4660
884.646	4653
884.772	4592
884.897	4580
885.023	4717
885.148	4801
885.274	4866
885.399	4816
885.524	4702
885.65	4656
885.775	4767
885.9	4740
886.025	4904
886.15	4801
886.275	4710
886.4	4717
886.525	4675
886.65	4683
886.775	4664
886.9	4881
887.025	4999
887.149	4790
887.274	4637
887.399	4573
887.523	4577
887.648	4603
887.773	4558
887.897	4752
888.021	4755
888.146	4679
888.27	4828
888.395	4866
888.519	4816
888.643	4778
888.767	4820
888.891	4687
889.015	4577
889.139	4656
889.263	4645
889.387	4710
889.511	4877
889.635	4782
889.759	4675
889.883	4630
890.006	4729
890.13	4835
890.254	4584
890.377	4691
890.501	4523
890.624	4535
890.748	4637
890.871	4538
890.995	4390
891.118	4398
891.241	4584
891.364	4607
891.488	4668
891.611	4523
891.734	4497
891.857	4626
891.98	4592
892.103	4599
892.226	4580
892.349	4535
892.471	4402
892.594	4508
892.717	4596
892.839	4569
892.962	4565
893.085	4664
893.207	4630
893.33	4466
893.452	4550
893.575	4653
893.697	4592
893.819	4782
893.941	4793
894.064	4801
894.186	4573
894.308	4611
894.43	4778
894.552	4805
894.674	4790
894.796	4538
894.918	4573
895.04	4546
895.161	4729
895.283	4679
895.405	4569
895.526	4630
895.648	4645
895.769	4672
895.891	4694
896.012	4759
896.134	4733
896.255	4679
896.376	4634
896.498	4634
896.619	4645
896.74	4622
896.861	4683
896.982	4896
897.103	5060
897.224	4816
897.345	4740
897.466	4641
897.587	4752
897.708	4866
897.828	4782
897.949	4660
898.07	4558
898.19	4607
898.311	4843
898.431	4656
898.552	4740
898.672	4839
898.792	4839
898.913	4752
899.033	4660
899.153	4542
899.273	4398
899.393	4527
899.513	4546
899.633	4481
899.753	4573
899.873	4493
899.993	4577
900.113	4599
900.232	4592
900.352	4519
900.472	4527
900.591	4367
900.711	4519
900.83	4451
900.95	4634
901.069	4664
901.189	4558
901.308	4363
901.427	4348
901.546	4379
901.665	4474
901.784	4527
901.904	4360
902.023	4352
902.141	4192
902.26	4185
902.379	4299
902.498	4234
902.617	4234
902.735	4371
902.854	4394
902.973	4371
903.091	4211
903.21	4257
903.328	4291
903.446	4261
903.565	4280
903.683	4341
903.801	4310
903.919	4390
904.038	4451
904.156	4329
904.274	4516
904.392	4386
904.51	4443
904.627	4485
904.745	4588
904.863	4679
904.981	4447
905.098	4318
905.216	4379
905.334	4466
905.451	4398
905.569	4424
905.686	4519
905.803	4630
905.921	4440
906.038	4554
906.155	4447
906.272	4398
906.389	4478
906.506	4375
906.623	4337
906.74	4409
906.857	4333
906.974	4356
907.091	4611
907.208	4698
907.324	4618
907.441	4481
907.557	4394
907.674	4356
907.79	4310
907.907	4394
908.023	4485
908.139	4470
908.256	4470
908.372	4485
908.488	4436
908.604	4386
908.72	4344
908.836	4363
908.952	4375
909.068	4451
909.184	4573
909.3	4497
909.415	4607
909.531	4531
909.647	4360
909.762	4363
909.878	4405
909.993	4459
910.108	4405
910.224	4478
910.339	4481
910.454	4436
910.57	4341
910.685	4325
910.8	4649
910.915	4584
911.03	4462
911.145	4363
911.259	4291
911.374	4371
911.489	4303
911.604	4291
911.718	4162
911.833	4215
911.947	4059
912.062	4010
912.176	4181
912.291	4246
912.405	4238
912.519	4500
912.633	4516
912.748	4417
912.862	4249
912.976	4249
913.09	4093
913.204	4192
913.318	4242
913.431	4348
913.545	4344
913.659	4478
913.772	4375
913.886	4287
914	4238
914.113	4398
914.226	4451
914.34	4440
914.453	4265
914.566	4413
914.68	4310
914.793	4371
914.906	4131
915.019	4158
915.132	4097
915.245	4211
915.358	4219
915.47	4261
915.583	4234
915.696	4333
915.809	4436
915.921	4386
916.034	4284
916.146	4268
916.259	4238
916.371	4375
916.483	4379
916.595	4268
916.708	4306
916.82	4329
916.932	4348
917.044	4348
917.156	4310
917.268	4242
917.38	4265
917.491	4318
917.603	4329
917.715	4440
917.826	4428
917.938	4398
918.049	4188
918.161	4386
918.272	4535
918.384	4523
918.495	4474
918.606	4265
918.717	4234
918.828	4341
918.939	4363
919.05	4253
919.161	4341
919.272	4192
919.383	4257
919.494	4474
919.604	4641
919.715	4443
919.826	4383
919.936	4447
920.047	4508
920.157	4455
920.267	4717
920.378	4535
920.488	4493
920.598	4710
920.708	4877
920.818	4748
920.928	4793
921.038	4919
921.148	4885
921.258	4596
921.368	4561
921.477	4466
921.587	4443
921.697	4371
921.806	4535
921.916	4485
922.025	4291
922.134	4265
922.244	4215
922.353	4341
922.462	4185
922.571	4147
922.68	4040
922.789	3941
922.898	4029
923.007	3953
923.116	4074
923.224	4063
923.333	4101
923.442	3972
923.55	3968
923.659	4048
923.767	4078
923.876	4006
923.984	4131
924.092	3991
924.201	4097
924.309	4063
924.417	4097
924.525	4074
924.633	4109
924.741	5033
924.849	3892
924.956	4143
925.064	3945
925.172	3896
925.279	3979
925.387	4040
925.494	4013
925.602	4223
925.709	4253
925.816	4051
925.924	4082
926.031	4257
926.138	4188
926.245	4196
926.352	4109
926.459	4280
926.566	4306
926.673	4147
926.779	4055
926.886	4055
926.993	3972
927.099	3991
927.206	3945
927.312	3922
927.419	4067
927.525	3972
927.631	4051
927.737	3960
927.843	3960
927.95	3861
928.056	3937
928.162	4006
928.267	3991
928.373	4710
928.479	4139
928.585	3865
928.69	4006
928.796	4067
928.901	3968
929.007	3876
929.112	4021
929.218	3926
929.323	3937
929.428	3899
929.533	4124
929.638	3907
929.743	3953
929.848	4032
929.953	3979
930.058	3953
930.163	3732
930.267	3831
930.372	3991
930.477	3778
930.581	4090
930.685	3945
930.79	3835
930.894	3907
930.998	3865
931.103	4010
931.207	3743
931.311	3717
931.415	3644
931.519	3545
931.623	3542
