Data from test_V78500241_2778.txt Node
Date: Fri Mar 25 17:08:19 CST 2022
User: usil
Spectrometer: V785-0024
Trigger mode: 0
Integration Time (sec): 4.000000E-1
Scans to average: 1
Nonlinearity correction enabled: false
Boxcar width: 0
Storing dark spectrum: false
XAxis mode: Wavelengths
Number of Pixels in Spectrum: 1024
>>>>>Begin Spectral Data<<<<<
801.071	8020
801.214	8016
801.356	7856
801.499	7887
801.641	7799
801.783	7864
801.926	8020
802.068	7936
802.211	7989
802.353	7993
802.496	7932
802.638	7875
802.78	7883
802.923	7951
803.065	7871
803.208	7818
803.35	7989
803.492	8172
803.635	8191
803.777	7989
803.919	8214
804.061	8549
804.204	8115
804.346	8088
804.488	7974
804.63	8119
804.773	8096
804.915	8065
805.057	8336
805.199	8195
805.341	8218
805.483	8282
805.626	8199
805.768	8145
805.91	8240
806.052	8267
806.194	8130
806.336	8252
806.478	8065
806.62	8073
806.762	8123
806.904	8225
807.046	8404
807.188	8355
807.33	8351
807.472	8317
807.614	8153
807.756	8218
807.898	8008
808.04	7837
808.182	7890
808.324	7799
808.465	7947
808.607	8062
808.749	8119
808.891	8282
809.033	8275
809.174	8191
809.316	8123
809.458	8069
809.6	7967
809.741	8054
809.883	7959
810.025	8115
810.166	8084
810.308	8001
810.45	8005
810.591	7879
810.733	7776
810.875	7647
811.016	7582
811.158	7529
811.299	7681
811.441	7780
811.582	7750
811.724	7586
811.865	7506
812.007	7677
812.148	7639
812.29	7628
812.431	7750
812.573	7856
812.714	7989
812.855	8115
812.997	8233
813.138	8309
813.279	8183
813.421	8077
813.562	8046
813.703	7928
813.845	7799
813.986	7476
814.127	7285
814.268	7255
814.41	7244
814.551	7171
814.692	7179
814.833	7095
814.974	7057
815.115	7175
815.256	6966
815.397	6882
815.539	6928
815.68	6776
815.821	6738
815.962	6875
816.103	6863
816.244	6741
816.385	6646
816.526	6623
816.666	6544
816.807	6304
816.948	6490
817.089	6486
817.23	6464
817.371	6372
817.512	6429
817.653	6445
817.793	6369
817.934	6407
818.075	6483
818.216	6327
818.356	6460
818.497	6247
818.638	6171
818.778	6098
818.919	6190
819.06	6136
819.2	6338
819.341	6273
819.481	6338
819.622	6498
819.762	6722
819.903	6738
820.043	6620
820.184	6582
820.324	6544
820.465	6707
820.605	6604
820.746	6623
820.886	6494
821.026	6623
821.167	6730
821.307	6840
821.447	6783
821.588	6715
821.728	6623
821.868	6513
822.008	6292
822.149	6403
822.289	6372
822.429	6117
822.569	6087
822.709	6136
822.849	5893
822.99	5950
823.13	5912
823.27	5965
823.41	5809
823.55	5741
823.69	5726
823.83	5817
823.97	5611
824.11	5566
824.25	5547
824.389	5547
824.529	5611
824.669	5505
824.809	5634
824.949	5653
825.089	5573
825.228	5600
825.368	5448
825.508	5341
825.648	5315
825.787	5376
825.927	5349
826.067	5334
826.206	5239
826.346	5383
826.485	5334
826.625	5433
826.765	5592
826.904	5493
827.044	5250
827.183	5193
827.323	5113
827.462	5242
827.601	5178
827.741	5204
827.88	5212
828.02	5105
828.159	5250
828.298	5292
828.437	5433
828.577	5269
828.716	5512
828.855	5341
828.994	5159
829.134	5136
829.273	5223
829.412	5132
829.551	5113
829.69	5170
829.829	5239
829.968	5353
830.107	5284
830.246	5326
830.385	5185
830.524	5045
830.663	5052
830.802	5045
830.941	4873
831.08	4862
831.219	5037
831.357	4976
831.496	5174
831.635	4942
831.774	4835
831.913	4847
832.051	4721
832.19	4740
832.329	4790
832.467	4675
832.606	4645
832.744	4733
832.883	4744
833.022	4748
833.16	4805
833.299	4793
833.437	4866
833.576	4820
833.714	4828
833.852	4831
833.991	4881
834.129	4946
834.267	4999
834.406	4873
834.544	5006
834.682	5033
834.821	4987
834.959	5140
835.097	4984
835.235	5121
835.373	5086
835.511	5090
835.65	5083
835.788	4995
835.926	4877
836.064	4820
836.202	4881
836.34	5143
836.478	5239
836.615	5132
836.753	5231
836.891	5307
837.029	5261
837.167	5185
837.305	5170
837.443	5162
837.58	5090
837.718	5212
837.856	5185
837.993	5094
838.131	5227
838.269	5147
838.406	5216
838.544	5159
838.681	5037
838.819	5022
838.956	4850
839.094	4862
839.231	4999
839.369	5052
839.506	5406
839.643	5242
839.781	5003
839.918	5037
840.055	5052
840.193	5064
840.33	5121
840.467	5147
840.604	5159
840.742	5463
840.879	5037
841.016	5098
841.153	5162
841.29	5395
841.427	5296
841.564	5315
841.701	5368
841.838	5288
841.975	5189
842.112	5284
842.249	5136
842.385	5071
842.522	5311
842.659	5155
842.796	5143
842.933	5208
843.069	5201
843.206	5162
843.343	5307
843.479	5242
843.616	5239
843.752	5037
843.889	4965
844.025	5208
844.162	4980
844.298	5193
844.435	5094
844.571	5109
844.708	5174
844.844	5296
844.98	5364
845.117	5269
845.253	5147
845.389	5071
845.525	5208
845.661	5094
845.798	5045
845.934	5140
846.07	5048
846.206	5140
846.342	5235
846.478	5220
846.614	5033
846.75	5022
846.886	4919
847.022	5121
847.158	5010
847.294	5025
847.429	5052
847.565	5079
847.701	5318
847.837	4843
847.972	4797
848.108	4930
848.244	4908
848.379	4778
848.515	4763
848.65	4744
848.786	4755
848.921	4778
849.057	4831
849.192	4900
849.328	4793
849.463	4889
849.598	4790
849.734	4736
849.869	4691
850.004	4630
850.14	4645
850.275	4569
850.41	4554
850.545	4565
850.68	4603
850.815	4622
850.95	4592
851.085	4797
851.22	4759
851.355	4626
851.49	4603
851.625	4630
851.76	4660
851.895	4550
852.03	4516
852.165	4645
852.299	4691
852.434	4759
852.569	4736
852.703	4755
852.838	4828
852.973	4896
853.107	4915
853.242	4714
853.376	4714
853.511	4588
853.645	4618
853.78	4809
853.914	4679
854.048	4634
854.183	4660
854.317	4698
854.451	4866
854.585	4683
854.72	4607
854.854	4717
854.988	4611
855.122	4637
855.256	4504
855.39	4656
855.524	4748
855.658	4668
855.792	4736
855.926	4714
856.06	4774
856.194	4793
856.327	4656
856.461	4615
856.595	4554
856.729	4645
856.862	4725
856.996	4664
857.13	4714
857.263	4763
857.397	4767
857.53	4687
857.664	4698
857.797	4748
857.931	4774
858.064	4683
858.197	4755
858.331	4672
858.464	4599
858.597	4531
858.731	4626
858.864	4687
858.997	4580
859.13	4615
859.263	4687
859.396	4675
859.529	4542
859.662	4565
859.795	4550
859.928	4630
860.061	4752
860.194	4774
860.327	4558
860.46	4565
860.592	4691
860.725	4740
860.858	4778
860.99	4558
861.123	4504
861.256	4554
861.388	4603
861.521	5318
861.653	4500
861.786	4386
861.918	4440
862.05	4558
862.183	4573
862.315	4599
862.447	4637
862.58	4550
862.712	4402
862.844	4299
862.976	4455
863.108	4500
863.24	4748
863.372	4295
863.504	4443
863.636	4394
863.768	4478
863.9	4466
864.032	4356
864.164	4386
864.296	4466
864.428	4565
864.559	4573
864.691	4538
864.823	4531
864.954	4504
865.086	4462
865.217	4432
865.349	4424
865.48	4432
865.612	4512
865.743	4630
865.875	4436
866.006	4405
866.137	4466
866.269	4462
866.4	4455
866.531	4470
866.662	4390
866.793	4428
866.924	4402
867.055	4466
867.186	4451
867.317	4402
867.448	4394
867.579	4432
867.71	4375
867.841	4325
867.972	4474
868.103	4474
868.233	4428
868.364	4451
868.495	4474
868.625	4615
868.756	4733
868.886	4550
869.017	4622
869.147	4740
869.278	4759
869.408	4656
869.539	4660
869.669	4706
869.799	4675
869.929	4812
870.06	4729
870.19	4934
870.32	4923
870.45	4938
870.58	4980
870.71	5094
870.84	5109
870.97	4949
871.1	4892
871.23	5151
871.36	5105
871.489	5022
871.619	5060
871.749	5113
871.879	5090
872.008	5166
872.138	5018
872.267	4938
872.397	4873
872.526	4816
872.656	4740
872.785	4782
872.915	4965
873.044	5014
873.173	4938
873.303	4968
873.432	4980
873.561	4938
873.69	4835
873.819	4839
873.948	4915
874.077	4797
874.206	4797
874.335	4812
874.464	4938
874.593	5067
874.722	5014
874.851	5045
874.979	5086
875.108	5033
875.237	4908
875.365	4866
875.494	4870
875.623	4984
875.751	4828
875.88	4885
876.008	4995
876.136	5086
876.265	5197
876.393	5341
876.521	5239
876.65	5216
876.778	5155
876.906	5098
877.034	5037
877.162	5098
877.29	5014
877.418	5060
877.546	5052
877.674	5022
877.802	4972
877.93	5037
878.058	4953
878.185	4896
878.313	4930
878.441	5006
878.568	4759
878.696	4904
878.824	4995
878.951	5022
879.079	5098
879.206	5277
879.333	5071
879.461	5025
879.588	5014
879.715	5140
879.842	5258
879.97	4991
880.097	4797
880.224	4763
880.351	4824
880.478	4805
880.605	4835
880.732	4793
880.859	5105
880.986	4877
881.112	4930
881.239	4763
881.366	4645
881.493	4615
881.619	4554
881.746	4664
881.872	4641
881.999	4656
882.125	4740
882.252	4797
882.378	4820
882.505	4961
882.631	4809
882.757	4653
882.883	4714
883.01	4736
883.136	4679
883.262	4596
883.388	4584
883.514	4801
883.64	4866
883.766	4771
883.892	4721
884.018	4683
884.143	4896
884.269	5045
884.395	4634
884.52	4660
884.646	4656
884.772	4596
884.897	4565
885.023	4694
885.148	4809
885.274	4858
885.399	4797
885.524	4759
885.65	4717
885.775	4763
885.9	4744
886.025	4900
886.15	4744
886.275	4748
886.4	4721
886.525	4694
886.65	4706
886.775	4679
886.9	4919
887.025	5037
887.149	4801
887.274	4626
887.399	4622
887.523	4584
887.648	4630
887.773	4607
887.897	4782
888.021	4809
888.146	4664
888.27	4809
888.395	4889
888.519	4782
888.643	4824
888.767	4850
888.891	4679
889.015	4637
889.139	4698
889.263	4615
889.387	4778
889.511	4820
889.635	4790
889.759	4615
889.883	4615
890.006	4752
890.13	4850
890.254	4637
890.377	4622
890.501	4561
890.624	4527
890.748	4641
890.871	4466
890.995	4413
891.118	4413
891.241	4516
891.364	4554
891.488	4615
891.611	4478
891.734	4535
891.857	4607
891.98	4546
892.103	4596
892.226	4630
892.349	4497
892.471	4462
892.594	4561
892.717	4592
892.839	4577
892.962	4649
893.085	4649
893.207	4615
893.33	4440
893.452	4516
893.575	4694
893.697	4573
893.819	4793
893.941	4816
894.064	4748
894.186	4596
894.308	4615
894.43	4744
894.552	4850
894.674	4740
894.796	4603
894.918	4569
895.04	4569
895.161	4744
895.283	4691
895.405	4561
895.526	4645
895.648	4675
895.769	4637
895.891	4748
896.012	4714
896.134	4733
896.255	4668
896.376	4588
896.498	4577
896.619	4668
896.74	4584
896.861	4672
896.982	4896
897.103	5140
897.224	4881
897.345	4736
897.466	4668
897.587	4740
897.708	4873
897.828	4736
897.949	4641
898.07	4535
898.19	4603
898.311	4820
898.431	4687
898.552	4755
898.672	4854
898.792	4740
898.913	4706
899.033	4607
899.153	4481
899.273	4443
899.393	4493
899.513	4531
899.633	4573
899.753	4538
899.873	4481
899.993	4577
900.113	4523
900.232	4573
900.352	4565
900.472	4440
900.591	4424
900.711	4550
900.83	4440
900.95	4580
901.069	4687
901.189	4531
901.308	4390
901.427	4337
901.546	4398
901.665	4531
901.784	4535
901.904	4398
902.023	4287
902.141	4181
902.26	4169
902.379	4314
902.498	4261
902.617	4211
902.735	4375
902.854	4424
902.973	4398
903.091	4223
903.21	4242
903.328	4291
903.446	4257
903.565	4268
903.683	4367
903.801	4249
903.919	4360
904.038	4409
904.156	4322
904.274	4440
904.392	4379
904.51	4462
904.627	4451
904.745	4554
904.863	4637
904.981	4337
905.098	4344
905.216	4356
905.334	4413
905.451	4424
905.569	4451
905.686	4607
905.803	4569
905.921	4409
906.038	4588
906.155	4489
906.272	4409
906.389	4485
906.506	4322
906.623	4360
906.74	4409
906.857	4287
906.974	4398
907.091	4565
907.208	4668
907.324	4569
907.441	4481
907.557	4356
907.674	4333
907.79	4341
907.907	4371
908.023	4443
908.139	4474
908.256	4459
908.372	4500
908.488	4485
908.604	4383
908.72	4325
908.836	4360
908.952	4363
909.068	4462
909.184	4577
909.3	4481
909.415	4615
909.531	4546
909.647	4314
909.762	4371
909.878	4333
909.993	4451
910.108	4413
910.224	4443
910.339	4519
910.454	4459
910.57	4394
910.685	4325
910.8	4645
910.915	4546
911.03	4489
911.145	4299
911.259	4310
911.374	4394
911.489	4318
911.604	4280
911.718	4169
911.833	4188
911.947	4067
912.062	4044
912.176	4177
912.291	4261
912.405	4249
912.519	4481
912.633	4493
912.748	4379
912.862	4337
912.976	4207
913.09	4059
913.204	4192
913.318	4234
913.431	4390
913.545	4367
913.659	4428
913.772	4348
913.886	4223
914	4219
914.113	4409
914.226	4443
914.34	4409
914.453	4257
914.566	4394
914.68	4322
914.793	4287
914.906	4196
915.019	4097
915.132	4101
915.245	4154
915.358	4230
915.47	4246
915.583	4272
915.696	4265
915.809	4417
915.921	4367
916.034	4280
916.146	4246
916.259	4211
916.371	4413
916.483	4386
916.595	4207
916.708	4360
916.82	4295
916.932	4341
917.044	4318
917.156	4337
917.268	4265
917.38	4299
917.491	4246
917.603	4333
917.715	4485
917.826	4474
917.938	4291
918.049	4215
918.161	4375
918.272	4508
918.384	4519
918.495	4459
918.606	4318
918.717	4230
918.828	4337
918.939	4325
919.05	4280
919.161	4337
919.272	4169
919.383	4192
919.494	4466
919.604	4641
919.715	4459
919.826	4333
919.936	4428
920.047	4550
920.157	4489
920.267	4687
920.378	4561
920.488	4523
920.598	4740
920.708	4930
920.818	4748
920.928	4736
921.038	4957
921.148	4968
921.258	4634
921.368	4516
921.477	4504
921.587	4508
921.697	4440
921.806	4523
921.916	4436
922.025	4249
922.134	4280
922.244	4207
922.353	4337
922.462	4177
922.571	4143
922.68	3960
922.789	3968
922.898	4040
923.007	4032
923.116	4093
923.224	4059
923.333	4116
923.442	4036
923.55	3937
923.659	4013
923.767	4109
923.876	3964
923.984	4124
924.092	4010
924.201	4101
924.309	4074
924.417	4147
924.525	4006
924.633	4162
924.741	4900
924.849	3899
924.956	4162
925.064	3956
925.172	3903
925.279	3964
925.387	4093
925.494	4029
925.602	4177
925.709	4166
925.816	4044
925.924	4135
926.031	4246
926.138	4188
926.245	4223
926.352	4112
926.459	4257
926.566	4306
926.673	4177
926.779	4109
926.886	4078
926.993	3998
927.099	3987
927.206	3960
927.312	3926
927.419	4029
927.525	3994
927.631	4044
927.737	3956
927.843	3953
927.95	3865
928.056	3922
928.162	3987
928.267	4029
928.373	4702
928.479	4093
928.585	3869
928.69	3994
928.796	4082
928.901	3972
929.007	3835
929.112	4032
929.218	3979
929.323	3949
929.428	3945
929.533	4112
929.638	3907
929.743	3960
929.848	4029
929.953	3987
930.058	3949
930.163	3785
930.267	3797
930.372	3926
930.477	3797
930.581	4086
930.685	3930
930.79	3804
930.894	3907
930.998	3884
931.103	4067
931.207	3720
931.311	3698
931.415	3686
931.519	3526
931.623	3557
