Data from test_V78500241_2068.txt Node
Date: Fri Mar 25 17:03:22 CST 2022
User: usil
Spectrometer: V785-0024
Trigger mode: 0
Integration Time (sec): 4.000000E-1
Scans to average: 1
Nonlinearity correction enabled: false
Boxcar width: 0
Storing dark spectrum: false
XAxis mode: Wavelengths
Number of Pixels in Spectrum: 1024
>>>>>Begin Spectral Data<<<<<
801.071	7970
801.214	7917
801.356	7906
801.499	7845
801.641	7811
801.783	7799
801.926	7967
802.068	7955
802.211	7928
802.353	7925
802.496	7811
802.638	7807
802.78	7887
802.923	7887
803.065	7849
803.208	7792
803.35	7940
803.492	8012
803.635	8092
803.777	8043
803.919	8092
804.061	8423
804.204	8149
804.346	8123
804.488	8039
804.63	8046
804.773	8031
804.915	8096
805.057	8267
805.199	8199
805.341	8168
805.483	8229
805.626	8252
805.768	8164
805.91	8145
806.052	8183
806.194	8065
806.336	8271
806.478	8111
806.62	8073
806.762	8153
806.904	8259
807.046	8511
807.188	8389
807.33	8309
807.472	8343
807.614	8187
807.756	8134
807.898	7955
808.04	7947
808.182	7894
808.324	7932
808.465	7871
808.607	8008
808.749	8096
808.891	8286
809.033	8313
809.174	8263
809.316	8054
809.458	8062
809.6	8103
809.741	7997
809.883	8016
810.025	8050
810.166	8031
810.308	8012
810.45	7974
810.591	7818
810.733	7704
810.875	7715
811.016	7464
811.158	7476
811.299	7510
811.441	7632
811.582	7643
811.724	7586
811.865	7552
812.007	7533
812.148	7655
812.29	7578
812.431	7765
812.573	7913
812.714	7989
812.855	8111
812.997	8138
813.138	8252
813.279	8130
813.421	8077
813.562	7906
813.703	7780
813.845	7674
813.986	7426
814.127	7263
814.268	7194
814.41	7190
814.551	7168
814.692	7236
814.833	7042
814.974	7145
815.115	7069
815.256	6993
815.397	6935
815.539	6897
815.68	6715
815.821	6772
815.962	6878
816.103	6840
816.244	6722
816.385	6578
816.526	6612
816.666	6483
816.807	6277
816.948	6391
817.089	6498
817.23	6479
817.371	6407
817.512	6319
817.653	6395
817.793	6327
817.934	6410
818.075	6521
818.216	6437
818.356	6403
818.497	6277
818.638	6182
818.778	6144
818.919	6102
819.06	6117
819.2	6361
819.341	6346
819.481	6357
819.622	6464
819.762	6764
819.903	6719
820.043	6578
820.184	6589
820.324	6536
820.465	6684
820.605	6623
820.746	6688
820.886	6517
821.026	6635
821.167	6745
821.307	6772
821.447	6783
821.588	6692
821.728	6604
821.868	6525
822.008	6273
822.149	6327
822.289	6384
822.429	6098
822.569	6136
822.709	6098
822.849	5904
822.99	5878
823.13	5954
823.27	5901
823.41	5779
823.55	5786
823.69	5771
823.83	5798
823.97	5684
824.11	5535
824.25	5478
824.389	5596
824.529	5570
824.669	5543
824.809	5589
824.949	5649
825.089	5592
825.228	5539
825.368	5436
825.508	5280
825.648	5364
825.787	5391
825.927	5334
826.067	5307
826.206	5299
826.346	5391
826.485	5376
826.625	5406
826.765	5589
826.904	5478
827.044	5265
827.183	5231
827.323	5147
827.462	5292
827.601	5189
827.741	5147
827.88	5166
828.02	5079
828.159	5159
828.298	5277
828.437	5360
828.577	5235
828.716	5501
828.855	5292
828.994	5181
829.134	5174
829.273	5208
829.412	5124
829.551	5174
829.69	5178
829.829	5204
829.968	5337
830.107	5239
830.246	5288
830.385	5170
830.524	5197
830.663	5105
830.802	4999
830.941	4885
831.08	4850
831.219	5010
831.357	4957
831.496	5098
831.635	4908
831.774	4824
831.913	4824
832.051	4774
832.19	4752
832.329	4778
832.467	4698
832.606	4634
832.744	4714
832.883	4721
833.022	4725
833.16	4809
833.299	4805
833.437	4843
833.576	4835
833.714	4816
833.852	4862
833.991	4877
834.129	4934
834.267	4972
834.406	4873
834.544	4972
834.682	4980
834.821	4957
834.959	5193
835.097	5006
835.235	5143
835.373	5067
835.511	5086
835.65	4999
835.788	5022
835.926	4866
836.064	4850
836.202	4957
836.34	5109
836.478	5193
836.615	5109
836.753	5155
836.891	5307
837.029	5242
837.167	5185
837.305	5178
837.443	5113
837.58	5075
837.718	5273
837.856	5105
837.993	5140
838.131	5201
838.269	5235
838.406	5132
838.544	5151
838.681	5041
838.819	4984
838.956	4858
839.094	4889
839.231	4984
839.369	5064
839.506	5429
839.643	5235
839.781	5090
839.918	5052
840.055	5014
840.193	5075
840.33	5105
840.467	5147
840.604	5159
840.742	5425
840.879	5105
841.016	5037
841.153	5162
841.29	5376
841.427	5357
841.564	5284
841.701	5383
841.838	5254
841.975	5216
842.112	5273
842.249	5105
842.385	5083
842.522	5334
842.659	5155
842.796	5124
842.933	5201
843.069	5155
843.206	5155
843.343	5273
843.479	5223
843.616	5277
843.752	5029
843.889	5014
844.025	5216
844.162	5075
844.298	5170
844.435	5064
844.571	5060
844.708	5155
844.844	5246
844.98	5341
845.117	5307
845.253	5136
845.389	5094
845.525	5159
845.661	5128
845.798	5064
845.934	5128
846.07	4999
846.206	5174
846.342	5311
846.478	5181
846.614	5025
846.75	4976
846.886	4896
847.022	5121
847.158	5006
847.294	5064
847.429	5098
847.565	5045
847.701	5299
847.837	4850
847.972	4816
848.108	4919
848.244	4892
848.379	4790
848.515	4717
848.65	4649
848.786	4740
848.921	4790
849.057	4835
849.192	4949
849.328	4793
849.463	4809
849.598	4820
849.734	4744
849.869	4687
850.004	4618
850.14	4577
850.275	4592
850.41	4523
850.545	4584
850.68	4592
850.815	4599
850.95	4607
851.085	4828
851.22	4736
851.355	4672
851.49	4637
851.625	4634
851.76	4675
851.895	4531
852.03	4470
852.165	4687
852.299	4679
852.434	4771
852.569	4714
852.703	4721
852.838	4835
852.973	4911
853.107	4923
853.242	4755
853.376	4694
853.511	4523
853.645	4626
853.78	4771
853.914	4649
854.048	4679
854.183	4618
854.317	4675
854.451	4850
854.585	4675
854.72	4656
854.854	4755
854.988	4599
855.122	4622
855.256	4523
855.39	4679
855.524	4755
855.658	4721
855.792	4694
855.926	4733
856.06	4725
856.194	4748
856.327	4714
856.461	4615
856.595	4599
856.729	4645
856.862	4767
856.996	4668
857.13	4740
857.263	4752
857.397	4816
857.53	4672
857.664	4717
857.797	4710
857.931	4778
858.064	4679
858.197	4702
858.331	4615
858.464	4573
858.597	4527
858.731	4603
858.864	4634
858.997	4577
859.13	4618
859.263	4645
859.396	4691
859.529	4599
859.662	4599
859.795	4512
859.928	4615
860.061	4714
860.194	4740
860.327	4637
860.46	4519
860.592	4717
860.725	4736
860.858	4694
860.99	4573
861.123	4478
861.256	4470
861.388	4603
861.521	5315
861.653	4459
861.786	4432
861.918	4443
862.05	4550
862.183	4542
862.315	4607
862.447	4615
862.58	4497
862.712	4432
862.844	4325
862.976	4474
863.108	4508
863.24	4759
863.372	4322
863.504	4432
863.636	4402
863.768	4493
863.9	4417
864.032	4371
864.164	4402
864.296	4466
864.428	4504
864.559	4561
864.691	4535
864.823	4500
864.954	4512
865.086	4474
865.217	4497
865.349	4432
865.48	4447
865.612	4440
865.743	4649
865.875	4466
866.006	4436
866.137	4493
866.269	4459
866.4	4447
866.531	4417
866.662	4348
866.793	4405
866.924	4383
867.055	4523
867.186	4466
867.317	4383
867.448	4379
867.579	4390
867.71	4333
867.841	4371
867.972	4485
868.103	4443
868.233	4470
868.364	4481
868.495	4489
868.625	4714
868.756	4767
868.886	4554
869.017	4615
869.147	4782
869.278	4733
869.408	4618
869.539	4611
869.669	4706
869.799	4622
869.929	4759
870.06	4691
870.19	4949
870.32	4873
870.45	4938
870.58	4953
870.71	5075
870.84	5086
870.97	4942
871.1	4839
871.23	5075
871.36	5086
871.489	4991
871.619	5033
871.749	5109
871.879	5128
872.008	5170
872.138	5006
872.267	5003
872.397	4854
872.526	4831
872.656	4740
872.785	4801
872.915	4965
873.044	5083
873.173	4984
873.303	5018
873.432	5014
873.561	4972
873.69	4889
873.819	4858
873.948	4949
874.077	4847
874.206	4812
874.335	4828
874.464	4927
874.593	5067
874.722	5018
874.851	5185
874.979	5094
875.108	5094
875.237	4942
875.365	4896
875.494	4972
875.623	4991
875.751	4889
875.88	4896
876.008	5025
876.136	5029
876.265	5208
876.393	5345
876.521	5296
876.65	5246
876.778	5193
876.906	5105
877.034	5041
877.162	5067
877.29	5022
877.418	5075
877.546	5056
877.674	5037
877.802	5102
877.93	5033
878.058	4987
878.185	4881
878.313	5022
878.441	4957
878.568	4854
878.696	4866
878.824	5048
878.951	5071
879.079	5189
879.206	5307
879.333	5140
879.461	5079
879.588	5071
879.715	5178
879.842	5269
879.97	5075
880.097	4877
880.224	4774
880.351	4854
880.478	4892
880.605	4850
880.732	4812
880.859	5109
880.986	4965
881.112	4953
881.239	4828
881.366	4740
881.493	4618
881.619	4664
881.746	4675
881.872	4683
881.999	4710
882.125	4706
882.252	4793
882.378	4828
882.505	5010
882.631	4847
882.757	4729
882.883	4752
883.01	4771
883.136	4714
883.262	4634
883.388	4615
883.514	4820
883.64	4919
883.766	4858
883.892	4740
884.018	4733
884.143	4896
884.269	5086
884.395	4706
884.52	4634
884.646	4706
884.772	4645
884.897	4626
885.023	4687
885.148	4850
885.274	4923
885.399	4854
885.524	4771
885.65	4687
885.775	4801
885.9	4755
886.025	4934
886.15	4835
886.275	4721
886.4	4675
886.525	4755
886.65	4672
886.775	4714
886.9	4976
887.025	5079
887.149	4847
887.274	4721
887.399	4603
887.523	4645
887.648	4565
887.773	4611
887.897	4805
888.021	4797
888.146	4717
888.27	4889
888.395	4934
888.519	4812
888.643	4870
888.767	4854
888.891	4672
889.015	4637
889.139	4660
889.263	4622
889.387	4790
889.511	4911
889.635	4782
889.759	4653
889.883	4668
890.006	4767
890.13	4881
890.254	4649
890.377	4672
890.501	4573
890.624	4497
890.748	4687
890.871	4527
890.995	4462
891.118	4447
891.241	4535
891.364	4565
891.488	4717
891.611	4558
891.734	4630
891.857	4611
891.98	4603
892.103	4687
892.226	4577
892.349	4550
892.471	4455
892.594	4599
892.717	4569
892.839	4596
892.962	4618
893.085	4675
893.207	4626
893.33	4485
893.452	4561
893.575	4710
893.697	4615
893.819	4790
893.941	4896
894.064	4774
894.186	4622
894.308	4580
894.43	4774
894.552	4831
894.674	4774
894.796	4596
894.918	4641
895.04	4645
895.161	4736
895.283	4717
895.405	4592
895.526	4664
895.648	4675
895.769	4714
895.891	4736
896.012	4748
896.134	4790
896.255	4725
896.376	4664
896.498	4664
896.619	4763
896.74	4645
896.861	4725
896.982	4961
897.103	5113
897.224	4843
897.345	4778
897.466	4694
897.587	4733
897.708	4892
897.828	4816
897.949	4683
898.07	4599
898.19	4672
898.311	4881
898.431	4717
898.552	4740
898.672	4866
898.792	4831
898.913	4797
899.033	4668
899.153	4546
899.273	4462
899.393	4512
899.513	4550
899.633	4519
899.753	4569
899.873	4516
899.993	4596
900.113	4554
900.232	4679
900.352	4607
900.472	4538
900.591	4447
900.711	4538
900.83	4440
900.95	4691
901.069	4714
901.189	4592
901.308	4371
901.427	4344
901.546	4462
901.665	4512
901.784	4561
901.904	4436
902.023	4352
902.141	4196
902.26	4196
902.379	4360
902.498	4261
902.617	4211
902.735	4390
902.854	4417
902.973	4379
903.091	4280
903.21	4227
903.328	4363
903.446	4322
903.565	4306
903.683	4367
903.801	4306
903.919	4436
904.038	4481
904.156	4348
904.274	4535
904.392	4443
904.51	4459
904.627	4508
904.745	4599
904.863	4706
904.981	4417
905.098	4367
905.216	4402
905.334	4489
905.451	4500
905.569	4478
905.686	4599
905.803	4599
905.921	4474
906.038	4607
906.155	4485
906.272	4421
906.389	4489
906.506	4379
906.623	4383
906.74	4459
906.857	4356
906.974	4405
907.091	4615
907.208	4698
907.324	4618
907.441	4523
907.557	4383
907.674	4322
907.79	4379
907.907	4440
908.023	4531
908.139	4550
908.256	4447
908.372	4443
908.488	4504
908.604	4329
908.72	4299
908.836	4402
908.952	4421
909.068	4436
909.184	4592
909.3	4527
909.415	4580
909.531	4596
909.647	4371
909.762	4402
909.878	4379
909.993	4462
910.108	4421
910.224	4455
910.339	4470
910.454	4466
910.57	4432
910.685	4371
910.8	4668
910.915	4649
911.03	4519
911.145	4360
911.259	4344
911.374	4379
911.489	4371
911.604	4284
911.718	4200
911.833	4306
911.947	4090
912.062	4040
912.176	4196
912.291	4287
912.405	4284
912.519	4516
912.633	4538
912.748	4390
912.862	4405
912.976	4246
913.09	4162
913.204	4200
913.318	4306
913.431	4432
913.545	4394
913.659	4500
913.772	4443
913.886	4303
914	4242
914.113	4371
914.226	4504
914.34	4417
914.453	4299
914.566	4436
914.68	4348
914.793	4379
914.906	4177
915.019	4173
915.132	4139
915.245	4227
915.358	4261
915.47	4284
915.583	4272
915.696	4322
915.809	4421
915.921	4462
916.034	4246
916.146	4265
916.259	4215
916.371	4424
916.483	4428
916.595	4253
916.708	4333
916.82	4383
916.932	4329
917.044	4360
917.156	4348
917.268	4238
917.38	4295
917.491	4337
917.603	4386
917.715	4478
917.826	4481
917.938	4386
918.049	4284
918.161	4462
918.272	4592
918.384	4603
918.495	4447
918.606	4348
918.717	4318
918.828	4325
918.939	4394
919.05	4310
919.161	4348
919.272	4158
919.383	4223
919.494	4481
919.604	4710
919.715	4489
919.826	4344
919.936	4424
920.047	4554
920.157	4489
920.267	4759
920.378	4603
920.488	4538
920.598	4801
920.708	4923
920.818	4797
920.928	4816
921.038	4980
921.148	4995
921.258	4645
921.368	4588
921.477	4546
921.587	4474
921.697	4394
921.806	4588
921.916	4470
922.025	4291
922.134	4318
922.244	4242
922.353	4386
922.462	4188
922.571	4185
922.68	4063
922.789	3998
922.898	4059
923.007	4067
923.116	4116
923.224	4116
923.333	4067
923.442	4040
923.55	4051
923.659	4086
923.767	4109
923.876	4048
923.984	4162
924.092	4036
924.201	4048
924.309	4112
924.417	4158
924.525	4105
924.633	4158
924.741	5064
924.849	3983
924.956	4135
925.064	4021
925.172	3930
925.279	4044
925.387	4082
925.494	4071
925.602	4287
925.709	4223
925.816	4101
925.924	4139
926.031	4261
926.138	4169
926.245	4306
926.352	4166
926.459	4303
926.566	4413
926.673	4173
926.779	4101
926.886	4101
926.993	4017
927.099	4021
927.206	3991
927.312	3991
927.419	4112
927.525	4063
927.631	4158
927.737	4021
927.843	4010
927.95	3880
928.056	3983
928.162	4006
928.267	4059
928.373	4622
928.479	4139
928.585	3903
928.69	4093
928.796	4097
928.901	4013
929.007	3861
929.112	3983
929.218	4006
929.323	3987
929.428	3994
929.533	4154
929.638	3953
929.743	4017
929.848	4086
929.953	4029
930.058	3941
930.163	3819
930.267	3869
930.372	3994
930.477	3827
930.581	4086
930.685	3937
930.79	3861
930.894	3899
930.998	3896
931.103	4044
931.207	3736
931.311	3781
931.415	3728
931.519	3530
931.623	3564
