Data from test_V78500241_696.txt Node
Date: Fri Mar 25 16:53:50 CST 2022
User: usil
Spectrometer: V785-0024
Trigger mode: 0
Integration Time (sec): 4.000000E-1
Scans to average: 1
Nonlinearity correction enabled: false
Boxcar width: 0
Storing dark spectrum: false
XAxis mode: Wavelengths
Number of Pixels in Spectrum: 1024
>>>>>Begin Spectral Data<<<<<
801.071	7909
801.214	8008
801.356	7906
801.499	7769
801.641	7807
801.783	7765
801.926	8027
802.068	7944
802.211	7989
802.353	8039
802.496	7849
802.638	7940
802.78	7921
802.923	7940
803.065	7795
803.208	7822
803.35	7955
803.492	8050
803.635	8138
803.777	8005
803.919	8107
804.061	8385
804.204	8164
804.346	8024
804.488	8001
804.63	8138
804.773	7967
804.915	8161
805.057	8317
805.199	8164
805.341	8206
805.483	8259
805.626	8180
805.768	8119
805.91	8176
806.052	8180
806.194	7986
806.336	8313
806.478	8046
806.62	8077
806.762	8149
806.904	8233
807.046	8404
807.188	8259
807.33	8229
807.472	8305
807.614	8164
807.756	8115
807.898	7974
808.04	7879
808.182	7898
808.324	7947
808.465	7822
808.607	8001
808.749	8046
808.891	8183
809.033	8244
809.174	8172
809.316	8043
809.458	8050
809.6	7982
809.741	8027
809.883	8020
810.025	8062
810.166	8005
810.308	7978
810.45	8088
810.591	7807
810.733	7746
810.875	7693
811.016	7499
811.158	7491
811.299	7548
811.441	7662
811.582	7655
811.724	7578
811.865	7487
812.007	7529
812.148	7582
812.29	7597
812.431	7689
812.573	7811
812.714	7963
812.855	8103
812.997	8210
813.138	8313
813.279	8153
813.421	8069
813.562	7997
813.703	7921
813.845	7715
813.986	7480
814.127	7301
814.268	7213
814.41	7187
814.551	7099
814.692	7152
814.833	6996
814.974	7023
815.115	7080
815.256	7008
815.397	6989
815.539	6970
815.68	6901
815.821	6787
815.962	6875
816.103	6791
816.244	6703
816.385	6635
816.526	6593
816.666	6513
816.807	6285
816.948	6384
817.089	6460
817.23	6418
817.371	6399
817.512	6429
817.653	6346
817.793	6369
817.934	6376
818.075	6429
818.216	6441
818.356	6391
818.497	6213
818.638	6102
818.778	6175
818.919	6117
819.06	6106
819.2	6270
819.341	6357
819.481	6342
819.622	6452
819.762	6730
819.903	6688
820.043	6601
820.184	6532
820.324	6498
820.465	6616
820.605	6646
820.746	6642
820.886	6506
821.026	6585
821.167	6696
821.307	6772
821.447	6760
821.588	6620
821.728	6616
821.868	6410
822.008	6300
822.149	6369
822.289	6296
822.429	6117
822.569	6095
822.709	6098
822.849	5958
822.99	5916
823.13	5935
823.27	5904
823.41	5817
823.55	5752
823.69	5790
823.83	5760
823.97	5646
824.11	5509
824.25	5490
824.389	5547
824.529	5596
824.669	5497
824.809	5627
824.949	5642
825.089	5577
825.228	5581
825.368	5337
825.508	5307
825.648	5326
825.787	5387
825.927	5417
826.067	5277
826.206	5265
826.346	5360
826.485	5364
826.625	5463
826.765	5551
826.904	5452
827.044	5246
827.183	5204
827.323	5143
827.462	5261
827.601	5128
827.741	5189
827.88	5151
828.02	5094
828.159	5162
828.298	5292
828.437	5360
828.577	5246
828.716	5433
828.855	5326
828.994	5208
829.134	5128
829.273	5170
829.412	5090
829.551	5113
829.69	5128
829.829	5216
829.968	5345
830.107	5273
830.246	5277
830.385	5151
830.524	5109
830.663	5060
830.802	4968
830.941	4927
831.08	4835
831.219	4991
831.357	4938
831.496	5128
831.635	4923
831.774	4816
831.913	4809
832.051	4714
832.19	4752
832.329	4828
832.467	4675
832.606	4626
832.744	4736
832.883	4687
833.022	4717
833.16	4786
833.299	4828
833.437	4801
833.576	4824
833.714	4809
833.852	4828
833.991	4896
834.129	4949
834.267	4904
834.406	4896
834.544	4984
834.682	4965
834.821	4949
834.959	5132
835.097	4987
835.235	5151
835.373	5102
835.511	5079
835.65	4965
835.788	5010
835.926	4953
836.064	4854
836.202	4984
836.34	5147
836.478	5147
836.615	5102
836.753	5174
836.891	5261
837.029	5235
837.167	5181
837.305	5124
837.443	5147
837.58	5045
837.718	5250
837.856	5193
837.993	5090
838.131	5239
838.269	5212
838.406	5181
838.544	5147
838.681	4999
838.819	5033
838.956	4919
839.094	4942
839.231	4980
839.369	5086
839.506	5417
839.643	5235
839.781	5071
839.918	4965
840.055	5064
840.193	5121
840.33	5064
840.467	5147
840.604	5166
840.742	5448
840.879	5064
841.016	5060
841.153	5159
841.29	5330
841.427	5292
841.564	5273
841.701	5345
841.838	5254
841.975	5212
842.112	5220
842.249	5155
842.385	5155
842.522	5303
842.659	5143
842.796	5151
842.933	5223
843.069	5162
843.206	5159
843.343	5258
843.479	5273
843.616	5269
843.752	5037
843.889	4987
844.025	5242
844.162	5041
844.298	5212
844.435	5029
844.571	5025
844.708	5204
844.844	5326
844.98	5322
845.117	5303
845.253	5121
845.389	5045
845.525	5147
845.661	5136
845.798	5045
845.934	5147
846.07	5010
846.206	5181
846.342	5269
846.478	5128
846.614	4991
846.75	4999
846.886	4904
847.022	5143
847.158	5006
847.294	5033
847.429	5098
847.565	5052
847.701	5258
847.837	4858
847.972	4778
848.108	4942
848.244	4942
848.379	4767
848.515	4691
848.65	4706
848.786	4725
848.921	4733
849.057	4866
849.192	4908
849.328	4816
849.463	4797
849.598	4809
849.734	4714
849.869	4702
850.004	4565
850.14	4733
850.275	4577
850.41	4493
850.545	4569
850.68	4618
850.815	4603
850.95	4653
851.085	4797
851.22	4755
851.355	4653
851.49	4592
851.625	4630
851.76	4653
851.895	4565
852.03	4508
852.165	4679
852.299	4714
852.434	4771
852.569	4771
852.703	4736
852.838	4805
852.973	4896
853.107	4889
853.242	4714
853.376	4672
853.511	4542
853.645	4603
853.78	4847
853.914	4687
854.048	4656
854.183	4622
854.317	4683
854.451	4809
854.585	4630
854.72	4592
854.854	4748
854.988	4615
855.122	4622
855.256	4485
855.39	4694
855.524	4759
855.658	4793
855.792	4683
855.926	4710
856.06	4744
856.194	4774
856.327	4698
856.461	4603
856.595	4607
856.729	4626
856.862	4729
856.996	4710
857.13	4679
857.263	4767
857.397	4839
857.53	4664
857.664	4763
857.797	4740
857.931	4793
858.064	4687
858.197	4714
858.331	4630
858.464	4596
858.597	4523
858.731	4596
858.864	4558
858.997	4626
859.13	4634
859.263	4649
859.396	4698
859.529	4561
859.662	4592
859.795	4519
859.928	4584
860.061	4710
860.194	4797
860.327	4637
860.46	4580
860.592	4752
860.725	4691
860.858	4721
860.99	4554
861.123	4512
861.256	4519
861.388	4641
861.521	5296
861.653	4466
861.786	4466
861.918	4443
862.05	4542
862.183	4500
862.315	4618
862.447	4630
862.58	4542
862.712	4432
862.844	4314
862.976	4474
863.108	4455
863.24	4885
863.372	4261
863.504	4462
863.636	4398
863.768	4470
863.9	4447
864.032	4363
864.164	4398
864.296	4455
864.428	4542
864.559	4546
864.691	4500
864.823	4512
864.954	4459
865.086	4462
865.217	4459
865.349	4447
865.48	4417
865.612	4493
865.743	4634
865.875	4447
866.006	4398
866.137	4421
866.269	4459
866.4	4417
866.531	4398
866.662	4428
866.793	4417
866.924	4402
867.055	4485
867.186	4421
867.317	4379
867.448	4356
867.579	4344
867.71	4413
867.841	4325
867.972	4443
868.103	4455
868.233	4440
868.364	4402
868.495	4474
868.625	4664
868.756	4729
868.886	4550
869.017	4615
869.147	4763
869.278	4809
869.408	4653
869.539	4656
869.669	4660
869.799	4660
869.929	4755
870.06	4733
870.19	4991
870.32	4957
870.45	4896
870.58	5014
870.71	5102
870.84	5132
870.97	4991
871.1	4938
871.23	5056
871.36	5128
871.489	5033
871.619	5124
871.749	5029
871.879	5128
872.008	5220
872.138	5052
872.267	4934
872.397	4877
872.526	4843
872.656	4725
872.785	4790
872.915	4968
873.044	5029
873.173	4885
873.303	4999
873.432	4980
873.561	4923
873.69	4820
873.819	4831
873.948	4866
874.077	4828
874.206	4824
874.335	4778
874.464	4919
874.593	5048
874.722	4949
874.851	5071
874.979	4991
875.108	5022
875.237	4934
875.365	4843
875.494	4889
875.623	4968
875.751	4885
875.88	4881
876.008	4972
876.136	5022
876.265	5178
876.393	5383
876.521	5288
876.65	5208
876.778	5121
876.906	5102
877.034	5014
877.162	5018
877.29	4991
877.418	5109
877.546	5033
877.674	5029
877.802	5006
877.93	5018
878.058	4976
878.185	4911
878.313	4991
878.441	4942
878.568	4790
878.696	4839
878.824	4968
878.951	4995
879.079	5128
879.206	5303
879.333	5094
879.461	4915
879.588	4980
879.715	5151
879.842	5235
879.97	4984
880.097	4759
880.224	4771
880.351	4771
880.478	4816
880.605	4801
880.732	4736
880.859	5056
880.986	4866
881.112	4968
881.239	4763
881.366	4618
881.493	4580
881.619	4588
881.746	4675
881.872	4694
881.999	4626
882.125	4649
882.252	4790
882.378	4805
882.505	4949
882.631	4824
882.757	4672
882.883	4721
883.01	4729
883.136	4649
883.262	4634
883.388	4618
883.514	4782
883.64	4900
883.766	4771
883.892	4622
884.018	4714
884.143	4847
884.269	5022
884.395	4656
884.52	4618
884.646	4645
884.772	4569
884.897	4546
885.023	4645
885.148	4763
885.274	4839
885.399	4812
885.524	4710
885.65	4622
885.775	4733
885.9	4656
886.025	4809
886.15	4771
886.275	4698
886.4	4626
886.525	4767
886.65	4653
886.775	4691
886.9	4892
887.025	5060
887.149	4809
887.274	4664
887.399	4615
887.523	4596
887.648	4565
887.773	4577
887.897	4774
888.021	4797
888.146	4683
888.27	4805
888.395	4934
888.519	4797
888.643	4843
888.767	4820
888.891	4664
889.015	4607
889.139	4675
889.263	4558
889.387	4744
889.511	4873
889.635	4759
889.759	4611
889.883	4626
890.006	4706
890.13	4809
890.254	4592
890.377	4694
890.501	4493
890.624	4508
890.748	4626
890.871	4538
890.995	4424
891.118	4405
891.241	4558
891.364	4508
891.488	4630
891.611	4470
891.734	4569
891.857	4599
891.98	4580
892.103	4607
892.226	4573
892.349	4573
892.471	4436
892.594	4584
892.717	4611
892.839	4519
892.962	4561
893.085	4672
893.207	4626
893.33	4394
893.452	4535
893.575	4649
893.697	4584
893.819	4793
893.941	4854
894.064	4736
894.186	4573
894.308	4569
894.43	4714
894.552	4786
894.674	4759
894.796	4558
894.918	4611
895.04	4565
895.161	4736
895.283	4683
895.405	4565
895.526	4607
895.648	4675
895.769	4675
895.891	4691
896.012	4801
896.134	4710
896.255	4691
896.376	4637
896.498	4634
896.619	4717
896.74	4622
896.861	4630
896.982	4968
897.103	5056
897.224	4820
897.345	4812
897.466	4637
897.587	4698
897.708	4835
897.828	4725
897.949	4596
898.07	4554
898.19	4668
898.311	4885
898.431	4714
898.552	4736
898.672	4835
898.792	4812
898.913	4786
899.033	4645
899.153	4421
899.273	4447
899.393	4493
899.513	4497
899.633	4531
899.753	4542
899.873	4527
899.993	4580
900.113	4542
900.232	4675
900.352	4531
900.472	4478
900.591	4436
900.711	4497
900.83	4417
900.95	4550
901.069	4729
901.189	4542
901.308	4394
901.427	4375
901.546	4417
901.665	4440
901.784	4519
901.904	4421
902.023	4318
902.141	4215
902.26	4162
902.379	4287
902.498	4207
902.617	4196
902.735	4310
902.854	4390
902.973	4356
903.091	4181
903.21	4223
903.328	4276
903.446	4314
903.565	4238
903.683	4344
903.801	4249
903.919	4379
904.038	4447
904.156	4303
904.274	4470
904.392	4398
904.51	4485
904.627	4508
904.745	4550
904.863	4626
904.981	4356
905.098	4322
905.216	4379
905.334	4371
905.451	4413
905.569	4402
905.686	4523
905.803	4538
905.921	4405
906.038	4519
906.155	4440
906.272	4485
906.389	4462
906.506	4371
906.623	4360
906.74	4436
906.857	4310
906.974	4383
907.091	4569
907.208	4645
907.324	4588
907.441	4489
907.557	4333
907.674	4379
907.79	4291
907.907	4371
908.023	4497
908.139	4470
908.256	4409
908.372	4421
908.488	4413
908.604	4363
908.72	4341
908.836	4394
908.952	4383
909.068	4455
909.184	4573
909.3	4462
909.415	4535
909.531	4607
909.647	4360
909.762	4371
909.878	4322
909.993	4413
910.108	4417
910.224	4390
910.339	4443
910.454	4379
910.57	4367
910.685	4303
910.8	4672
910.915	4615
911.03	4481
911.145	4314
911.259	4291
911.374	4360
911.489	4299
911.604	4265
911.718	4150
911.833	4219
911.947	4090
912.062	4002
912.176	4234
912.291	4268
912.405	4261
912.519	4489
912.633	4512
912.748	4344
912.862	4284
912.976	4173
913.09	4105
913.204	4185
913.318	4192
913.431	4402
913.545	4363
913.659	4447
913.772	4386
913.886	4242
914	4207
914.113	4360
914.226	4417
914.34	4386
914.453	4246
914.566	4459
914.68	4291
914.793	4341
914.906	4162
915.019	4112
915.132	4074
915.245	4188
915.358	4204
915.47	4219
915.583	4230
915.696	4276
915.809	4390
915.921	4440
916.034	4249
916.146	4207
916.259	4223
916.371	4379
916.483	4390
916.595	4261
916.708	4344
916.82	4314
916.932	4318
917.044	4291
917.156	4341
917.268	4272
917.38	4280
917.491	4280
917.603	4356
917.715	4481
917.826	4443
917.938	4352
918.049	4234
918.161	4367
918.272	4561
918.384	4561
918.495	4424
918.606	4303
918.717	4242
918.828	4356
918.939	4333
919.05	4238
919.161	4356
919.272	4181
919.383	4249
919.494	4462
919.604	4580
919.715	4447
919.826	4322
919.936	4398
920.047	4508
920.157	4500
920.267	4714
920.378	4546
920.488	4512
920.598	4691
920.708	4862
920.818	4763
920.928	4752
921.038	4927
921.148	4877
921.258	4622
921.368	4527
921.477	4489
921.587	4478
921.697	4291
921.806	4538
921.916	4432
922.025	4249
922.134	4253
922.244	4230
922.353	4352
922.462	4162
922.571	4166
922.68	4021
922.789	3941
922.898	4013
923.007	4013
923.116	4120
923.224	4071
923.333	4093
923.442	3975
923.55	3979
923.659	4055
923.767	4082
923.876	4025
923.984	4063
924.092	3987
924.201	4074
924.309	4067
924.417	4120
924.525	4055
924.633	4120
924.741	5064
924.849	3842
924.956	4158
925.064	3998
925.172	3903
925.279	3979
925.387	4074
925.494	4067
925.602	4166
925.709	4169
925.816	4063
925.924	4166
926.031	4238
926.138	4147
926.245	4234
926.352	4067
926.459	4261
926.566	4303
926.673	4116
926.779	4082
926.886	4078
926.993	3991
927.099	3953
927.206	3945
927.312	3949
927.419	4078
927.525	3979
927.631	4082
927.737	3994
927.843	3911
927.95	3850
928.056	3945
928.162	3972
928.267	4051
928.373	4672
928.479	4101
928.585	3854
928.69	4013
928.796	4074
928.901	4002
929.007	3823
929.112	3998
929.218	4013
929.323	3953
929.428	3896
929.533	4059
929.638	3903
929.743	3968
929.848	4059
929.953	4021
930.058	3934
930.163	3781
930.267	3838
930.372	3953
930.477	3808
930.581	4154
930.685	3949
930.79	3804
930.894	3876
930.998	3876
931.103	4051
931.207	3736
931.311	3679
931.415	3675
931.519	3511
931.623	3545
