Data from test_V78500241_2087.txt Node
Date: Fri Mar 25 17:03:30 CST 2022
User: usil
Spectrometer: V785-0024
Trigger mode: 0
Integration Time (sec): 4.000000E-1
Scans to average: 1
Nonlinearity correction enabled: false
Boxcar width: 0
Storing dark spectrum: false
XAxis mode: Wavelengths
Number of Pixels in Spectrum: 1024
>>>>>Begin Spectral Data<<<<<
801.071	8024
801.214	8035
801.356	7818
801.499	7864
801.641	7719
801.783	7818
801.926	7970
802.068	7936
802.211	7982
802.353	7928
802.496	7795
802.638	7841
802.78	7803
802.923	7894
803.065	7818
803.208	7845
803.35	7940
803.492	8103
803.635	8126
803.777	7944
803.919	8111
804.061	8381
804.204	8134
804.346	8069
804.488	7986
804.63	8077
804.773	7982
804.915	8103
805.057	8324
805.199	8088
805.341	8267
805.483	8343
805.626	8149
805.768	8123
805.91	8218
806.052	8240
806.194	8126
806.336	8214
806.478	8111
806.62	8001
806.762	8138
806.904	8225
807.046	8434
807.188	8355
807.33	8263
807.472	8336
807.614	8145
807.756	8069
807.898	7986
808.04	7883
808.182	7875
808.324	7814
808.465	7871
808.607	8035
808.749	8145
808.891	8229
809.033	8294
809.174	8229
809.316	8077
809.458	8069
809.6	7982
809.741	8020
809.883	7940
810.025	8103
810.166	8065
810.308	8016
810.45	7932
810.591	7822
810.733	7742
810.875	7620
811.016	7597
811.158	7426
811.299	7552
811.441	7658
811.582	7628
811.724	7575
811.865	7495
812.007	7639
812.148	7563
812.29	7590
812.431	7772
812.573	7887
812.714	7906
812.855	8172
812.997	8252
813.138	8267
813.279	8157
813.421	8092
813.562	7940
813.703	7811
813.845	7727
813.986	7362
814.127	7217
814.268	7198
814.41	7209
814.551	7152
814.692	7194
814.833	7088
814.974	7171
815.115	7095
815.256	7000
815.397	6958
815.539	6894
815.68	6818
815.821	6726
815.962	6886
816.103	6825
816.244	6684
816.385	6654
816.526	6681
816.666	6502
816.807	6323
816.948	6456
817.089	6498
817.23	6426
817.371	6346
817.512	6395
817.653	6384
817.793	6315
817.934	6380
818.075	6403
818.216	6410
818.356	6353
818.497	6201
818.638	6091
818.778	6114
818.919	6136
819.06	6148
819.2	6353
819.341	6323
819.481	6315
819.622	6585
819.762	6738
819.903	6700
820.043	6604
820.184	6544
820.324	6582
820.465	6722
820.605	6623
820.746	6635
820.886	6483
821.026	6620
821.167	6707
821.307	6791
821.447	6795
821.588	6719
821.728	6574
821.868	6464
822.008	6296
822.149	6399
822.289	6380
822.429	6125
822.569	6064
822.709	6133
822.849	5942
822.99	5923
823.13	5885
823.27	5958
823.41	5771
823.55	5798
823.69	5741
823.83	5786
823.97	5684
824.11	5505
824.25	5528
824.389	5608
824.529	5596
824.669	5497
824.809	5596
824.949	5657
825.089	5661
825.228	5615
825.368	5421
825.508	5349
825.648	5379
825.787	5341
825.927	5402
826.067	5330
826.206	5284
826.346	5349
826.485	5326
826.625	5391
826.765	5543
826.904	5497
827.044	5235
827.183	5212
827.323	5079
827.462	5277
827.601	5117
827.741	5197
827.88	5204
828.02	5105
828.159	5189
828.298	5299
828.437	5383
828.577	5277
828.716	5425
828.855	5334
828.994	5147
829.134	5166
829.273	5162
829.412	5170
829.551	5102
829.69	5159
829.829	5204
829.968	5372
830.107	5299
830.246	5280
830.385	5189
830.524	5132
830.663	5079
830.802	4980
830.941	4896
831.08	4839
831.219	5014
831.357	4904
831.496	5143
831.635	4953
831.774	4812
831.913	4831
832.051	4767
832.19	4759
832.329	4850
832.467	4656
832.606	4592
832.744	4752
832.883	4744
833.022	4721
833.16	4759
833.299	4862
833.437	4873
833.576	4793
833.714	4866
833.852	4854
833.991	4881
834.129	4957
834.267	4862
834.406	4915
834.544	4995
834.682	4961
834.821	4953
834.959	5162
835.097	4968
835.235	5181
835.373	5083
835.511	5140
835.65	5022
835.788	5018
835.926	4881
836.064	4839
836.202	4915
836.34	5124
836.478	5212
836.615	5170
836.753	5181
836.891	5311
837.029	5258
837.167	5178
837.305	5185
837.443	5132
837.58	5056
837.718	5239
837.856	5166
837.993	5121
838.131	5246
838.269	5193
838.406	5254
838.544	5185
838.681	4953
838.819	4995
838.956	4877
839.094	4820
839.231	4976
839.369	5041
839.506	5383
839.643	5223
839.781	5071
839.918	4972
840.055	5056
840.193	5037
840.33	5086
840.467	5128
840.604	5185
840.742	5387
840.879	5064
841.016	5075
841.153	5193
841.29	5318
841.427	5349
841.564	5277
841.701	5330
841.838	5280
841.975	5193
842.112	5239
842.249	5132
842.385	5098
842.522	5269
842.659	5140
842.796	5185
842.933	5204
843.069	5109
843.206	5132
843.343	5273
843.479	5239
843.616	5242
843.752	5029
843.889	5010
844.025	5208
844.162	5014
844.298	5143
844.435	5048
844.571	5071
844.708	5166
844.844	5326
844.98	5284
845.117	5261
845.253	5109
845.389	5117
845.525	5136
845.661	5098
845.798	5052
845.934	5105
846.07	5090
846.206	5223
846.342	5280
846.478	5166
846.614	5014
846.75	4923
846.886	4946
847.022	5128
847.158	5025
847.294	5029
847.429	5117
847.565	5052
847.701	5341
847.837	4839
847.972	4824
848.108	4942
848.244	4957
848.379	4782
848.515	4793
848.65	4656
848.786	4725
848.921	4782
849.057	4870
849.192	4923
849.328	4801
849.463	4820
849.598	4828
849.734	4767
849.869	4702
850.004	4630
850.14	4675
850.275	4603
850.41	4531
850.545	4577
850.68	4634
850.815	4618
850.95	4618
851.085	4854
851.22	4748
851.355	4656
851.49	4588
851.625	4660
851.76	4645
851.895	4500
852.03	4550
852.165	4618
852.299	4744
852.434	4782
852.569	4721
852.703	4790
852.838	4839
852.973	4881
853.107	4870
853.242	4744
853.376	4630
853.511	4535
853.645	4607
853.78	4740
853.914	4714
854.048	4653
854.183	4668
854.317	4698
854.451	4824
854.585	4637
854.72	4634
854.854	4767
854.988	4596
855.122	4611
855.256	4535
855.39	4637
855.524	4725
855.658	4725
855.792	4679
855.926	4721
856.06	4752
856.194	4759
856.327	4675
856.461	4615
856.595	4668
856.729	4603
856.862	4759
856.996	4691
857.13	4714
857.263	4740
857.397	4793
857.53	4630
857.664	4683
857.797	4774
857.931	4767
858.064	4660
858.197	4752
858.331	4672
858.464	4584
858.597	4558
858.731	4611
858.864	4588
858.997	4538
859.13	4611
859.263	4603
859.396	4698
859.529	4538
859.662	4519
859.795	4607
859.928	4599
860.061	4740
860.194	4767
860.327	4577
860.46	4565
860.592	4725
860.725	4717
860.858	4687
860.99	4542
861.123	4580
861.256	4542
861.388	4603
861.521	5299
861.653	4436
861.786	4443
861.918	4402
862.05	4546
862.183	4512
862.315	4558
862.447	4634
862.58	4535
862.712	4398
862.844	4306
862.976	4447
863.108	4443
863.24	4759
863.372	4318
863.504	4383
863.636	4402
863.768	4440
863.9	4405
864.032	4352
864.164	4356
864.296	4459
864.428	4516
864.559	4565
864.691	4554
864.823	4500
864.954	4500
865.086	4519
865.217	4451
865.349	4383
865.48	4447
865.612	4474
865.743	4660
865.875	4409
866.006	4428
866.137	4474
866.269	4462
866.4	4466
866.531	4447
866.662	4413
866.793	4417
866.924	4417
867.055	4523
867.186	4432
867.317	4436
867.448	4379
867.579	4451
867.71	4371
867.841	4386
867.972	4554
868.103	4459
868.233	4459
868.364	4447
868.495	4500
868.625	4649
868.756	4801
868.886	4622
869.017	4641
869.147	4820
869.278	4824
869.408	4668
869.539	4630
869.669	4694
869.799	4729
869.929	4755
870.06	4778
870.19	4976
870.32	4991
870.45	4949
870.58	5033
870.71	5124
870.84	5128
870.97	4965
871.1	4991
871.23	5181
871.36	5140
871.489	5086
871.619	5083
871.749	5094
871.879	5132
872.008	5216
872.138	5098
872.267	5033
872.397	4870
872.526	4839
872.656	4748
872.785	4839
872.915	4999
873.044	5079
873.173	4980
873.303	4987
873.432	4999
873.561	4984
873.69	4908
873.819	4908
873.948	4942
874.077	4908
874.206	4748
874.335	4824
874.464	4961
874.593	5136
874.722	5003
874.851	5143
874.979	5086
875.108	5025
875.237	4953
875.365	4949
875.494	4915
875.623	5018
875.751	4858
875.88	4889
876.008	5086
876.136	5075
876.265	5189
876.393	5398
876.521	5258
876.65	5303
876.778	5136
876.906	5117
877.034	5090
877.162	5098
877.29	5006
877.418	5109
877.546	5124
877.674	5083
877.802	5003
877.93	5029
878.058	5003
878.185	4946
878.313	4965
878.441	4999
878.568	4839
878.696	4919
878.824	4938
878.951	5037
879.079	5098
879.206	5349
879.333	5128
879.461	5048
879.588	5064
879.715	5147
879.842	5250
879.97	5067
880.097	4793
880.224	4774
880.351	4877
880.478	4835
880.605	4835
880.732	4854
880.859	5102
880.986	4976
881.112	4934
881.239	4816
881.366	4721
881.493	4630
881.619	4611
881.746	4664
881.872	4702
881.999	4668
882.125	4702
882.252	4801
882.378	4763
882.505	4987
882.631	4831
882.757	4710
882.883	4805
883.01	4782
883.136	4714
883.262	4634
883.388	4634
883.514	4847
883.64	4892
883.766	4816
883.892	4702
884.018	4767
884.143	4911
884.269	5029
884.395	4714
884.52	4672
884.646	4641
884.772	4611
884.897	4626
885.023	4660
885.148	4790
885.274	4885
885.399	4839
885.524	4752
885.65	4721
885.775	4771
885.9	4759
886.025	4908
886.15	4797
886.275	4694
886.4	4698
886.525	4782
886.65	4782
886.775	4710
886.9	4911
887.025	5014
887.149	4873
887.274	4691
887.399	4607
887.523	4637
887.648	4618
887.773	4611
887.897	4843
888.021	4801
888.146	4736
888.27	4847
888.395	4904
888.519	4843
888.643	4816
888.767	4812
888.891	4687
889.015	4599
889.139	4679
889.263	4645
889.387	4752
889.511	4858
889.635	4881
889.759	4656
889.883	4664
890.006	4771
890.13	4900
890.254	4653
890.377	4698
890.501	4580
890.624	4577
890.748	4668
890.871	4527
890.995	4447
891.118	4436
891.241	4538
891.364	4573
891.488	4641
891.611	4558
891.734	4561
891.857	4634
891.98	4626
892.103	4649
892.226	4588
892.349	4584
892.471	4493
892.594	4577
892.717	4645
892.839	4637
892.962	4637
893.085	4687
893.207	4649
893.33	4497
893.452	4599
893.575	4679
893.697	4550
893.819	4831
893.941	4820
894.064	4816
894.186	4607
894.308	4592
894.43	4744
894.552	4786
894.674	4805
894.796	4523
894.918	4596
895.04	4618
895.161	4736
895.283	4687
895.405	4588
895.526	4630
895.648	4714
895.769	4710
895.891	4740
896.012	4721
896.134	4752
896.255	4679
896.376	4641
896.498	4622
896.619	4672
896.74	4656
896.861	4645
896.982	4965
897.103	5041
897.224	4885
897.345	4752
897.466	4683
897.587	4752
897.708	4847
897.828	4809
897.949	4687
898.07	4592
898.19	4641
898.311	4885
898.431	4736
898.552	4778
898.672	4793
898.792	4793
898.913	4725
899.033	4649
899.153	4478
899.273	4466
899.393	4516
899.513	4565
899.633	4538
899.753	4580
899.873	4523
899.993	4599
900.113	4527
900.232	4615
900.352	4558
900.472	4516
900.591	4440
900.711	4523
900.83	4481
900.95	4611
901.069	4729
901.189	4565
901.308	4386
901.427	4375
901.546	4398
901.665	4500
901.784	4558
901.904	4417
902.023	4318
902.141	4192
902.26	4158
902.379	4322
902.498	4257
902.617	4261
902.735	4413
902.854	4455
902.973	4394
903.091	4234
903.21	4246
903.328	4337
903.446	4268
903.565	4310
903.683	4398
903.801	4299
903.919	4474
904.038	4462
904.156	4379
904.274	4481
904.392	4440
904.51	4451
904.627	4489
904.745	4645
904.863	4653
904.981	4447
905.098	4348
905.216	4428
905.334	4451
905.451	4436
905.569	4497
905.686	4584
905.803	4569
905.921	4447
906.038	4637
906.155	4512
906.272	4383
906.389	4493
906.506	4375
906.623	4405
906.74	4432
906.857	4303
906.974	4417
907.091	4592
907.208	4637
907.324	4588
907.441	4512
907.557	4333
907.674	4356
907.79	4352
907.907	4360
908.023	4478
908.139	4561
908.256	4500
908.372	4470
908.488	4459
908.604	4375
908.72	4341
908.836	4386
908.952	4398
909.068	4462
909.184	4558
909.3	4523
909.415	4603
909.531	4588
909.647	4421
909.762	4409
909.878	4360
909.993	4436
910.108	4470
910.224	4390
910.339	4531
910.454	4386
910.57	4379
910.685	4352
910.8	4626
910.915	4611
911.03	4561
911.145	4398
911.259	4303
911.374	4352
911.489	4295
911.604	4253
911.718	4223
911.833	4200
911.947	4131
912.062	4017
912.176	4257
912.291	4280
912.405	4268
912.519	4470
912.633	4519
912.748	4379
912.862	4306
912.976	4188
913.09	4116
913.204	4192
913.318	4310
913.431	4367
913.545	4417
913.659	4478
913.772	4371
913.886	4223
914	4238
914.113	4356
914.226	4470
914.34	4383
914.453	4265
914.566	4440
914.68	4322
914.793	4360
914.906	4192
915.019	4139
915.132	4093
915.245	4196
915.358	4211
915.47	4265
915.583	4303
915.696	4261
915.809	4413
915.921	4421
916.034	4287
916.146	4261
916.259	4223
916.371	4424
916.483	4394
916.595	4272
916.708	4325
916.82	4352
916.932	4295
917.044	4352
917.156	4383
917.268	4291
917.38	4276
917.491	4306
917.603	4329
917.715	4440
917.826	4474
917.938	4383
918.049	4257
918.161	4478
918.272	4615
918.384	4580
918.495	4462
918.606	4318
918.717	4287
918.828	4371
918.939	4394
919.05	4265
919.161	4329
919.272	4169
919.383	4219
919.494	4462
919.604	4615
919.715	4485
919.826	4337
919.936	4432
920.047	4554
920.157	4542
920.267	4641
920.378	4580
920.488	4531
920.598	4752
920.708	4915
920.818	4744
920.928	4790
921.038	4953
921.148	4915
921.258	4641
921.368	4535
921.477	4535
921.587	4413
921.697	4379
921.806	4584
921.916	4455
922.025	4265
922.134	4276
922.244	4230
922.353	4379
922.462	4192
922.571	4147
922.68	3994
922.789	4006
922.898	4044
923.007	4017
923.116	4090
923.224	4059
923.333	4101
923.442	3983
923.55	3998
923.659	4025
923.767	4109
923.876	4051
923.984	4181
924.092	4048
924.201	4147
924.309	4105
924.417	4105
924.525	4158
924.633	4105
924.741	5071
924.849	3922
924.956	4154
925.064	3987
925.172	3888
925.279	3956
925.387	4044
925.494	4036
925.602	4207
925.709	4177
925.816	4029
925.924	4120
926.031	4230
926.138	4192
926.245	4200
926.352	4097
926.459	4261
926.566	4306
926.673	4173
926.779	4067
926.886	4120
926.993	4002
927.099	3960
927.206	3953
927.312	3987
927.419	4090
927.525	4021
927.631	4105
927.737	3991
927.843	3903
927.95	3857
928.056	3941
928.162	4040
928.267	4059
928.373	4569
928.479	4097
928.585	3884
928.69	4055
928.796	4044
928.901	3994
929.007	3873
929.112	4021
929.218	3994
929.323	3972
929.428	3937
929.533	4124
929.638	3941
929.743	3998
929.848	4051
929.953	3998
930.058	3964
930.163	3812
930.267	3850
930.372	3979
930.477	3838
930.581	4097
930.685	3934
930.79	3789
930.894	3896
930.998	3854
931.103	4040
931.207	3736
931.311	3694
931.415	3698
931.519	3519
931.623	3576
