Data from test_V78500241_388.txt Node
Date: Fri Mar 25 16:51:42 CST 2022
User: usil
Spectrometer: V785-0024
Trigger mode: 0
Integration Time (sec): 4.000000E-1
Scans to average: 1
Nonlinearity correction enabled: false
Boxcar width: 0
Storing dark spectrum: false
XAxis mode: Wavelengths
Number of Pixels in Spectrum: 1024
>>>>>Begin Spectral Data<<<<<
801.071	8081
801.214	8142
801.356	7951
801.499	7928
801.641	7928
801.783	7864
801.926	7989
802.068	7959
802.211	8027
802.353	8119
802.496	7925
802.638	7932
802.78	7928
802.923	7978
803.065	8001
803.208	7932
803.35	8005
803.492	8035
803.635	8138
803.777	7982
803.919	8157
804.061	8446
804.204	8187
804.346	8130
804.488	8031
804.63	8096
804.773	8035
804.915	8123
805.057	8324
805.199	8138
805.341	8240
805.483	8248
805.626	8149
805.768	8062
805.91	8244
806.052	8206
806.194	8126
806.336	8358
806.478	8199
806.62	8157
806.762	8180
806.904	8233
807.046	8465
807.188	8446
807.33	8324
807.472	8279
807.614	8103
807.756	8172
807.898	8008
808.04	7928
808.182	7951
808.324	7944
808.465	7959
808.607	8168
808.749	8130
808.891	8252
809.033	8286
809.174	8275
809.316	8100
809.458	8111
809.6	7970
809.741	8092
809.883	8103
810.025	8134
810.166	8103
810.308	8092
810.45	8096
810.591	7890
810.733	7780
810.875	7734
811.016	7464
811.158	7544
811.299	7658
811.441	7826
811.582	7780
811.724	7616
811.865	7594
812.007	7662
812.148	7613
812.29	7616
812.431	7788
812.573	7902
812.714	8043
812.855	8225
812.997	8240
813.138	8256
813.279	8202
813.421	8134
813.562	8119
813.703	7974
813.845	7864
813.986	7476
814.127	7305
814.268	7305
814.41	7255
814.551	7228
814.692	7202
814.833	7095
814.974	7080
815.115	7175
815.256	6989
815.397	6924
815.539	6901
815.68	6890
815.821	6833
815.962	6875
816.103	6882
816.244	6776
816.385	6604
816.526	6620
816.666	6555
816.807	6380
816.948	6486
817.089	6517
817.23	6483
817.371	6414
817.512	6418
817.653	6429
817.793	6422
817.934	6448
818.075	6494
818.216	6464
818.356	6490
818.497	6262
818.638	6178
818.778	6133
818.919	6152
819.06	6197
819.2	6296
819.341	6311
819.481	6350
819.622	6536
819.762	6871
819.903	6730
820.043	6563
820.184	6574
820.324	6627
820.465	6700
820.605	6627
820.746	6623
820.886	6517
821.026	6726
821.167	6734
821.307	6814
821.447	6825
821.588	6722
821.728	6593
821.868	6528
822.008	6334
822.149	6388
822.289	6357
822.429	6182
822.569	6125
822.709	6182
822.849	5927
822.99	5935
823.13	6026
823.27	5958
823.41	5779
823.55	5821
823.69	5817
823.83	5809
823.97	5726
824.11	5532
824.25	5474
824.389	5600
824.529	5630
824.669	5497
824.809	5741
824.949	5630
825.089	5657
825.228	5570
825.368	5436
825.508	5364
825.648	5345
825.787	5417
825.927	5345
826.067	5376
826.206	5307
826.346	5410
826.485	5440
826.625	5486
826.765	5524
826.904	5497
827.044	5235
827.183	5220
827.323	5181
827.462	5239
827.601	5147
827.741	5227
827.88	5242
828.02	5166
828.159	5258
828.298	5269
828.437	5357
828.577	5296
828.716	5524
828.855	5307
828.994	5162
829.134	5155
829.273	5193
829.412	5216
829.551	5113
829.69	5216
829.829	5261
829.968	5364
830.107	5315
830.246	5292
830.385	5166
830.524	5151
830.663	5090
830.802	4968
830.941	4930
831.08	4892
831.219	5045
831.357	5006
831.496	5132
831.635	4957
831.774	4790
831.913	4858
832.051	4717
832.19	4828
832.329	4892
832.467	4698
832.606	4710
832.744	4771
832.883	4698
833.022	4729
833.16	4748
833.299	4816
833.437	4843
833.576	4824
833.714	4892
833.852	4881
833.991	4930
834.129	5003
834.267	4946
834.406	4858
834.544	4987
834.682	5010
834.821	4957
834.959	5170
835.097	5010
835.235	5170
835.373	5113
835.511	5136
835.65	5022
835.788	5067
835.926	4919
836.064	4873
836.202	4934
836.34	5117
836.478	5250
836.615	5121
836.753	5193
836.891	5337
837.029	5277
837.167	5181
837.305	5212
837.443	5227
837.58	5102
837.718	5269
837.856	5162
837.993	5147
838.131	5227
838.269	5227
838.406	5197
838.544	5220
838.681	5056
838.819	5056
838.956	4915
839.094	4881
839.231	5014
839.369	5105
839.506	5402
839.643	5269
839.781	5033
839.918	5056
840.055	5124
840.193	5109
840.33	5170
840.467	5159
840.604	5193
840.742	5440
840.879	5121
841.016	5071
841.153	5109
841.29	5322
841.427	5372
841.564	5357
841.701	5376
841.838	5318
841.975	5227
842.112	5242
842.249	5155
842.385	5124
842.522	5402
842.659	5189
842.796	5185
842.933	5250
843.069	5174
843.206	5174
843.343	5372
843.479	5265
843.616	5280
843.752	5041
843.889	5010
844.025	5239
844.162	5094
844.298	5231
844.435	5079
844.571	5105
844.708	5193
844.844	5303
844.98	5360
845.117	5349
845.253	5132
845.389	5075
845.525	5174
845.661	5170
845.798	5045
845.934	5113
846.07	5090
846.206	5185
846.342	5280
846.478	5204
846.614	5029
846.75	4976
846.886	4949
847.022	5143
847.158	5033
847.294	5041
847.429	5178
847.565	5060
847.701	5341
847.837	4900
847.972	4831
848.108	4957
848.244	4949
848.379	4767
848.515	4790
848.65	4752
848.786	4752
848.921	4778
849.057	4896
849.192	4915
849.328	4877
849.463	4835
849.598	4835
849.734	4767
849.869	4683
850.004	4607
850.14	4641
850.275	4653
850.41	4546
850.545	4615
850.68	4611
850.815	4649
850.95	4641
851.085	4835
851.22	4797
851.355	4706
851.49	4634
851.625	4626
851.76	4683
851.895	4531
852.03	4531
852.165	4622
852.299	4797
852.434	4809
852.569	4755
852.703	4763
852.838	4881
852.973	4987
853.107	4957
853.242	4744
853.376	4702
853.511	4592
853.645	4618
853.78	4828
853.914	4672
854.048	4634
854.183	4664
854.317	4683
854.451	4915
854.585	4683
854.72	4660
854.854	4774
854.988	4588
855.122	4687
855.256	4546
855.39	4675
855.524	4812
855.658	4714
855.792	4698
855.926	4706
856.06	4782
856.194	4793
856.327	4687
856.461	4641
856.595	4607
856.729	4634
856.862	4759
856.996	4702
857.13	4736
857.263	4790
857.397	4763
857.53	4691
857.664	4721
857.797	4771
857.931	4771
858.064	4736
858.197	4736
858.331	4675
858.464	4580
858.597	4478
858.731	4615
858.864	4683
858.997	4588
859.13	4679
859.263	4702
859.396	4691
859.529	4603
859.662	4584
859.795	4565
859.928	4649
860.061	4733
860.194	4752
860.327	4649
860.46	4565
860.592	4702
860.725	4717
860.858	4759
860.99	4611
861.123	4500
861.256	4485
861.388	4645
861.521	5383
861.653	4485
861.786	4432
861.918	4443
862.05	4550
862.183	4538
862.315	4618
862.447	4634
862.58	4622
862.712	4375
862.844	4268
862.976	4485
863.108	4440
863.24	4782
863.372	4348
863.504	4390
863.636	4379
863.768	4493
863.9	4405
864.032	4371
864.164	4432
864.296	4459
864.428	4531
864.559	4550
864.691	4508
864.823	4554
864.954	4466
865.086	4523
865.217	4474
865.349	4432
865.48	4493
865.612	4550
865.743	4664
865.875	4504
866.006	4481
866.137	4481
866.269	4443
866.4	4459
866.531	4421
866.662	4436
866.793	4413
866.924	4413
867.055	4504
867.186	4474
867.317	4466
867.448	4402
867.579	4360
867.71	4398
867.841	4363
867.972	4462
868.103	4466
868.233	4421
868.364	4489
868.495	4493
868.625	4626
868.756	4755
868.886	4542
869.017	4645
869.147	4828
869.278	4805
869.408	4679
869.539	4599
869.669	4698
869.799	4668
869.929	4748
870.06	4736
870.19	4987
870.32	4953
870.45	4934
870.58	5056
870.71	5086
870.84	5105
870.97	4984
871.1	4957
871.23	5128
871.36	5136
871.489	5014
871.619	5075
871.749	5098
871.879	5067
872.008	5208
872.138	5029
872.267	4957
872.397	4862
872.526	4786
872.656	4694
872.785	4790
872.915	4938
873.044	5060
873.173	4968
873.303	4942
873.432	4957
873.561	5037
873.69	4915
873.819	4828
873.948	4961
874.077	4828
874.206	4801
874.335	4812
874.464	4949
874.593	5113
874.722	4961
874.851	5075
874.979	5102
875.108	5010
875.237	4908
875.365	4854
875.494	4930
875.623	4938
875.751	4854
875.88	4885
876.008	5014
876.136	5071
876.265	5181
876.393	5357
876.521	5254
876.65	5216
876.778	5166
876.906	5064
877.034	5067
877.162	5083
877.29	5006
877.418	5048
877.546	5041
877.674	5067
877.802	5094
877.93	5102
878.058	4930
878.185	4915
878.313	5010
878.441	5014
878.568	4801
878.696	4923
878.824	4972
878.951	4987
879.079	5151
879.206	5337
879.333	5067
879.461	4972
879.588	5003
879.715	5140
879.842	5220
879.97	4976
880.097	4778
880.224	4774
880.351	4831
880.478	4805
880.605	4812
880.732	4774
880.859	5083
880.986	4927
881.112	4957
881.239	4782
881.366	4653
881.493	4649
881.619	4584
881.746	4626
881.872	4653
881.999	4618
882.125	4721
882.252	4793
882.378	4873
882.505	4946
882.631	4736
882.757	4664
882.883	4759
883.01	4740
883.136	4679
883.262	4603
883.388	4626
883.514	4763
883.64	4873
883.766	4809
883.892	4687
884.018	4725
884.143	4930
884.269	4991
884.395	4702
884.52	4672
884.646	4637
884.772	4607
884.897	4584
885.023	4630
885.148	4812
885.274	4896
885.399	4824
885.524	4694
885.65	4733
885.775	4759
885.9	4717
886.025	4911
886.15	4801
886.275	4721
886.4	4649
886.525	4752
886.65	4725
886.775	4714
886.9	4934
887.025	5022
887.149	4801
887.274	4656
887.399	4596
887.523	4603
887.648	4596
887.773	4596
887.897	4736
888.021	4835
888.146	4683
888.27	4778
888.395	4965
888.519	4782
888.643	4828
888.767	4831
888.891	4683
889.015	4599
889.139	4615
889.263	4580
889.387	4767
889.511	4885
889.635	4816
889.759	4653
889.883	4675
890.006	4729
890.13	4843
890.254	4656
890.377	4717
890.501	4580
890.624	4535
890.748	4618
890.871	4508
890.995	4455
891.118	4405
891.241	4497
891.364	4527
891.488	4626
891.611	4538
891.734	4577
891.857	4584
891.98	4607
892.103	4645
892.226	4584
892.349	4512
892.471	4428
892.594	4527
892.717	4596
892.839	4550
892.962	4618
893.085	4683
893.207	4592
893.33	4474
893.452	4500
893.575	4668
893.697	4618
893.819	4767
893.941	4816
894.064	4755
894.186	4584
894.308	4596
894.43	4790
894.552	4797
894.674	4767
894.796	4561
894.918	4573
895.04	4546
895.161	4679
895.283	4653
895.405	4592
895.526	4592
895.648	4668
895.769	4729
895.891	4725
896.012	4714
896.134	4763
896.255	4733
896.376	4622
896.498	4622
896.619	4706
896.74	4603
896.861	4714
896.982	4904
897.103	5147
897.224	4866
897.345	4782
897.466	4679
897.587	4771
897.708	4828
897.828	4786
897.949	4694
898.07	4550
898.19	4611
898.311	4862
898.431	4698
898.552	4740
898.672	4831
898.792	4774
898.913	4736
899.033	4615
899.153	4516
899.273	4417
899.393	4508
899.513	4523
899.633	4565
899.753	4588
899.873	4527
899.993	4592
900.113	4569
900.232	4577
900.352	4519
900.472	4478
900.591	4440
900.711	4519
900.83	4428
900.95	4649
901.069	4694
901.189	4538
901.308	4383
901.427	4337
901.546	4367
901.665	4428
901.784	4561
901.904	4371
902.023	4325
902.141	4185
902.26	4192
902.379	4303
902.498	4287
902.617	4230
902.735	4383
902.854	4379
902.973	4303
903.091	4230
903.21	4238
903.328	4306
903.446	4295
903.565	4291
903.683	4371
903.801	4314
903.919	4371
904.038	4440
904.156	4341
904.274	4409
904.392	4398
904.51	4405
904.627	4508
904.745	4588
904.863	4668
904.981	4417
905.098	4325
905.216	4386
905.334	4493
905.451	4466
905.569	4489
905.686	4584
905.803	4546
905.921	4455
906.038	4516
906.155	4489
906.272	4432
906.389	4466
906.506	4375
906.623	4432
906.74	4436
906.857	4341
906.974	4440
907.091	4531
907.208	4672
907.324	4645
907.441	4493
907.557	4325
907.674	4348
907.79	4306
907.907	4413
908.023	4500
908.139	4527
908.256	4459
908.372	4485
908.488	4440
908.604	4417
908.72	4337
908.836	4371
908.952	4383
909.068	4436
909.184	4584
909.3	4508
909.415	4592
909.531	4554
909.647	4314
909.762	4371
909.878	4337
909.993	4428
910.108	4402
910.224	4447
910.339	4489
910.454	4409
910.57	4379
910.685	4303
910.8	4596
910.915	4596
911.03	4497
911.145	4318
911.259	4333
911.374	4367
911.489	4318
911.604	4272
911.718	4173
911.833	4207
911.947	4109
912.062	4059
912.176	4192
912.291	4276
912.405	4242
912.519	4493
912.633	4523
912.748	4360
912.862	4306
912.976	4192
913.09	4139
913.204	4173
913.318	4257
913.431	4390
913.545	4386
913.659	4459
913.772	4337
913.886	4204
914	4257
914.113	4409
914.226	4409
914.34	4383
914.453	4242
914.566	4424
914.68	4249
914.793	4371
914.906	4192
915.019	4181
915.132	4112
915.245	4215
915.358	4177
915.47	4253
915.583	4257
915.696	4325
915.809	4428
915.921	4447
916.034	4261
916.146	4268
916.259	4268
916.371	4375
916.483	4360
916.595	4306
916.708	4295
916.82	4333
916.932	4325
917.044	4360
917.156	4363
917.268	4249
917.38	4310
917.491	4265
917.603	4337
917.715	4428
917.826	4436
917.938	4344
918.049	4280
918.161	4394
918.272	4573
918.384	4569
918.495	4489
918.606	4299
918.717	4234
918.828	4367
918.939	4390
919.05	4257
919.161	4341
919.272	4124
919.383	4253
919.494	4474
919.604	4588
919.715	4447
919.826	4348
919.936	4390
920.047	4512
920.157	4519
920.267	4717
920.378	4516
920.488	4527
920.598	4736
920.708	4870
920.818	4725
920.928	4797
921.038	4961
921.148	4934
921.258	4618
921.368	4554
921.477	4481
921.587	4516
921.697	4398
921.806	4535
921.916	4447
922.025	4265
922.134	4284
922.244	4242
922.353	4318
922.462	4181
922.571	4162
922.68	4032
922.789	3987
922.898	4036
923.007	3960
923.116	4109
923.224	4063
923.333	4147
923.442	4010
923.55	4013
923.659	4010
923.767	4078
923.876	4006
923.984	4135
924.092	3983
924.201	4040
924.309	4071
924.417	4135
924.525	4040
924.633	4131
924.741	5045
924.849	3949
924.956	4120
925.064	3945
925.172	3907
925.279	3918
925.387	4105
925.494	4059
925.602	4219
925.709	4200
925.816	4044
925.924	4166
926.031	4204
926.138	4188
926.245	4204
926.352	4067
926.459	4265
926.566	4325
926.673	4181
926.779	4131
926.886	4067
926.993	3979
927.099	3953
927.206	3956
927.312	3918
927.419	4059
927.525	4051
927.631	4097
927.737	3994
927.843	3979
927.95	3876
928.056	3941
928.162	4013
928.267	4071
928.373	4649
928.479	4090
928.585	3873
928.69	3991
928.796	4063
928.901	3941
929.007	3857
929.112	3991
929.218	3964
929.323	3934
929.428	3937
929.533	4090
929.638	3911
929.743	3983
929.848	4013
929.953	3975
930.058	3949
930.163	3800
930.267	3861
930.372	3972
930.477	3842
930.581	4071
930.685	3994
930.79	3804
930.894	3892
930.998	3838
931.103	4032
931.207	3743
931.311	3705
931.415	3701
931.519	3507
931.623	3557
