Data from test_V78500241_1669.txt Node
Date: Fri Mar 25 17:00:36 CST 2022
User: usil
Spectrometer: V785-0024
Trigger mode: 0
Integration Time (sec): 4.000000E-1
Scans to average: 1
Nonlinearity correction enabled: false
Boxcar width: 0
Storing dark spectrum: false
XAxis mode: Wavelengths
Number of Pixels in Spectrum: 1024
>>>>>Begin Spectral Data<<<<<
801.071	7932
801.214	8012
801.356	7860
801.499	7833
801.641	7780
801.783	7864
801.926	7951
802.068	7879
802.211	7951
802.353	8001
802.496	7830
802.638	7871
802.78	7955
802.923	7864
803.065	7902
803.208	7883
803.35	8005
803.492	8107
803.635	8138
803.777	8027
803.919	8073
804.061	8415
804.204	8149
804.346	8039
804.488	7989
804.63	8084
804.773	7974
804.915	8149
805.057	8332
805.199	8142
805.341	8210
805.483	8229
805.626	8244
805.768	8115
805.91	8206
806.052	8240
806.194	8183
806.336	8298
806.478	8065
806.62	8058
806.762	8096
806.904	8305
807.046	8514
807.188	8339
807.33	8404
807.472	8313
807.614	8210
807.756	8100
807.898	7986
808.04	7955
808.182	7906
808.324	7822
808.465	7887
808.607	8012
808.749	8123
808.891	8214
809.033	8347
809.174	8202
809.316	8012
809.458	8103
809.6	7993
809.741	7982
809.883	8054
810.025	8126
810.166	8081
810.308	8050
810.45	7970
810.591	7822
810.733	7712
810.875	7620
811.016	7510
811.158	7434
811.299	7632
811.441	7655
811.582	7590
811.724	7525
811.865	7575
812.007	7571
812.148	7597
812.29	7712
812.431	7731
812.573	7879
812.714	7997
812.855	8134
812.997	8248
813.138	8240
813.279	8176
813.421	7982
813.562	7932
813.703	7841
813.845	7727
813.986	7384
814.127	7270
814.268	7232
814.41	7217
814.551	7149
814.692	7232
814.833	7114
814.974	7122
815.115	7160
815.256	6966
815.397	6924
815.539	6901
815.68	6802
815.821	6802
815.962	6814
816.103	6829
816.244	6684
816.385	6566
816.526	6604
816.666	6475
816.807	6258
816.948	6490
817.089	6407
817.23	6437
817.371	6334
817.512	6403
817.653	6357
817.793	6327
817.934	6353
818.075	6429
818.216	6376
818.356	6361
818.497	6251
818.638	6114
818.778	6155
818.919	6140
819.06	6140
819.2	6357
819.341	6281
819.481	6353
819.622	6521
819.762	6715
819.903	6677
820.043	6582
820.184	6551
820.324	6623
820.465	6738
820.605	6715
820.746	6593
820.886	6479
821.026	6578
821.167	6738
821.307	6753
821.447	6715
821.588	6669
821.728	6559
821.868	6502
822.008	6319
822.149	6395
822.289	6304
822.429	6114
822.569	6114
822.709	6102
822.849	5916
822.99	5946
823.13	5878
823.27	5935
823.41	5737
823.55	5783
823.69	5733
823.83	5821
823.97	5600
824.11	5490
824.25	5501
824.389	5554
824.529	5608
824.669	5539
824.809	5684
824.949	5672
825.089	5604
825.228	5547
825.368	5383
825.508	5265
825.648	5330
825.787	5360
825.927	5341
826.067	5318
826.206	5303
826.346	5383
826.485	5429
826.625	5429
826.765	5528
826.904	5512
827.044	5235
827.183	5185
827.323	5086
827.462	5250
827.601	5151
827.741	5185
827.88	5212
828.02	5128
828.159	5261
828.298	5296
828.437	5357
828.577	5216
828.716	5455
828.855	5318
828.994	5136
829.134	5124
829.273	5181
829.412	5109
829.551	5105
829.69	5181
829.829	5265
829.968	5357
830.107	5288
830.246	5261
830.385	5185
830.524	5086
830.663	5064
830.802	4946
830.941	4908
831.08	4812
831.219	4957
831.357	4953
831.496	5181
831.635	4858
831.774	4866
831.913	4824
832.051	4759
832.19	4755
832.329	4820
832.467	4698
832.606	4607
832.744	4683
832.883	4691
833.022	4702
833.16	4748
833.299	4786
833.437	4797
833.576	4847
833.714	4885
833.852	4820
833.991	4858
834.129	4961
834.267	4961
834.406	4911
834.544	4930
834.682	4968
834.821	4923
834.959	5128
835.097	5018
835.235	5147
835.373	5010
835.511	5124
835.65	4995
835.788	5033
835.926	4889
836.064	4843
836.202	4839
836.34	5147
836.478	5212
836.615	5128
836.753	5181
836.891	5208
837.029	5269
837.167	5254
837.305	5181
837.443	5155
837.58	5052
837.718	5288
837.856	5113
837.993	5113
838.131	5235
838.269	5201
838.406	5174
838.544	5155
838.681	5060
838.819	5006
838.956	4870
839.094	4873
839.231	5010
839.369	5048
839.506	5440
839.643	5254
839.781	5014
839.918	4999
840.055	5079
840.193	5075
840.33	5105
840.467	5170
840.604	5132
840.742	5398
840.879	5079
841.016	5113
841.153	5174
841.29	5357
841.427	5299
841.564	5288
841.701	5376
841.838	5288
841.975	5197
842.112	5277
842.249	5132
842.385	5090
842.522	5353
842.659	5166
842.796	5151
842.933	5246
843.069	5094
843.206	5128
843.343	5296
843.479	5227
843.616	5204
843.752	5010
843.889	4987
844.025	5181
844.162	5003
844.298	5208
844.435	5094
844.571	5041
844.708	5174
844.844	5284
844.98	5292
845.117	5292
845.253	5128
845.389	5022
845.525	5166
845.661	5136
845.798	5006
845.934	5113
846.07	5029
846.206	5197
846.342	5246
846.478	5151
846.614	4987
846.75	4965
846.886	4927
847.022	5121
847.158	4965
847.294	5029
847.429	5086
847.565	5048
847.701	5345
847.837	4805
847.972	4744
848.108	4919
848.244	4927
848.379	4774
848.515	4675
848.65	4725
848.786	4740
848.921	4782
849.057	4816
849.192	4889
849.328	4820
849.463	4793
849.598	4782
849.734	4790
849.869	4634
850.004	4622
850.14	4634
850.275	4618
850.41	4504
850.545	4588
850.68	4618
850.815	4592
850.95	4577
851.085	4828
851.22	4649
851.355	4630
851.49	4634
851.625	4607
851.76	4615
851.895	4504
852.03	4554
852.165	4634
852.299	4721
852.434	4748
852.569	4744
852.703	4759
852.838	4858
852.973	4927
853.107	4934
853.242	4748
853.376	4660
853.511	4558
853.645	4618
853.78	4816
853.914	4729
854.048	4660
854.183	4679
854.317	4675
854.451	4820
854.585	4675
854.72	4656
854.854	4725
854.988	4596
855.122	4653
855.256	4527
855.39	4694
855.524	4790
855.658	4717
855.792	4675
855.926	4679
856.06	4771
856.194	4759
856.327	4675
856.461	4607
856.595	4599
856.729	4607
856.862	4767
856.996	4698
857.13	4698
857.263	4748
857.397	4771
857.53	4603
857.664	4733
857.797	4710
857.931	4778
858.064	4694
858.197	4725
858.331	4653
858.464	4580
858.597	4497
858.731	4683
858.864	4615
858.997	4584
859.13	4641
859.263	4683
859.396	4679
859.529	4592
859.662	4561
859.795	4550
859.928	4588
860.061	4755
860.194	4752
860.327	4607
860.46	4565
860.592	4736
860.725	4706
860.858	4683
860.99	4584
861.123	4554
861.256	4481
861.388	4641
861.521	5261
861.653	4474
861.786	4428
861.918	4443
862.05	4500
862.183	4523
862.315	4580
862.447	4660
862.58	4531
862.712	4424
862.844	4291
862.976	4531
863.108	4462
863.24	4793
863.372	4348
863.504	4379
863.636	4367
863.768	4443
863.9	4436
864.032	4337
864.164	4409
864.296	4443
864.428	4535
864.559	4573
864.691	4504
864.823	4508
864.954	4417
865.086	4489
865.217	4451
865.349	4436
865.48	4462
865.612	4508
865.743	4630
865.875	4493
866.006	4421
866.137	4481
866.269	4436
866.4	4443
866.531	4443
866.662	4394
866.793	4363
866.924	4379
867.055	4447
867.186	4443
867.317	4379
867.448	4371
867.579	4363
867.71	4360
867.841	4356
867.972	4417
868.103	4455
868.233	4436
868.364	4405
868.495	4474
868.625	4668
868.756	4809
868.886	4577
869.017	4596
869.147	4740
869.278	4786
869.408	4668
869.539	4649
869.669	4710
869.799	4702
869.929	4752
870.06	4725
870.19	4965
870.32	4881
870.45	4919
870.58	5037
870.71	5056
870.84	5071
870.97	4942
871.1	4942
871.23	5102
871.36	5098
871.489	5018
871.619	5071
871.749	5067
871.879	5174
872.008	5136
872.138	5022
872.267	4968
872.397	4809
872.526	4767
872.656	4687
872.785	4816
872.915	4938
873.044	5022
873.173	4938
873.303	4942
873.432	4946
873.561	4965
873.69	4904
873.819	4858
873.948	4919
874.077	4782
874.206	4752
874.335	4831
874.464	4923
874.593	5052
874.722	4919
874.851	5041
874.979	5037
875.108	5033
875.237	4877
875.365	4889
875.494	4881
875.623	4991
875.751	4824
875.88	4854
876.008	4999
876.136	5075
876.265	5140
876.393	5330
876.521	5242
876.65	5250
876.778	5079
876.906	5052
877.034	4976
877.162	5033
877.29	4968
877.418	5025
877.546	5045
877.674	5025
877.802	4987
877.93	4999
878.058	4953
878.185	4850
878.313	4923
878.441	4946
878.568	4820
878.696	4881
878.824	4927
878.951	5006
879.079	5117
879.206	5292
879.333	5105
879.461	4949
879.588	4999
879.715	5121
879.842	5235
879.97	5029
880.097	4805
880.224	4733
880.351	4778
880.478	4831
880.605	4748
880.732	4774
880.859	5045
880.986	4862
881.112	4934
881.239	4797
881.366	4637
881.493	4649
881.619	4626
881.746	4645
881.872	4611
881.999	4660
882.125	4691
882.252	4797
882.378	4809
882.505	4968
882.631	4847
882.757	4626
882.883	4683
883.01	4683
883.136	4664
883.262	4569
883.388	4615
883.514	4763
883.64	4873
883.766	4839
883.892	4656
884.018	4694
884.143	4885
884.269	4995
884.395	4706
884.52	4630
884.646	4630
884.772	4607
884.897	4554
885.023	4634
885.148	4759
885.274	4809
885.399	4820
885.524	4694
885.65	4679
885.775	4706
885.9	4782
886.025	4793
886.15	4778
886.275	4717
886.4	4683
886.525	4687
886.65	4675
886.775	4672
886.9	4877
887.025	5098
887.149	4812
887.274	4626
887.399	4611
887.523	4573
887.648	4558
887.773	4630
887.897	4710
888.021	4759
888.146	4660
888.27	4778
888.395	4877
888.519	4801
888.643	4816
888.767	4774
888.891	4687
889.015	4618
889.139	4683
889.263	4618
889.387	4774
889.511	4831
889.635	4847
889.759	4637
889.883	4618
890.006	4729
890.13	4847
890.254	4577
890.377	4653
890.501	4523
890.624	4493
890.748	4660
890.871	4542
890.995	4440
891.118	4363
891.241	4535
891.364	4546
891.488	4626
891.611	4440
891.734	4493
891.857	4497
891.98	4531
892.103	4630
892.226	4558
892.349	4497
892.471	4436
892.594	4550
892.717	4618
892.839	4577
892.962	4592
893.085	4660
893.207	4588
893.33	4462
893.452	4538
893.575	4691
893.697	4596
893.819	4816
893.941	4866
894.064	4744
894.186	4580
894.308	4569
894.43	4748
894.552	4801
894.674	4759
894.796	4523
894.918	4592
895.04	4565
895.161	4687
895.283	4653
895.405	4618
895.526	4618
895.648	4615
895.769	4656
895.891	4725
896.012	4755
896.134	4672
896.255	4630
896.376	4607
896.498	4603
896.619	4710
896.74	4607
896.861	4637
896.982	4984
897.103	5052
897.224	4866
897.345	4748
897.466	4649
897.587	4767
897.708	4870
897.828	4721
897.949	4641
898.07	4531
898.19	4592
898.311	4828
898.431	4653
898.552	4710
898.672	4820
898.792	4782
898.913	4755
899.033	4584
899.153	4462
899.273	4398
899.393	4508
899.513	4470
899.633	4497
899.753	4497
899.873	4512
899.993	4599
900.113	4535
900.232	4588
900.352	4527
900.472	4432
900.591	4436
900.711	4519
900.83	4462
900.95	4584
901.069	4622
901.189	4489
901.308	4413
901.427	4284
901.546	4348
901.665	4497
901.784	4493
901.904	4310
902.023	4337
902.141	4192
902.26	4169
902.379	4291
902.498	4246
902.617	4242
902.735	4352
902.854	4428
902.973	4352
903.091	4230
903.21	4177
903.328	4246
903.446	4295
903.565	4230
903.683	4383
903.801	4325
903.919	4394
904.038	4428
904.156	4337
904.274	4421
904.392	4390
904.51	4436
904.627	4455
904.745	4558
904.863	4615
904.981	4428
905.098	4306
905.216	4367
905.334	4462
905.451	4436
905.569	4417
905.686	4493
905.803	4497
905.921	4390
906.038	4527
906.155	4500
906.272	4402
906.389	4405
906.506	4367
906.623	4341
906.74	4329
906.857	4310
906.974	4394
907.091	4546
907.208	4679
907.324	4580
907.441	4500
907.557	4356
907.674	4341
907.79	4348
907.907	4386
908.023	4500
908.139	4485
908.256	4421
908.372	4474
908.488	4413
908.604	4287
908.72	4329
908.836	4390
908.952	4394
909.068	4432
909.184	4550
909.3	4447
909.415	4569
909.531	4561
909.647	4348
909.762	4348
909.878	4325
909.993	4443
910.108	4417
910.224	4417
910.339	4462
910.454	4421
910.57	4337
910.685	4284
910.8	4653
910.915	4634
911.03	4500
911.145	4306
911.259	4344
911.374	4386
911.489	4310
911.604	4276
911.718	4166
911.833	4162
911.947	4086
912.062	4044
912.176	4188
912.291	4211
912.405	4207
912.519	4493
912.633	4546
912.748	4386
912.862	4261
912.976	4200
913.09	4071
913.204	4135
913.318	4227
913.431	4360
913.545	4375
913.659	4409
913.772	4390
913.886	4230
914	4204
914.113	4375
914.226	4455
914.34	4352
914.453	4249
914.566	4440
914.68	4322
914.793	4344
914.906	4169
915.019	4143
915.132	4067
915.245	4177
915.358	4196
915.47	4265
915.583	4234
915.696	4284
915.809	4394
915.921	4383
916.034	4219
916.146	4242
916.259	4268
916.371	4352
916.483	4322
916.595	4242
916.708	4287
916.82	4322
916.932	4314
917.044	4352
917.156	4329
917.268	4242
917.38	4291
917.491	4249
917.603	4363
917.715	4402
917.826	4436
917.938	4318
918.049	4261
918.161	4409
918.272	4554
918.384	4474
918.495	4443
918.606	4249
918.717	4223
918.828	4367
918.939	4371
919.05	4280
919.161	4341
919.272	4139
919.383	4230
919.494	4474
919.604	4599
919.715	4360
919.826	4363
919.936	4409
920.047	4485
920.157	4500
920.267	4683
920.378	4508
920.488	4527
920.598	4702
920.708	4870
920.818	4782
920.928	4782
921.038	4927
921.148	4889
921.258	4603
921.368	4527
921.477	4497
921.587	4432
921.697	4409
921.806	4485
921.916	4424
922.025	4310
922.134	4242
922.244	4166
922.353	4322
922.462	4139
922.571	4124
922.68	3994
922.789	3994
922.898	4021
923.007	4002
923.116	4082
923.224	4086
923.333	4055
923.442	4029
923.55	3998
923.659	4044
923.767	4105
923.876	3972
923.984	4112
924.092	3972
924.201	4086
924.309	4128
924.417	4097
924.525	4078
924.633	4067
924.741	4923
924.849	3918
924.956	4078
925.064	3972
925.172	3922
925.279	3941
925.387	4051
925.494	4082
925.602	4242
925.709	4177
925.816	4021
925.924	4139
926.031	4234
926.138	4143
926.245	4215
926.352	4116
926.459	4238
926.566	4318
926.673	4177
926.779	4044
926.886	4086
926.993	3983
927.099	3979
927.206	3956
927.312	3937
927.419	4032
927.525	4029
927.631	4074
927.737	3975
927.843	3899
927.95	3831
928.056	3949
928.162	4032
928.267	4101
928.373	4542
928.479	4147
928.585	3838
928.69	4048
928.796	4101
928.901	3994
929.007	3823
929.112	4013
929.218	3915
929.323	3937
929.428	3926
929.533	4097
929.638	3918
929.743	3926
929.848	4025
929.953	4002
930.058	3956
930.163	3781
930.267	3816
930.372	3979
930.477	3861
930.581	4078
930.685	3945
930.79	3785
930.894	3899
930.998	3857
931.103	3994
931.207	3724
931.311	3671
931.415	3682
931.519	3553
931.623	3576
