Data from test_V78500241_2791.txt Node
Date: Fri Mar 25 17:08:24 CST 2022
User: usil
Spectrometer: V785-0024
Trigger mode: 0
Integration Time (sec): 4.000000E-1
Scans to average: 1
Nonlinearity correction enabled: false
Boxcar width: 0
Storing dark spectrum: false
XAxis mode: Wavelengths
Number of Pixels in Spectrum: 1024
>>>>>Begin Spectral Data<<<<<
801.071	7986
801.214	8001
801.356	7833
801.499	7875
801.641	7822
801.783	7849
801.926	8016
802.068	7902
802.211	7986
802.353	7989
802.496	7833
802.638	7890
802.78	7894
802.923	7947
803.065	7856
803.208	7860
803.35	7940
803.492	8073
803.635	8157
803.777	8035
803.919	8157
804.061	8412
804.204	8107
804.346	8020
804.488	8012
804.63	8134
804.773	7970
804.915	8073
805.057	8275
805.199	8168
805.341	8229
805.483	8309
805.626	8237
805.768	8100
805.91	8210
806.052	8183
806.194	8157
806.336	8305
806.478	8153
806.62	8031
806.762	8096
806.904	8206
807.046	8385
807.188	8393
807.33	8355
807.472	8301
807.614	8180
807.756	8145
807.898	8001
808.04	7890
808.182	7875
808.324	7845
808.465	8035
808.607	8065
808.749	8218
808.891	8221
809.033	8347
809.174	8153
809.316	8092
809.458	8031
809.6	8039
809.741	8001
809.883	8008
810.025	8084
810.166	8035
810.308	8001
810.45	8035
810.591	7875
810.733	7696
810.875	7731
811.016	7578
811.158	7510
811.299	7601
811.441	7803
811.582	7719
811.724	7552
811.865	7575
812.007	7575
812.148	7563
812.29	7674
812.431	7784
812.573	7868
812.714	7951
812.855	8084
812.997	8206
813.138	8339
813.279	8142
813.421	8206
813.562	7997
813.703	7959
813.845	7807
813.986	7449
814.127	7331
814.268	7255
814.41	7187
814.551	7190
814.692	7179
814.833	7095
814.974	7141
815.115	7103
815.256	7023
815.397	6932
815.539	6970
815.68	6840
815.821	6783
815.962	6916
816.103	6783
816.244	6741
816.385	6658
816.526	6574
816.666	6566
816.807	6338
816.948	6418
817.089	6513
817.23	6464
817.371	6361
817.512	6357
817.653	6388
817.793	6372
817.934	6437
818.075	6448
818.216	6403
818.356	6437
818.497	6194
818.638	6110
818.778	6121
818.919	6129
819.06	6163
819.2	6308
819.341	6262
819.481	6331
819.622	6509
819.762	6749
819.903	6620
820.043	6589
820.184	6551
820.324	6620
820.465	6654
820.605	6681
820.746	6646
820.886	6479
821.026	6662
821.167	6745
821.307	6829
821.447	6768
821.588	6631
821.728	6635
821.868	6494
822.008	6311
822.149	6395
822.289	6327
822.429	6186
822.569	6106
822.709	6091
822.849	5935
822.99	5859
823.13	5935
823.27	5923
823.41	5813
823.55	5798
823.69	5771
823.83	5851
823.97	5623
824.11	5528
824.25	5535
824.389	5589
824.529	5611
824.669	5562
824.809	5539
824.949	5649
825.089	5684
825.228	5551
825.368	5410
825.508	5357
825.648	5368
825.787	5364
825.927	5421
826.067	5288
826.206	5292
826.346	5398
826.485	5448
826.625	5406
826.765	5520
826.904	5535
827.044	5288
827.183	5181
827.323	5056
827.462	5261
827.601	5147
827.741	5178
827.88	5220
828.02	5075
828.159	5235
828.298	5292
828.437	5357
828.577	5288
828.716	5459
828.855	5269
828.994	5189
829.134	5147
829.273	5170
829.412	5166
829.551	5124
829.69	5151
829.829	5178
829.968	5379
830.107	5292
830.246	5239
830.385	5159
830.524	5109
830.663	4995
830.802	4953
830.941	4866
831.08	4881
831.219	4953
831.357	4995
831.496	5132
831.635	4930
831.774	4854
831.913	4835
832.051	4744
832.19	4774
832.329	4797
832.467	4721
832.606	4694
832.744	4714
832.883	4740
833.022	4759
833.16	4763
833.299	4809
833.437	4809
833.576	4854
833.714	4816
833.852	4881
833.991	4866
834.129	4965
834.267	4949
834.406	4839
834.544	4984
834.682	4972
834.821	4930
834.959	5113
835.097	5003
835.235	5132
835.373	5136
835.511	5121
835.65	5022
835.788	4980
835.926	4904
836.064	4850
836.202	4911
836.34	5143
836.478	5254
836.615	5159
836.753	5220
836.891	5292
837.029	5250
837.167	5189
837.305	5147
837.443	5098
837.58	5056
837.718	5246
837.856	5204
837.993	5140
838.131	5273
838.269	5265
838.406	5185
838.544	5197
838.681	4991
838.819	5025
838.956	4877
839.094	4923
839.231	4946
839.369	5075
839.506	5398
839.643	5246
839.781	5071
839.918	4980
840.055	5109
840.193	5128
840.33	5162
840.467	5117
840.604	5155
840.742	5395
840.879	5083
841.016	5045
841.153	5136
841.29	5387
841.427	5315
841.564	5235
841.701	5322
841.838	5250
841.975	5227
842.112	5277
842.249	5109
842.385	5098
842.522	5334
842.659	5151
842.796	5128
842.933	5124
843.069	5155
843.206	5151
843.343	5269
843.479	5277
843.616	5239
843.752	5006
843.889	5033
844.025	5174
844.162	5067
844.298	5220
844.435	5147
844.571	5037
844.708	5162
844.844	5345
844.98	5353
845.117	5246
845.253	5174
845.389	5060
845.525	5185
845.661	5128
845.798	5037
845.934	5094
846.07	5010
846.206	5159
846.342	5284
846.478	5185
846.614	5022
846.75	4965
846.886	4968
847.022	5109
847.158	5014
847.294	5067
847.429	5067
847.565	5102
847.701	5345
847.837	4847
847.972	4816
848.108	4930
848.244	4980
848.379	4801
848.515	4714
848.65	4752
848.786	4744
848.921	4782
849.057	4824
849.192	4892
849.328	4824
849.463	4908
849.598	4767
849.734	4759
849.869	4675
850.004	4653
850.14	4622
850.275	4584
850.41	4516
850.545	4558
850.68	4592
850.815	4630
850.95	4630
851.085	4858
851.22	4710
851.355	4691
851.49	4611
851.625	4630
851.76	4618
851.895	4596
852.03	4508
852.165	4672
852.299	4717
852.434	4790
852.569	4725
852.703	4744
852.838	4854
852.973	4938
853.107	4942
853.242	4717
853.376	4660
853.511	4550
853.645	4634
853.78	4847
853.914	4691
854.048	4683
854.183	4649
854.317	4660
854.451	4820
854.585	4672
854.72	4615
854.854	4771
854.988	4580
855.122	4622
855.256	4497
855.39	4660
855.524	4755
855.658	4725
855.792	4706
855.926	4702
856.06	4774
856.194	4812
856.327	4660
856.461	4611
856.595	4622
856.729	4603
856.862	4733
856.996	4736
857.13	4733
857.263	4729
857.397	4797
857.53	4630
857.664	4698
857.797	4752
857.931	4782
858.064	4744
858.197	4763
858.331	4656
858.464	4630
858.597	4542
858.731	4580
858.864	4641
858.997	4569
859.13	4660
859.263	4675
859.396	4660
859.529	4565
859.662	4573
859.795	4531
859.928	4618
860.061	4759
860.194	4721
860.327	4603
860.46	4554
860.592	4736
860.725	4748
860.858	4714
860.99	4577
861.123	4554
861.256	4546
861.388	4649
861.521	5326
861.653	4466
861.786	4440
861.918	4421
862.05	4500
862.183	4546
862.315	4561
862.447	4611
862.58	4516
862.712	4421
862.844	4280
862.976	4443
863.108	4443
863.24	4786
863.372	4314
863.504	4417
863.636	4436
863.768	4474
863.9	4417
864.032	4383
864.164	4390
864.296	4489
864.428	4554
864.559	4577
864.691	4550
864.823	4538
864.954	4489
865.086	4538
865.217	4451
865.349	4383
865.48	4508
865.612	4489
865.743	4615
865.875	4447
866.006	4474
866.137	4516
866.269	4436
866.4	4470
866.531	4398
866.662	4363
866.793	4352
866.924	4348
867.055	4485
867.186	4455
867.317	4462
867.448	4375
867.579	4390
867.71	4348
867.841	4329
867.972	4432
868.103	4436
868.233	4470
868.364	4455
868.495	4489
868.625	4675
868.756	4710
868.886	4538
869.017	4580
869.147	4702
869.278	4831
869.408	4672
869.539	4649
869.669	4717
869.799	4656
869.929	4759
870.06	4752
870.19	4957
870.32	4942
870.45	4915
870.58	5006
870.71	5121
870.84	5086
870.97	4930
871.1	4877
871.23	5143
871.36	5113
871.489	5033
871.619	5052
871.749	5105
871.879	5113
872.008	5185
872.138	5079
872.267	4976
872.397	4831
872.526	4778
872.656	4740
872.785	4790
872.915	4919
873.044	5025
873.173	4961
873.303	4942
873.432	4911
873.561	4930
873.69	4850
873.819	4873
873.948	4915
874.077	4763
874.206	4736
874.335	4782
874.464	4881
874.593	5071
874.722	4938
874.851	5094
874.979	5117
875.108	5071
875.237	4949
875.365	4900
875.494	4870
875.623	5060
875.751	4847
875.88	4866
876.008	4923
876.136	5014
876.265	5193
876.393	5322
876.521	5208
876.65	5197
876.778	5178
876.906	5094
877.034	4976
877.162	5086
877.29	5006
877.418	5064
877.546	5083
877.674	4999
877.802	5025
877.93	4995
878.058	4946
878.185	4835
878.313	4953
878.441	4946
878.568	4870
878.696	4889
878.824	4908
878.951	4995
879.079	5151
879.206	5265
879.333	5083
879.461	4999
879.588	5022
879.715	5113
879.842	5208
879.97	5045
880.097	4771
880.224	4744
880.351	4873
880.478	4862
880.605	4752
880.732	4786
880.859	5079
880.986	4904
881.112	4885
881.239	4763
881.366	4736
881.493	4637
881.619	4603
881.746	4630
881.872	4656
881.999	4622
882.125	4653
882.252	4786
882.378	4816
882.505	4991
882.631	4729
882.757	4656
882.883	4748
883.01	4740
883.136	4649
883.262	4580
883.388	4630
883.514	4797
883.64	4881
883.766	4797
883.892	4683
884.018	4721
884.143	4911
884.269	4995
884.395	4721
884.52	4668
884.646	4645
884.772	4569
884.897	4546
885.023	4653
885.148	4801
885.274	4831
885.399	4763
885.524	4725
885.65	4675
885.775	4748
885.9	4656
886.025	4850
886.15	4782
886.275	4736
886.4	4687
886.525	4706
886.65	4679
886.775	4740
886.9	4824
887.025	5037
887.149	4820
887.274	4641
887.399	4592
887.523	4603
887.648	4615
887.773	4599
887.897	4733
888.021	4801
888.146	4691
888.27	4805
888.395	4866
888.519	4786
888.643	4805
888.767	4828
888.891	4668
889.015	4580
889.139	4630
889.263	4618
889.387	4752
889.511	4843
889.635	4782
889.759	4622
889.883	4630
890.006	4748
890.13	4824
890.254	4626
890.377	4675
890.501	4569
890.624	4489
890.748	4599
890.871	4512
890.995	4436
891.118	4409
891.241	4500
891.364	4550
891.488	4645
891.611	4470
891.734	4542
891.857	4603
891.98	4554
892.103	4634
892.226	4603
892.349	4527
892.471	4417
892.594	4500
892.717	4592
892.839	4584
892.962	4622
893.085	4687
893.207	4634
893.33	4497
893.452	4489
893.575	4683
893.697	4542
893.819	4816
893.941	4843
894.064	4733
894.186	4622
894.308	4561
894.43	4748
894.552	4835
894.674	4740
894.796	4569
894.918	4584
895.04	4550
895.161	4717
895.283	4645
895.405	4554
895.526	4622
895.648	4714
895.769	4683
895.891	4729
896.012	4717
896.134	4729
896.255	4721
896.376	4626
896.498	4565
896.619	4702
896.74	4565
896.861	4668
896.982	4949
897.103	5064
897.224	4797
897.345	4771
897.466	4683
897.587	4736
897.708	4862
897.828	4786
897.949	4710
898.07	4561
898.19	4630
898.311	4820
898.431	4691
898.552	4698
898.672	4812
898.792	4774
898.913	4755
899.033	4664
899.153	4455
899.273	4481
899.393	4493
899.513	4504
899.633	4497
899.753	4485
899.873	4474
899.993	4596
900.113	4535
900.232	4592
900.352	4580
900.472	4493
900.591	4371
900.711	4497
900.83	4497
900.95	4603
901.069	4740
901.189	4535
901.308	4375
901.427	4333
901.546	4402
901.665	4523
901.784	4489
901.904	4360
902.023	4356
902.141	4200
902.26	4135
902.379	4314
902.498	4249
902.617	4196
902.735	4325
902.854	4451
902.973	4356
903.091	4219
903.21	4272
903.328	4318
903.446	4284
903.565	4227
903.683	4356
903.801	4257
903.919	4379
904.038	4413
904.156	4306
904.274	4447
904.392	4462
904.51	4443
904.627	4383
904.745	4554
904.863	4672
904.981	4360
905.098	4337
905.216	4341
905.334	4386
905.451	4459
905.569	4421
905.686	4561
905.803	4546
905.921	4421
906.038	4565
906.155	4481
906.272	4402
906.389	4436
906.506	4341
906.623	4337
906.74	4379
906.857	4253
906.974	4341
907.091	4512
907.208	4672
907.324	4546
907.441	4489
907.557	4322
907.674	4356
907.79	4329
907.907	4356
908.023	4474
908.139	4451
908.256	4413
908.372	4436
908.488	4493
908.604	4352
908.72	4318
908.836	4375
908.952	4398
909.068	4428
909.184	4580
909.3	4474
909.415	4554
909.531	4538
909.647	4386
909.762	4360
909.878	4333
909.993	4421
910.108	4398
910.224	4428
910.339	4462
910.454	4390
910.57	4371
910.685	4344
910.8	4630
910.915	4618
911.03	4470
911.145	4306
911.259	4337
911.374	4383
911.489	4276
911.604	4276
911.718	4147
911.833	4181
911.947	4105
912.062	3994
912.176	4169
912.291	4227
912.405	4246
912.519	4440
912.633	4504
912.748	4398
912.862	4341
912.976	4238
913.09	4078
913.204	4196
913.318	4249
913.431	4337
913.545	4383
913.659	4443
913.772	4371
913.886	4230
914	4246
914.113	4402
914.226	4436
914.34	4379
914.453	4223
914.566	4424
914.68	4272
914.793	4314
914.906	4150
915.019	4124
915.132	4090
915.245	4192
915.358	4166
915.47	4246
915.583	4253
915.696	4344
915.809	4424
915.921	4424
916.034	4265
916.146	4223
916.259	4223
916.371	4356
916.483	4390
916.595	4242
916.708	4363
916.82	4333
916.932	4360
917.044	4333
917.156	4363
917.268	4215
917.38	4291
917.491	4261
917.603	4329
917.715	4394
917.826	4440
917.938	4367
918.049	4284
918.161	4428
918.272	4527
918.384	4538
918.495	4424
918.606	4352
918.717	4242
918.828	4310
918.939	4367
919.05	4246
919.161	4318
919.272	4124
919.383	4223
919.494	4485
919.604	4599
919.715	4424
919.826	4348
919.936	4371
920.047	4508
920.157	4485
920.267	4706
920.378	4550
920.488	4516
920.598	4714
920.708	4862
920.818	4778
920.928	4752
921.038	4953
921.148	4923
921.258	4660
921.368	4550
921.477	4459
921.587	4478
921.697	4398
921.806	4512
921.916	4428
922.025	4253
922.134	4295
922.244	4227
922.353	4367
922.462	4173
922.571	4093
922.68	3991
922.789	3956
922.898	4025
923.007	3964
923.116	4116
923.224	4082
923.333	4074
923.442	3949
923.55	3987
923.659	4044
923.767	4055
923.876	3998
923.984	4105
924.092	4021
924.201	4074
924.309	4120
924.417	4135
924.525	4059
924.633	4135
924.741	4835
924.849	3892
924.956	4128
925.064	3979
925.172	3896
925.279	3945
925.387	4051
925.494	4036
925.602	4204
925.709	4200
925.816	4071
925.924	4101
926.031	4272
926.138	4143
926.245	4169
926.352	4105
926.459	4287
926.566	4314
926.673	4181
926.779	4093
926.886	4059
926.993	3987
927.099	3922
927.206	3949
927.312	3926
927.419	4036
927.525	4044
927.631	4063
927.737	4025
927.843	3941
927.95	3865
928.056	3892
928.162	4002
928.267	4040
928.373	4736
928.479	4116
928.585	3903
928.69	4021
928.796	4078
928.901	3994
929.007	3869
929.112	4010
929.218	3998
929.323	3907
929.428	3903
929.533	4109
929.638	3911
929.743	3922
929.848	4040
929.953	3960
930.058	3937
930.163	3808
930.267	3819
930.372	3964
930.477	3774
930.581	4093
930.685	3945
930.79	3800
930.894	3915
930.998	3838
931.103	4010
931.207	3701
931.311	3709
931.415	3675
931.519	3534
931.623	3530
