Data from test_V78500241_391.txt Node
Date: Fri Mar 25 16:51:43 CST 2022
User: usil
Spectrometer: V785-0024
Trigger mode: 0
Integration Time (sec): 4.000000E-1
Scans to average: 1
Nonlinearity correction enabled: false
Boxcar width: 0
Storing dark spectrum: false
XAxis mode: Wavelengths
Number of Pixels in Spectrum: 1024
>>>>>Begin Spectral Data<<<<<
801.071	8123
801.214	8119
801.356	7936
801.499	7936
801.641	7860
801.783	7868
801.926	7974
802.068	7982
802.211	8001
802.353	7993
802.496	7879
802.638	7898
802.78	7940
802.923	7902
803.065	7944
803.208	7906
803.35	8039
803.492	8107
803.635	8065
803.777	7959
803.919	8123
804.061	8484
804.204	8218
804.346	8031
804.488	8058
804.63	8115
804.773	7970
804.915	8145
805.057	8298
805.199	8195
805.341	8267
805.483	8267
805.626	8214
805.768	8054
805.91	8191
806.052	8210
806.194	8218
806.336	8362
806.478	8237
806.62	8100
806.762	8206
806.904	8313
807.046	8446
807.188	8385
807.33	8400
807.472	8347
807.614	8199
807.756	8168
807.898	8111
808.04	7947
808.182	8005
808.324	7989
808.465	8012
808.607	8096
808.749	8176
808.891	8259
809.033	8309
809.174	8202
809.316	8115
809.458	8130
809.6	7978
809.741	8077
809.883	8027
810.025	8172
810.166	8123
810.308	8092
810.45	8058
810.591	7864
810.733	7780
810.875	7651
811.016	7559
811.158	7540
811.299	7693
811.441	7822
811.582	7765
811.724	7643
811.865	7658
812.007	7693
812.148	7674
812.29	7613
812.431	7826
812.573	7967
812.714	8027
812.855	8153
812.997	8267
813.138	8358
813.279	8240
813.421	8180
813.562	8008
813.703	7947
813.845	7849
813.986	7434
814.127	7381
814.268	7316
814.41	7228
814.551	7209
814.692	7190
814.833	7103
814.974	7110
815.115	7095
815.256	6996
815.397	6962
815.539	6989
815.68	6863
815.821	6791
815.962	6951
816.103	6894
816.244	6856
816.385	6715
816.526	6673
816.666	6502
816.807	6376
816.948	6452
817.089	6490
817.23	6486
817.371	6498
817.512	6388
817.653	6441
817.793	6403
817.934	6426
818.075	6555
818.216	6490
818.356	6456
818.497	6308
818.638	6159
818.778	6205
818.919	6197
819.06	6213
819.2	6346
819.341	6308
819.481	6418
819.622	6544
819.762	6772
819.903	6764
820.043	6582
820.184	6665
820.324	6574
820.465	6673
820.605	6730
820.746	6669
820.886	6528
821.026	6684
821.167	6753
821.307	6863
821.447	6825
821.588	6741
821.728	6639
821.868	6525
822.008	6319
822.149	6395
822.289	6395
822.429	6182
822.569	6114
822.709	6144
822.849	5961
822.99	5946
823.13	5977
823.27	5931
823.41	5786
823.55	5863
823.69	5798
823.83	5859
823.97	5726
824.11	5562
824.25	5589
824.389	5581
824.529	5585
824.669	5512
824.809	5608
824.949	5665
825.089	5737
825.228	5649
825.368	5414
825.508	5383
825.648	5398
825.787	5383
825.927	5379
826.067	5322
826.206	5345
826.346	5406
826.485	5463
826.625	5436
826.765	5592
826.904	5528
827.044	5284
827.183	5239
827.323	5147
827.462	5277
827.601	5181
827.741	5208
827.88	5242
828.02	5128
828.159	5246
828.298	5334
828.437	5387
828.577	5258
828.716	5482
828.855	5353
828.994	5162
829.134	5246
829.273	5242
829.412	5136
829.551	5201
829.69	5170
829.829	5277
829.968	5395
830.107	5299
830.246	5288
830.385	5143
830.524	5151
830.663	5140
830.802	4987
830.941	4900
831.08	4885
831.219	5006
831.357	5014
831.496	5166
831.635	4942
831.774	4847
831.913	4896
832.051	4755
832.19	4778
832.329	4870
832.467	4736
832.606	4721
832.744	4729
832.883	4725
833.022	4736
833.16	4835
833.299	4812
833.437	4843
833.576	4866
833.714	4858
833.852	4900
833.991	4900
834.129	4976
834.267	4961
834.406	4919
834.544	4976
834.682	4980
834.821	4980
834.959	5166
835.097	5029
835.235	5121
835.373	5071
835.511	5140
835.65	5052
835.788	5060
835.926	4896
836.064	4850
836.202	4911
836.34	5197
836.478	5250
836.615	5140
836.753	5227
836.891	5303
837.029	5258
837.167	5216
837.305	5166
837.443	5159
837.58	5170
837.718	5292
837.856	5201
837.993	5174
838.131	5269
838.269	5261
838.406	5223
838.544	5208
838.681	5166
838.819	5025
838.956	4915
839.094	4904
839.231	5037
839.369	5045
839.506	5440
839.643	5216
839.781	5067
839.918	5029
840.055	5155
840.193	5109
840.33	5174
840.467	5159
840.604	5242
840.742	5474
840.879	5143
841.016	5090
841.153	5151
841.29	5402
841.427	5288
841.564	5341
841.701	5372
841.838	5235
841.975	5246
842.112	5299
842.249	5189
842.385	5151
842.522	5330
842.659	5223
842.796	5185
842.933	5220
843.069	5170
843.206	5155
843.343	5376
843.479	5239
843.616	5242
843.752	5033
843.889	5025
844.025	5223
844.162	5052
844.298	5246
844.435	5155
844.571	5086
844.708	5227
844.844	5315
844.98	5372
845.117	5284
845.253	5143
845.389	5086
845.525	5132
845.661	5162
845.798	5071
845.934	5181
846.07	5117
846.206	5239
846.342	5292
846.478	5216
846.614	4999
846.75	4930
846.886	4919
847.022	5121
847.158	5025
847.294	5029
847.429	5155
847.565	5109
847.701	5326
847.837	4828
847.972	4824
848.108	4953
848.244	4972
848.379	4786
848.515	4778
848.65	4786
848.786	4736
848.921	4816
849.057	4885
849.192	4919
849.328	4816
849.463	4850
849.598	4782
849.734	4755
849.869	4721
850.004	4630
850.14	4679
850.275	4626
850.41	4512
850.545	4584
850.68	4584
850.815	4641
850.95	4656
851.085	4889
851.22	4797
851.355	4634
851.49	4637
851.625	4672
851.76	4656
851.895	4542
852.03	4523
852.165	4717
852.299	4755
852.434	4771
852.569	4824
852.703	4793
852.838	4858
852.973	4938
853.107	4904
853.242	4740
853.376	4698
853.511	4573
853.645	4641
853.78	4831
853.914	4740
854.048	4691
854.183	4691
854.317	4714
854.451	4881
854.585	4683
854.72	4664
854.854	4755
854.988	4649
855.122	4664
855.256	4573
855.39	4630
855.524	4790
855.658	4717
855.792	4744
855.926	4797
856.06	4744
856.194	4778
856.327	4710
856.461	4641
856.595	4653
856.729	4569
856.862	4786
856.996	4740
857.13	4748
857.263	4714
857.397	4801
857.53	4664
857.664	4771
857.797	4721
857.931	4748
858.064	4694
858.197	4710
858.331	4691
858.464	4607
858.597	4561
858.731	4675
858.864	4630
858.997	4634
859.13	4702
859.263	4702
859.396	4752
859.529	4607
859.662	4538
859.795	4569
859.928	4653
860.061	4755
860.194	4782
860.327	4660
860.46	4535
860.592	4683
860.725	4740
860.858	4790
860.99	4592
861.123	4504
861.256	4569
861.388	4615
861.521	5368
861.653	4497
861.786	4455
861.918	4489
862.05	4516
862.183	4546
862.315	4618
862.447	4634
862.58	4558
862.712	4413
862.844	4333
862.976	4428
863.108	4512
863.24	4797
863.372	4367
863.504	4428
863.636	4462
863.768	4512
863.9	4447
864.032	4398
864.164	4409
864.296	4443
864.428	4596
864.559	4577
864.691	4519
864.823	4481
864.954	4542
865.086	4527
865.217	4493
865.349	4440
865.48	4428
865.612	4523
865.743	4687
865.875	4478
866.006	4436
866.137	4466
866.269	4436
866.4	4466
866.531	4462
866.662	4413
866.793	4390
866.924	4440
867.055	4497
867.186	4455
867.317	4428
867.448	4417
867.579	4428
867.71	4398
867.841	4375
867.972	4478
868.103	4508
868.233	4459
868.364	4478
868.495	4489
868.625	4736
868.756	4721
868.886	4599
869.017	4630
869.147	4774
869.278	4759
869.408	4672
869.539	4698
869.669	4744
869.799	4675
869.929	4793
870.06	4767
870.19	4942
870.32	4908
870.45	4923
870.58	4999
870.71	5094
870.84	5105
870.97	4984
871.1	4900
871.23	5143
871.36	5151
871.489	5003
871.619	5071
871.749	5109
871.879	5159
872.008	5212
872.138	5060
872.267	4995
872.397	4870
872.526	4824
872.656	4816
872.785	4820
872.915	4946
873.044	5048
873.173	4976
873.303	4991
873.432	4965
873.561	4961
873.69	4885
873.819	4896
873.948	4889
874.077	4831
874.206	4793
874.335	4820
874.464	4976
874.593	5033
874.722	5003
874.851	5170
874.979	5086
875.108	5037
875.237	4938
875.365	4927
875.494	4919
875.623	4995
875.751	4797
875.88	4885
876.008	4961
876.136	5064
876.265	5174
876.393	5318
876.521	5269
876.65	5216
876.778	5166
876.906	5060
877.034	5029
877.162	5060
877.29	5014
877.418	5067
877.546	5022
877.674	5056
877.802	5052
877.93	5025
878.058	4915
878.185	4908
878.313	4949
878.441	4972
878.568	4831
878.696	4915
878.824	4942
878.951	5045
879.079	5162
879.206	5406
879.333	5098
879.461	5006
879.588	5067
879.715	5159
879.842	5250
879.97	5052
880.097	4805
880.224	4778
880.351	4805
880.478	4835
880.605	4778
880.732	4801
880.859	5094
880.986	4850
881.112	4934
881.239	4767
881.366	4664
881.493	4580
881.619	4653
881.746	4649
881.872	4698
881.999	4668
882.125	4679
882.252	4790
882.378	4805
882.505	4991
882.631	4778
882.757	4668
882.883	4797
883.01	4759
883.136	4691
883.262	4653
883.388	4618
883.514	4824
883.64	4858
883.766	4774
883.892	4675
884.018	4744
884.143	4889
884.269	5090
884.395	4717
884.52	4641
884.646	4694
884.772	4622
884.897	4523
885.023	4649
885.148	4774
885.274	4870
885.399	4816
885.524	4744
885.65	4694
885.775	4820
885.9	4755
886.025	4911
886.15	4774
886.275	4748
886.4	4653
886.525	4725
886.65	4687
886.775	4698
886.9	4946
887.025	5109
887.149	4854
887.274	4634
887.399	4588
887.523	4634
887.648	4622
887.773	4584
887.897	4759
888.021	4767
888.146	4702
888.27	4835
888.395	4923
888.519	4809
888.643	4828
888.767	4816
888.891	4668
889.015	4641
889.139	4656
889.263	4649
889.387	4744
889.511	4877
889.635	4809
889.759	4653
889.883	4660
890.006	4679
890.13	4843
890.254	4611
890.377	4710
890.501	4550
890.624	4512
890.748	4577
890.871	4497
890.995	4421
891.118	4402
891.241	4519
891.364	4523
891.488	4615
891.611	4470
891.734	4599
891.857	4641
891.98	4565
892.103	4664
892.226	4603
892.349	4516
892.471	4398
892.594	4558
892.717	4588
892.839	4561
892.962	4550
893.085	4656
893.207	4603
893.33	4447
893.452	4519
893.575	4622
893.697	4596
893.819	4816
893.941	4843
894.064	4790
894.186	4599
894.308	4573
894.43	4717
894.552	4820
894.674	4717
894.796	4577
894.918	4611
895.04	4607
895.161	4752
895.283	4691
895.405	4573
895.526	4656
895.648	4675
895.769	4710
895.891	4675
896.012	4675
896.134	4755
896.255	4668
896.376	4637
896.498	4649
896.619	4717
896.74	4584
896.861	4660
896.982	4938
897.103	5037
897.224	4828
897.345	4786
897.466	4740
897.587	4763
897.708	4873
897.828	4805
897.949	4717
898.07	4554
898.19	4630
898.311	4850
898.431	4675
898.552	4710
898.672	4767
898.792	4835
898.913	4786
899.033	4645
899.153	4504
899.273	4481
899.393	4519
899.513	4542
899.633	4497
899.753	4569
899.873	4485
899.993	4611
900.113	4554
900.232	4561
900.352	4542
900.472	4493
900.591	4405
900.711	4489
900.83	4493
900.95	4641
901.069	4664
901.189	4546
901.308	4394
901.427	4318
901.546	4371
901.665	4542
901.784	4558
901.904	4383
902.023	4344
902.141	4200
902.26	4135
902.379	4325
902.498	4291
902.617	4242
902.735	4363
902.854	4421
902.973	4390
903.091	4265
903.21	4272
903.328	4337
903.446	4253
903.565	4344
903.683	4337
903.801	4272
903.919	4440
904.038	4462
904.156	4337
904.274	4451
904.392	4390
904.51	4443
904.627	4398
904.745	4615
904.863	4637
904.981	4424
905.098	4360
905.216	4272
905.334	4421
905.451	4413
905.569	4417
905.686	4558
905.803	4588
905.921	4371
906.038	4538
906.155	4470
906.272	4417
906.389	4459
906.506	4333
906.623	4462
906.74	4443
906.857	4284
906.974	4367
907.091	4584
907.208	4656
907.324	4615
907.441	4512
907.557	4341
907.674	4341
907.79	4318
907.907	4424
908.023	4493
908.139	4462
908.256	4447
908.372	4462
908.488	4447
908.604	4383
908.72	4314
908.836	4398
908.952	4390
909.068	4440
909.184	4523
909.3	4481
909.415	4641
909.531	4554
909.647	4390
909.762	4394
909.878	4314
909.993	4413
910.108	4424
910.224	4405
910.339	4516
910.454	4440
910.57	4360
910.685	4329
910.8	4645
910.915	4622
911.03	4519
911.145	4363
911.259	4348
911.374	4383
911.489	4310
911.604	4318
911.718	4162
911.833	4242
911.947	4124
912.062	4010
912.176	4261
912.291	4246
912.405	4253
912.519	4478
912.633	4523
912.748	4360
912.862	4337
912.976	4230
913.09	4135
913.204	4185
913.318	4280
913.431	4386
913.545	4379
913.659	4443
913.772	4417
913.886	4265
914	4223
914.113	4337
914.226	4424
914.34	4394
914.453	4246
914.566	4432
914.68	4314
914.793	4360
914.906	4139
915.019	4131
915.132	4124
915.245	4242
915.358	4280
915.47	4272
915.583	4268
915.696	4322
915.809	4432
915.921	4405
916.034	4257
916.146	4272
916.259	4173
916.371	4413
916.483	4386
916.595	4234
916.708	4314
916.82	4333
916.932	4318
917.044	4329
917.156	4295
917.268	4242
917.38	4329
917.491	4341
917.603	4371
917.715	4443
917.826	4443
917.938	4318
918.049	4299
918.161	4371
918.272	4558
918.384	4554
918.495	4519
918.606	4322
918.717	4196
918.828	4375
918.939	4398
919.05	4253
919.161	4337
919.272	4150
919.383	4215
919.494	4451
919.604	4618
919.715	4470
919.826	4356
919.936	4417
920.047	4516
920.157	4516
920.267	4660
920.378	4577
920.488	4512
920.598	4706
920.708	4900
920.818	4744
920.928	4759
921.038	4961
921.148	4870
921.258	4641
921.368	4542
921.477	4523
921.587	4440
921.697	4390
921.806	4565
921.916	4474
922.025	4295
922.134	4265
922.244	4291
922.353	4329
922.462	4173
922.571	4131
922.68	4010
922.789	3975
922.898	4071
923.007	3979
923.116	4086
923.224	4063
923.333	4101
923.442	3994
923.55	3983
923.659	4029
923.767	4120
923.876	3960
923.984	4109
924.092	3968
924.201	4071
924.309	4128
924.417	4169
924.525	4063
924.633	4135
924.741	5029
924.849	3922
924.956	4177
925.064	3934
925.172	3873
925.279	3953
925.387	4044
925.494	4036
925.602	4185
925.709	4173
925.816	4044
925.924	4120
926.031	4249
926.138	4169
926.245	4238
926.352	4101
926.459	4276
926.566	4344
926.673	4185
926.779	4093
926.886	4074
926.993	3998
927.099	3979
927.206	3968
927.312	3960
927.419	4055
927.525	4044
927.631	4116
927.737	3979
927.843	3956
927.95	3869
928.056	3953
928.162	3945
928.267	4044
928.373	4675
928.479	4128
928.585	3880
928.69	3960
928.796	4048
928.901	3930
929.007	3880
929.112	4029
929.218	3983
929.323	3941
929.428	3941
929.533	4116
929.638	3930
929.743	3994
929.848	4059
929.953	4006
930.058	3941
930.163	3778
930.267	3838
930.372	3998
930.477	3800
930.581	4109
930.685	3964
930.79	3808
930.894	3888
930.998	3827
931.103	4048
931.207	3740
931.311	3698
931.415	3724
931.519	3523
931.623	3572
