Data from test_V78500241_796.txt Node
Date: Fri Mar 25 16:54:32 CST 2022
User: usil
Spectrometer: V785-0024
Trigger mode: 0
Integration Time (sec): 4.000000E-1
Scans to average: 1
Nonlinearity correction enabled: false
Boxcar width: 0
Storing dark spectrum: false
XAxis mode: Wavelengths
Number of Pixels in Spectrum: 1024
>>>>>Begin Spectral Data<<<<<
801.071	8024
801.214	7986
801.356	7921
801.499	7849
801.641	7742
801.783	7799
801.926	7982
802.068	7875
802.211	7925
802.353	7940
802.496	7841
802.638	7856
802.78	7894
802.923	7925
803.065	7792
803.208	7811
803.35	7887
803.492	8073
803.635	8210
803.777	8024
803.919	8096
804.061	8400
804.204	8077
804.346	8103
804.488	7989
804.63	8138
804.773	8081
804.915	8119
805.057	8275
805.199	8157
805.341	8199
805.483	8252
805.626	8130
805.768	8100
805.91	8237
806.052	8206
806.194	8081
806.336	8259
806.478	8130
806.62	8077
806.762	8138
806.904	8161
807.046	8450
807.188	8385
807.33	8320
807.472	8298
807.614	8149
807.756	8062
807.898	8020
808.04	7871
808.182	7860
808.324	7928
808.465	7833
808.607	7970
808.749	8024
808.891	8183
809.033	8313
809.174	8214
809.316	8065
809.458	7982
809.6	7947
809.741	7970
809.883	7970
810.025	8107
810.166	8077
810.308	8027
810.45	8050
810.591	7818
810.733	7750
810.875	7636
811.016	7480
811.158	7514
811.299	7552
811.441	7723
811.582	7647
811.724	7552
811.865	7491
812.007	7491
812.148	7567
812.29	7594
812.431	7681
812.573	7856
812.714	7868
812.855	8062
812.997	8195
813.138	8313
813.279	8172
813.421	8077
813.562	8005
813.703	7837
813.845	7772
813.986	7441
814.127	7259
814.268	7282
814.41	7190
814.551	7069
814.692	7103
814.833	7031
814.974	7122
815.115	7118
815.256	6943
815.397	6905
815.539	6981
815.68	6844
815.821	6779
815.962	6844
816.103	6818
816.244	6631
816.385	6627
816.526	6574
816.666	6460
816.807	6277
816.948	6433
817.089	6490
817.23	6429
817.371	6399
817.512	6350
817.653	6357
817.793	6327
817.934	6418
818.075	6448
818.216	6384
818.356	6403
818.497	6167
818.638	6091
818.778	6121
818.919	6057
819.06	6110
819.2	6327
819.341	6281
819.481	6346
819.622	6517
819.762	6681
819.903	6703
820.043	6589
820.184	6589
820.324	6536
820.465	6715
820.605	6658
820.746	6650
820.886	6483
821.026	6593
821.167	6662
821.307	6745
821.447	6757
821.588	6662
821.728	6551
821.868	6460
822.008	6308
822.149	6346
822.289	6331
822.429	6167
822.569	6079
822.709	6068
822.849	5927
822.99	5939
823.13	5954
823.27	5893
823.41	5733
823.55	5741
823.69	5764
823.83	5832
823.97	5657
824.11	5554
824.25	5482
824.389	5547
824.529	5573
824.669	5520
824.809	5608
824.949	5684
825.089	5585
825.228	5509
825.368	5417
825.508	5292
825.648	5311
825.787	5406
825.927	5349
826.067	5299
826.206	5280
826.346	5357
826.485	5376
826.625	5410
826.765	5535
826.904	5417
827.044	5258
827.183	5178
827.323	5128
827.462	5201
827.601	5109
827.741	5170
827.88	5250
828.02	5102
828.159	5189
828.298	5235
828.437	5364
828.577	5223
828.716	5433
828.855	5345
828.994	5181
829.134	5121
829.273	5151
829.412	5140
829.551	5090
829.69	5162
829.829	5231
829.968	5334
830.107	5261
830.246	5280
830.385	5147
830.524	5128
830.663	5060
830.802	4942
830.941	4873
831.08	4885
831.219	5003
831.357	4919
831.496	5159
831.635	4911
831.774	4866
831.913	4767
832.051	4725
832.19	4706
832.329	4820
832.467	4687
832.606	4626
832.744	4774
832.883	4668
833.022	4740
833.16	4744
833.299	4809
833.437	4793
833.576	4801
833.714	4843
833.852	4835
833.991	4904
834.129	4968
834.267	4972
834.406	4911
834.544	4965
834.682	4949
834.821	4980
834.959	5162
835.097	4995
835.235	5140
835.373	5037
835.511	5102
835.65	5022
835.788	4972
835.926	4911
836.064	4881
836.202	4930
836.34	5098
836.478	5197
836.615	5117
836.753	5216
836.891	5277
837.029	5201
837.167	5197
837.305	5075
837.443	5124
837.58	5067
837.718	5277
837.856	5201
837.993	5166
838.131	5258
838.269	5216
838.406	5181
838.544	5151
838.681	5022
838.819	5006
838.956	4885
839.094	4927
839.231	5048
839.369	5064
839.506	5421
839.643	5269
839.781	4957
839.918	5022
840.055	5094
840.193	5113
840.33	5136
840.467	5174
840.604	5189
840.742	5455
840.879	5090
841.016	5086
841.153	5174
841.29	5379
841.427	5326
841.564	5360
841.701	5341
841.838	5311
841.975	5166
842.112	5265
842.249	5102
842.385	5067
842.522	5349
842.659	5151
842.796	5151
842.933	5181
843.069	5105
843.206	5159
843.343	5273
843.479	5250
843.616	5307
843.752	5006
843.889	4965
844.025	5227
844.162	5056
844.298	5201
844.435	5098
844.571	5056
844.708	5204
844.844	5299
844.98	5322
845.117	5315
845.253	5136
845.389	5105
845.525	5147
845.661	5083
845.798	5056
845.934	5079
846.07	5029
846.206	5193
846.342	5269
846.478	5159
846.614	5052
846.75	4942
846.886	4919
847.022	5109
847.158	5006
847.294	5086
847.429	5143
847.565	5056
847.701	5265
847.837	4835
847.972	4835
848.108	4972
848.244	4930
848.379	4767
848.515	4721
848.65	4721
848.786	4759
848.921	4774
849.057	4892
849.192	4873
849.328	4824
849.463	4828
849.598	4778
849.734	4759
849.869	4653
850.004	4618
850.14	4660
850.275	4622
850.41	4531
850.545	4535
850.68	4573
850.815	4645
850.95	4577
851.085	4820
851.22	4694
851.355	4672
851.49	4656
851.625	4596
851.76	4668
851.895	4558
852.03	4546
852.165	4645
852.299	4706
852.434	4786
852.569	4748
852.703	4763
852.838	4839
852.973	4900
853.107	4892
853.242	4763
853.376	4622
853.511	4577
853.645	4607
853.78	4820
853.914	4664
854.048	4653
854.183	4656
854.317	4683
854.451	4824
854.585	4672
854.72	4618
854.854	4721
854.988	4618
855.122	4584
855.256	4561
855.39	4660
855.524	4771
855.658	4694
855.792	4710
855.926	4717
856.06	4740
856.194	4786
856.327	4683
856.461	4573
856.595	4679
856.729	4615
856.862	4774
856.996	4679
857.13	4702
857.263	4740
857.397	4748
857.53	4641
857.664	4729
857.797	4733
857.931	4767
858.064	4641
858.197	4778
858.331	4683
858.464	4634
858.597	4531
858.731	4615
858.864	4630
858.997	4573
859.13	4672
859.263	4660
859.396	4687
859.529	4561
859.662	4561
859.795	4558
859.928	4569
860.061	4710
860.194	4744
860.327	4596
860.46	4550
860.592	4687
860.725	4694
860.858	4694
860.99	4573
861.123	4500
861.256	4512
861.388	4588
861.521	5246
861.653	4443
861.786	4470
861.918	4481
862.05	4481
862.183	4561
862.315	4550
862.447	4672
862.58	4554
862.712	4409
862.844	4276
862.976	4451
863.108	4470
863.24	4873
863.372	4337
863.504	4432
863.636	4386
863.768	4462
863.9	4424
864.032	4356
864.164	4417
864.296	4451
864.428	4531
864.559	4577
864.691	4554
864.823	4523
864.954	4508
865.086	4512
865.217	4436
865.349	4417
865.48	4432
865.612	4508
865.743	4656
865.875	4436
866.006	4462
866.137	4459
866.269	4462
866.4	4428
866.531	4432
866.662	4383
866.793	4379
866.924	4451
867.055	4497
867.186	4428
867.317	4379
867.448	4379
867.579	4390
867.71	4390
867.841	4344
867.972	4417
868.103	4462
868.233	4443
868.364	4466
868.495	4409
868.625	4656
868.756	4744
868.886	4554
869.017	4599
869.147	4725
869.278	4733
869.408	4660
869.539	4596
869.669	4694
869.799	4664
869.929	4733
870.06	4710
870.19	4908
870.32	4900
870.45	4934
870.58	4991
870.71	5086
870.84	5094
870.97	4919
871.1	4908
871.23	5128
871.36	5090
871.489	5041
871.619	5056
871.749	5090
871.879	5086
872.008	5189
872.138	5067
872.267	4987
872.397	4870
872.526	4854
872.656	4714
872.785	4809
872.915	4957
873.044	4991
873.173	4896
873.303	4949
873.432	4911
873.561	4949
873.69	4892
873.819	4835
873.948	4911
874.077	4793
874.206	4759
874.335	4774
874.464	4915
874.593	5045
874.722	5003
874.851	5098
874.979	5033
875.108	5045
875.237	4889
875.365	4862
875.494	4850
875.623	4957
875.751	4854
875.88	4854
876.008	4961
876.136	5037
876.265	5166
876.393	5288
876.521	5299
876.65	5220
876.778	5117
876.906	5060
877.034	4984
877.162	5048
877.29	4987
877.418	5025
877.546	5022
877.674	4995
877.802	4991
877.93	4987
878.058	4934
878.185	4866
878.313	4896
878.441	4934
878.568	4801
878.696	4862
878.824	4961
878.951	4980
879.079	5147
879.206	5242
879.333	5105
879.461	4946
879.588	4976
879.715	5105
879.842	5220
879.97	4976
880.097	4763
880.224	4698
880.351	4771
880.478	4828
880.605	4816
880.732	4725
880.859	5025
880.986	4911
881.112	4877
881.239	4805
881.366	4698
881.493	4599
881.619	4554
881.746	4618
881.872	4596
881.999	4634
882.125	4626
882.252	4771
882.378	4797
882.505	4934
882.631	4828
882.757	4698
882.883	4721
883.01	4740
883.136	4622
883.262	4622
883.388	4607
883.514	4820
883.64	4877
883.766	4774
883.892	4698
884.018	4698
884.143	4881
884.269	5006
884.395	4679
884.52	4649
884.646	4588
884.772	4588
884.897	4527
885.023	4694
885.148	4763
885.274	4816
885.399	4809
885.524	4706
885.65	4698
885.775	4793
885.9	4733
886.025	4847
886.15	4759
886.275	4672
886.4	4675
886.525	4694
886.65	4679
886.775	4698
886.9	4934
887.025	5029
887.149	4805
887.274	4630
887.399	4603
887.523	4626
887.648	4569
887.773	4611
887.897	4752
888.021	4797
888.146	4679
888.27	4774
888.395	4908
888.519	4782
888.643	4866
888.767	4854
888.891	4675
889.015	4641
889.139	4664
889.263	4599
889.387	4710
889.511	4847
889.635	4782
889.759	4634
889.883	4653
890.006	4672
890.13	4870
890.254	4649
890.377	4645
890.501	4531
890.624	4519
890.748	4584
890.871	4493
890.995	4459
891.118	4356
891.241	4478
891.364	4550
891.488	4607
891.611	4451
891.734	4508
891.857	4611
891.98	4531
892.103	4637
892.226	4573
892.349	4546
892.471	4383
892.594	4542
892.717	4580
892.839	4531
892.962	4577
893.085	4683
893.207	4607
893.33	4497
893.452	4512
893.575	4615
893.697	4558
893.819	4801
893.941	4831
894.064	4801
894.186	4550
894.308	4527
894.43	4687
894.552	4839
894.674	4759
894.796	4580
894.918	4561
895.04	4527
895.161	4714
895.283	4672
895.405	4554
895.526	4675
895.648	4679
895.769	4679
895.891	4687
896.012	4744
896.134	4736
896.255	4649
896.376	4656
896.498	4618
896.619	4664
896.74	4626
896.861	4630
896.982	4968
897.103	5064
897.224	4793
897.345	4725
897.466	4687
897.587	4653
897.708	4896
897.828	4805
897.949	4637
898.07	4588
898.19	4607
898.311	4782
898.431	4729
898.552	4771
898.672	4839
898.792	4831
898.913	4706
899.033	4626
899.153	4447
899.273	4504
899.393	4523
899.513	4489
899.633	4474
899.753	4535
899.873	4561
899.993	4527
900.113	4531
900.232	4531
900.352	4550
900.472	4523
900.591	4367
900.711	4462
900.83	4409
900.95	4588
901.069	4649
901.189	4504
901.308	4386
901.427	4318
901.546	4341
901.665	4470
901.784	4489
901.904	4402
902.023	4318
902.141	4196
902.26	4147
902.379	4276
902.498	4280
902.617	4261
902.735	4402
902.854	4417
902.973	4325
903.091	4158
903.21	4207
903.328	4253
903.446	4257
903.565	4223
903.683	4341
903.801	4268
903.919	4455
904.038	4394
904.156	4337
904.274	4432
904.392	4386
904.51	4417
904.627	4462
904.745	4577
904.863	4607
904.981	4386
905.098	4318
905.216	4371
905.334	4379
905.451	4413
905.569	4459
905.686	4565
905.803	4531
905.921	4443
906.038	4588
906.155	4489
906.272	4379
906.389	4466
906.506	4356
906.623	4337
906.74	4405
906.857	4322
906.974	4341
907.091	4554
907.208	4656
907.324	4565
907.441	4447
907.557	4341
907.674	4379
907.79	4280
907.907	4390
908.023	4485
908.139	4478
908.256	4451
908.372	4504
908.488	4462
908.604	4386
908.72	4303
908.836	4413
908.952	4371
909.068	4443
909.184	4596
909.3	4493
909.415	4550
909.531	4588
909.647	4337
909.762	4356
909.878	4341
909.993	4440
910.108	4375
910.224	4409
910.339	4470
910.454	4390
910.57	4352
910.685	4303
910.8	4615
910.915	4588
911.03	4489
911.145	4375
911.259	4337
911.374	4310
911.489	4322
911.604	4276
911.718	4158
911.833	4227
911.947	4090
912.062	4036
912.176	4185
912.291	4204
912.405	4246
912.519	4451
912.633	4478
912.748	4405
912.862	4276
912.976	4169
913.09	4048
913.204	4192
913.318	4295
913.431	4363
913.545	4363
913.659	4447
913.772	4402
913.886	4227
914	4150
914.113	4318
914.226	4455
914.34	4390
914.453	4265
914.566	4371
914.68	4322
914.793	4325
914.906	4112
915.019	4128
915.132	4059
915.245	4169
915.358	4227
915.47	4227
915.583	4261
915.696	4284
915.809	4432
915.921	4432
916.034	4261
916.146	4314
916.259	4196
916.371	4394
916.483	4383
916.595	4284
916.708	4371
916.82	4333
916.932	4329
917.044	4322
917.156	4318
917.268	4238
917.38	4287
917.491	4227
917.603	4322
917.715	4428
917.826	4432
917.938	4371
918.049	4185
918.161	4371
918.272	4504
918.384	4500
918.495	4459
918.606	4284
918.717	4211
918.828	4314
918.939	4379
919.05	4242
919.161	4306
919.272	4124
919.383	4196
919.494	4409
919.604	4618
919.715	4428
919.826	4352
919.936	4440
920.047	4481
920.157	4500
920.267	4687
920.378	4538
920.488	4485
920.598	4679
920.708	4908
920.818	4729
920.928	4752
921.038	4927
921.148	4934
921.258	4630
921.368	4577
921.477	4538
921.587	4428
921.697	4375
921.806	4504
921.916	4440
922.025	4299
922.134	4306
922.244	4261
922.353	4291
922.462	4128
922.571	4120
922.68	3983
922.789	3949
922.898	4017
923.007	3975
923.116	4093
923.224	4044
923.333	4063
923.442	3941
923.55	3960
923.659	4029
923.767	4090
923.876	4006
923.984	4105
924.092	3945
924.201	4044
924.309	4116
924.417	4135
924.525	4055
924.633	4090
924.741	4850
924.849	3903
924.956	4071
925.064	3922
925.172	3903
925.279	3956
925.387	4051
925.494	4067
925.602	4173
925.709	4154
925.816	4040
925.924	4131
926.031	4253
926.138	4116
926.245	4177
926.352	4063
926.459	4227
926.566	4265
926.673	4131
926.779	4074
926.886	4036
926.993	3983
927.099	3968
927.206	3907
927.312	3918
927.419	4109
927.525	3998
927.631	4101
927.737	3972
927.843	3941
927.95	3823
928.056	3953
928.162	3975
928.267	4082
928.373	4649
928.479	4158
928.585	3911
928.69	4067
928.796	4097
928.901	3979
929.007	3850
929.112	3983
929.218	3949
929.323	3922
929.428	3991
929.533	4067
929.638	3888
929.743	3956
929.848	4063
929.953	3934
930.058	3911
930.163	3778
930.267	3831
930.372	4006
930.477	3759
930.581	4086
930.685	3930
930.79	3842
930.894	3888
930.998	3865
931.103	4044
931.207	3732
931.311	3724
931.415	3652
931.519	3549
931.623	3557
