Data from test_V78500241_319.txt Node
Date: Fri Mar 25 16:51:13 CST 2022
User: usil
Spectrometer: V785-0024
Trigger mode: 0
Integration Time (sec): 4.000000E-1
Scans to average: 1
Nonlinearity correction enabled: false
Boxcar width: 0
Storing dark spectrum: false
XAxis mode: Wavelengths
Number of Pixels in Spectrum: 1024
>>>>>Begin Spectral Data<<<<<
801.071	8100
801.214	8096
801.356	7849
801.499	7871
801.641	7830
801.783	7830
801.926	7970
802.068	7898
802.211	8031
802.353	8092
802.496	7917
802.638	7860
802.78	7997
802.923	7944
803.065	7849
803.208	7909
803.35	7909
803.492	8039
803.635	8153
803.777	7986
803.919	8107
804.061	8457
804.204	8176
804.346	8050
804.488	8012
804.63	8092
804.773	7967
804.915	8046
805.057	8271
805.199	8123
805.341	8199
805.483	8221
805.626	8233
805.768	8005
805.91	8145
806.052	8172
806.194	8111
806.336	8313
806.478	8206
806.62	8157
806.762	8180
806.904	8305
807.046	8476
807.188	8362
807.33	8138
807.472	8332
807.614	8123
807.756	8123
807.898	7997
808.04	7894
808.182	7925
808.324	7944
808.465	7898
808.607	8016
808.749	8092
808.891	8172
809.033	8252
809.174	8214
809.316	8031
809.458	8077
809.6	7982
809.741	7989
809.883	8035
810.025	8119
810.166	8088
810.308	8046
810.45	7986
810.591	7841
810.733	7772
810.875	7643
811.016	7487
811.158	7464
811.299	7647
811.441	7792
811.582	7742
811.724	7586
811.865	7563
812.007	7708
812.148	7662
812.29	7689
812.431	7715
812.573	7807
812.714	7970
812.855	8168
812.997	8142
813.138	8294
813.279	8107
813.421	8092
813.562	7947
813.703	7868
813.845	7753
813.986	7438
814.127	7354
814.268	7274
814.41	7187
814.551	7145
814.692	7187
814.833	7091
814.974	7076
815.115	7076
815.256	6943
815.397	6985
815.539	6954
815.68	6837
815.821	6814
815.962	6901
816.103	6776
816.244	6711
816.385	6631
816.526	6623
816.666	6506
816.807	6338
816.948	6422
817.089	6502
817.23	6437
817.371	6403
817.512	6365
817.653	6372
817.793	6407
817.934	6407
818.075	6445
818.216	6418
818.356	6334
818.497	6247
818.638	6136
818.778	6110
818.919	6159
819.06	6152
819.2	6281
819.341	6365
819.481	6338
819.622	6483
819.762	6711
819.903	6665
820.043	6563
820.184	6547
820.324	6532
820.465	6639
820.605	6688
820.746	6623
820.886	6551
821.026	6612
821.167	6741
821.307	6791
821.447	6768
821.588	6658
821.728	6612
821.868	6544
822.008	6311
822.149	6388
822.289	6357
822.429	6175
822.569	6106
822.709	6095
822.849	5980
822.99	5946
823.13	5878
823.27	5916
823.41	5794
823.55	5847
823.69	5779
823.83	5802
823.97	5688
824.11	5558
824.25	5516
824.389	5512
824.529	5592
824.669	5535
824.809	5630
824.949	5627
825.089	5676
825.228	5585
825.368	5360
825.508	5379
825.648	5349
825.787	5357
825.927	5398
826.067	5364
826.206	5299
826.346	5376
826.485	5376
826.625	5429
826.765	5566
826.904	5444
827.044	5242
827.183	5166
827.323	5166
827.462	5246
827.601	5140
827.741	5193
827.88	5174
828.02	5151
828.159	5269
828.298	5288
828.437	5326
828.577	5239
828.716	5509
828.855	5318
828.994	5174
829.134	5094
829.273	5155
829.412	5117
829.551	5121
829.69	5204
829.829	5277
829.968	5410
830.107	5261
830.246	5330
830.385	5162
830.524	5132
830.663	5060
830.802	4968
830.941	4892
831.08	4881
831.219	5025
831.357	4980
831.496	5143
831.635	4927
831.774	4839
831.913	4847
832.051	4721
832.19	4816
832.329	4866
832.467	4683
832.606	4664
832.744	4698
832.883	4733
833.022	4710
833.16	4797
833.299	4820
833.437	4831
833.576	4816
833.714	4816
833.852	4862
833.991	4835
834.129	4934
834.267	4949
834.406	4908
834.544	4987
834.682	4984
834.821	4923
834.959	5181
835.097	4965
835.235	5109
835.373	5083
835.511	5132
835.65	4984
835.788	5014
835.926	4927
836.064	4896
836.202	4953
836.34	5181
836.478	5223
836.615	5117
836.753	5223
836.891	5284
837.029	5197
837.167	5201
837.305	5178
837.443	5147
837.58	5037
837.718	5258
837.856	5208
837.993	5109
838.131	5220
838.269	5204
838.406	5235
838.544	5166
838.681	5052
838.819	5010
838.956	4908
839.094	4915
839.231	5018
839.369	5048
839.506	5395
839.643	5296
839.781	5056
839.918	5048
840.055	5056
840.193	5170
840.33	5166
840.467	5098
840.604	5193
840.742	5429
840.879	5052
841.016	5113
841.153	5174
841.29	5417
841.427	5296
841.564	5364
841.701	5330
841.838	5258
841.975	5227
842.112	5280
842.249	5143
842.385	5124
842.522	5372
842.659	5204
842.796	5143
842.933	5201
843.069	5208
843.206	5151
843.343	5254
843.479	5318
843.616	5220
843.752	5067
843.889	4965
844.025	5254
844.162	5033
844.298	5140
844.435	5147
844.571	5056
844.708	5166
844.844	5330
844.98	5307
845.117	5345
845.253	5128
845.389	5098
845.525	5166
845.661	5155
845.798	5037
845.934	5159
846.07	5018
846.206	5170
846.342	5292
846.478	5159
846.614	5064
846.75	4965
846.886	4911
847.022	5136
847.158	5006
847.294	5086
847.429	5094
847.565	5113
847.701	5292
847.837	4809
847.972	4847
848.108	4984
848.244	4946
848.379	4839
848.515	4752
848.65	4755
848.786	4714
848.921	4752
849.057	4946
849.192	4896
849.328	4866
849.463	4862
849.598	4843
849.734	4702
849.869	4656
850.004	4626
850.14	4656
850.275	4588
850.41	4512
850.545	4584
850.68	4603
850.815	4596
850.95	4656
851.085	4854
851.22	4744
851.355	4679
851.49	4683
851.625	4641
851.76	4615
851.895	4546
852.03	4531
852.165	4649
852.299	4736
852.434	4763
852.569	4763
852.703	4771
852.838	4889
852.973	4915
853.107	4934
853.242	4774
853.376	4710
853.511	4558
853.645	4596
853.78	4816
853.914	4664
854.048	4721
854.183	4668
854.317	4694
854.451	4870
854.585	4683
854.72	4649
854.854	4706
854.988	4611
855.122	4660
855.256	4512
855.39	4683
855.524	4744
855.658	4660
855.792	4694
855.926	4710
856.06	4744
856.194	4801
856.327	4675
856.461	4637
856.595	4634
856.729	4618
856.862	4675
856.996	4664
857.13	4717
857.263	4752
857.397	4809
857.53	4653
857.664	4744
857.797	4744
857.931	4835
858.064	4653
858.197	4702
858.331	4664
858.464	4660
858.597	4512
858.731	4565
858.864	4645
858.997	4618
859.13	4653
859.263	4691
859.396	4664
859.529	4615
859.662	4554
859.795	4516
859.928	4679
860.061	4786
860.194	4797
860.327	4618
860.46	4584
860.592	4691
860.725	4706
860.858	4733
860.99	4573
861.123	4531
861.256	4558
861.388	4596
861.521	5383
861.653	4443
861.786	4447
861.918	4436
862.05	4542
862.183	4546
862.315	4618
862.447	4630
862.58	4542
862.712	4398
862.844	4322
862.976	4493
863.108	4436
863.24	4927
863.372	4360
863.504	4478
863.636	4394
863.768	4527
863.9	4409
864.032	4375
864.164	4402
864.296	4512
864.428	4565
864.559	4550
864.691	4481
864.823	4478
864.954	4481
865.086	4500
865.217	4523
865.349	4398
865.48	4455
865.612	4493
865.743	4668
865.875	4466
866.006	4394
866.137	4440
866.269	4432
866.4	4405
866.531	4390
866.662	4409
866.793	4360
866.924	4432
867.055	4493
867.186	4462
867.317	4413
867.448	4363
867.579	4367
867.71	4421
867.841	4398
867.972	4485
868.103	4474
868.233	4417
868.364	4462
868.495	4459
868.625	4698
868.756	4790
868.886	4588
869.017	4653
869.147	4782
869.278	4774
869.408	4603
869.539	4618
869.669	4710
869.799	4675
869.929	4714
870.06	4736
870.19	4965
870.32	4881
870.45	4892
870.58	5022
870.71	5094
870.84	5143
870.97	4972
871.1	4877
871.23	5102
871.36	5166
871.489	5064
871.619	5094
871.749	5052
871.879	5079
872.008	5128
872.138	5079
872.267	4972
872.397	4839
872.526	4870
872.656	4744
872.785	4790
872.915	4961
873.044	5060
873.173	4957
873.303	4957
873.432	4991
873.561	4923
873.69	4866
873.819	4881
873.948	4942
874.077	4801
874.206	4752
874.335	4774
874.464	4934
874.593	5033
874.722	4999
874.851	5117
874.979	5083
875.108	5014
875.237	4915
875.365	4866
875.494	4881
875.623	5022
875.751	4809
875.88	4934
876.008	4995
876.136	4999
876.265	5212
876.393	5357
876.521	5280
876.65	5239
876.778	5162
876.906	5067
877.034	5018
877.162	5037
877.29	4961
877.418	5045
877.546	5064
877.674	5060
877.802	5022
877.93	5010
878.058	4938
878.185	4858
878.313	4942
878.441	4961
878.568	4793
878.696	4900
878.824	5006
878.951	5014
879.079	5166
879.206	5288
879.333	5166
879.461	5003
879.588	5041
879.715	5155
879.842	5208
879.97	4987
880.097	4786
880.224	4752
880.351	4809
880.478	4778
880.605	4835
880.732	4820
880.859	5094
880.986	4885
881.112	4923
881.239	4767
881.366	4717
881.493	4599
881.619	4546
881.746	4588
881.872	4668
881.999	4714
882.125	4698
882.252	4835
882.378	4835
882.505	4946
882.631	4805
882.757	4687
882.883	4717
883.01	4717
883.136	4645
883.262	4603
883.388	4634
883.514	4797
883.64	4877
883.766	4797
883.892	4683
884.018	4668
884.143	4904
884.269	4972
884.395	4637
884.52	4626
884.646	4626
884.772	4569
884.897	4504
885.023	4698
885.148	4797
885.274	4881
885.399	4793
885.524	4725
885.65	4714
885.775	4679
885.9	4641
886.025	4873
886.15	4801
886.275	4759
886.4	4660
886.525	4736
886.65	4706
886.775	4698
886.9	4949
887.025	5048
887.149	4805
887.274	4622
887.399	4584
887.523	4584
887.648	4569
887.773	4546
887.897	4767
888.021	4748
888.146	4717
888.27	4805
888.395	4934
888.519	4755
888.643	4854
888.767	4870
888.891	4717
889.015	4645
889.139	4691
889.263	4637
889.387	4782
889.511	4915
889.635	4812
889.759	4668
889.883	4660
890.006	4801
890.13	4835
890.254	4637
890.377	4683
890.501	4558
890.624	4519
890.748	4660
890.871	4538
890.995	4519
891.118	4379
891.241	4546
891.364	4558
891.488	4618
891.611	4516
891.734	4592
891.857	4607
891.98	4588
892.103	4675
892.226	4607
892.349	4565
892.471	4424
892.594	4573
892.717	4622
892.839	4626
892.962	4653
893.085	4694
893.207	4683
893.33	4542
893.452	4592
893.575	4694
893.697	4618
893.819	4782
893.941	4885
894.064	4820
894.186	4656
894.308	4596
894.43	4793
894.552	4889
894.674	4831
894.796	4599
894.918	4607
895.04	4645
895.161	4729
895.283	4706
895.405	4664
895.526	4702
895.648	4755
895.769	4714
895.891	4717
896.012	4755
896.134	4752
896.255	4725
896.376	4702
896.498	4653
896.619	4698
896.74	4607
896.861	4687
896.982	4968
897.103	5143
897.224	4877
897.345	4805
897.466	4714
897.587	4805
897.708	4881
897.828	4839
897.949	4710
898.07	4656
898.19	4653
898.311	4839
898.431	4664
898.552	4797
898.672	4915
898.792	4831
898.913	4786
899.033	4672
899.153	4592
899.273	4451
899.393	4538
899.513	4542
899.633	4596
899.753	4592
899.873	4577
899.993	4668
900.113	4599
900.232	4649
900.352	4573
900.472	4504
900.591	4470
900.711	4546
900.83	4440
900.95	4675
901.069	4733
901.189	4538
901.308	4424
901.427	4379
901.546	4390
901.665	4516
901.784	4538
901.904	4398
902.023	4344
902.141	4268
902.26	4173
902.379	4337
902.498	4314
902.617	4261
902.735	4413
902.854	4417
902.973	4436
903.091	4261
903.21	4265
903.328	4314
903.446	4306
903.565	4329
903.683	4386
903.801	4303
903.919	4424
904.038	4474
904.156	4386
904.274	4447
904.392	4417
904.51	4489
904.627	4481
904.745	4634
904.863	4683
904.981	4440
905.098	4318
905.216	4462
905.334	4489
905.451	4466
905.569	4428
905.686	4558
905.803	4603
905.921	4428
906.038	4618
906.155	4512
906.272	4424
906.389	4504
906.506	4402
906.623	4440
906.74	4451
906.857	4318
906.974	4451
907.091	4596
907.208	4717
907.324	4622
907.441	4516
907.557	4348
907.674	4394
907.79	4375
907.907	4409
908.023	4561
908.139	4500
908.256	4489
908.372	4474
908.488	4485
908.604	4443
908.72	4375
908.836	4375
908.952	4424
909.068	4466
909.184	4565
909.3	4535
909.415	4675
909.531	4596
909.647	4348
909.762	4402
909.878	4398
909.993	4512
910.108	4421
910.224	4478
910.339	4474
910.454	4451
910.57	4402
910.685	4371
910.8	4683
910.915	4607
911.03	4523
911.145	4394
911.259	4356
911.374	4383
911.489	4348
911.604	4291
911.718	4185
911.833	4249
911.947	4105
912.062	4051
912.176	4223
912.291	4322
912.405	4253
912.519	4489
912.633	4538
912.748	4402
912.862	4348
912.976	4291
913.09	4143
913.204	4230
913.318	4299
913.431	4386
913.545	4409
913.659	4428
913.772	4390
913.886	4295
914	4253
914.113	4386
914.226	4512
914.34	4474
914.453	4287
914.566	4466
914.68	4367
914.793	4341
914.906	4215
915.019	4166
915.132	4097
915.245	4230
915.358	4280
915.47	4268
915.583	4314
915.696	4371
915.809	4455
915.921	4497
916.034	4303
916.146	4287
916.259	4291
916.371	4424
916.483	4386
916.595	4295
916.708	4409
916.82	4363
916.932	4352
917.044	4356
917.156	4371
917.268	4261
917.38	4333
917.491	4314
917.603	4322
917.715	4478
917.826	4462
917.938	4421
918.049	4249
918.161	4447
918.272	4615
918.384	4565
918.495	4481
918.606	4306
918.717	4268
918.828	4409
918.939	4447
919.05	4272
919.161	4360
919.272	4147
919.383	4276
919.494	4481
919.604	4702
919.715	4432
919.826	4383
919.936	4405
920.047	4565
920.157	4561
920.267	4774
920.378	4599
920.488	4512
920.598	4744
920.708	4934
920.818	4767
920.928	4778
921.038	4953
921.148	4949
921.258	4599
921.368	4550
921.477	4554
921.587	4481
921.697	4402
921.806	4550
921.916	4478
922.025	4295
922.134	4299
922.244	4253
922.353	4402
922.462	4242
922.571	4207
922.68	4029
922.789	4010
922.898	4082
923.007	4002
923.116	4124
923.224	4120
923.333	4128
923.442	4048
923.55	4002
923.659	4090
923.767	4158
923.876	4032
923.984	4139
924.092	4071
924.201	4128
924.309	4116
924.417	4177
924.525	4063
924.633	4143
924.741	4972
924.849	3994
924.956	4166
925.064	4036
925.172	3899
925.279	3987
925.387	4090
925.494	4090
925.602	4272
925.709	4223
925.816	4116
925.924	4124
926.031	4249
926.138	4185
926.245	4246
926.352	4109
926.459	4306
926.566	4322
926.673	4238
926.779	4116
926.886	4112
926.993	3975
927.099	4006
927.206	3979
927.312	3960
927.419	4109
927.525	4036
927.631	4150
927.737	4006
927.843	3945
927.95	3918
928.056	3968
928.162	4025
928.267	4063
928.373	4710
928.479	4109
928.585	3903
928.69	4013
928.796	4086
928.901	3979
929.007	3903
929.112	4029
929.218	3979
929.323	3983
929.428	3922
929.533	4131
929.638	3972
929.743	4013
929.848	4063
929.953	4071
930.058	4006
930.163	3827
930.267	3880
930.372	4017
930.477	3838
930.581	4128
930.685	4010
930.79	3823
930.894	3896
930.998	3880
931.103	4074
931.207	3751
931.311	3690
931.415	3709
931.519	3561
931.623	3584
