Data from test_V78500241_2205.txt Node
Date: Fri Mar 25 17:04:20 CST 2022
User: usil
Spectrometer: V785-0024
Trigger mode: 0
Integration Time (sec): 4.000000E-1
Scans to average: 1
Nonlinearity correction enabled: false
Boxcar width: 0
Storing dark spectrum: false
XAxis mode: Wavelengths
Number of Pixels in Spectrum: 1024
>>>>>Begin Spectral Data<<<<<
801.071	8050
801.214	8008
801.356	7830
801.499	7833
801.641	7814
801.783	7811
801.926	8020
802.068	7928
802.211	8039
802.353	7978
802.496	7909
802.638	7780
802.78	7856
802.923	7906
803.065	7894
803.208	7864
803.35	7986
803.492	8035
803.635	8111
803.777	8088
803.919	8119
804.061	8457
804.204	8176
804.346	8126
804.488	7982
804.63	8115
804.773	8012
804.915	8088
805.057	8290
805.199	8180
805.341	8282
805.483	8298
805.626	8229
805.768	8134
805.91	8206
806.052	8244
806.194	8084
806.336	8233
806.478	8020
806.62	8115
806.762	8168
806.904	8233
807.046	8415
807.188	8279
807.33	8339
807.472	8324
807.614	8134
807.756	8065
807.898	7989
808.04	7970
808.182	7925
808.324	7856
808.465	7902
808.607	8001
808.749	8126
808.891	8195
809.033	8298
809.174	8195
809.316	8050
809.458	8054
809.6	8031
809.741	8115
809.883	8001
810.025	8134
810.166	7989
810.308	8008
810.45	7951
810.591	7879
810.733	7738
810.875	7662
811.016	7525
811.158	7460
811.299	7521
811.441	7750
811.582	7666
811.724	7544
811.865	7563
812.007	7586
812.148	7575
812.29	7658
812.431	7677
812.573	7856
812.714	8035
812.855	8142
812.997	8172
813.138	8290
813.279	8130
813.421	8046
813.562	8020
813.703	7814
813.845	7757
813.986	7419
814.127	7335
814.268	7206
814.41	7164
814.551	7164
814.692	7179
814.833	7107
814.974	7099
815.115	7141
815.256	6966
815.397	6973
815.539	6958
815.68	6829
815.821	6760
815.962	6894
816.103	6897
816.244	6700
816.385	6631
816.526	6589
816.666	6566
816.807	6292
816.948	6407
817.089	6429
817.23	6407
817.371	6346
817.512	6418
817.653	6414
817.793	6369
817.934	6399
818.075	6456
818.216	6452
818.356	6429
818.497	6209
818.638	6102
818.778	6163
818.919	6175
819.06	6171
819.2	6327
819.341	6357
819.481	6372
819.622	6547
819.762	6734
819.903	6665
820.043	6601
820.184	6574
820.324	6486
820.465	6764
820.605	6677
820.746	6623
820.886	6544
821.026	6635
821.167	6749
821.307	6791
821.447	6760
821.588	6635
821.728	6582
821.868	6486
822.008	6289
822.149	6395
822.289	6391
822.429	6190
822.569	6129
822.709	6148
822.849	5946
822.99	5855
823.13	5931
823.27	5916
823.41	5817
823.55	5729
823.69	5756
823.83	5718
823.97	5646
824.11	5509
824.25	5509
824.389	5543
824.529	5653
824.669	5600
824.809	5649
824.949	5657
825.089	5653
825.228	5558
825.368	5383
825.508	5307
825.648	5269
825.787	5360
825.927	5372
826.067	5250
826.206	5261
826.346	5402
826.485	5383
826.625	5353
826.765	5528
826.904	5478
827.044	5239
827.183	5181
827.323	5128
827.462	5239
827.601	5155
827.741	5197
827.88	5208
828.02	5143
828.159	5235
828.298	5273
828.437	5349
828.577	5299
828.716	5482
828.855	5330
828.994	5136
829.134	5181
829.273	5181
829.412	5162
829.551	5128
829.69	5143
829.829	5208
829.968	5376
830.107	5250
830.246	5265
830.385	5193
830.524	5128
830.663	5075
830.802	5029
830.941	4866
831.08	4843
831.219	4957
831.357	4965
831.496	5098
831.635	4976
831.774	4812
831.913	4854
832.051	4755
832.19	4755
832.329	4854
832.467	4778
832.606	4660
832.744	4698
832.883	4725
833.022	4744
833.16	4786
833.299	4850
833.437	4854
833.576	4854
833.714	4824
833.852	4809
833.991	4862
834.129	4953
834.267	4972
834.406	4889
834.544	4984
834.682	4987
834.821	4938
834.959	5143
835.097	4965
835.235	5102
835.373	5018
835.511	5094
835.65	5079
835.788	4965
835.926	4881
836.064	4915
836.202	4957
836.34	5174
836.478	5265
836.615	5128
836.753	5235
836.891	5261
837.029	5284
837.167	5261
837.305	5155
837.443	5128
837.58	5090
837.718	5280
837.856	5178
837.993	5105
838.131	5227
838.269	5212
838.406	5204
838.544	5201
838.681	5022
838.819	5006
838.956	4873
839.094	4889
839.231	5006
839.369	5083
839.506	5349
839.643	5246
839.781	5048
839.918	5022
840.055	5098
840.193	5098
840.33	5132
840.467	5159
840.604	5189
840.742	5440
840.879	5052
841.016	5121
841.153	5140
841.29	5353
841.427	5341
841.564	5330
841.701	5349
841.838	5235
841.975	5204
842.112	5208
842.249	5117
842.385	5128
842.522	5341
842.659	5174
842.796	5159
842.933	5185
843.069	5181
843.206	5166
843.343	5280
843.479	5185
843.616	5223
843.752	5018
843.889	5022
844.025	5216
844.162	4984
844.298	5178
844.435	5083
844.571	5052
844.708	5201
844.844	5334
844.98	5318
845.117	5246
845.253	5162
845.389	5064
845.525	5136
845.661	5143
845.798	5037
845.934	5147
846.07	5056
846.206	5189
846.342	5261
846.478	5216
846.614	4991
846.75	4972
846.886	4976
847.022	5143
847.158	4999
847.294	5022
847.429	5124
847.565	5060
847.701	5284
847.837	4862
847.972	4805
848.108	4930
848.244	4908
848.379	4831
848.515	4725
848.65	4755
848.786	4733
848.921	4786
849.057	4889
849.192	4881
849.328	4809
849.463	4843
849.598	4812
849.734	4721
849.869	4698
850.004	4637
850.14	4630
850.275	4603
850.41	4516
850.545	4611
850.68	4615
850.815	4573
850.95	4622
851.085	4870
851.22	4721
851.355	4740
851.49	4577
851.625	4634
851.76	4672
851.895	4561
852.03	4516
852.165	4649
852.299	4660
852.434	4774
852.569	4710
852.703	4801
852.838	4816
852.973	4896
853.107	4892
853.242	4729
853.376	4694
853.511	4527
853.645	4565
853.78	4786
853.914	4694
854.048	4645
854.183	4664
854.317	4687
854.451	4816
854.585	4706
854.72	4592
854.854	4801
854.988	4637
855.122	4603
855.256	4542
855.39	4630
855.524	4790
855.658	4733
855.792	4679
855.926	4744
856.06	4740
856.194	4786
856.327	4687
856.461	4607
856.595	4592
856.729	4630
856.862	4721
856.996	4653
857.13	4752
857.263	4774
857.397	4790
857.53	4641
857.664	4759
857.797	4778
857.931	4850
858.064	4733
858.197	4736
858.331	4645
858.464	4577
858.597	4500
858.731	4588
858.864	4660
858.997	4573
859.13	4641
859.263	4683
859.396	4672
859.529	4558
859.662	4546
859.795	4550
859.928	4656
860.061	4786
860.194	4774
860.327	4573
860.46	4554
860.592	4706
860.725	4725
860.858	4714
860.99	4542
861.123	4485
861.256	4523
861.388	4645
861.521	5288
861.653	4478
861.786	4432
861.918	4440
862.05	4531
862.183	4584
862.315	4531
862.447	4649
862.58	4531
862.712	4329
862.844	4295
862.976	4504
863.108	4451
863.24	4763
863.372	4352
863.504	4466
863.636	4398
863.768	4489
863.9	4432
864.032	4363
864.164	4371
864.296	4462
864.428	4573
864.559	4558
864.691	4531
864.823	4497
864.954	4508
865.086	4508
865.217	4451
865.349	4390
865.48	4470
865.612	4481
865.743	4630
865.875	4481
866.006	4421
866.137	4500
866.269	4424
866.4	4470
866.531	4436
866.662	4447
866.793	4405
866.924	4428
867.055	4478
867.186	4462
867.317	4421
867.448	4409
867.579	4394
867.71	4367
867.841	4398
867.972	4451
868.103	4481
868.233	4424
868.364	4443
868.495	4523
868.625	4653
868.756	4740
868.886	4569
869.017	4653
869.147	4790
869.278	4812
869.408	4702
869.539	4580
869.669	4691
869.799	4649
869.929	4740
870.06	4740
870.19	4965
870.32	4911
870.45	4923
870.58	5029
870.71	5102
870.84	5064
870.97	4923
871.1	4900
871.23	5117
871.36	5170
871.489	5006
871.619	5067
871.749	5113
871.879	5143
872.008	5136
872.138	5010
872.267	4980
872.397	4866
872.526	4816
872.656	4733
872.785	4805
872.915	4942
873.044	5045
873.173	4968
873.303	4991
873.432	4938
873.561	4904
873.69	4812
873.819	4812
873.948	4919
874.077	4839
874.206	4733
874.335	4797
874.464	4938
874.593	5033
874.722	4987
874.851	5105
874.979	5045
875.108	5045
875.237	4892
875.365	4892
875.494	4904
875.623	4976
875.751	4854
875.88	4908
876.008	4953
876.136	5045
876.265	5170
876.393	5311
876.521	5227
876.65	5216
876.778	5181
876.906	5071
877.034	5014
877.162	5067
877.29	4987
877.418	5048
877.546	5029
877.674	5018
877.802	5014
877.93	4976
878.058	4942
878.185	4957
878.313	4949
878.441	4923
878.568	4752
878.696	4881
878.824	4938
878.951	4999
879.079	5159
879.206	5318
879.333	5140
879.461	4946
879.588	5018
879.715	5109
879.842	5265
879.97	4987
880.097	4763
880.224	4733
880.351	4820
880.478	4805
880.605	4778
880.732	4774
880.859	5105
880.986	4866
881.112	4908
881.239	4774
881.366	4675
881.493	4596
881.619	4596
881.746	4634
881.872	4660
881.999	4668
882.125	4733
882.252	4733
882.378	4843
882.505	4953
882.631	4805
882.757	4637
882.883	4725
883.01	4755
883.136	4626
883.262	4554
883.388	4607
883.514	4778
883.64	4858
883.766	4744
883.892	4634
884.018	4748
884.143	4862
884.269	5006
884.395	4672
884.52	4649
884.646	4660
884.772	4573
884.897	4535
885.023	4679
885.148	4748
885.274	4828
885.399	4759
885.524	4683
885.65	4668
885.775	4721
885.9	4683
886.025	4850
886.15	4790
886.275	4733
886.4	4649
886.525	4729
886.65	4656
886.775	4645
886.9	4904
887.025	5022
887.149	4774
887.274	4645
887.399	4580
887.523	4615
887.648	4599
887.773	4588
887.897	4771
888.021	4793
888.146	4672
888.27	4801
888.395	4881
888.519	4767
888.643	4793
888.767	4839
888.891	4641
889.015	4603
889.139	4634
889.263	4535
889.387	4714
889.511	4809
889.635	4790
889.759	4656
889.883	4637
890.006	4698
890.13	4850
890.254	4599
890.377	4698
890.501	4554
890.624	4489
890.748	4622
890.871	4519
890.995	4424
891.118	4398
891.241	4504
891.364	4584
891.488	4615
891.611	4527
891.734	4580
891.857	4565
891.98	4527
892.103	4596
892.226	4615
892.349	4535
892.471	4440
892.594	4573
892.717	4584
892.839	4546
892.962	4603
893.085	4664
893.207	4607
893.33	4432
893.452	4512
893.575	4656
893.697	4493
893.819	4812
893.941	4892
894.064	4778
894.186	4573
894.308	4546
894.43	4733
894.552	4809
894.674	4752
894.796	4519
894.918	4558
895.04	4565
895.161	4717
895.283	4660
895.405	4558
895.526	4653
895.648	4664
895.769	4725
895.891	4733
896.012	4710
896.134	4759
896.255	4634
896.376	4634
896.498	4660
896.619	4630
896.74	4653
896.861	4573
896.982	4908
897.103	5014
897.224	4847
897.345	4717
897.466	4694
897.587	4717
897.708	4847
897.828	4786
897.949	4672
898.07	4538
898.19	4664
898.311	4816
898.431	4679
898.552	4740
898.672	4854
898.792	4820
898.913	4717
899.033	4649
899.153	4516
899.273	4367
899.393	4535
899.513	4500
899.633	4531
899.753	4538
899.873	4500
899.993	4618
900.113	4497
900.232	4538
900.352	4512
900.472	4478
900.591	4402
900.711	4493
900.83	4455
900.95	4653
901.069	4683
901.189	4565
901.308	4379
901.427	4276
901.546	4405
901.665	4485
901.784	4516
901.904	4371
902.023	4337
902.141	4196
902.26	4196
902.379	4276
902.498	4261
902.617	4238
902.735	4371
902.854	4402
902.973	4322
903.091	4261
903.21	4253
903.328	4325
903.446	4234
903.565	4287
903.683	4356
903.801	4303
903.919	4405
904.038	4447
904.156	4299
904.274	4440
904.392	4379
904.51	4424
904.627	4504
904.745	4527
904.863	4645
904.981	4455
905.098	4295
905.216	4322
905.334	4405
905.451	4459
905.569	4455
905.686	4584
905.803	4584
905.921	4402
906.038	4546
906.155	4485
906.272	4371
906.389	4481
906.506	4405
906.623	4424
906.74	4390
906.857	4318
906.974	4409
907.091	4565
907.208	4634
907.324	4565
907.441	4512
907.557	4371
907.674	4341
907.79	4375
907.907	4417
908.023	4470
908.139	4500
908.256	4451
908.372	4424
908.488	4462
908.604	4383
908.72	4276
908.836	4413
908.952	4341
909.068	4436
909.184	4538
909.3	4485
909.415	4580
909.531	4546
909.647	4394
909.762	4352
909.878	4303
909.993	4428
910.108	4421
910.224	4367
910.339	4489
910.454	4390
910.57	4379
910.685	4310
910.8	4637
910.915	4588
911.03	4478
911.145	4306
911.259	4367
911.374	4386
911.489	4325
911.604	4261
911.718	4162
911.833	4204
911.947	4139
912.062	4029
912.176	4227
912.291	4272
912.405	4242
912.519	4436
912.633	4489
912.748	4341
912.862	4329
912.976	4246
913.09	4105
913.204	4192
913.318	4246
913.431	4383
913.545	4386
913.659	4424
913.772	4341
913.886	4280
914	4207
914.113	4390
914.226	4440
914.34	4375
914.453	4211
914.566	4394
914.68	4299
914.793	4379
914.906	4177
915.019	4154
915.132	4086
915.245	4177
915.358	4211
915.47	4272
915.583	4246
915.696	4306
915.809	4424
915.921	4402
916.034	4253
916.146	4268
916.259	4188
916.371	4390
916.483	4383
916.595	4227
916.708	4341
916.82	4276
916.932	4295
917.044	4303
917.156	4276
917.268	4223
917.38	4253
917.491	4261
917.603	4344
917.715	4402
917.826	4409
917.938	4356
918.049	4276
918.161	4409
918.272	4573
918.384	4588
918.495	4478
918.606	4333
918.717	4268
918.828	4318
918.939	4398
919.05	4272
919.161	4337
919.272	4131
919.383	4234
919.494	4443
919.604	4672
919.715	4447
919.826	4352
919.936	4413
920.047	4550
920.157	4466
920.267	4687
920.378	4542
920.488	4497
920.598	4683
920.708	4892
920.818	4774
920.928	4774
921.038	4927
921.148	4904
921.258	4580
921.368	4516
921.477	4504
921.587	4432
921.697	4394
921.806	4573
921.916	4428
922.025	4276
922.134	4249
922.244	4223
922.353	4352
922.462	4162
922.571	4097
922.68	4017
922.789	3956
922.898	3994
923.007	3998
923.116	4090
923.224	4063
923.333	4074
923.442	4002
923.55	4002
923.659	4078
923.767	4086
923.876	4006
923.984	4177
924.092	3972
924.201	4116
924.309	4086
924.417	4139
924.525	4051
924.633	4063
924.741	5048
924.849	3956
924.956	4101
925.064	3934
925.172	3926
925.279	3941
925.387	4029
925.494	4074
925.602	4173
925.709	4223
925.816	4013
925.924	4128
926.031	4185
926.138	4139
926.245	4219
926.352	4135
926.459	4219
926.566	4310
926.673	4173
926.779	4055
926.886	4093
926.993	3983
927.099	3937
927.206	3987
927.312	3956
927.419	4040
927.525	4040
927.631	4067
927.737	3968
927.843	3903
927.95	3869
928.056	3907
928.162	3994
928.267	4063
928.373	4691
928.479	4143
928.585	3880
928.69	4055
928.796	4082
928.901	4006
929.007	3888
929.112	4017
929.218	3960
929.323	3911
929.428	3949
929.533	4124
929.638	3937
929.743	3983
929.848	4010
929.953	3968
930.058	3941
930.163	3781
930.267	3823
930.372	3907
930.477	3816
930.581	4078
930.685	3945
930.79	3827
930.894	3911
930.998	3823
931.103	4044
931.207	3705
931.311	3675
931.415	3679
931.519	3545
931.623	3557
