Data from test_V78500241_2081.txt Node
Date: Fri Mar 25 17:03:28 CST 2022
User: usil
Spectrometer: V785-0024
Trigger mode: 0
Integration Time (sec): 4.000000E-1
Scans to average: 1
Nonlinearity correction enabled: false
Boxcar width: 0
Storing dark spectrum: false
XAxis mode: Wavelengths
Number of Pixels in Spectrum: 1024
>>>>>Begin Spectral Data<<<<<
801.071	8039
801.214	8039
801.356	7902
801.499	7879
801.641	7860
801.783	7879
801.926	7928
802.068	7890
802.211	7982
802.353	8005
802.496	7913
802.638	7879
802.78	7917
802.923	7890
803.065	7849
803.208	7902
803.35	7978
803.492	8065
803.635	8164
803.777	8005
803.919	8134
804.061	8457
804.204	8164
804.346	8054
804.488	8031
804.63	8100
804.773	8008
804.915	8134
805.057	8351
805.199	8164
805.341	8149
805.483	8218
805.626	8256
805.768	8180
805.91	8218
806.052	8267
806.194	8153
806.336	8324
806.478	8111
806.62	8103
806.762	8149
806.904	8244
807.046	8442
807.188	8366
807.33	8290
807.472	8294
807.614	8187
807.756	8176
807.898	8027
808.04	7879
808.182	7951
808.324	7849
808.465	7883
808.607	8077
808.749	8187
808.891	8233
809.033	8339
809.174	8320
809.316	8073
809.458	8123
809.6	8058
809.741	8065
809.883	8069
810.025	8035
810.166	8046
810.308	7997
810.45	7947
810.591	7871
810.733	7708
810.875	7712
811.016	7548
811.158	7441
811.299	7552
811.441	7693
811.582	7693
811.724	7575
811.865	7521
812.007	7700
812.148	7632
812.29	7647
812.431	7727
812.573	7936
812.714	7936
812.855	8142
812.997	8214
813.138	8275
813.279	8195
813.421	8107
813.562	7974
813.703	7868
813.845	7712
813.986	7449
814.127	7301
814.268	7259
814.41	7202
814.551	7145
814.692	7255
814.833	7080
814.974	7129
815.115	7187
815.256	6958
815.397	6905
815.539	6981
815.68	6821
815.821	6757
815.962	6878
816.103	6837
816.244	6703
816.385	6650
816.526	6627
816.666	6479
816.807	6311
816.948	6464
817.089	6456
817.23	6471
817.371	6384
817.512	6403
817.653	6346
817.793	6353
817.934	6426
818.075	6483
818.216	6441
818.356	6429
818.497	6216
818.638	6140
818.778	6228
818.919	6163
819.06	6182
819.2	6334
819.341	6342
819.481	6346
819.622	6540
819.762	6753
819.903	6719
820.043	6589
820.184	6627
820.324	6517
820.465	6642
820.605	6654
820.746	6662
820.886	6547
821.026	6639
821.167	6707
821.307	6772
821.447	6772
821.588	6673
821.728	6654
821.868	6506
822.008	6346
822.149	6410
822.289	6384
822.429	6133
822.569	6087
822.709	6117
822.849	5874
822.99	5901
823.13	5916
823.27	5942
823.41	5809
823.55	5809
823.69	5802
823.83	5836
823.97	5688
824.11	5596
824.25	5539
824.389	5554
824.529	5562
824.669	5547
824.809	5646
824.949	5619
825.089	5665
825.228	5589
825.368	5417
825.508	5391
825.648	5326
825.787	5368
825.927	5421
826.067	5353
826.206	5284
826.346	5425
826.485	5455
826.625	5417
826.765	5547
826.904	5410
827.044	5280
827.183	5242
827.323	5094
827.462	5258
827.601	5201
827.741	5239
827.88	5231
828.02	5102
828.159	5223
828.298	5273
828.437	5360
828.577	5258
828.716	5528
828.855	5334
828.994	5136
829.134	5132
829.273	5143
829.412	5109
829.551	5083
829.69	5155
829.829	5246
829.968	5387
830.107	5265
830.246	5239
830.385	5216
830.524	5151
830.663	5071
830.802	4980
830.941	4877
831.08	4831
831.219	4980
831.357	4999
831.496	5147
831.635	4934
831.774	4873
831.913	4820
832.051	4771
832.19	4774
832.329	4843
832.467	4748
832.606	4656
832.744	4740
832.883	4736
833.022	4691
833.16	4812
833.299	4835
833.437	4801
833.576	4797
833.714	4858
833.852	4873
833.991	4911
834.129	4984
834.267	4938
834.406	4915
834.544	4968
834.682	5018
834.821	4968
834.959	5208
835.097	5018
835.235	5181
835.373	5083
835.511	5128
835.65	5010
835.788	5006
835.926	4900
836.064	4870
836.202	4965
836.34	5155
836.478	5239
836.615	5147
836.753	5201
836.891	5322
837.029	5246
837.167	5189
837.305	5178
837.443	5189
837.58	5094
837.718	5269
837.856	5254
837.993	5178
838.131	5231
838.269	5189
838.406	5216
838.544	5227
838.681	5060
838.819	4995
838.956	4873
839.094	4949
839.231	5003
839.369	5064
839.506	5406
839.643	5273
839.781	5071
839.918	4987
840.055	5090
840.193	5128
840.33	5109
840.467	5178
840.604	5197
840.742	5417
840.879	5102
841.016	5105
841.153	5140
841.29	5372
841.427	5315
841.564	5326
841.701	5337
841.838	5265
841.975	5185
842.112	5242
842.249	5105
842.385	5079
842.522	5330
842.659	5201
842.796	5185
842.933	5201
843.069	5109
843.206	5147
843.343	5296
843.479	5254
843.616	5277
843.752	5010
843.889	5003
844.025	5189
844.162	5006
844.298	5242
844.435	5079
844.571	4999
844.708	5235
844.844	5269
844.98	5322
845.117	5315
845.253	5159
845.389	5083
845.525	5197
845.661	5239
845.798	5071
845.934	5178
846.07	5010
846.206	5143
846.342	5326
846.478	5185
846.614	5045
846.75	4961
846.886	4991
847.022	5178
847.158	5067
847.294	5029
847.429	5067
847.565	5090
847.701	5334
847.837	4866
847.972	4850
848.108	4976
848.244	4965
848.379	4778
848.515	4710
848.65	4694
848.786	4752
848.921	4748
849.057	4820
849.192	4934
849.328	4809
849.463	4850
849.598	4763
849.734	4782
849.869	4729
850.004	4641
850.14	4683
850.275	4584
850.41	4577
850.545	4558
850.68	4607
850.815	4637
850.95	4672
851.085	4828
851.22	4778
851.355	4698
851.49	4626
851.625	4626
851.76	4649
851.895	4561
852.03	4577
852.165	4634
852.299	4687
852.434	4786
852.569	4755
852.703	4755
852.838	4877
852.973	4938
853.107	4927
853.242	4714
853.376	4649
853.511	4584
853.645	4641
853.78	4816
853.914	4733
854.048	4691
854.183	4645
854.317	4679
854.451	4793
854.585	4656
854.72	4641
854.854	4748
854.988	4596
855.122	4641
855.256	4527
855.39	4721
855.524	4778
855.658	4748
855.792	4702
855.926	4725
856.06	4752
856.194	4797
856.327	4691
856.461	4588
856.595	4672
856.729	4611
856.862	4763
856.996	4733
857.13	4752
857.263	4763
857.397	4736
857.53	4653
857.664	4729
857.797	4721
857.931	4790
858.064	4717
858.197	4733
858.331	4672
858.464	4599
858.597	4565
858.731	4558
858.864	4645
858.997	4592
859.13	4668
859.263	4664
859.396	4710
859.529	4592
859.662	4554
859.795	4531
859.928	4618
860.061	4771
860.194	4774
860.327	4592
860.46	4523
860.592	4755
860.725	4675
860.858	4725
860.99	4584
861.123	4531
861.256	4554
861.388	4577
861.521	5406
861.653	4451
861.786	4451
861.918	4436
862.05	4504
862.183	4550
862.315	4679
862.447	4679
862.58	4519
862.712	4405
862.844	4333
862.976	4497
863.108	4421
863.24	4809
863.372	4329
863.504	4409
863.636	4432
863.768	4485
863.9	4447
864.032	4371
864.164	4375
864.296	4451
864.428	4550
864.559	4558
864.691	4584
864.823	4573
864.954	4493
865.086	4516
865.217	4470
865.349	4375
865.48	4466
865.612	4485
865.743	4618
865.875	4428
866.006	4440
866.137	4466
866.269	4432
866.4	4424
866.531	4421
866.662	4409
866.793	4383
866.924	4432
867.055	4538
867.186	4459
867.317	4421
867.448	4405
867.579	4375
867.71	4405
867.841	4341
867.972	4466
868.103	4440
868.233	4440
868.364	4409
868.495	4497
868.625	4660
868.756	4771
868.886	4531
869.017	4641
869.147	4786
869.278	4752
869.408	4668
869.539	4596
869.669	4706
869.799	4607
869.929	4721
870.06	4702
870.19	4972
870.32	4927
870.45	4938
870.58	4991
870.71	5071
870.84	5071
870.97	4957
871.1	4900
871.23	5128
871.36	5109
871.489	5067
871.619	5060
871.749	5079
871.879	5132
872.008	5193
872.138	5045
872.267	4995
872.397	4862
872.526	4835
872.656	4748
872.785	4782
872.915	4942
873.044	5025
873.173	4946
873.303	4919
873.432	4995
873.561	4953
873.69	4877
873.819	4877
873.948	4881
874.077	4847
874.206	4774
874.335	4812
874.464	4984
874.593	5052
874.722	4953
874.851	5105
874.979	5052
875.108	5010
875.237	4900
875.365	4896
875.494	4896
875.623	4987
875.751	4809
875.88	4934
876.008	4957
876.136	5045
876.265	5159
876.393	5345
876.521	5223
876.65	5212
876.778	5159
876.906	5086
877.034	5029
877.162	5006
877.29	4965
877.418	5025
877.546	5022
877.674	5014
877.802	5056
877.93	5029
878.058	4927
878.185	4889
878.313	5018
878.441	4923
878.568	4805
878.696	4847
878.824	4984
878.951	4976
879.079	5109
879.206	5280
879.333	5124
879.461	4980
879.588	5025
879.715	5117
879.842	5261
879.97	5014
880.097	4771
880.224	4755
880.351	4793
880.478	4820
880.605	4786
880.732	4744
880.859	5079
880.986	4911
881.112	4889
881.239	4835
881.366	4702
881.493	4660
881.619	4637
881.746	4649
881.872	4694
881.999	4611
882.125	4717
882.252	4790
882.378	4797
882.505	4961
882.631	4839
882.757	4675
882.883	4710
883.01	4706
883.136	4683
883.262	4607
883.388	4588
883.514	4805
883.64	4831
883.766	4786
883.892	4637
884.018	4702
884.143	4881
884.269	5029
884.395	4664
884.52	4656
884.646	4630
884.772	4580
884.897	4565
885.023	4611
885.148	4767
885.274	4885
885.399	4805
885.524	4744
885.65	4752
885.775	4702
885.9	4736
886.025	4862
886.15	4797
886.275	4706
886.4	4656
886.525	4736
886.65	4660
886.775	4698
886.9	4927
887.025	5018
887.149	4812
887.274	4660
887.399	4607
887.523	4588
887.648	4592
887.773	4588
887.897	4740
888.021	4774
888.146	4626
888.27	4839
888.395	4889
888.519	4767
888.643	4824
888.767	4782
888.891	4645
889.015	4626
889.139	4683
889.263	4603
889.387	4694
889.511	4828
889.635	4793
889.759	4660
889.883	4637
890.006	4668
890.13	4820
890.254	4653
890.377	4653
890.501	4531
890.624	4569
890.748	4649
890.871	4500
890.995	4451
891.118	4356
891.241	4531
891.364	4485
891.488	4618
891.611	4470
891.734	4531
891.857	4584
891.98	4531
892.103	4653
892.226	4603
892.349	4470
892.471	4413
892.594	4538
892.717	4554
892.839	4611
892.962	4592
893.085	4645
893.207	4645
893.33	4436
893.452	4493
893.575	4679
893.697	4596
893.819	4721
893.941	4805
894.064	4702
894.186	4558
894.308	4584
894.43	4721
894.552	4831
894.674	4767
894.796	4561
894.918	4611
895.04	4592
895.161	4675
895.283	4622
895.405	4569
895.526	4630
895.648	4626
895.769	4691
895.891	4702
896.012	4790
896.134	4740
896.255	4717
896.376	4664
896.498	4656
896.619	4694
896.74	4603
896.861	4649
896.982	4965
897.103	5064
897.224	4820
897.345	4771
897.466	4649
897.587	4702
897.708	4877
897.828	4778
897.949	4649
898.07	4527
898.19	4653
898.311	4820
898.431	4691
898.552	4736
898.672	4759
898.792	4801
898.913	4774
899.033	4615
899.153	4512
899.273	4462
899.393	4470
899.513	4516
899.633	4462
899.753	4504
899.873	4519
899.993	4546
900.113	4527
900.232	4599
900.352	4535
900.472	4481
900.591	4455
900.711	4508
900.83	4451
900.95	4630
901.069	4679
901.189	4550
901.308	4371
901.427	4261
901.546	4375
901.665	4474
901.784	4481
901.904	4356
902.023	4341
902.141	4166
902.26	4162
902.379	4318
902.498	4238
902.617	4261
902.735	4356
902.854	4363
902.973	4348
903.091	4215
903.21	4219
903.328	4249
903.446	4284
903.565	4265
903.683	4344
903.801	4261
903.919	4413
904.038	4386
904.156	4367
904.274	4413
904.392	4390
904.51	4440
904.627	4504
904.745	4626
904.863	4622
904.981	4344
905.098	4291
905.216	4348
905.334	4390
905.451	4405
905.569	4481
905.686	4535
905.803	4634
905.921	4413
906.038	4573
906.155	4432
906.272	4394
906.389	4459
906.506	4371
906.623	4402
906.74	4333
906.857	4265
906.974	4383
907.091	4546
907.208	4672
907.324	4580
907.441	4523
907.557	4363
907.674	4356
907.79	4337
907.907	4402
908.023	4443
908.139	4462
908.256	4405
908.372	4451
908.488	4417
908.604	4356
908.72	4284
908.836	4352
908.952	4386
909.068	4421
909.184	4558
909.3	4478
909.415	4580
909.531	4561
909.647	4310
909.762	4341
909.878	4333
909.993	4390
910.108	4398
910.224	4379
910.339	4455
910.454	4375
910.57	4333
910.685	4360
910.8	4630
910.915	4596
911.03	4504
911.145	4329
911.259	4310
911.374	4371
911.489	4261
911.604	4291
911.718	4169
911.833	4215
911.947	4093
912.062	4059
912.176	4207
912.291	4230
912.405	4234
912.519	4447
912.633	4489
912.748	4363
912.862	4329
912.976	4219
913.09	4135
913.204	4181
913.318	4310
913.431	4405
913.545	4329
913.659	4379
913.772	4383
913.886	4295
914	4223
914.113	4333
914.226	4440
914.34	4424
914.453	4238
914.566	4417
914.68	4287
914.793	4325
914.906	4169
915.019	4090
915.132	4093
915.245	4204
915.358	4223
915.47	4211
915.583	4204
915.696	4314
915.809	4405
915.921	4428
916.034	4272
916.146	4230
916.259	4219
916.371	4360
916.483	4344
916.595	4268
916.708	4318
916.82	4299
916.932	4329
917.044	4318
917.156	4314
917.268	4249
917.38	4280
917.491	4303
917.603	4337
917.715	4405
917.826	4436
917.938	4379
918.049	4257
918.161	4386
918.272	4546
918.384	4516
918.495	4409
918.606	4303
918.717	4211
918.828	4348
918.939	4348
919.05	4230
919.161	4280
919.272	4135
919.383	4207
919.494	4390
919.604	4626
919.715	4413
919.826	4363
919.936	4424
920.047	4504
920.157	4546
920.267	4740
920.378	4550
920.488	4493
920.598	4752
920.708	4881
920.818	4748
920.928	4717
921.038	4965
921.148	4946
921.258	4580
921.368	4542
921.477	4531
921.587	4440
921.697	4310
921.806	4523
921.916	4413
922.025	4253
922.134	4246
922.244	4219
922.353	4291
922.462	4173
922.571	4093
922.68	4002
922.789	4002
922.898	4017
923.007	3964
923.116	4135
923.224	4044
923.333	4048
923.442	3998
923.55	3987
923.659	4010
923.767	4093
923.876	3983
923.984	4169
924.092	3930
924.201	4055
924.309	4105
924.417	4071
924.525	4013
924.633	4105
924.741	5010
924.849	3926
924.956	4101
925.064	3941
925.172	3934
925.279	3949
925.387	4055
925.494	4051
925.602	4181
925.709	4150
925.816	4044
925.924	4093
926.031	4246
926.138	4139
926.245	4147
926.352	4101
926.459	4230
926.566	4268
926.673	4185
926.779	4074
926.886	4074
926.993	3991
927.099	3979
927.206	3926
927.312	3918
927.419	4071
927.525	4036
927.631	4078
927.737	3983
927.843	3945
927.95	3865
928.056	3949
928.162	3979
928.267	4071
928.373	4596
928.479	4124
928.585	3854
928.69	3979
928.796	4082
928.901	3934
929.007	3876
929.112	4032
929.218	3994
929.323	3926
929.428	3937
929.533	4097
929.638	3873
929.743	3979
929.848	4029
929.953	4017
930.058	3953
930.163	3770
930.267	3854
930.372	3968
930.477	3766
930.581	4067
930.685	3892
930.79	3797
930.894	3888
930.998	3850
931.103	4048
931.207	3751
931.311	3713
931.415	3671
931.519	3477
931.623	3538
