Data from test_V78500241_1781.txt Node
Date: Fri Mar 25 17:01:23 CST 2022
User: usil
Spectrometer: V785-0024
Trigger mode: 0
Integration Time (sec): 4.000000E-1
Scans to average: 1
Nonlinearity correction enabled: false
Boxcar width: 0
Storing dark spectrum: false
XAxis mode: Wavelengths
Number of Pixels in Spectrum: 1024
>>>>>Begin Spectral Data<<<<<
801.071	8024
801.214	8027
801.356	7883
801.499	7887
801.641	7852
801.783	7864
801.926	7974
802.068	7974
802.211	8012
802.353	7970
802.496	7852
802.638	7841
802.78	7887
802.923	7925
803.065	7875
803.208	7845
803.35	7982
803.492	8084
803.635	8145
803.777	8001
803.919	8096
804.061	8442
804.204	8176
804.346	8054
804.488	8001
804.63	8123
804.773	8046
804.915	8069
805.057	8263
805.199	8176
805.341	8195
805.483	8218
805.626	8172
805.768	8130
805.91	8145
806.052	8214
806.194	8054
806.336	8317
806.478	8088
806.62	8065
806.762	8145
806.904	8218
807.046	8484
807.188	8336
807.33	8290
807.472	8301
807.614	8183
807.756	8069
807.898	8027
808.04	7849
808.182	7898
808.324	7909
808.465	7890
808.607	8123
808.749	8107
808.891	8229
809.033	8309
809.174	8191
809.316	8058
809.458	8161
809.6	8012
809.741	7997
809.883	8073
810.025	8077
810.166	8103
810.308	8008
810.45	7932
810.591	7814
810.733	7685
810.875	7620
811.016	7533
811.158	7491
811.299	7605
811.441	7700
811.582	7639
811.724	7582
811.865	7575
812.007	7544
812.148	7613
812.29	7639
812.431	7708
812.573	7936
812.714	7997
812.855	8100
812.997	8237
813.138	8252
813.279	8153
813.421	8046
813.562	7909
813.703	7837
813.845	7761
813.986	7460
814.127	7206
814.268	7259
814.41	7213
814.551	7141
814.692	7225
814.833	7103
814.974	7084
815.115	7145
815.256	6985
815.397	7008
815.539	6905
815.68	6821
815.821	6798
815.962	6833
816.103	6837
816.244	6639
816.385	6551
816.526	6696
816.666	6399
816.807	6311
816.948	6422
817.089	6441
817.23	6486
817.371	6308
817.512	6391
817.653	6403
817.793	6350
817.934	6376
818.075	6429
818.216	6376
818.356	6437
818.497	6251
818.638	6125
818.778	6136
818.919	6125
819.06	6125
819.2	6273
819.341	6338
819.481	6338
819.622	6513
819.762	6700
819.903	6738
820.043	6585
820.184	6585
820.324	6585
820.465	6665
820.605	6738
820.746	6639
820.886	6551
821.026	6669
821.167	6776
821.307	6871
821.447	6757
821.588	6662
821.728	6582
821.868	6494
822.008	6315
822.149	6380
822.289	6384
822.429	6144
822.569	6133
822.709	6106
822.849	5954
822.99	5882
823.13	5984
823.27	5992
823.41	5805
823.55	5813
823.69	5798
823.83	5840
823.97	5646
824.11	5474
824.25	5501
824.389	5543
824.529	5611
824.669	5566
824.809	5657
824.949	5691
825.089	5611
825.228	5627
825.368	5414
825.508	5421
825.648	5383
825.787	5398
825.927	5429
826.067	5357
826.206	5368
826.346	5387
826.485	5410
826.625	5482
826.765	5623
826.904	5554
827.044	5258
827.183	5170
827.323	5155
827.462	5284
827.601	5296
827.741	5193
827.88	5227
828.02	5113
828.159	5261
828.298	5341
828.437	5398
828.577	5288
828.716	5570
828.855	5311
828.994	5178
829.134	5204
829.273	5212
829.412	5204
829.551	5201
829.69	5204
829.829	5318
829.968	5402
830.107	5322
830.246	5326
830.385	5261
830.524	5136
830.663	5075
830.802	5006
830.941	4904
831.08	4892
831.219	5029
831.357	4999
831.496	5162
831.635	4908
831.774	4889
831.913	4892
832.051	4805
832.19	4744
832.329	4870
832.467	4694
832.606	4668
832.744	4706
832.883	4736
833.022	4736
833.16	4835
833.299	4870
833.437	4877
833.576	4858
833.714	4873
833.852	4942
833.991	4946
834.129	4980
834.267	4942
834.406	4873
834.544	5006
834.682	4995
834.821	4976
834.959	5181
835.097	5121
835.235	5155
835.373	5090
835.511	5159
835.65	5064
835.788	5041
835.926	4923
836.064	4930
836.202	4946
836.34	5223
836.478	5258
836.615	5147
836.753	5265
836.891	5330
837.029	5277
837.167	5250
837.305	5197
837.443	5212
837.58	5067
837.718	5261
837.856	5235
837.993	5140
838.131	5288
838.269	5220
838.406	5181
838.544	5216
838.681	5094
838.819	5052
838.956	4961
839.094	4911
839.231	5045
839.369	5064
839.506	5417
839.643	5277
839.781	5102
839.918	5075
840.055	5037
840.193	5109
840.33	5140
840.467	5136
840.604	5227
840.742	5421
840.879	5121
841.016	5124
841.153	5220
841.29	5433
841.427	5353
841.564	5341
841.701	5345
841.838	5364
841.975	5265
842.112	5307
842.249	5132
842.385	5151
842.522	5364
842.659	5193
842.796	5132
842.933	5178
843.069	5155
843.206	5181
843.343	5330
843.479	5277
843.616	5288
843.752	5041
843.889	5041
844.025	5212
844.162	5045
844.298	5197
844.435	5151
844.571	5083
844.708	5208
844.844	5322
844.98	5383
845.117	5315
845.253	5178
845.389	5136
845.525	5197
845.661	5140
845.798	5121
845.934	5147
846.07	5086
846.206	5231
846.342	5296
846.478	5223
846.614	5079
846.75	5029
846.886	4961
847.022	5178
847.158	5060
847.294	5132
847.429	5128
847.565	5109
847.701	5349
847.837	4862
847.972	4805
848.108	4972
848.244	4972
848.379	4767
848.515	4755
848.65	4714
848.786	4733
848.921	4820
849.057	4870
849.192	4942
849.328	4809
849.463	4839
849.598	4835
849.734	4812
849.869	4683
850.004	4615
850.14	4664
850.275	4660
850.41	4516
850.545	4584
850.68	4603
850.815	4717
850.95	4637
851.085	4873
851.22	4755
851.355	4721
851.49	4637
851.625	4683
851.76	4694
851.895	4546
852.03	4596
852.165	4656
852.299	4733
852.434	4805
852.569	4786
852.703	4786
852.838	4892
852.973	4961
853.107	4980
853.242	4801
853.376	4706
853.511	4561
853.645	4630
853.78	4854
853.914	4771
854.048	4706
854.183	4698
854.317	4710
854.451	4850
854.585	4733
854.72	4683
854.854	4748
854.988	4599
855.122	4645
855.256	4554
855.39	4668
855.524	4793
855.658	4725
855.792	4717
855.926	4790
856.06	4828
856.194	4778
856.327	4740
856.461	4675
856.595	4622
856.729	4668
856.862	4767
856.996	4687
857.13	4797
857.263	4774
857.397	4816
857.53	4630
857.664	4752
857.797	4820
857.931	4767
858.064	4698
858.197	4774
858.331	4691
858.464	4687
858.597	4519
858.731	4672
858.864	4672
858.997	4630
859.13	4691
859.263	4710
859.396	4717
859.529	4596
859.662	4637
859.795	4546
859.928	4641
860.061	4771
860.194	4778
860.327	4618
860.46	4588
860.592	4725
860.725	4774
860.858	4694
860.99	4611
861.123	4538
861.256	4577
861.388	4622
861.521	5315
861.653	4508
861.786	4466
861.918	4459
862.05	4550
862.183	4592
862.315	4645
862.447	4656
862.58	4584
862.712	4394
862.844	4341
862.976	4470
863.108	4436
863.24	4919
863.372	4360
863.504	4470
863.636	4417
863.768	4504
863.9	4470
864.032	4367
864.164	4405
864.296	4516
864.428	4565
864.559	4558
864.691	4561
864.823	4554
864.954	4462
865.086	4474
865.217	4462
865.349	4440
865.48	4428
865.612	4527
865.743	4637
865.875	4489
866.006	4481
866.137	4504
866.269	4451
866.4	4428
866.531	4405
866.662	4462
866.793	4447
866.924	4421
867.055	4516
867.186	4504
867.317	4417
867.448	4413
867.579	4436
867.71	4421
867.841	4348
867.972	4474
868.103	4440
868.233	4466
868.364	4478
868.495	4478
868.625	4675
868.756	4812
868.886	4569
869.017	4664
869.147	4736
869.278	4778
869.408	4691
869.539	4653
869.669	4694
869.799	4683
869.929	4786
870.06	4721
870.19	4976
870.32	4930
870.45	4961
870.58	5064
870.71	5083
870.84	5143
870.97	4980
871.1	4957
871.23	5170
871.36	5132
871.489	4999
871.619	5117
871.749	5132
871.879	5109
872.008	5174
872.138	5033
872.267	5006
872.397	4930
872.526	4809
872.656	4759
872.785	4885
872.915	4980
873.044	5033
873.173	4957
873.303	4919
873.432	5006
873.561	4961
873.69	4854
873.819	4919
873.948	4900
874.077	4847
874.206	4778
874.335	4831
874.464	4942
874.593	5102
874.722	4999
874.851	5132
874.979	5071
875.108	5041
875.237	4904
875.365	4900
875.494	4915
875.623	4984
875.751	4816
875.88	4911
876.008	5006
876.136	5033
876.265	5239
876.393	5395
876.521	5261
876.65	5277
876.778	5136
876.906	5113
877.034	5022
877.162	5109
877.29	4984
877.418	5086
877.546	5090
877.674	5014
877.802	5010
877.93	5056
878.058	4949
878.185	4908
878.313	5010
878.441	4976
878.568	4793
878.696	4881
878.824	4965
878.951	5033
879.079	5136
879.206	5246
879.333	5121
879.461	5006
879.588	5029
879.715	5105
879.842	5223
879.97	5003
880.097	4778
880.224	4801
880.351	4835
880.478	4782
880.605	4835
880.732	4786
880.859	5162
880.986	4930
881.112	4930
881.239	4809
881.366	4698
881.493	4664
881.619	4599
881.746	4637
881.872	4675
881.999	4675
882.125	4637
882.252	4805
882.378	4877
882.505	5014
882.631	4797
882.757	4675
882.883	4702
883.01	4725
883.136	4683
883.262	4626
883.388	4660
883.514	4850
883.64	4927
883.766	4801
883.892	4687
884.018	4767
884.143	4873
884.269	5022
884.395	4679
884.52	4668
884.646	4683
884.772	4618
884.897	4588
885.023	4649
885.148	4786
885.274	4889
885.399	4828
885.524	4706
885.65	4675
885.775	4778
885.9	4714
886.025	4877
886.15	4774
886.275	4752
886.4	4626
886.525	4714
886.65	4710
886.775	4710
886.9	4919
887.025	5025
887.149	4801
887.274	4664
887.399	4611
887.523	4618
887.648	4611
887.773	4618
887.897	4820
888.021	4778
888.146	4706
888.27	4854
888.395	4889
888.519	4809
888.643	4870
888.767	4843
888.891	4672
889.015	4626
889.139	4626
889.263	4622
889.387	4782
889.511	4923
889.635	4786
889.759	4702
889.883	4675
890.006	4687
890.13	4828
890.254	4596
890.377	4653
890.501	4565
890.624	4527
890.748	4641
890.871	4535
890.995	4417
891.118	4440
891.241	4542
891.364	4561
891.488	4611
891.611	4466
891.734	4558
891.857	4626
891.98	4550
892.103	4630
892.226	4634
892.349	4519
892.471	4478
892.594	4561
892.717	4626
892.839	4561
892.962	4565
893.085	4649
893.207	4618
893.33	4493
893.452	4523
893.575	4687
893.697	4546
893.819	4763
893.941	4824
894.064	4782
894.186	4580
894.308	4565
894.43	4721
894.552	4862
894.674	4774
894.796	4554
894.918	4542
895.04	4584
895.161	4694
895.283	4698
895.405	4596
895.526	4653
895.648	4714
895.769	4733
895.891	4763
896.012	4717
896.134	4729
896.255	4668
896.376	4611
896.498	4622
896.619	4683
896.74	4615
896.861	4660
896.982	4968
897.103	5056
897.224	4812
897.345	4752
897.466	4618
897.587	4725
897.708	4816
897.828	4820
897.949	4687
898.07	4554
898.19	4630
898.311	4790
898.431	4687
898.552	4748
898.672	4843
898.792	4828
898.913	4755
899.033	4607
899.153	4538
899.273	4409
899.393	4512
899.513	4493
899.633	4508
899.753	4546
899.873	4493
899.993	4660
900.113	4558
900.232	4588
900.352	4569
900.472	4504
900.591	4394
900.711	4535
900.83	4375
900.95	4649
901.069	4675
901.189	4561
901.308	4383
901.427	4325
901.546	4409
901.665	4451
901.784	4493
901.904	4371
902.023	4398
902.141	4215
902.26	4166
902.379	4325
902.498	4246
902.617	4249
902.735	4348
902.854	4348
902.973	4383
903.091	4147
903.21	4257
903.328	4295
903.446	4242
903.565	4257
903.683	4360
903.801	4257
903.919	4428
904.038	4440
904.156	4318
904.274	4409
904.392	4421
904.51	4428
904.627	4516
904.745	4546
904.863	4618
904.981	4352
905.098	4367
905.216	4337
905.334	4417
905.451	4504
905.569	4428
905.686	4584
905.803	4584
905.921	4394
906.038	4573
906.155	4500
906.272	4379
906.389	4493
906.506	4337
906.623	4402
906.74	4428
906.857	4333
906.974	4413
907.091	4615
907.208	4687
907.324	4569
907.441	4436
907.557	4318
907.674	4371
907.79	4329
907.907	4432
908.023	4459
908.139	4481
908.256	4409
908.372	4466
908.488	4478
908.604	4352
908.72	4337
908.836	4348
908.952	4386
909.068	4470
909.184	4615
909.3	4474
909.415	4554
909.531	4580
909.647	4375
909.762	4379
909.878	4314
909.993	4424
910.108	4485
910.224	4440
910.339	4512
910.454	4432
910.57	4360
910.685	4322
910.8	4634
910.915	4558
911.03	4466
911.145	4325
911.259	4352
911.374	4348
911.489	4295
911.604	4257
911.718	4158
911.833	4181
911.947	4105
912.062	3991
912.176	4166
912.291	4207
912.405	4219
912.519	4466
912.633	4508
912.748	4348
912.862	4303
912.976	4158
913.09	4109
913.204	4166
913.318	4261
913.431	4383
913.545	4360
913.659	4417
913.772	4379
913.886	4257
914	4242
914.113	4371
914.226	4428
914.34	4417
914.453	4280
914.566	4466
914.68	4325
914.793	4280
914.906	4139
915.019	4135
915.132	4086
915.245	4124
915.358	4207
915.47	4272
915.583	4234
915.696	4306
915.809	4428
915.921	4485
916.034	4223
916.146	4246
916.259	4207
916.371	4413
916.483	4333
916.595	4234
916.708	4322
916.82	4306
916.932	4314
917.044	4360
917.156	4375
917.268	4230
917.38	4284
917.491	4306
917.603	4352
917.715	4451
917.826	4462
917.938	4363
918.049	4249
918.161	4409
918.272	4535
918.384	4558
918.495	4466
918.606	4276
918.717	4238
918.828	4303
918.939	4367
919.05	4253
919.161	4325
919.272	4101
919.383	4177
919.494	4451
919.604	4607
919.715	4455
919.826	4344
919.936	4417
920.047	4531
920.157	4489
920.267	4691
920.378	4558
920.488	4489
920.598	4702
920.708	4858
920.818	4740
920.928	4744
921.038	4889
921.148	4938
921.258	4599
921.368	4550
921.477	4508
921.587	4462
921.697	4367
921.806	4565
921.916	4421
922.025	4268
922.134	4265
922.244	4223
922.353	4291
922.462	4196
922.571	4143
922.68	3994
922.789	3983
922.898	4029
923.007	3918
923.116	4158
923.224	4044
923.333	4090
923.442	3994
923.55	3987
923.659	4055
923.767	4090
923.876	4021
923.984	4116
924.092	3968
924.201	4093
924.309	4051
924.417	4071
924.525	4078
924.633	4105
924.741	5090
924.849	3903
924.956	4177
925.064	3930
925.172	3930
925.279	3903
925.387	4074
925.494	4055
925.602	4196
925.709	4196
925.816	4021
925.924	4128
926.031	4253
926.138	4192
926.245	4177
926.352	4112
926.459	4246
926.566	4287
926.673	4169
926.779	4097
926.886	4055
926.993	3960
927.099	3937
927.206	3937
927.312	3915
927.419	4029
927.525	4029
927.631	4067
927.737	3945
927.843	3907
927.95	3816
928.056	3960
928.162	3987
928.267	4067
928.373	4588
928.479	4109
928.585	3903
928.69	3994
928.796	4086
928.901	3903
929.007	3865
929.112	3987
929.218	3998
929.323	3926
929.428	3968
929.533	4131
929.638	3911
929.743	3934
929.848	4044
929.953	4002
930.058	3934
930.163	3781
930.267	3797
930.372	4002
930.477	3789
930.581	4063
930.685	3956
930.79	3819
930.894	3915
930.998	3876
931.103	4032
931.207	3743
931.311	3667
931.415	3690
931.519	3530
931.623	3557
