Data from test_V78500241_2217.txt Node
Date: Fri Mar 25 17:04:25 CST 2022
User: usil
Spectrometer: V785-0024
Trigger mode: 0
Integration Time (sec): 4.000000E-1
Scans to average: 1
Nonlinearity correction enabled: false
Boxcar width: 0
Storing dark spectrum: false
XAxis mode: Wavelengths
Number of Pixels in Spectrum: 1024
>>>>>Begin Spectral Data<<<<<
801.071	7947
801.214	7989
801.356	7849
801.499	7818
801.641	7879
801.783	7750
801.926	7989
802.068	7940
802.211	7940
802.353	7936
802.496	7784
802.638	7841
802.78	7902
802.923	7864
803.065	7841
803.208	7860
803.35	7989
803.492	8084
803.635	8153
803.777	8027
803.919	8161
804.061	8431
804.204	8187
804.346	8001
804.488	7963
804.63	8069
804.773	8008
804.915	8084
805.057	8290
805.199	8039
805.341	8176
805.483	8229
805.626	8180
805.768	8058
805.91	8221
806.052	8263
806.194	8145
806.336	8248
806.478	8020
806.62	8001
806.762	8130
806.904	8225
807.046	8374
807.188	8320
807.33	8328
807.472	8339
807.614	8176
807.756	8153
807.898	7959
808.04	7875
808.182	7849
808.324	7860
808.465	7875
808.607	8020
808.749	8054
808.891	8138
809.033	8282
809.174	8168
809.316	8020
809.458	8096
809.6	7993
809.741	8031
809.883	7993
810.025	8088
810.166	8069
810.308	7986
810.45	7967
810.591	7917
810.733	7750
810.875	7693
811.016	7464
811.158	7346
811.299	7540
811.441	7712
811.582	7685
811.724	7537
811.865	7518
812.007	7571
812.148	7544
812.29	7594
812.431	7715
812.573	7856
812.714	7947
812.855	8134
812.997	8267
813.138	8279
813.279	8134
813.421	8103
813.562	7887
813.703	7841
813.845	7742
813.986	7403
814.127	7289
814.268	7213
814.41	7149
814.551	7152
814.692	7270
814.833	7141
814.974	7145
815.115	7099
815.256	6993
815.397	6947
815.539	6867
815.68	6821
815.821	6741
815.962	6913
816.103	6734
816.244	6696
816.385	6662
816.526	6570
816.666	6448
816.807	6289
816.948	6414
817.089	6464
817.23	6403
817.371	6388
817.512	6380
817.653	6422
817.793	6372
817.934	6376
818.075	6410
818.216	6467
818.356	6448
818.497	6216
818.638	6114
818.778	6155
818.919	6140
819.06	6190
819.2	6342
819.341	6304
819.481	6372
819.622	6498
819.762	6715
819.903	6692
820.043	6593
820.184	6570
820.324	6578
820.465	6677
820.605	6658
820.746	6658
820.886	6555
821.026	6711
821.167	6662
821.307	6779
821.447	6764
821.588	6635
821.728	6566
821.868	6483
822.008	6296
822.149	6395
822.289	6391
822.429	6186
822.569	6102
822.709	6163
822.849	5885
822.99	5866
823.13	5889
823.27	5897
823.41	5813
823.55	5741
823.69	5733
823.83	5745
823.97	5634
824.11	5547
824.25	5528
824.389	5600
824.529	5562
824.669	5524
824.809	5592
824.949	5691
825.089	5615
825.228	5592
825.368	5379
825.508	5315
825.648	5311
825.787	5383
825.927	5379
826.067	5318
826.206	5284
826.346	5307
826.485	5368
826.625	5421
826.765	5520
826.904	5478
827.044	5258
827.183	5204
827.323	5086
827.462	5261
827.601	5162
827.741	5216
827.88	5212
828.02	5083
828.159	5235
828.298	5303
828.437	5364
828.577	5265
828.716	5448
828.855	5318
828.994	5151
829.134	5109
829.273	5212
829.412	5136
829.551	5124
829.69	5189
829.829	5265
829.968	5353
830.107	5292
830.246	5242
830.385	5117
830.524	5113
830.663	5025
830.802	4938
830.941	4866
831.08	4904
831.219	4961
831.357	4923
831.496	5178
831.635	4934
831.774	4850
831.913	4843
832.051	4778
832.19	4774
832.329	4801
832.467	4675
832.606	4584
832.744	4706
832.883	4759
833.022	4702
833.16	4816
833.299	4790
833.437	4797
833.576	4801
833.714	4854
833.852	4843
833.991	4892
834.129	4919
834.267	4911
834.406	4934
834.544	4927
834.682	4938
834.821	4942
834.959	5128
835.097	4987
835.235	5143
835.373	5060
835.511	5143
835.65	5052
835.788	4984
835.926	4870
836.064	4866
836.202	4927
836.34	5201
836.478	5162
836.615	5064
836.753	5166
836.891	5265
837.029	5220
837.167	5220
837.305	5113
837.443	5140
837.58	5075
837.718	5246
837.856	5174
837.993	5197
838.131	5189
838.269	5216
838.406	5166
838.544	5098
838.681	5006
838.819	4995
838.956	4862
839.094	4889
839.231	5025
839.369	5113
839.506	5364
839.643	5235
839.781	5113
839.918	4991
840.055	5098
840.193	5128
840.33	5041
840.467	5159
840.604	5220
840.742	5463
840.879	5083
841.016	5105
841.153	5140
841.29	5334
841.427	5360
841.564	5292
841.701	5360
841.838	5258
841.975	5181
842.112	5334
842.249	5090
842.385	5086
842.522	5292
842.659	5128
842.796	5132
842.933	5185
843.069	5140
843.206	5166
843.343	5311
843.479	5212
843.616	5250
843.752	5022
843.889	5064
844.025	5212
844.162	5003
844.298	5189
844.435	5117
844.571	5083
844.708	5231
844.844	5299
844.98	5345
845.117	5277
845.253	5147
845.389	5083
845.525	5155
845.661	5197
845.798	5014
845.934	5155
846.07	5029
846.206	5178
846.342	5368
846.478	5185
846.614	5056
846.75	5014
846.886	4980
847.022	5181
847.158	5060
847.294	5109
847.429	5113
847.565	5067
847.701	5357
847.837	4873
847.972	4866
848.108	5033
848.244	4987
848.379	4839
848.515	4744
848.65	4786
848.786	4801
848.921	4801
849.057	4877
849.192	4934
849.328	4820
849.463	4854
849.598	4831
849.734	4793
849.869	4733
850.004	4664
850.14	4748
850.275	4634
850.41	4580
850.545	4607
850.68	4679
850.815	4679
850.95	4660
851.085	4892
851.22	4790
851.355	4694
851.49	4653
851.625	4649
851.76	4687
851.895	4615
852.03	4573
852.165	4679
852.299	4714
852.434	4786
852.569	4816
852.703	4847
852.838	4877
852.973	4976
853.107	4965
853.242	4733
853.376	4694
853.511	4584
853.645	4630
853.78	4797
853.914	4698
854.048	4748
854.183	4706
854.317	4679
854.451	4839
854.585	4729
854.72	4729
854.854	4763
854.988	4649
855.122	4694
855.256	4519
855.39	4691
855.524	4801
855.658	4702
855.792	4740
855.926	4771
856.06	4793
856.194	4801
856.327	4710
856.461	4649
856.595	4656
856.729	4683
856.862	4850
856.996	4710
857.13	4729
857.263	4771
857.397	4812
857.53	4664
857.664	4778
857.797	4767
857.931	4828
858.064	4698
858.197	4782
858.331	4698
858.464	4656
858.597	4573
858.731	4679
858.864	4714
858.997	4634
859.13	4664
859.263	4679
859.396	4694
859.529	4596
859.662	4592
859.795	4596
859.928	4626
860.061	4736
860.194	4778
860.327	4615
860.46	4561
860.592	4710
860.725	4793
860.858	4748
860.99	4630
861.123	4527
861.256	4569
861.388	4630
861.521	5330
861.653	4489
861.786	4466
861.918	4470
862.05	4554
862.183	4584
862.315	4634
862.447	4725
862.58	4607
862.712	4428
862.844	4383
862.976	4478
863.108	4478
863.24	4900
863.372	4356
863.504	4470
863.636	4443
863.768	4481
863.9	4474
864.032	4386
864.164	4402
864.296	4470
864.428	4607
864.559	4546
864.691	4603
864.823	4584
864.954	4500
865.086	4558
865.217	4500
865.349	4447
865.48	4497
865.612	4497
865.743	4687
865.875	4535
866.006	4440
866.137	4508
866.269	4470
866.4	4500
866.531	4459
866.662	4466
866.793	4440
866.924	4440
867.055	4485
867.186	4459
867.317	4466
867.448	4390
867.579	4428
867.71	4459
867.841	4402
867.972	4462
868.103	4527
868.233	4436
868.364	4466
868.495	4512
868.625	4721
868.756	4748
868.886	4569
869.017	4603
869.147	4809
869.278	4793
869.408	4736
869.539	4634
869.669	4744
869.799	4679
869.929	4805
870.06	4767
870.19	4991
870.32	4938
870.45	4961
870.58	5086
870.71	5128
870.84	5105
870.97	4991
871.1	4919
871.23	5204
871.36	5102
871.489	5060
871.619	5140
871.749	5102
871.879	5117
872.008	5201
872.138	5105
872.267	5045
872.397	4896
872.526	4831
872.656	4752
872.785	4816
872.915	5018
873.044	5083
873.173	4980
873.303	4987
873.432	5018
873.561	4991
873.69	4911
873.819	4930
873.948	4949
874.077	4816
874.206	4790
874.335	4843
874.464	4923
874.593	5067
874.722	5018
874.851	5140
874.979	5117
875.108	5147
875.237	4965
875.365	4881
875.494	4858
875.623	5033
875.751	4847
875.88	4896
876.008	4987
876.136	5045
876.265	5231
876.393	5391
876.521	5288
876.65	5269
876.778	5201
876.906	5098
877.034	5048
877.162	5064
877.29	5018
877.418	5052
877.546	5041
877.674	5094
877.802	5041
877.93	5052
878.058	4930
878.185	4927
878.313	4980
878.441	5006
878.568	4824
878.696	4877
878.824	5014
878.951	4991
879.079	5170
879.206	5345
879.333	5079
879.461	5014
879.588	5098
879.715	5132
879.842	5235
879.97	5010
880.097	4843
880.224	4797
880.351	4835
880.478	4850
880.605	4786
880.732	4854
880.859	5117
880.986	4949
881.112	4946
881.239	4828
881.366	4706
881.493	4672
881.619	4649
881.746	4660
881.872	4694
881.999	4744
882.125	4679
882.252	4847
882.378	4873
882.505	5014
882.631	4797
882.757	4706
882.883	4748
883.01	4801
883.136	4706
883.262	4611
883.388	4618
883.514	4858
883.64	4847
883.766	4843
883.892	4698
884.018	4744
884.143	4881
884.269	4999
884.395	4740
884.52	4645
884.646	4649
884.772	4603
884.897	4558
885.023	4626
885.148	4847
885.274	4847
885.399	4870
885.524	4748
885.65	4710
885.775	4812
885.9	4729
886.025	4831
886.15	4850
886.275	4824
886.4	4694
886.525	4725
886.65	4687
886.775	4668
886.9	4850
887.025	5010
887.149	4828
887.274	4656
887.399	4626
887.523	4656
887.648	4584
887.773	4584
887.897	4752
888.021	4816
888.146	4694
888.27	4816
888.395	4908
888.519	4820
888.643	4782
888.767	4839
888.891	4714
889.015	4672
889.139	4672
889.263	4618
889.387	4748
889.511	4900
889.635	4824
889.759	4675
889.883	4649
890.006	4744
890.13	4847
890.254	4641
890.377	4694
890.501	4542
890.624	4554
890.748	4649
890.871	4546
890.995	4459
891.118	4402
891.241	4542
891.364	4554
891.488	4702
891.611	4493
891.734	4569
891.857	4645
891.98	4584
892.103	4687
892.226	4641
892.349	4569
892.471	4390
892.594	4527
892.717	4573
892.839	4588
892.962	4637
893.085	4656
893.207	4611
893.33	4432
893.452	4523
893.575	4687
893.697	4603
893.819	4797
893.941	4854
894.064	4797
894.186	4615
894.308	4577
894.43	4782
894.552	4839
894.674	4767
894.796	4569
894.918	4622
895.04	4599
895.161	4702
895.283	4679
895.405	4573
895.526	4694
895.648	4710
895.769	4694
895.891	4733
896.012	4767
896.134	4729
896.255	4668
896.376	4664
896.498	4656
896.619	4679
896.74	4645
896.861	4710
896.982	4976
897.103	5086
897.224	4850
897.345	4729
897.466	4668
897.587	4683
897.708	4870
897.828	4782
897.949	4683
898.07	4588
898.19	4596
898.311	4790
898.431	4694
898.552	4767
898.672	4831
898.792	4812
898.913	4714
899.033	4645
899.153	4527
899.273	4508
899.393	4481
899.513	4504
899.633	4531
899.753	4523
899.873	4538
899.993	4569
900.113	4512
900.232	4603
900.352	4531
900.472	4485
900.591	4432
900.711	4504
900.83	4421
900.95	4649
901.069	4733
901.189	4569
901.308	4432
901.427	4352
901.546	4329
901.665	4531
901.784	4550
901.904	4417
902.023	4348
902.141	4169
902.26	4223
902.379	4352
902.498	4299
902.617	4284
902.735	4375
902.854	4360
902.973	4394
903.091	4211
903.21	4253
903.328	4284
903.446	4306
903.565	4295
903.683	4375
903.801	4295
903.919	4417
904.038	4508
904.156	4333
904.274	4436
904.392	4421
904.51	4424
904.627	4443
904.745	4565
904.863	4664
904.981	4402
905.098	4295
905.216	4398
905.334	4462
905.451	4455
905.569	4436
905.686	4573
905.803	4630
905.921	4478
906.038	4588
906.155	4500
906.272	4432
906.389	4417
906.506	4367
906.623	4390
906.74	4394
906.857	4360
906.974	4379
907.091	4577
907.208	4721
907.324	4580
907.441	4527
907.557	4352
907.674	4337
907.79	4318
907.907	4344
908.023	4428
908.139	4508
908.256	4447
908.372	4470
908.488	4459
908.604	4367
908.72	4341
908.836	4394
908.952	4409
909.068	4398
909.184	4603
909.3	4489
909.415	4577
909.531	4561
909.647	4394
909.762	4379
909.878	4284
909.993	4413
910.108	4421
910.224	4394
910.339	4504
910.454	4432
910.57	4333
910.685	4325
910.8	4626
910.915	4607
911.03	4485
911.145	4303
911.259	4329
911.374	4352
911.489	4291
911.604	4272
911.718	4158
911.833	4196
911.947	4105
912.062	4032
912.176	4185
912.291	4242
912.405	4219
912.519	4421
912.633	4527
912.748	4424
912.862	4344
912.976	4173
913.09	4169
913.204	4200
913.318	4272
913.431	4379
913.545	4383
913.659	4455
913.772	4329
913.886	4265
914	4257
914.113	4322
914.226	4443
914.34	4421
914.453	4257
914.566	4432
914.68	4344
914.793	4352
914.906	4188
915.019	4196
915.132	4071
915.245	4192
915.358	4261
915.47	4204
915.583	4318
915.696	4329
915.809	4417
915.921	4428
916.034	4303
916.146	4204
916.259	4268
916.371	4428
916.483	4424
916.595	4303
916.708	4371
916.82	4314
916.932	4333
917.044	4329
917.156	4341
917.268	4272
917.38	4314
917.491	4329
917.603	4344
917.715	4440
917.826	4470
917.938	4348
918.049	4333
918.161	4417
918.272	4527
918.384	4561
918.495	4523
918.606	4352
918.717	4284
918.828	4344
918.939	4436
919.05	4287
919.161	4348
919.272	4188
919.383	4284
919.494	4512
919.604	4672
919.715	4481
919.826	4390
919.936	4405
920.047	4569
920.157	4561
920.267	4778
920.378	4558
920.488	4550
920.598	4752
920.708	4942
920.818	4752
920.928	4801
921.038	4953
921.148	4946
921.258	4626
921.368	4634
921.477	4542
921.587	4497
921.697	4417
921.806	4592
921.916	4462
922.025	4280
922.134	4306
922.244	4287
922.353	4360
922.462	4272
922.571	4185
922.68	4059
922.789	3991
922.898	4067
923.007	4036
923.116	4147
923.224	4116
923.333	4097
923.442	4048
923.55	3972
923.659	4036
923.767	4173
923.876	4067
923.984	4166
924.092	4051
924.201	4150
924.309	4120
924.417	4181
924.525	4128
924.633	4109
924.741	5143
924.849	3964
924.956	4192
925.064	3994
925.172	3930
925.279	4013
925.387	4131
925.494	4078
925.602	4234
925.709	4192
925.816	4082
925.924	4147
926.031	4276
926.138	4219
926.245	4295
926.352	4169
926.459	4287
926.566	4375
926.673	4188
926.779	4135
926.886	4078
926.993	4006
927.099	4013
927.206	3991
927.312	3975
927.419	4044
927.525	4071
927.631	4150
927.737	4013
927.843	4036
927.95	3861
928.056	3972
928.162	4029
928.267	4059
928.373	4752
928.479	4150
928.585	3918
928.69	4067
928.796	4093
928.901	4036
929.007	3857
929.112	4051
929.218	4002
929.323	4010
929.428	3975
929.533	4147
929.638	3941
929.743	3972
929.848	4044
929.953	4017
930.058	3991
930.163	3838
930.267	3823
930.372	4017
930.477	3876
930.581	4105
930.685	4017
930.79	3827
930.894	3941
930.998	3915
931.103	4097
931.207	3747
931.311	3751
931.415	3755
931.519	3549
931.623	3595
