Data from test_V78500241_2434.txt Node
Date: Fri Mar 25 17:05:55 CST 2022
User: usil
Spectrometer: V785-0024
Trigger mode: 0
Integration Time (sec): 4.000000E-1
Scans to average: 1
Nonlinearity correction enabled: false
Boxcar width: 0
Storing dark spectrum: false
XAxis mode: Wavelengths
Number of Pixels in Spectrum: 1024
>>>>>Begin Spectral Data<<<<<
801.071	8039
801.214	8005
801.356	7894
801.499	7849
801.641	7792
801.783	7750
801.926	7982
802.068	7894
802.211	8031
802.353	7921
802.496	7807
802.638	7879
802.78	7909
802.923	7894
803.065	7811
803.208	7921
803.35	7963
803.492	8130
803.635	8126
803.777	8058
803.919	8161
804.061	8461
804.204	8157
804.346	8115
804.488	8027
804.63	8107
804.773	8008
804.915	8092
805.057	8301
805.199	8111
805.341	8206
805.483	8313
805.626	8240
805.768	8092
805.91	8221
806.052	8191
806.194	8062
806.336	8286
806.478	8096
806.62	8092
806.762	8081
806.904	8183
807.046	8476
807.188	8374
807.33	8317
807.472	8263
807.614	8096
807.756	8142
807.898	7989
808.04	7822
808.182	7890
808.324	7841
808.465	7879
808.607	8008
808.749	8180
808.891	8176
809.033	8358
809.174	8210
809.316	8024
809.458	8084
809.6	8005
809.741	8153
809.883	8005
810.025	8027
810.166	8062
810.308	8001
810.45	7993
810.591	7909
810.733	7712
810.875	7609
811.016	7422
811.158	7445
811.299	7594
811.441	7746
811.582	7674
811.724	7537
811.865	7556
812.007	7544
812.148	7632
812.29	7639
812.431	7750
812.573	7887
812.714	7940
812.855	8119
812.997	8142
813.138	8290
813.279	8168
813.421	8058
813.562	7986
813.703	7818
813.845	7723
813.986	7468
814.127	7251
814.268	7213
814.41	7164
814.551	7122
814.692	7187
814.833	7095
814.974	7091
815.115	7114
815.256	6947
815.397	6996
815.539	7004
815.68	6783
815.821	6753
815.962	6875
816.103	6871
816.244	6711
816.385	6597
816.526	6616
816.666	6521
816.807	6342
816.948	6467
817.089	6467
817.23	6448
817.371	6372
817.512	6418
817.653	6365
817.793	6319
817.934	6395
818.075	6441
818.216	6403
818.356	6338
818.497	6247
818.638	6121
818.778	6136
818.919	6163
819.06	6224
819.2	6308
819.341	6365
819.481	6308
819.622	6616
819.762	6730
819.903	6715
820.043	6563
820.184	6604
820.324	6604
820.465	6650
820.605	6715
820.746	6639
820.886	6494
821.026	6722
821.167	6738
821.307	6825
821.447	6821
821.588	6730
821.728	6635
821.868	6563
822.008	6308
822.149	6418
822.289	6350
822.429	6152
822.569	6121
822.709	6182
822.849	5931
822.99	5980
823.13	5965
823.27	5901
823.41	5786
823.55	5832
823.69	5764
823.83	5779
823.97	5722
824.11	5581
824.25	5577
824.389	5570
824.529	5634
824.669	5539
824.809	5615
824.949	5653
825.089	5592
825.228	5577
825.368	5395
825.508	5398
825.648	5353
825.787	5398
825.927	5349
826.067	5299
826.206	5299
826.346	5406
826.485	5436
826.625	5417
826.765	5516
826.904	5486
827.044	5231
827.183	5208
827.323	5162
827.462	5246
827.601	5216
827.741	5216
827.88	5246
828.02	5113
828.159	5227
828.298	5360
828.437	5455
828.577	5250
828.716	5433
828.855	5288
828.994	5170
829.134	5174
829.273	5170
829.412	5094
829.551	5143
829.69	5204
829.829	5216
829.968	5391
830.107	5292
830.246	5326
830.385	5162
830.524	5128
830.663	5136
830.802	4976
830.941	4911
831.08	4870
831.219	4999
831.357	4953
831.496	5136
831.635	4961
831.774	4892
831.913	4877
832.051	4694
832.19	4691
832.329	4847
832.467	4660
832.606	4630
832.744	4721
832.883	4717
833.022	4725
833.16	4801
833.299	4809
833.437	4801
833.576	4828
833.714	4923
833.852	4854
833.991	4938
834.129	4946
834.267	4972
834.406	4915
834.544	4968
834.682	4957
834.821	4953
834.959	5197
835.097	4942
835.235	5162
835.373	5056
835.511	5143
835.65	5025
835.788	5022
835.926	4900
836.064	4900
836.202	4942
836.34	5121
836.478	5216
836.615	5098
836.753	5185
836.891	5296
837.029	5220
837.167	5181
837.305	5170
837.443	5151
837.58	5102
837.718	5280
837.856	5136
837.993	5159
838.131	5231
838.269	5227
838.406	5220
838.544	5185
838.681	4957
838.819	5045
838.956	4908
839.094	4923
839.231	4984
839.369	5056
839.506	5421
839.643	5277
839.781	5094
839.918	5006
840.055	5113
840.193	5083
840.33	5064
840.467	5140
840.604	5223
840.742	5410
840.879	5094
841.016	5094
841.153	5155
841.29	5360
841.427	5315
841.564	5296
841.701	5368
841.838	5273
841.975	5212
842.112	5265
842.249	5181
842.385	5143
842.522	5311
842.659	5201
842.796	5166
842.933	5201
843.069	5117
843.206	5117
843.343	5296
843.479	5246
843.616	5280
843.752	5029
843.889	4995
844.025	5201
844.162	4995
844.298	5223
844.435	5128
844.571	5060
844.708	5155
844.844	5280
844.98	5315
845.117	5284
845.253	5140
845.389	5075
845.525	5140
845.661	5124
845.798	4987
845.934	5113
846.07	5052
846.206	5201
846.342	5307
846.478	5170
846.614	5029
846.75	4946
846.886	4885
847.022	5124
847.158	5018
847.294	5067
847.429	5090
847.565	5056
847.701	5292
847.837	4892
847.972	4805
848.108	4968
848.244	4946
848.379	4759
848.515	4721
848.65	4725
848.786	4721
848.921	4809
849.057	4866
849.192	4911
849.328	4801
849.463	4885
849.598	4820
849.734	4778
849.869	4691
850.004	4603
850.14	4675
850.275	4641
850.41	4527
850.545	4554
850.68	4577
850.815	4664
850.95	4641
851.085	4858
851.22	4778
851.355	4649
851.49	4592
851.625	4626
851.76	4622
851.895	4538
852.03	4500
852.165	4649
852.299	4744
852.434	4782
852.569	4710
852.703	4786
852.838	4812
852.973	4949
853.107	4915
853.242	4763
853.376	4679
853.511	4577
853.645	4599
853.78	4801
853.914	4714
854.048	4656
854.183	4618
854.317	4687
854.451	4843
854.585	4653
854.72	4656
854.854	4725
854.988	4603
855.122	4622
855.256	4478
855.39	4683
855.524	4782
855.658	4752
855.792	4687
855.926	4694
856.06	4691
856.194	4752
856.327	4645
856.461	4630
856.595	4630
856.729	4649
856.862	4782
856.996	4634
857.13	4710
857.263	4744
857.397	4774
857.53	4596
857.664	4691
857.797	4748
857.931	4729
858.064	4675
858.197	4729
858.331	4668
858.464	4558
858.597	4485
858.731	4611
858.864	4645
858.997	4596
859.13	4672
859.263	4664
859.396	4683
859.529	4599
859.662	4592
859.795	4512
859.928	4649
860.061	4771
860.194	4725
860.327	4615
860.46	4588
860.592	4729
860.725	4725
860.858	4744
860.99	4588
861.123	4512
861.256	4569
861.388	4603
861.521	5280
861.653	4462
861.786	4455
861.918	4462
862.05	4489
862.183	4573
862.315	4649
862.447	4664
862.58	4569
862.712	4409
862.844	4299
862.976	4466
863.108	4455
863.24	4820
863.372	4352
863.504	4428
863.636	4443
863.768	4455
863.9	4470
864.032	4383
864.164	4409
864.296	4500
864.428	4584
864.559	4596
864.691	4546
864.823	4550
864.954	4462
865.086	4531
865.217	4413
865.349	4367
865.48	4459
865.612	4474
865.743	4615
865.875	4440
866.006	4424
866.137	4443
866.269	4379
866.4	4405
866.531	4455
866.662	4348
866.793	4428
866.924	4436
867.055	4474
867.186	4500
867.317	4428
867.448	4344
867.579	4371
867.71	4405
867.841	4390
867.972	4424
868.103	4508
868.233	4424
868.364	4470
868.495	4455
868.625	4637
868.756	4721
868.886	4561
869.017	4603
869.147	4752
869.278	4771
869.408	4672
869.539	4668
869.669	4721
869.799	4736
869.929	4748
870.06	4736
870.19	4946
870.32	4942
870.45	4927
870.58	5018
870.71	5090
870.84	5071
870.97	4927
871.1	4881
871.23	5143
871.36	5090
871.489	5033
871.619	5060
871.749	5098
871.879	5132
872.008	5174
872.138	5033
872.267	4968
872.397	4881
872.526	4824
872.656	4748
872.785	4816
872.915	4949
873.044	4984
873.173	4911
873.303	4965
873.432	4946
873.561	4953
873.69	4934
873.819	4854
873.948	4889
874.077	4778
874.206	4774
874.335	4759
874.464	4942
874.593	5045
874.722	4934
874.851	5079
874.979	5048
875.108	4987
875.237	4911
875.365	4847
875.494	4927
875.623	4980
875.751	4824
875.88	4854
876.008	4991
876.136	5033
876.265	5189
876.393	5402
876.521	5242
876.65	5280
876.778	5140
876.906	5098
877.034	5048
877.162	5067
877.29	5045
877.418	5033
877.546	5022
877.674	5052
877.802	4999
877.93	4999
878.058	5037
878.185	4915
878.313	4934
878.441	4976
878.568	4805
878.696	4824
878.824	4896
878.951	4991
879.079	5124
879.206	5284
879.333	5140
879.461	5003
879.588	4976
879.715	5140
879.842	5220
879.97	4984
880.097	4824
880.224	4748
880.351	4809
880.478	4816
880.605	4774
880.732	4793
880.859	5102
880.986	4957
881.112	4911
881.239	4748
881.366	4664
881.493	4592
881.619	4618
881.746	4683
881.872	4656
881.999	4668
882.125	4725
882.252	4828
882.378	4862
882.505	4946
882.631	4767
882.757	4679
882.883	4733
883.01	4740
883.136	4672
883.262	4607
883.388	4611
883.514	4824
883.64	4854
883.766	4828
883.892	4672
884.018	4702
884.143	4877
884.269	5014
884.395	4668
884.52	4641
884.646	4687
884.772	4588
884.897	4588
885.023	4664
885.148	4763
885.274	4801
885.399	4763
885.524	4736
885.65	4733
885.775	4793
885.9	4736
886.025	4820
886.15	4759
886.275	4774
886.4	4698
886.525	4748
886.65	4679
886.775	4725
886.9	4885
887.025	5083
887.149	4831
887.274	4653
887.399	4580
887.523	4588
887.648	4546
887.773	4573
887.897	4786
888.021	4858
888.146	4725
888.27	4831
888.395	4862
888.519	4862
888.643	4767
888.767	4820
888.891	4714
889.015	4580
889.139	4649
889.263	4622
889.387	4809
889.511	4919
889.635	4767
889.759	4672
889.883	4687
890.006	4755
890.13	4839
890.254	4649
890.377	4645
890.501	4542
890.624	4519
890.748	4622
890.871	4508
890.995	4390
891.118	4428
891.241	4550
891.364	4516
891.488	4626
891.611	4428
891.734	4531
891.857	4569
891.98	4516
892.103	4672
892.226	4592
892.349	4489
892.471	4436
892.594	4516
892.717	4573
892.839	4607
892.962	4565
893.085	4599
893.207	4672
893.33	4466
893.452	4554
893.575	4683
893.697	4573
893.819	4809
893.941	4824
894.064	4771
894.186	4577
894.308	4561
894.43	4725
894.552	4786
894.674	4702
894.796	4569
894.918	4577
895.04	4558
895.161	4714
895.283	4668
895.405	4596
895.526	4641
895.648	4694
895.769	4672
895.891	4656
896.012	4740
896.134	4748
896.255	4660
896.376	4641
896.498	4675
896.619	4634
896.74	4615
896.861	4630
896.982	4881
897.103	5102
897.224	4812
897.345	4733
897.466	4672
897.587	4698
897.708	4839
897.828	4812
897.949	4637
898.07	4535
898.19	4641
898.311	4820
898.431	4717
898.552	4733
898.672	4805
898.792	4793
898.913	4736
899.033	4630
899.153	4485
899.273	4451
899.393	4512
899.513	4596
899.633	4546
899.753	4516
899.873	4497
899.993	4577
900.113	4550
900.232	4607
900.352	4493
900.472	4512
900.591	4428
900.711	4561
900.83	4413
900.95	4599
901.069	4691
901.189	4531
901.308	4390
901.427	4329
901.546	4383
901.665	4485
901.784	4527
901.904	4383
902.023	4322
902.141	4169
902.26	4188
902.379	4287
902.498	4280
902.617	4227
902.735	4356
902.854	4371
902.973	4348
903.091	4188
903.21	4211
903.328	4295
903.446	4284
903.565	4227
903.683	4360
903.801	4295
903.919	4421
904.038	4462
904.156	4333
904.274	4417
904.392	4398
904.51	4428
904.627	4512
904.745	4550
904.863	4634
904.981	4386
905.098	4261
905.216	4325
905.334	4436
905.451	4459
905.569	4405
905.686	4538
905.803	4580
905.921	4405
906.038	4584
906.155	4497
906.272	4405
906.389	4474
906.506	4348
906.623	4379
906.74	4375
906.857	4310
906.974	4344
907.091	4573
907.208	4653
907.324	4599
907.441	4489
907.557	4341
907.674	4310
907.79	4322
907.907	4356
908.023	4512
908.139	4504
908.256	4432
908.372	4436
908.488	4500
908.604	4287
908.72	4333
908.836	4360
908.952	4379
909.068	4443
909.184	4558
909.3	4474
909.415	4611
909.531	4588
909.647	4356
909.762	4337
909.878	4329
909.993	4413
910.108	4432
910.224	4413
910.339	4466
910.454	4394
910.57	4379
910.685	4322
910.8	4626
910.915	4577
911.03	4466
911.145	4322
911.259	4280
911.374	4402
911.489	4310
911.604	4253
911.718	4166
911.833	4204
911.947	4097
912.062	4074
912.176	4154
912.291	4276
912.405	4200
912.519	4447
912.633	4508
912.748	4398
912.862	4299
912.976	4215
913.09	4101
913.204	4158
913.318	4280
913.431	4352
913.545	4367
913.659	4443
913.772	4356
913.886	4230
914	4253
914.113	4375
914.226	4462
914.34	4363
914.453	4230
914.566	4474
914.68	4284
914.793	4322
914.906	4173
915.019	4128
915.132	4063
915.245	4215
915.358	4223
915.47	4219
915.583	4253
915.696	4284
915.809	4424
915.921	4436
916.034	4265
916.146	4257
916.259	4230
916.371	4383
916.483	4383
916.595	4238
916.708	4356
916.82	4329
916.932	4337
917.044	4329
917.156	4295
917.268	4227
917.38	4306
917.491	4287
917.603	4322
917.715	4417
917.826	4417
917.938	4318
918.049	4234
918.161	4371
918.272	4561
918.384	4516
918.495	4436
918.606	4322
918.717	4242
918.828	4367
918.939	4333
919.05	4249
919.161	4322
919.272	4097
919.383	4246
919.494	4432
919.604	4607
919.715	4432
919.826	4314
919.936	4398
920.047	4573
920.157	4478
920.267	4694
920.378	4519
920.488	4519
920.598	4672
920.708	4885
920.818	4698
920.928	4782
921.038	4946
921.148	4881
921.258	4596
921.368	4561
921.477	4500
921.587	4451
921.697	4356
921.806	4527
921.916	4424
922.025	4280
922.134	4246
922.244	4280
922.353	4310
922.462	4173
922.571	4166
922.68	3994
922.789	3994
922.898	4021
923.007	3956
923.116	4109
923.224	4036
923.333	4055
923.442	4040
923.55	4021
923.659	4013
923.767	4135
923.876	3937
923.984	4166
924.092	3972
924.201	4078
924.309	4055
924.417	4109
924.525	4071
924.633	4135
924.741	5052
924.849	3907
924.956	4112
925.064	3975
925.172	3888
925.279	3884
925.387	4101
925.494	4048
925.602	4207
925.709	4185
925.816	3998
925.924	4131
926.031	4223
926.138	4196
926.245	4188
926.352	4128
926.459	4291
926.566	4314
926.673	4185
926.779	4040
926.886	4082
926.993	4002
927.099	3937
927.206	3945
927.312	3918
927.419	4071
927.525	4013
927.631	4078
927.737	3964
927.843	3937
927.95	3854
928.056	3918
928.162	3983
928.267	4017
928.373	4630
928.479	4105
928.585	3873
928.69	3964
928.796	4025
928.901	3979
929.007	3819
929.112	4029
929.218	3922
929.323	3911
929.428	3949
929.533	4105
929.638	3880
929.743	3941
929.848	4059
929.953	3994
930.058	3903
930.163	3751
930.267	3808
930.372	3972
930.477	3797
930.581	4029
930.685	3934
930.79	3819
930.894	3892
930.998	3838
931.103	4010
931.207	3694
931.311	3660
931.415	3690
931.519	3515
931.623	3557
