Data from test_V78500241_2597.txt Node
Date: Fri Mar 25 17:07:03 CST 2022
User: usil
Spectrometer: V785-0024
Trigger mode: 0
Integration Time (sec): 4.000000E-1
Scans to average: 1
Nonlinearity correction enabled: false
Boxcar width: 0
Storing dark spectrum: false
XAxis mode: Wavelengths
Number of Pixels in Spectrum: 1024
>>>>>Begin Spectral Data<<<<<
801.071	8046
801.214	7955
801.356	7894
801.499	7856
801.641	7784
801.783	7871
801.926	7974
802.068	7936
802.211	7993
802.353	8005
802.496	7868
802.638	7807
802.78	7902
802.923	7986
803.065	7879
803.208	7860
803.35	7986
803.492	8081
803.635	8176
803.777	8024
803.919	8103
804.061	8518
804.204	8183
804.346	8058
804.488	7947
804.63	8138
804.773	8046
804.915	8153
805.057	8263
805.199	8210
805.341	8183
805.483	8328
805.626	8149
805.768	8164
805.91	8103
806.052	8187
806.194	8157
806.336	8339
806.478	8088
806.62	8065
806.762	8123
806.904	8237
807.046	8419
807.188	8366
807.33	8301
807.472	8279
807.614	8180
807.756	8164
807.898	8065
808.04	7879
808.182	7894
808.324	7887
808.465	7921
808.607	8073
808.749	8145
808.891	8183
809.033	8309
809.174	8256
809.316	8100
809.458	8096
809.6	8031
809.741	8069
809.883	8039
810.025	8092
810.166	8031
810.308	8054
810.45	8043
810.591	7894
810.733	7826
810.875	7628
811.016	7559
811.158	7495
811.299	7620
811.441	7742
811.582	7696
811.724	7597
811.865	7537
812.007	7582
812.148	7628
812.29	7666
812.431	7723
812.573	7868
812.714	7940
812.855	8164
812.997	8199
813.138	8252
813.279	8180
813.421	8100
813.562	7978
813.703	7879
813.845	7715
813.986	7468
814.127	7327
814.268	7232
814.41	7190
814.551	7190
814.692	7236
814.833	7088
814.974	7137
815.115	7099
815.256	6993
815.397	6958
815.539	6939
815.68	6787
815.821	6837
815.962	6882
816.103	6825
816.244	6715
816.385	6658
816.526	6616
816.666	6494
816.807	6357
816.948	6426
817.089	6448
817.23	6467
817.371	6399
817.512	6422
817.653	6384
817.793	6384
817.934	6395
818.075	6407
818.216	6448
818.356	6426
818.497	6220
818.638	6114
818.778	6171
818.919	6209
819.06	6186
819.2	6388
819.341	6357
819.481	6475
819.622	6532
819.762	6688
819.903	6722
820.043	6570
820.184	6616
820.324	6604
820.465	6741
820.605	6715
820.746	6620
820.886	6582
821.026	6669
821.167	6700
821.307	6814
821.447	6757
821.588	6662
821.728	6578
821.868	6513
822.008	6296
822.149	6388
822.289	6399
822.429	6175
822.569	6091
822.709	6152
822.849	5912
822.99	5950
823.13	5897
823.27	5904
823.41	5775
823.55	5832
823.69	5775
823.83	5786
823.97	5657
824.11	5535
824.25	5490
824.389	5570
824.529	5608
824.669	5512
824.809	5585
824.949	5672
825.089	5623
825.228	5532
825.368	5455
825.508	5379
825.648	5273
825.787	5402
825.927	5376
826.067	5246
826.206	5258
826.346	5376
826.485	5387
826.625	5429
826.765	5539
826.904	5474
827.044	5231
827.183	5197
827.323	5094
827.462	5185
827.601	5181
827.741	5223
827.88	5223
828.02	5143
828.159	5265
828.298	5311
828.437	5379
828.577	5265
828.716	5509
828.855	5288
828.994	5201
829.134	5185
829.273	5181
829.412	5155
829.551	5117
829.69	5170
829.829	5239
829.968	5391
830.107	5280
830.246	5277
830.385	5178
830.524	5090
830.663	5109
830.802	5022
830.941	4866
831.08	4843
831.219	5006
831.357	4889
831.496	5102
831.635	4923
831.774	4839
831.913	4816
832.051	4755
832.19	4767
832.329	4862
832.467	4717
832.606	4637
832.744	4683
832.883	4752
833.022	4755
833.16	4782
833.299	4793
833.437	4793
833.576	4820
833.714	4850
833.852	4889
833.991	4839
834.129	4953
834.267	4999
834.406	4892
834.544	5003
834.682	4965
834.821	4976
834.959	5113
835.097	4991
835.235	5113
835.373	5102
835.511	5105
835.65	5003
835.788	5006
835.926	4919
836.064	4839
836.202	4942
836.34	5128
836.478	5227
836.615	5143
836.753	5201
836.891	5254
837.029	5220
837.167	5223
837.305	5102
837.443	5162
837.58	5064
837.718	5216
837.856	5162
837.993	5185
838.131	5231
838.269	5181
838.406	5174
838.544	5151
838.681	5014
838.819	4999
838.956	4881
839.094	4946
839.231	4976
839.369	5083
839.506	5425
839.643	5349
839.781	5037
839.918	5010
840.055	5124
840.193	5094
840.33	5132
840.467	5155
840.604	5246
840.742	5383
840.879	5075
841.016	5079
841.153	5189
841.29	5360
841.427	5417
841.564	5372
841.701	5372
841.838	5311
841.975	5235
842.112	5261
842.249	5128
842.385	5102
842.522	5330
842.659	5181
842.796	5159
842.933	5239
843.069	5174
843.206	5170
843.343	5254
843.479	5250
843.616	5254
843.752	5018
843.889	5037
844.025	5212
844.162	5098
844.298	5208
844.435	5105
844.571	5060
844.708	5159
844.844	5269
844.98	5395
845.117	5341
845.253	5117
845.389	5079
845.525	5162
845.661	5143
845.798	5067
845.934	5113
846.07	5022
846.206	5189
846.342	5303
846.478	5147
846.614	5022
846.75	4984
846.886	4930
847.022	5159
847.158	5003
847.294	5067
847.429	5109
847.565	5064
847.701	5315
847.837	4820
847.972	4850
848.108	4908
848.244	4946
848.379	4797
848.515	4725
848.65	4755
848.786	4714
848.921	4801
849.057	4850
849.192	4908
849.328	4801
849.463	4850
849.598	4820
849.734	4759
849.869	4706
850.004	4641
850.14	4683
850.275	4599
850.41	4573
850.545	4550
850.68	4538
850.815	4588
850.95	4634
851.085	4866
851.22	4752
851.355	4729
851.49	4649
851.625	4664
851.76	4656
851.895	4592
852.03	4493
852.165	4641
852.299	4748
852.434	4801
852.569	4759
852.703	4809
852.838	4862
852.973	4915
853.107	4885
853.242	4714
853.376	4691
853.511	4565
853.645	4656
853.78	4805
853.914	4702
854.048	4649
854.183	4611
854.317	4725
854.451	4816
854.585	4641
854.72	4645
854.854	4752
854.988	4565
855.122	4618
855.256	4493
855.39	4668
855.524	4771
855.658	4748
855.792	4744
855.926	4721
856.06	4736
856.194	4797
856.327	4668
856.461	4637
856.595	4603
856.729	4622
856.862	4740
856.996	4660
857.13	4645
857.263	4729
857.397	4801
857.53	4607
857.664	4717
857.797	4771
857.931	4767
858.064	4668
858.197	4706
858.331	4645
858.464	4565
858.597	4512
858.731	4607
858.864	4618
858.997	4577
859.13	4596
859.263	4687
859.396	4698
859.529	4607
859.662	4554
859.795	4531
859.928	4679
860.061	4752
860.194	4771
860.327	4584
860.46	4569
860.592	4714
860.725	4702
860.858	4744
860.99	4569
861.123	4558
861.256	4451
861.388	4577
861.521	5452
861.653	4459
861.786	4455
861.918	4485
862.05	4523
862.183	4588
862.315	4565
862.447	4694
862.58	4577
862.712	4360
862.844	4360
862.976	4455
863.108	4481
863.24	4763
863.372	4348
863.504	4405
863.636	4375
863.768	4466
863.9	4440
864.032	4394
864.164	4409
864.296	4481
864.428	4550
864.559	4523
864.691	4508
864.823	4554
864.954	4466
865.086	4500
865.217	4462
865.349	4417
865.48	4474
865.612	4516
865.743	4618
865.875	4440
866.006	4367
866.137	4402
866.269	4459
866.4	4436
866.531	4424
866.662	4379
866.793	4417
866.924	4432
867.055	4481
867.186	4405
867.317	4394
867.448	4409
867.579	4451
867.71	4386
867.841	4421
867.972	4474
868.103	4417
868.233	4519
868.364	4466
868.495	4474
868.625	4668
868.756	4805
868.886	4607
869.017	4603
869.147	4752
869.278	4774
869.408	4649
869.539	4637
869.669	4672
869.799	4653
869.929	4782
870.06	4774
870.19	4930
870.32	4949
870.45	4938
870.58	5056
870.71	5128
870.84	5132
870.97	4923
871.1	4885
871.23	5128
871.36	5143
871.489	5083
871.619	5083
871.749	5090
871.879	5121
872.008	5185
872.138	5083
872.267	5014
872.397	4847
872.526	4820
872.656	4736
872.785	4816
872.915	4957
873.044	5056
873.173	4900
873.303	4987
873.432	4961
873.561	4946
873.69	4877
873.819	4908
873.948	4949
874.077	4847
874.206	4748
874.335	4763
874.464	4915
874.593	5018
874.722	4972
874.851	5090
874.979	5109
875.108	5014
875.237	4946
875.365	4908
875.494	4877
875.623	4980
875.751	4858
875.88	4847
876.008	5056
876.136	5018
876.265	5223
876.393	5311
876.521	5269
876.65	5239
876.778	5151
876.906	5083
877.034	5006
877.162	5033
877.29	4995
877.418	5098
877.546	5018
877.674	5086
877.802	5033
877.93	5018
878.058	4942
878.185	4904
878.313	5025
878.441	4942
878.568	4801
878.696	4900
878.824	4961
878.951	5006
879.079	5109
879.206	5258
879.333	5064
879.461	4965
879.588	5010
879.715	5086
879.842	5197
879.97	4991
880.097	4793
880.224	4774
880.351	4740
880.478	4824
880.605	4797
880.732	4854
880.859	5098
880.986	4831
881.112	4873
881.239	4759
881.366	4691
881.493	4603
881.619	4554
881.746	4649
881.872	4664
881.999	4664
882.125	4691
882.252	4763
882.378	4801
882.505	4961
882.631	4816
882.757	4675
882.883	4717
883.01	4767
883.136	4653
883.262	4599
883.388	4641
883.514	4824
883.64	4900
883.766	4805
883.892	4664
884.018	4698
884.143	4904
884.269	5006
884.395	4653
884.52	4660
884.646	4599
884.772	4592
884.897	4565
885.023	4706
885.148	4774
885.274	4828
885.399	4797
885.524	4710
885.65	4721
885.775	4763
885.9	4729
886.025	4831
886.15	4805
886.275	4698
886.4	4664
886.525	4740
886.65	4706
886.775	4702
886.9	4885
887.025	5041
887.149	4793
887.274	4641
887.399	4573
887.523	4573
887.648	4618
887.773	4611
887.897	4748
888.021	4755
888.146	4656
888.27	4820
888.395	4904
888.519	4771
888.643	4786
888.767	4828
888.891	4656
889.015	4599
889.139	4683
889.263	4615
889.387	4733
889.511	4831
889.635	4767
889.759	4630
889.883	4668
890.006	4717
890.13	4847
890.254	4607
890.377	4672
890.501	4512
890.624	4577
890.748	4622
890.871	4500
890.995	4428
891.118	4367
891.241	4504
891.364	4531
891.488	4607
891.611	4565
891.734	4546
891.857	4626
891.98	4584
892.103	4668
892.226	4588
892.349	4569
892.471	4413
892.594	4538
892.717	4611
892.839	4542
892.962	4538
893.085	4672
893.207	4618
893.33	4447
893.452	4523
893.575	4694
893.697	4584
893.819	4793
893.941	4877
894.064	4767
894.186	4607
894.308	4569
894.43	4721
894.552	4774
894.674	4755
894.796	4504
894.918	4615
895.04	4546
895.161	4641
895.283	4641
895.405	4550
895.526	4599
895.648	4691
895.769	4733
895.891	4752
896.012	4717
896.134	4767
896.255	4656
896.376	4675
896.498	4622
896.619	4664
896.74	4630
896.861	4637
896.982	4923
897.103	5090
897.224	4831
897.345	4763
897.466	4702
897.587	4672
897.708	4835
897.828	4771
897.949	4649
898.07	4558
898.19	4641
898.311	4839
898.431	4721
898.552	4725
898.672	4797
898.792	4782
898.913	4733
899.033	4634
899.153	4489
899.273	4394
899.393	4497
899.513	4538
899.633	4504
899.753	4485
899.873	4542
899.993	4599
900.113	4558
900.232	4599
900.352	4535
900.472	4451
900.591	4421
900.711	4538
900.83	4432
900.95	4596
901.069	4706
901.189	4538
901.308	4421
901.427	4322
901.546	4363
901.665	4428
901.784	4512
901.904	4386
902.023	4318
902.141	4207
902.26	4124
902.379	4322
902.498	4207
902.617	4200
902.735	4383
902.854	4356
902.973	4363
903.091	4211
903.21	4227
903.328	4306
903.446	4246
903.565	4227
903.683	4394
903.801	4363
903.919	4375
904.038	4462
904.156	4348
904.274	4421
904.392	4409
904.51	4398
904.627	4459
904.745	4558
904.863	4622
904.981	4417
905.098	4276
905.216	4390
905.334	4428
905.451	4455
905.569	4394
905.686	4519
905.803	4542
905.921	4417
906.038	4531
906.155	4523
906.272	4440
906.389	4451
906.506	4352
906.623	4352
906.74	4413
906.857	4261
906.974	4363
907.091	4558
907.208	4691
907.324	4531
907.441	4481
907.557	4371
907.674	4379
907.79	4299
907.907	4375
908.023	4436
908.139	4474
908.256	4470
908.372	4455
908.488	4470
908.604	4306
908.72	4299
908.836	4344
908.952	4375
909.068	4417
909.184	4523
909.3	4523
909.415	4580
909.531	4550
909.647	4367
909.762	4341
909.878	4341
909.993	4470
910.108	4413
910.224	4432
910.339	4462
910.454	4428
910.57	4394
910.685	4352
910.8	4596
910.915	4615
911.03	4478
911.145	4314
911.259	4352
911.374	4428
911.489	4318
911.604	4287
911.718	4139
911.833	4173
911.947	4090
912.062	4078
912.176	4192
912.291	4242
912.405	4227
912.519	4508
912.633	4466
912.748	4390
912.862	4257
912.976	4158
913.09	4101
913.204	4116
913.318	4242
913.431	4367
913.545	4383
913.659	4466
913.772	4390
913.886	4181
914	4223
914.113	4383
914.226	4451
914.34	4367
914.453	4211
914.566	4394
914.68	4284
914.793	4337
914.906	4143
915.019	4143
915.132	4120
915.245	4135
915.358	4215
915.47	4249
915.583	4238
915.696	4322
915.809	4344
915.921	4421
916.034	4257
916.146	4249
916.259	4211
916.371	4325
916.483	4379
916.595	4234
916.708	4299
916.82	4295
916.932	4322
917.044	4314
917.156	4333
917.268	4246
917.38	4287
917.491	4261
917.603	4344
917.715	4443
917.826	4417
917.938	4341
918.049	4223
918.161	4386
918.272	4554
918.384	4561
918.495	4440
918.606	4299
918.717	4204
918.828	4333
918.939	4367
919.05	4227
919.161	4356
919.272	4154
919.383	4215
919.494	4417
919.604	4653
919.715	4421
919.826	4303
919.936	4421
920.047	4497
920.157	4512
920.267	4675
920.378	4565
920.488	4523
920.598	4729
920.708	4900
920.818	4729
920.928	4763
921.038	4938
921.148	4904
921.258	4649
921.368	4588
921.477	4497
921.587	4402
921.697	4352
921.806	4523
921.916	4432
922.025	4268
922.134	4268
922.244	4249
922.353	4306
922.462	4215
922.571	4109
922.68	4021
922.789	3983
922.898	3983
923.007	4002
923.116	4082
923.224	4055
923.333	4055
923.442	4010
923.55	3987
923.659	4021
923.767	4112
923.876	3979
923.984	4112
924.092	3953
924.201	4082
924.309	4086
924.417	4112
924.525	4074
924.633	4105
924.741	5006
924.849	3945
924.956	4169
925.064	3956
925.172	3892
925.279	3949
925.387	4074
925.494	4032
925.602	4185
925.709	4162
925.816	4071
925.924	4147
926.031	4219
926.138	4196
926.245	4200
926.352	4109
926.459	4223
926.566	4280
926.673	4139
926.779	4082
926.886	4078
926.993	4006
927.099	3949
927.206	3949
927.312	3896
927.419	4040
927.525	3975
927.631	4071
927.737	3979
927.843	3934
927.95	3804
928.056	3960
928.162	4032
928.267	4055
928.373	4577
928.479	4120
928.585	3865
928.69	4044
928.796	4067
928.901	3926
929.007	3873
929.112	4006
929.218	3975
929.323	3991
929.428	3937
929.533	4116
929.638	3915
929.743	3975
929.848	3991
929.953	3941
930.058	3918
930.163	3759
930.267	3797
930.372	3968
930.477	3827
930.581	4063
930.685	3915
930.79	3850
930.894	3854
930.998	3850
931.103	4048
931.207	3713
931.311	3644
931.415	3686
931.519	3496
931.623	3557
