Data from test_V78500241_274.txt Node
Date: Fri Mar 25 16:50:54 CST 2022
User: usil
Spectrometer: V785-0024
Trigger mode: 0
Integration Time (sec): 4.000000E-1
Scans to average: 1
Nonlinearity correction enabled: false
Boxcar width: 0
Storing dark spectrum: false
XAxis mode: Wavelengths
Number of Pixels in Spectrum: 1024
>>>>>Begin Spectral Data<<<<<
801.071	8084
801.214	8035
801.356	7898
801.499	7849
801.641	7814
801.783	7833
801.926	8024
802.068	7932
802.211	7986
802.353	7974
802.496	7940
802.638	7917
802.78	7909
802.923	7944
803.065	7860
803.208	7868
803.35	7890
803.492	8050
803.635	8183
803.777	8027
803.919	8142
804.061	8480
804.204	8107
804.346	8092
804.488	7974
804.63	8100
804.773	8027
804.915	8058
805.057	8195
805.199	8115
805.341	8168
805.483	8221
805.626	8164
805.768	8046
805.91	8126
806.052	8195
806.194	8115
806.336	8279
806.478	8115
806.62	8065
806.762	8119
806.904	8271
807.046	8393
807.188	8290
807.33	8290
807.472	8275
807.614	8161
807.756	8130
807.898	7963
808.04	7833
808.182	7928
808.324	7898
808.465	7982
808.607	8020
808.749	8073
808.891	8176
809.033	8294
809.174	8096
809.316	7997
809.458	7982
809.6	7997
809.741	7974
809.883	7970
810.025	8084
810.166	8012
810.308	8008
810.45	7967
810.591	7871
810.733	7731
810.875	7647
811.016	7449
811.158	7449
811.299	7506
811.441	7776
811.582	7632
811.724	7548
811.865	7502
812.007	7533
812.148	7525
812.29	7636
812.431	7765
812.573	7849
812.714	7982
812.855	8027
812.997	8221
813.138	8298
813.279	8100
813.421	8103
813.562	8031
813.703	7894
813.845	7704
813.986	7441
814.127	7285
814.268	7263
814.41	7232
814.551	7099
814.692	7187
814.833	7061
814.974	7137
815.115	7095
815.256	6947
815.397	6905
815.539	6954
815.68	6837
815.821	6779
815.962	6890
816.103	6821
816.244	6779
816.385	6658
816.526	6673
816.666	6555
816.807	6410
816.948	6464
817.089	6525
817.23	6471
817.371	6452
817.512	6372
817.653	6380
817.793	6334
817.934	6448
818.075	6490
818.216	6456
818.356	6448
818.497	6270
818.638	6102
818.778	6201
818.919	6190
819.06	6194
819.2	6365
819.341	6369
819.481	6376
819.622	6574
819.762	6753
819.903	6639
820.043	6627
820.184	6597
820.324	6620
820.465	6738
820.605	6669
820.746	6665
820.886	6540
821.026	6692
821.167	6722
821.307	6814
821.447	6779
821.588	6631
821.728	6612
821.868	6551
822.008	6357
822.149	6452
822.289	6399
822.429	6182
822.569	6163
822.709	6213
822.849	5996
822.99	5897
823.13	5973
823.27	5973
823.41	5786
823.55	5847
823.69	5889
823.83	5870
823.97	5695
824.11	5566
824.25	5558
824.389	5585
824.529	5688
824.669	5543
824.809	5714
824.949	5707
825.089	5627
825.228	5596
825.368	5452
825.508	5376
825.648	5398
825.787	5429
825.927	5387
826.067	5341
826.206	5353
826.346	5425
826.485	5395
826.625	5433
826.765	5608
826.904	5547
827.044	5273
827.183	5216
827.323	5136
827.462	5239
827.601	5231
827.741	5174
827.88	5227
828.02	5185
828.159	5261
828.298	5349
828.437	5425
828.577	5307
828.716	5505
828.855	5337
828.994	5208
829.134	5166
829.273	5212
829.412	5189
829.551	5181
829.69	5162
829.829	5265
829.968	5376
830.107	5318
830.246	5322
830.385	5242
830.524	5197
830.663	5147
830.802	4995
830.941	4919
831.08	4904
831.219	5025
831.357	5064
831.496	5181
831.635	4949
831.774	4877
831.913	4847
832.051	4782
832.19	4820
832.329	4843
832.467	4767
832.606	4694
832.744	4748
832.883	4763
833.022	4725
833.16	4847
833.299	4904
833.437	4839
833.576	4797
833.714	4896
833.852	4896
833.991	4934
834.129	5003
834.267	4957
834.406	4965
834.544	5041
834.682	5006
834.821	4991
834.959	5181
835.097	5006
835.235	5216
835.373	5140
835.511	5140
835.65	5067
835.788	5071
835.926	4949
836.064	4889
836.202	4965
836.34	5113
836.478	5227
836.615	5159
836.753	5239
836.891	5280
837.029	5277
837.167	5220
837.305	5201
837.443	5231
837.58	5064
837.718	5269
837.856	5261
837.993	5159
838.131	5220
838.269	5296
838.406	5235
838.544	5246
838.681	5067
838.819	5033
838.956	4938
839.094	4984
839.231	4984
839.369	5098
839.506	5516
839.643	5341
839.781	5136
839.918	5025
840.055	5132
840.193	5060
840.33	5140
840.467	5124
840.604	5261
840.742	5478
840.879	5105
841.016	5064
841.153	5197
841.29	5425
841.427	5345
841.564	5349
841.701	5452
841.838	5322
841.975	5269
842.112	5258
842.249	5181
842.385	5121
842.522	5395
842.659	5185
842.796	5212
842.933	5254
843.069	5250
843.206	5174
843.343	5318
843.479	5250
843.616	5299
843.752	5090
843.889	5071
844.025	5284
844.162	5041
844.298	5250
844.435	5109
844.571	5113
844.708	5193
844.844	5379
844.98	5360
845.117	5341
845.253	5117
845.389	5117
845.525	5204
845.661	5189
845.798	5041
845.934	5174
846.07	5109
846.206	5235
846.342	5299
846.478	5212
846.614	5052
846.75	4968
846.886	4972
847.022	5181
847.158	5056
847.294	5147
847.429	5140
847.565	5117
847.701	5337
847.837	4919
847.972	4835
848.108	4972
848.244	5029
848.379	4839
848.515	4733
848.65	4839
848.786	4767
848.921	4866
849.057	4896
849.192	4904
849.328	4843
849.463	4915
849.598	4873
849.734	4767
849.869	4725
850.004	4679
850.14	4752
850.275	4603
850.41	4573
850.545	4649
850.68	4637
850.815	4664
850.95	4675
851.085	4816
851.22	4774
851.355	4706
851.49	4637
851.625	4656
851.76	4660
851.895	4573
852.03	4596
852.165	4672
852.299	4755
852.434	4858
852.569	4797
852.703	4828
852.838	4877
852.973	4946
853.107	5010
853.242	4729
853.376	4714
853.511	4641
853.645	4660
853.78	4847
853.914	4691
854.048	4752
854.183	4634
854.317	4740
854.451	4896
854.585	4744
854.72	4622
854.854	4778
854.988	4649
855.122	4611
855.256	4535
855.39	4672
855.524	4809
855.658	4740
855.792	4725
855.926	4755
856.06	4816
856.194	4870
856.327	4725
856.461	4630
856.595	4645
856.729	4630
856.862	4733
856.996	4721
857.13	4771
857.263	4763
857.397	4782
857.53	4664
857.664	4736
857.797	4786
857.931	4816
858.064	4740
858.197	4786
858.331	4683
858.464	4622
858.597	4561
858.731	4664
858.864	4584
858.997	4637
859.13	4733
859.263	4714
859.396	4744
859.529	4603
859.662	4527
859.795	4565
859.928	4706
860.061	4767
860.194	4858
860.327	4577
860.46	4580
860.592	4736
860.725	4763
860.858	4755
860.99	4569
861.123	4565
861.256	4527
861.388	4637
861.521	5383
861.653	4508
861.786	4478
861.918	4500
862.05	4523
862.183	4558
862.315	4637
862.447	4675
862.58	4596
862.712	4432
862.844	4363
862.976	4500
863.108	4485
863.24	4911
863.372	4360
863.504	4466
863.636	4432
863.768	4493
863.9	4504
864.032	4405
864.164	4383
864.296	4485
864.428	4599
864.559	4607
864.691	4565
864.823	4519
864.954	4516
865.086	4565
865.217	4478
865.349	4466
865.48	4527
865.612	4493
865.743	4698
865.875	4512
866.006	4405
866.137	4447
866.269	4470
866.4	4478
866.531	4440
866.662	4443
866.793	4436
866.924	4443
867.055	4504
867.186	4470
867.317	4413
867.448	4436
867.579	4443
867.71	4405
867.841	4341
867.972	4497
868.103	4440
868.233	4497
868.364	4481
868.495	4535
868.625	4641
868.756	4774
868.886	4626
869.017	4675
869.147	4790
869.278	4805
869.408	4740
869.539	4683
869.669	4736
869.799	4691
869.929	4797
870.06	4748
870.19	4930
870.32	4984
870.45	4987
870.58	5109
870.71	5178
870.84	5121
870.97	4965
871.1	4949
871.23	5159
871.36	5143
871.489	5071
871.619	5090
871.749	5128
871.879	5189
872.008	5201
872.138	5045
872.267	5029
872.397	4862
872.526	4839
872.656	4759
872.785	4873
872.915	4980
873.044	5048
873.173	4984
873.303	5014
873.432	4999
873.561	5014
873.69	4858
873.819	4923
873.948	4942
874.077	4858
874.206	4782
874.335	4843
874.464	4942
874.593	5098
874.722	5010
874.851	5105
874.979	5052
875.108	5060
875.237	4976
875.365	4911
875.494	4919
875.623	5010
875.751	4885
875.88	4889
876.008	4984
876.136	5037
876.265	5212
876.393	5326
876.521	5193
876.65	5216
876.778	5166
876.906	5048
877.034	5056
877.162	5086
877.29	5010
877.418	5064
877.546	5048
877.674	5064
877.802	5071
877.93	5064
878.058	4968
878.185	4847
878.313	5018
878.441	4961
878.568	4812
878.696	4885
878.824	4919
878.951	5041
879.079	5136
879.206	5284
879.333	5121
879.461	5014
879.588	4995
879.715	5162
879.842	5208
879.97	5033
880.097	4778
880.224	4793
880.351	4862
880.478	4862
880.605	4828
880.732	4843
880.859	5136
880.986	4900
881.112	4946
881.239	4771
881.366	4702
881.493	4641
881.619	4573
881.746	4698
881.872	4615
881.999	4687
882.125	4733
882.252	4850
882.378	4824
882.505	4949
882.631	4812
882.757	4694
882.883	4782
883.01	4736
883.136	4736
883.262	4637
883.388	4641
883.514	4793
883.64	4854
883.766	4809
883.892	4687
884.018	4748
884.143	4934
884.269	5056
884.395	4664
884.52	4653
884.646	4717
884.772	4634
884.897	4565
885.023	4656
885.148	4831
885.274	4904
885.399	4771
885.524	4736
885.65	4763
885.775	4786
885.9	4759
886.025	4828
886.15	4797
886.275	4767
886.4	4645
886.525	4729
886.65	4733
886.775	4691
886.9	4930
887.025	5052
887.149	4820
887.274	4691
887.399	4542
887.523	4626
887.648	4577
887.773	4626
887.897	4809
888.021	4801
888.146	4721
888.27	4824
888.395	4915
888.519	4828
888.643	4812
888.767	4847
888.891	4653
889.015	4588
889.139	4694
889.263	4622
889.387	4774
889.511	4953
889.635	4786
889.759	4630
889.883	4664
890.006	4752
890.13	4820
890.254	4626
890.377	4717
890.501	4538
890.624	4523
890.748	4641
890.871	4478
890.995	4485
891.118	4413
891.241	4531
891.364	4580
891.488	4653
891.611	4493
891.734	4580
891.857	4599
891.98	4607
892.103	4675
892.226	4622
892.349	4535
892.471	4424
892.594	4611
892.717	4599
892.839	4634
892.962	4577
893.085	4733
893.207	4599
893.33	4481
893.452	4573
893.575	4672
893.697	4596
893.819	4786
893.941	4839
894.064	4805
894.186	4599
894.308	4569
894.43	4771
894.552	4873
894.674	4801
894.796	4603
894.918	4611
895.04	4577
895.161	4736
895.283	4721
895.405	4645
895.526	4698
895.648	4687
895.769	4683
895.891	4752
896.012	4740
896.134	4752
896.255	4698
896.376	4733
896.498	4615
896.619	4744
896.74	4626
896.861	4656
896.982	4927
897.103	4991
897.224	4866
897.345	4828
897.466	4687
897.587	4744
897.708	4866
897.828	4790
897.949	4706
898.07	4577
898.19	4653
898.311	4870
898.431	4698
898.552	4740
898.672	4778
898.792	4862
898.913	4771
899.033	4611
899.153	4504
899.273	4436
899.393	4527
899.513	4573
899.633	4577
899.753	4550
899.873	4546
899.993	4580
900.113	4554
900.232	4588
900.352	4573
900.472	4531
900.591	4375
900.711	4558
900.83	4428
900.95	4626
901.069	4691
901.189	4588
901.308	4333
901.427	4333
901.546	4363
901.665	4443
901.784	4485
901.904	4440
902.023	4363
902.141	4230
902.26	4207
902.379	4341
902.498	4268
902.617	4242
902.735	4344
902.854	4402
902.973	4409
903.091	4211
903.21	4276
903.328	4318
903.446	4295
903.565	4268
903.683	4371
903.801	4280
903.919	4390
904.038	4440
904.156	4352
904.274	4504
904.392	4421
904.51	4485
904.627	4478
904.745	4565
904.863	4649
904.981	4462
905.098	4299
905.216	4390
905.334	4443
905.451	4466
905.569	4432
905.686	4535
905.803	4626
905.921	4432
906.038	4519
906.155	4451
906.272	4356
906.389	4531
906.506	4371
906.623	4417
906.74	4371
906.857	4322
906.974	4379
907.091	4592
907.208	4664
907.324	4611
907.441	4485
907.557	4329
907.674	4352
907.79	4261
907.907	4409
908.023	4493
908.139	4523
908.256	4421
908.372	4470
908.488	4462
908.604	4379
908.72	4352
908.836	4413
908.952	4417
909.068	4440
909.184	4611
909.3	4474
909.415	4626
909.531	4592
909.647	4383
909.762	4360
909.878	4386
909.993	4440
910.108	4432
910.224	4451
910.339	4508
910.454	4421
910.57	4344
910.685	4333
910.8	4641
910.915	4637
911.03	4447
911.145	4322
911.259	4333
911.374	4363
911.489	4333
911.604	4265
911.718	4154
911.833	4230
911.947	4093
912.062	4063
912.176	4238
912.291	4238
912.405	4249
912.519	4470
912.633	4508
912.748	4356
912.862	4310
912.976	4204
913.09	4128
913.204	4200
913.318	4265
913.431	4367
913.545	4417
913.659	4443
913.772	4398
913.886	4238
914	4253
914.113	4367
914.226	4428
914.34	4383
914.453	4242
914.566	4443
914.68	4325
914.793	4325
914.906	4135
915.019	4150
915.132	4086
915.245	4181
915.358	4177
915.47	4223
915.583	4284
915.696	4352
915.809	4451
915.921	4432
916.034	4295
916.146	4257
916.259	4246
916.371	4394
916.483	4363
916.595	4303
916.708	4314
916.82	4318
916.932	4318
917.044	4306
917.156	4333
917.268	4253
917.38	4246
917.491	4272
917.603	4356
917.715	4413
917.826	4436
917.938	4428
918.049	4265
918.161	4375
918.272	4603
918.384	4519
918.495	4443
918.606	4337
918.717	4249
918.828	4352
918.939	4356
919.05	4284
919.161	4360
919.272	4169
919.383	4284
919.494	4478
919.604	4645
919.715	4417
919.826	4360
919.936	4417
920.047	4538
920.157	4478
920.267	4744
920.378	4580
920.488	4546
920.598	4782
920.708	4934
920.818	4771
920.928	4752
921.038	4949
921.148	4972
921.258	4599
921.368	4596
921.477	4516
921.587	4497
921.697	4348
921.806	4611
921.916	4436
922.025	4272
922.134	4287
922.244	4242
922.353	4341
922.462	4188
922.571	4188
922.68	4002
922.789	3964
922.898	4063
923.007	4032
923.116	4105
923.224	4097
923.333	4074
923.442	4010
923.55	4013
923.659	4036
923.767	4131
923.876	4032
923.984	4135
924.092	4013
924.201	4082
924.309	4116
924.417	4135
924.525	4040
924.633	4101
924.741	5109
924.849	3918
924.956	4154
925.064	3994
925.172	3903
925.279	3972
925.387	4082
925.494	4097
925.602	4223
925.709	4181
925.816	4048
925.924	4116
926.031	4268
926.138	4177
926.245	4200
926.352	4124
926.459	4265
926.566	4280
926.673	4181
926.779	4128
926.886	4112
926.993	3998
927.099	4029
927.206	3968
927.312	3968
927.419	4051
927.525	4044
927.631	4078
927.737	3949
927.843	3975
927.95	3865
928.056	3922
928.162	4021
928.267	4090
928.373	4694
928.479	4166
928.585	3876
928.69	3987
928.796	4071
928.901	4021
929.007	3854
929.112	4002
929.218	3926
929.323	3911
929.428	3972
929.533	4135
929.638	3911
929.743	3998
929.848	4082
929.953	3998
930.058	3949
930.163	3781
930.267	3797
930.372	3991
930.477	3800
930.581	4067
930.685	3941
930.79	3827
930.894	3861
930.998	3835
931.103	4017
931.207	3740
931.311	3701
931.415	3717
931.519	3542
931.623	3572
