Data from test_V78500241_734.txt Node
Date: Fri Mar 25 16:54:06 CST 2022
User: usil
Spectrometer: V785-0024
Trigger mode: 0
Integration Time (sec): 4.000000E-1
Scans to average: 1
Nonlinearity correction enabled: false
Boxcar width: 0
Storing dark spectrum: false
XAxis mode: Wavelengths
Number of Pixels in Spectrum: 1024
>>>>>Begin Spectral Data<<<<<
801.071	8039
801.214	7986
801.356	7864
801.499	7871
801.641	7852
801.783	7833
801.926	7955
802.068	7860
802.211	7928
802.353	7951
802.496	7944
802.638	7890
802.78	7898
802.923	7936
803.065	7845
803.208	7833
803.35	7997
803.492	8111
803.635	8138
803.777	7997
803.919	7993
804.061	8404
804.204	8168
804.346	8035
804.488	7902
804.63	8088
804.773	8020
804.915	8016
805.057	8362
805.199	8183
805.341	8191
805.483	8263
805.626	8187
805.768	8103
805.91	8229
806.052	8180
806.194	8115
806.336	8279
806.478	8161
806.62	8142
806.762	8138
806.904	8271
807.046	8476
807.188	8408
807.33	8309
807.472	8301
807.614	8161
807.756	8123
807.898	7906
808.04	7849
808.182	7932
808.324	7967
808.465	7944
808.607	8024
808.749	8130
808.891	8218
809.033	8347
809.174	8199
809.316	8073
809.458	8077
809.6	7997
809.741	8077
809.883	8084
810.025	8130
810.166	8115
810.308	8107
810.45	8016
810.591	7868
810.733	7746
810.875	7723
811.016	7525
811.158	7521
811.299	7571
811.441	7818
811.582	7727
811.724	7567
811.865	7594
812.007	7563
812.148	7647
812.29	7559
812.431	7677
812.573	7871
812.714	7986
812.855	8130
812.997	8199
813.138	8358
813.279	8271
813.421	8161
813.562	8008
813.703	7944
813.845	7818
813.986	7537
814.127	7297
814.268	7228
814.41	7179
814.551	7133
814.692	7213
814.833	7038
814.974	7164
815.115	7095
815.256	7008
815.397	6928
815.539	7042
815.68	6901
815.821	6837
815.962	6901
816.103	6749
816.244	6776
816.385	6635
816.526	6631
816.666	6547
816.807	6296
816.948	6422
817.089	6490
817.23	6456
817.371	6391
817.512	6399
817.653	6353
817.793	6426
817.934	6460
818.075	6479
818.216	6437
818.356	6429
818.497	6228
818.638	6155
818.778	6171
818.919	6155
819.06	6129
819.2	6361
819.341	6315
819.481	6384
819.622	6528
819.762	6814
819.903	6684
820.043	6612
820.184	6612
820.324	6582
820.465	6688
820.605	6635
820.746	6658
820.886	6532
821.026	6650
821.167	6703
821.307	6764
821.447	6768
821.588	6677
821.728	6589
821.868	6536
822.008	6296
822.149	6399
822.289	6391
822.429	6155
822.569	6106
822.709	6197
822.849	5946
822.99	5912
823.13	5946
823.27	5908
823.41	5779
823.55	5805
823.69	5760
823.83	5771
823.97	5703
824.11	5589
824.25	5520
824.389	5570
824.529	5630
824.669	5539
824.809	5642
824.949	5695
825.089	5592
825.228	5554
825.368	5417
825.508	5341
825.648	5299
825.787	5406
825.927	5376
826.067	5330
826.206	5337
826.346	5444
826.485	5410
826.625	5398
826.765	5520
826.904	5501
827.044	5280
827.183	5231
827.323	5201
827.462	5292
827.601	5193
827.741	5185
827.88	5185
828.02	5105
828.159	5220
828.298	5322
828.437	5311
828.577	5280
828.716	5493
828.855	5345
828.994	5159
829.134	5185
829.273	5223
829.412	5147
829.551	5147
829.69	5181
829.829	5242
829.968	5395
830.107	5330
830.246	5322
830.385	5227
830.524	5113
830.663	5060
830.802	4980
830.941	4877
831.08	4919
831.219	4991
831.357	5025
831.496	5178
831.635	4949
831.774	4858
831.913	4850
832.051	4759
832.19	4774
832.329	4835
832.467	4752
832.606	4634
832.744	4767
832.883	4774
833.022	4752
833.16	4774
833.299	4858
833.437	4847
833.576	4820
833.714	4900
833.852	4911
833.991	4953
834.129	4961
834.267	5010
834.406	4995
834.544	4946
834.682	4991
834.821	5041
834.959	5121
835.097	5029
835.235	5147
835.373	5079
835.511	5166
835.65	5045
835.788	5052
835.926	4930
836.064	4911
836.202	4961
836.34	5220
836.478	5216
836.615	5143
836.753	5258
836.891	5284
837.029	5242
837.167	5189
837.305	5155
837.443	5159
837.58	5086
837.718	5201
837.856	5189
837.993	5189
838.131	5292
838.269	5277
838.406	5246
838.544	5235
838.681	5079
838.819	5006
838.956	4919
839.094	4892
839.231	5014
839.369	5071
839.506	5452
839.643	5322
839.781	5086
839.918	5067
840.055	5090
840.193	5090
840.33	5109
840.467	5117
840.604	5185
840.742	5455
840.879	5098
841.016	5117
841.153	5166
841.29	5379
841.427	5372
841.564	5326
841.701	5402
841.838	5311
841.975	5250
842.112	5311
842.249	5189
842.385	5166
842.522	5360
842.659	5170
842.796	5181
842.933	5212
843.069	5147
843.206	5170
843.343	5341
843.479	5235
843.616	5258
843.752	5102
843.889	5056
844.025	5193
844.162	5105
844.298	5208
844.435	5075
844.571	5090
844.708	5189
844.844	5307
844.98	5337
845.117	5372
845.253	5140
845.389	5079
845.525	5178
845.661	5151
845.798	5086
845.934	5090
846.07	5075
846.206	5239
846.342	5273
846.478	5189
846.614	5067
846.75	5048
846.886	4957
847.022	5155
847.158	5067
847.294	5064
847.429	5067
847.565	5075
847.701	5376
847.837	4850
847.972	4835
848.108	4980
848.244	4915
848.379	4763
848.515	4767
848.65	4733
848.786	4752
848.921	4831
849.057	4881
849.192	5006
849.328	4843
849.463	4828
849.598	4786
849.734	4797
849.869	4729
850.004	4649
850.14	4679
850.275	4634
850.41	4546
850.545	4535
850.68	4626
850.815	4645
850.95	4634
851.085	4862
851.22	4763
851.355	4725
851.49	4607
851.625	4672
851.76	4653
851.895	4592
852.03	4519
852.165	4630
852.299	4706
852.434	4774
852.569	4717
852.703	4805
852.838	4904
852.973	4995
853.107	4961
853.242	4733
853.376	4649
853.511	4588
853.645	4618
853.78	4812
853.914	4668
854.048	4660
854.183	4679
854.317	4717
854.451	4847
854.585	4691
854.72	4618
854.854	4801
854.988	4630
855.122	4622
855.256	4542
855.39	4668
855.524	4778
855.658	4736
855.792	4698
855.926	4748
856.06	4812
856.194	4759
856.327	4683
856.461	4611
856.595	4653
856.729	4645
856.862	4786
856.996	4679
857.13	4710
857.263	4816
857.397	4805
857.53	4664
857.664	4714
857.797	4752
857.931	4801
858.064	4683
858.197	4820
858.331	4637
858.464	4611
858.597	4546
858.731	4645
858.864	4656
858.997	4580
859.13	4664
859.263	4679
859.396	4721
859.529	4611
859.662	4561
859.795	4550
859.928	4622
860.061	4748
860.194	4805
860.327	4637
860.46	4569
860.592	4717
860.725	4714
860.858	4725
860.99	4596
861.123	4512
861.256	4558
861.388	4649
861.521	5444
861.653	4516
861.786	4451
861.918	4500
862.05	4535
862.183	4538
862.315	4596
862.447	4672
862.58	4512
862.712	4409
862.844	4318
862.976	4474
863.108	4421
863.24	4870
863.372	4325
863.504	4455
863.636	4428
863.768	4443
863.9	4459
864.032	4386
864.164	4436
864.296	4474
864.428	4573
864.559	4584
864.691	4542
864.823	4519
864.954	4497
865.086	4512
865.217	4462
865.349	4451
865.48	4405
865.612	4459
865.743	4641
865.875	4462
866.006	4436
866.137	4462
866.269	4451
866.4	4421
866.531	4462
866.662	4386
866.793	4402
866.924	4440
867.055	4485
867.186	4447
867.317	4428
867.448	4409
867.579	4375
867.71	4390
867.841	4390
867.972	4462
868.103	4440
868.233	4417
868.364	4478
868.495	4519
868.625	4668
868.756	4755
868.886	4565
869.017	4615
869.147	4748
869.278	4774
869.408	4694
869.539	4626
869.669	4717
869.799	4641
869.929	4744
870.06	4748
870.19	4942
870.32	4908
870.45	4915
870.58	5022
870.71	5147
870.84	5136
870.97	4968
871.1	4889
871.23	5109
871.36	5155
871.489	5045
871.619	5086
871.749	5098
871.879	5086
872.008	5201
872.138	5075
872.267	5010
872.397	4843
872.526	4820
872.656	4706
872.785	4786
872.915	4980
873.044	5029
873.173	4953
873.303	5033
873.432	4953
873.561	4976
873.69	4896
873.819	4866
873.948	4961
874.077	4790
874.206	4729
874.335	4786
874.464	4923
874.593	5075
874.722	4965
874.851	5083
874.979	5064
875.108	4987
875.237	4953
875.365	4870
875.494	4835
875.623	4980
875.751	4816
875.88	4892
876.008	5010
876.136	5037
876.265	5166
876.393	5334
876.521	5258
876.65	5227
876.778	5159
876.906	5083
877.034	5033
877.162	5086
877.29	5018
877.418	5071
877.546	5033
877.674	5060
877.802	4991
877.93	5083
878.058	4911
878.185	4877
878.313	5003
878.441	4927
878.568	4809
878.696	4930
878.824	4995
878.951	5029
879.079	5166
879.206	5296
879.333	5151
879.461	4995
879.588	5029
879.715	5181
879.842	5246
879.97	5067
880.097	4847
880.224	4797
880.351	4843
880.478	4866
880.605	4828
880.732	4801
880.859	5155
880.986	4923
881.112	4919
881.239	4828
881.366	4694
881.493	4637
881.619	4630
881.746	4664
881.872	4675
881.999	4649
882.125	4740
882.252	4797
882.378	4854
882.505	5018
882.631	4847
882.757	4721
882.883	4729
883.01	4763
883.136	4702
883.262	4626
883.388	4615
883.514	4824
883.64	4889
883.766	4839
883.892	4729
884.018	4771
884.143	4953
884.269	5033
884.395	4717
884.52	4668
884.646	4664
884.772	4573
884.897	4626
885.023	4687
885.148	4828
885.274	4934
885.399	4847
885.524	4790
885.65	4755
885.775	4786
885.9	4763
886.025	4885
886.15	4782
886.275	4721
886.4	4687
886.525	4748
886.65	4721
886.775	4786
886.9	4946
887.025	5075
887.149	4866
887.274	4683
887.399	4622
887.523	4645
887.648	4611
887.773	4645
887.897	4793
888.021	4866
888.146	4763
888.27	4881
888.395	4968
888.519	4866
888.643	4866
888.767	4835
888.891	4733
889.015	4679
889.139	4706
889.263	4607
889.387	4767
889.511	4908
889.635	4839
889.759	4729
889.883	4683
890.006	4782
890.13	4854
890.254	4664
890.377	4675
890.501	4542
890.624	4542
890.748	4649
890.871	4580
890.995	4451
891.118	4386
891.241	4580
891.364	4538
891.488	4683
891.611	4519
891.734	4550
891.857	4653
891.98	4550
892.103	4656
892.226	4615
892.349	4512
892.471	4455
892.594	4573
892.717	4584
892.839	4645
892.962	4634
893.085	4664
893.207	4630
893.33	4485
893.452	4573
893.575	4706
893.697	4634
893.819	4801
893.941	4889
894.064	4778
894.186	4649
894.308	4577
894.43	4782
894.552	4908
894.674	4809
894.796	4569
894.918	4641
895.04	4565
895.161	4733
895.283	4679
895.405	4603
895.526	4675
895.648	4714
895.769	4733
895.891	4733
896.012	4755
896.134	4729
896.255	4660
896.376	4618
896.498	4668
896.619	4717
896.74	4656
896.861	4691
896.982	4919
897.103	5128
897.224	4870
897.345	4801
897.466	4702
897.587	4793
897.708	4854
897.828	4820
897.949	4683
898.07	4607
898.19	4691
898.311	4839
898.431	4714
898.552	4752
898.672	4858
898.792	4820
898.913	4786
899.033	4668
899.153	4531
899.273	4466
899.393	4531
899.513	4554
899.633	4516
899.753	4516
899.873	4535
899.993	4611
900.113	4584
900.232	4668
900.352	4588
900.472	4508
900.591	4405
900.711	4561
900.83	4516
900.95	4626
901.069	4683
901.189	4558
901.308	4417
901.427	4360
901.546	4428
901.665	4504
901.784	4550
901.904	4424
902.023	4379
902.141	4219
902.26	4215
902.379	4329
902.498	4322
902.617	4322
902.735	4371
902.854	4360
902.973	4390
903.091	4234
903.21	4249
903.328	4333
903.446	4303
903.565	4325
903.683	4386
903.801	4299
903.919	4455
904.038	4474
904.156	4276
904.274	4436
904.392	4413
904.51	4462
904.627	4489
904.745	4584
904.863	4672
904.981	4481
905.098	4356
905.216	4405
905.334	4508
905.451	4493
905.569	4470
905.686	4618
905.803	4580
905.921	4478
906.038	4565
906.155	4538
906.272	4402
906.389	4504
906.506	4344
906.623	4360
906.74	4455
906.857	4333
906.974	4432
907.091	4535
907.208	4683
907.324	4618
907.441	4489
907.557	4333
907.674	4379
907.79	4390
907.907	4413
908.023	4474
908.139	4512
908.256	4451
908.372	4485
908.488	4459
908.604	4379
908.72	4344
908.836	4371
908.952	4383
909.068	4466
909.184	4569
909.3	4500
909.415	4626
909.531	4599
909.647	4371
909.762	4371
909.878	4375
909.993	4447
910.108	4493
910.224	4421
910.339	4573
910.454	4432
910.57	4383
910.685	4360
910.8	4637
910.915	4584
911.03	4516
911.145	4367
911.259	4341
911.374	4428
911.489	4257
911.604	4299
911.718	4234
911.833	4227
911.947	4093
912.062	4029
912.176	4257
912.291	4234
912.405	4268
912.519	4519
912.633	4489
912.748	4379
912.862	4371
912.976	4257
913.09	4112
913.204	4185
913.318	4291
913.431	4424
913.545	4337
913.659	4447
913.772	4306
913.886	4306
914	4230
914.113	4375
914.226	4455
914.34	4413
914.453	4219
914.566	4421
914.68	4306
914.793	4333
914.906	4192
915.019	4139
915.132	4147
915.245	4227
915.358	4234
915.47	4261
915.583	4261
915.696	4310
915.809	4417
915.921	4428
916.034	4287
916.146	4268
916.259	4276
916.371	4367
916.483	4386
916.595	4272
916.708	4284
916.82	4318
916.932	4379
917.044	4329
917.156	4360
917.268	4249
917.38	4322
917.491	4295
917.603	4341
917.715	4455
917.826	4432
917.938	4341
918.049	4257
918.161	4421
918.272	4546
918.384	4573
918.495	4455
918.606	4348
918.717	4265
918.828	4352
918.939	4390
919.05	4291
919.161	4424
919.272	4147
919.383	4219
919.494	4500
919.604	4649
919.715	4459
919.826	4371
919.936	4394
920.047	4561
920.157	4500
920.267	4744
920.378	4538
920.488	4516
920.598	4721
920.708	4885
920.818	4774
920.928	4782
921.038	4999
921.148	4953
921.258	4637
921.368	4573
921.477	4508
921.587	4497
921.697	4367
921.806	4542
921.916	4500
922.025	4299
922.134	4314
922.244	4242
922.353	4367
922.462	4204
922.571	4185
922.68	4025
922.789	3930
922.898	4074
923.007	3994
923.116	4112
923.224	4090
923.333	4063
923.442	4010
923.55	3983
923.659	4040
923.767	4105
923.876	4059
923.984	4112
924.092	4017
924.201	4090
924.309	4109
924.417	4135
924.525	4086
924.633	4097
924.741	4904
924.849	3918
924.956	4101
925.064	3979
925.172	3918
925.279	3979
925.387	4055
925.494	4048
925.602	4253
925.709	4207
925.816	4051
925.924	4169
926.031	4230
926.138	4196
926.245	4249
926.352	4101
926.459	4253
926.566	4337
926.673	4147
926.779	4116
926.886	4143
926.993	4006
927.099	3979
927.206	3949
927.312	3945
927.419	4071
927.525	4074
927.631	4192
927.737	3960
927.843	3945
927.95	3854
928.056	3975
928.162	4048
928.267	4074
928.373	4672
928.479	4131
928.585	3869
928.69	4032
928.796	4078
928.901	4013
929.007	3835
929.112	4013
929.218	4006
929.323	3956
929.428	3953
929.533	4101
929.638	3956
929.743	3964
929.848	4059
929.953	4010
930.058	3945
930.163	3766
930.267	3869
930.372	3983
930.477	3812
930.581	4093
930.685	3949
930.79	3880
930.894	3861
930.998	3835
931.103	4040
931.207	3732
931.311	3766
931.415	3701
931.519	3523
931.623	3553
