Data from test_V78500241_1224.txt Node
Date: Fri Mar 25 16:57:30 CST 2022
User: usil
Spectrometer: V785-0024
Trigger mode: 0
Integration Time (sec): 4.000000E-1
Scans to average: 1
Nonlinearity correction enabled: false
Boxcar width: 0
Storing dark spectrum: false
XAxis mode: Wavelengths
Number of Pixels in Spectrum: 1024
>>>>>Begin Spectral Data<<<<<
801.071	8096
801.214	8020
801.356	7940
801.499	7871
801.641	7757
801.783	7776
801.926	7944
802.068	7940
802.211	8001
802.353	7986
802.496	7837
802.638	7879
802.78	7944
802.923	7887
803.065	7913
803.208	7826
803.35	7997
803.492	8092
803.635	8187
803.777	8062
803.919	8145
804.061	8385
804.204	8195
804.346	8031
804.488	7967
804.63	8138
804.773	7974
804.915	8077
805.057	8240
805.199	8191
805.341	8161
805.483	8381
805.626	8233
805.768	8161
805.91	8259
806.052	8256
806.194	8039
806.336	8290
806.478	8054
806.62	8031
806.762	8164
806.904	8290
807.046	8568
807.188	8419
807.33	8286
807.472	8294
807.614	8187
807.756	8134
807.898	7963
808.04	7879
808.182	7917
808.324	7921
808.465	7879
808.607	8126
808.749	8210
808.891	8210
809.033	8267
809.174	8195
809.316	8039
809.458	8092
809.6	7963
809.741	8012
809.883	8008
810.025	8084
810.166	8077
810.308	8043
810.45	8081
810.591	7879
810.733	7708
810.875	7681
811.016	7491
811.158	7487
811.299	7559
811.441	7693
811.582	7731
811.724	7563
811.865	7476
812.007	7533
812.148	7647
812.29	7597
812.431	7753
812.573	7887
812.714	7986
812.855	8123
812.997	8214
813.138	8252
813.279	8153
813.421	8126
813.562	8024
813.703	7803
813.845	7750
813.986	7457
814.127	7263
814.268	7198
814.41	7194
814.551	7160
814.692	7244
814.833	7042
814.974	7107
815.115	7122
815.256	6958
815.397	6920
815.539	6993
815.68	6905
815.821	6802
815.962	6875
816.103	6844
816.244	6753
816.385	6639
816.526	6639
816.666	6490
816.807	6281
816.948	6403
817.089	6479
817.23	6448
817.371	6422
817.512	6403
817.653	6403
817.793	6395
817.934	6445
818.075	6437
818.216	6410
818.356	6429
818.497	6258
818.638	6102
818.778	6136
818.919	6201
819.06	6152
819.2	6319
819.341	6285
819.481	6391
819.622	6528
819.762	6760
819.903	6658
820.043	6604
820.184	6555
820.324	6566
820.465	6738
820.605	6677
820.746	6620
820.886	6502
821.026	6669
821.167	6677
821.307	6856
821.447	6745
821.588	6662
821.728	6566
821.868	6502
822.008	6213
822.149	6338
822.289	6262
822.429	6163
822.569	6079
822.709	6083
822.849	5897
822.99	5878
823.13	5935
823.27	5908
823.41	5798
823.55	5771
823.69	5771
823.83	5703
823.97	5729
824.11	5570
824.25	5532
824.389	5573
824.529	5573
824.669	5516
824.809	5623
824.949	5646
825.089	5653
825.228	5570
825.368	5379
825.508	5299
825.648	5379
825.787	5376
825.927	5303
826.067	5322
826.206	5284
826.346	5322
826.485	5395
826.625	5414
826.765	5505
826.904	5444
827.044	5258
827.183	5223
827.323	5162
827.462	5284
827.601	5147
827.741	5201
827.88	5197
828.02	5105
828.159	5189
828.298	5307
828.437	5360
828.577	5239
828.716	5467
828.855	5307
828.994	5128
829.134	5086
829.273	5204
829.412	5140
829.551	5124
829.69	5216
829.829	5235
829.968	5330
830.107	5265
830.246	5280
830.385	5178
830.524	5105
830.663	5064
830.802	4946
830.941	4889
831.08	4873
831.219	4972
831.357	4984
831.496	5105
831.635	4957
831.774	4873
831.913	4835
832.051	4675
832.19	4710
832.329	4850
832.467	4687
832.606	4626
832.744	4679
832.883	4744
833.022	4687
833.16	4763
833.299	4820
833.437	4858
833.576	4828
833.714	4839
833.852	4862
833.991	4908
834.129	4942
834.267	4942
834.406	4896
834.544	4965
834.682	4942
834.821	4976
834.959	5162
835.097	5064
835.235	5162
835.373	5075
835.511	5124
835.65	5006
835.788	5006
835.926	4870
836.064	4900
836.202	4946
836.34	5166
836.478	5265
836.615	5132
836.753	5174
836.891	5299
837.029	5254
837.167	5242
837.305	5166
837.443	5064
837.58	5071
837.718	5269
837.856	5185
837.993	5102
838.131	5193
838.269	5185
838.406	5212
838.544	5212
838.681	5033
838.819	4984
838.956	4915
839.094	4824
839.231	4995
839.369	5060
839.506	5410
839.643	5265
839.781	5052
839.918	4999
840.055	5098
840.193	5098
840.33	5143
840.467	5109
840.604	5220
840.742	5402
840.879	5071
841.016	5132
841.153	5178
841.29	5357
841.427	5299
841.564	5303
841.701	5395
841.838	5261
841.975	5231
842.112	5273
842.249	5098
842.385	5136
842.522	5357
842.659	5155
842.796	5147
842.933	5174
843.069	5201
843.206	5132
843.343	5284
843.479	5204
843.616	5239
843.752	5041
843.889	4984
844.025	5124
844.162	4999
844.298	5185
844.435	5071
844.571	5018
844.708	5220
844.844	5307
844.98	5269
845.117	5269
845.253	5143
845.389	5075
845.525	5162
845.661	5162
845.798	5048
845.934	5109
846.07	5029
846.206	5185
846.342	5292
846.478	5155
846.614	5064
846.75	4938
846.886	4942
847.022	5174
847.158	5006
847.294	5090
847.429	5056
847.565	5086
847.701	5315
847.837	4847
847.972	4782
848.108	4938
848.244	4938
848.379	4790
848.515	4702
848.65	4706
848.786	4759
848.921	4752
849.057	4881
849.192	4858
849.328	4816
849.463	4797
849.598	4782
849.734	4759
849.869	4660
850.004	4626
850.14	4683
850.275	4603
850.41	4470
850.545	4546
850.68	4599
850.815	4569
850.95	4607
851.085	4809
851.22	4721
851.355	4687
851.49	4558
851.625	4603
851.76	4558
851.895	4542
852.03	4519
852.165	4675
852.299	4698
852.434	4748
852.569	4687
852.703	4759
852.838	4835
852.973	4889
853.107	4934
853.242	4714
853.376	4660
853.511	4565
853.645	4607
853.78	4805
853.914	4702
854.048	4702
854.183	4660
854.317	4698
854.451	4778
854.585	4691
854.72	4603
854.854	4717
854.988	4550
855.122	4641
855.256	4500
855.39	4664
855.524	4752
855.658	4717
855.792	4691
855.926	4740
856.06	4736
856.194	4809
856.327	4668
856.461	4607
856.595	4554
856.729	4603
856.862	4714
856.996	4679
857.13	4683
857.263	4744
857.397	4767
857.53	4607
857.664	4683
857.797	4759
857.931	4843
858.064	4679
858.197	4763
858.331	4592
858.464	4531
858.597	4535
858.731	4641
858.864	4645
858.997	4603
859.13	4622
859.263	4717
859.396	4656
859.529	4596
859.662	4573
859.795	4535
859.928	4634
860.061	4755
860.194	4774
860.327	4596
860.46	4565
860.592	4694
860.725	4675
860.858	4672
860.99	4565
861.123	4508
861.256	4462
861.388	4573
861.521	5391
861.653	4481
861.786	4440
861.918	4451
862.05	4512
862.183	4569
862.315	4618
862.447	4668
862.58	4493
862.712	4344
862.844	4337
862.976	4485
863.108	4432
863.24	4850
863.372	4333
863.504	4424
863.636	4398
863.768	4474
863.9	4432
864.032	4379
864.164	4390
864.296	4485
864.428	4561
864.559	4554
864.691	4516
864.823	4535
864.954	4500
865.086	4508
865.217	4428
865.349	4405
865.48	4402
865.612	4489
865.743	4649
865.875	4481
866.006	4447
866.137	4432
866.269	4470
866.4	4447
866.531	4440
866.662	4398
866.793	4398
866.924	4436
867.055	4493
867.186	4459
867.317	4443
867.448	4390
867.579	4348
867.71	4348
867.841	4352
867.972	4405
868.103	4428
868.233	4432
868.364	4447
868.495	4462
868.625	4649
868.756	4771
868.886	4584
869.017	4592
869.147	4782
869.278	4736
869.408	4641
869.539	4618
869.669	4714
869.799	4607
869.929	4748
870.06	4733
870.19	4923
870.32	4885
870.45	4889
870.58	5052
870.71	5071
870.84	5060
870.97	4908
871.1	4889
871.23	5113
871.36	5098
871.489	5010
871.619	5037
871.749	5094
871.879	5079
872.008	5162
872.138	5041
872.267	5022
872.397	4927
872.526	4755
872.656	4714
872.785	4793
872.915	4972
873.044	5098
873.173	4923
873.303	4911
873.432	4968
873.561	4946
873.69	4877
873.819	4820
873.948	4889
874.077	4767
874.206	4733
874.335	4793
874.464	4892
874.593	4976
874.722	4949
874.851	5113
874.979	4991
875.108	5014
875.237	4850
875.365	4843
875.494	4889
875.623	4930
875.751	4790
875.88	4885
876.008	4946
876.136	5098
876.265	5178
876.393	5292
876.521	5246
876.65	5204
876.778	5159
876.906	5102
877.034	5029
877.162	5025
877.29	4961
877.418	5067
877.546	5010
877.674	5033
877.802	5029
877.93	4987
878.058	4949
878.185	4862
878.313	4889
878.441	4942
878.568	4824
878.696	4889
878.824	4953
878.951	4949
879.079	5067
879.206	5269
879.333	5041
879.461	4938
879.588	4999
879.715	5094
879.842	5170
879.97	4968
880.097	4755
880.224	4733
880.351	4805
880.478	4774
880.605	4786
880.732	4729
880.859	5071
880.986	4904
881.112	4885
881.239	4767
881.366	4675
881.493	4615
881.619	4573
881.746	4618
881.872	4668
881.999	4687
882.125	4725
882.252	4729
882.378	4824
882.505	4938
882.631	4771
882.757	4641
882.883	4725
883.01	4771
883.136	4668
883.262	4577
883.388	4542
883.514	4812
883.64	4881
883.766	4782
883.892	4694
884.018	4710
884.143	4862
884.269	4984
884.395	4645
884.52	4615
884.646	4641
884.772	4607
884.897	4546
885.023	4664
885.148	4805
885.274	4831
885.399	4809
885.524	4698
885.65	4710
885.775	4748
885.9	4694
886.025	4862
886.15	4774
886.275	4729
886.4	4672
886.525	4702
886.65	4645
886.775	4630
886.9	4908
887.025	5018
887.149	4805
887.274	4660
887.399	4634
887.523	4592
887.648	4538
887.773	4558
887.897	4744
888.021	4748
888.146	4721
888.27	4733
888.395	4885
888.519	4793
888.643	4820
888.767	4797
888.891	4679
889.015	4580
889.139	4656
889.263	4558
889.387	4725
889.511	4870
889.635	4759
889.759	4615
889.883	4645
890.006	4721
890.13	4847
890.254	4596
890.377	4714
890.501	4519
890.624	4470
890.748	4573
890.871	4462
890.995	4424
891.118	4363
891.241	4478
891.364	4592
891.488	4622
891.611	4493
891.734	4565
891.857	4596
891.98	4550
892.103	4679
892.226	4580
892.349	4569
892.471	4428
892.594	4561
892.717	4584
892.839	4607
892.962	4588
893.085	4660
893.207	4603
893.33	4443
893.452	4493
893.575	4641
893.697	4561
893.819	4733
893.941	4820
894.064	4759
894.186	4569
894.308	4558
894.43	4717
894.552	4797
894.674	4736
894.796	4519
894.918	4558
895.04	4531
895.161	4691
895.283	4615
895.405	4527
895.526	4653
895.648	4710
895.769	4634
895.891	4691
896.012	4683
896.134	4702
896.255	4717
896.376	4618
896.498	4569
896.619	4641
896.74	4615
896.861	4687
896.982	4915
897.103	5109
897.224	4812
897.345	4744
897.466	4618
897.587	4687
897.708	4843
897.828	4774
897.949	4649
898.07	4584
898.19	4607
898.311	4771
898.431	4656
898.552	4740
898.672	4786
898.792	4778
898.913	4717
899.033	4603
899.153	4466
899.273	4447
899.393	4466
899.513	4596
899.633	4500
899.753	4546
899.873	4516
899.993	4607
900.113	4493
900.232	4580
900.352	4558
900.472	4474
900.591	4405
900.711	4451
900.83	4451
900.95	4584
901.069	4717
901.189	4577
901.308	4428
901.427	4341
901.546	4405
901.665	4489
901.784	4531
901.904	4375
902.023	4356
902.141	4188
902.26	4109
902.379	4310
902.498	4234
902.617	4207
902.735	4405
902.854	4344
902.973	4356
903.091	4192
903.21	4242
903.328	4322
903.446	4268
903.565	4310
903.683	4284
903.801	4265
903.919	4409
904.038	4409
904.156	4295
904.274	4440
904.392	4367
904.51	4417
904.627	4474
904.745	4546
904.863	4649
904.981	4386
905.098	4299
905.216	4314
905.334	4459
905.451	4443
905.569	4436
905.686	4519
905.803	4523
905.921	4386
906.038	4550
906.155	4519
906.272	4379
906.389	4455
906.506	4325
906.623	4371
906.74	4451
906.857	4287
906.974	4344
907.091	4504
907.208	4675
907.324	4584
907.441	4489
907.557	4360
907.674	4325
907.79	4337
907.907	4363
908.023	4466
908.139	4455
908.256	4428
908.372	4440
908.488	4443
908.604	4318
908.72	4299
908.836	4344
908.952	4379
909.068	4413
909.184	4554
909.3	4474
909.415	4596
909.531	4523
909.647	4367
909.762	4314
909.878	4394
909.993	4390
910.108	4363
910.224	4424
910.339	4390
910.454	4409
910.57	4348
910.685	4268
910.8	4691
910.915	4656
911.03	4489
911.145	4314
911.259	4303
911.374	4333
911.489	4272
911.604	4257
911.718	4185
911.833	4162
911.947	4036
912.062	4025
912.176	4204
912.291	4219
912.405	4223
912.519	4451
912.633	4493
912.748	4405
912.862	4272
912.976	4162
913.09	4109
913.204	4162
913.318	4242
913.431	4383
913.545	4360
913.659	4455
913.772	4352
913.886	4215
914	4234
914.113	4398
914.226	4421
914.34	4398
914.453	4177
914.566	4402
914.68	4306
914.793	4322
914.906	4162
915.019	4135
915.132	4101
915.245	4192
915.358	4158
915.47	4181
915.583	4280
915.696	4314
915.809	4363
915.921	4428
916.034	4234
916.146	4265
916.259	4242
916.371	4352
916.483	4363
916.595	4261
916.708	4325
916.82	4314
916.932	4318
917.044	4291
917.156	4299
917.268	4204
917.38	4287
917.491	4261
917.603	4363
917.715	4363
917.826	4421
917.938	4314
918.049	4230
918.161	4390
918.272	4504
918.384	4573
918.495	4440
918.606	4295
918.717	4223
918.828	4287
918.939	4352
919.05	4234
919.161	4360
919.272	4158
919.383	4219
919.494	4383
919.604	4622
919.715	4432
919.826	4348
919.936	4398
920.047	4485
920.157	4478
920.267	4694
920.378	4550
920.488	4516
920.598	4717
920.708	4831
920.818	4675
920.928	4740
921.038	4987
921.148	4877
921.258	4634
921.368	4596
921.477	4481
921.587	4436
921.697	4405
921.806	4519
921.916	4443
922.025	4223
922.134	4276
922.244	4234
922.353	4284
922.462	4135
922.571	4120
922.68	3998
922.789	3972
922.898	4025
923.007	3991
923.116	4090
923.224	4055
923.333	4063
923.442	3960
923.55	3979
923.659	4013
923.767	4128
923.876	3979
923.984	4090
924.092	3975
924.201	4093
924.309	4143
924.417	4120
924.525	4036
924.633	4128
924.741	5025
924.849	3896
924.956	4097
925.064	3968
925.172	3884
925.279	3918
925.387	4071
925.494	4059
925.602	4238
925.709	4169
925.816	3994
925.924	4082
926.031	4253
926.138	4173
926.245	4166
926.352	4086
926.459	4310
926.566	4246
926.673	4147
926.779	4029
926.886	4067
926.993	3975
927.099	3945
927.206	3972
927.312	4006
927.419	4025
927.525	4017
927.631	4086
927.737	3926
927.843	3941
927.95	3823
928.056	3941
928.162	3945
928.267	4017
928.373	4668
928.479	4093
928.585	3865
928.69	3994
928.796	4059
928.901	3975
929.007	3892
929.112	3979
929.218	3964
929.323	3968
929.428	3873
929.533	4090
929.638	3884
929.743	3907
929.848	4048
929.953	4017
930.058	3907
930.163	3789
930.267	3857
930.372	3972
930.477	3793
930.581	4078
930.685	3926
930.79	3838
930.894	3846
930.998	3873
931.103	4013
931.207	3728
931.311	3686
931.415	3709
931.519	3515
931.623	3545
