Data from test_V78500241_956.txt Node
Date: Fri Mar 25 16:55:38 CST 2022
User: usil
Spectrometer: V785-0024
Trigger mode: 0
Integration Time (sec): 4.000000E-1
Scans to average: 1
Nonlinearity correction enabled: false
Boxcar width: 0
Storing dark spectrum: false
XAxis mode: Wavelengths
Number of Pixels in Spectrum: 1024
>>>>>Begin Spectral Data<<<<<
801.071	8073
801.214	8016
801.356	7902
801.499	7757
801.641	7826
801.783	7814
801.926	7982
802.068	7811
802.211	7925
802.353	7989
802.496	7788
802.638	7883
802.78	7868
802.923	7909
803.065	7871
803.208	7868
803.35	7993
803.492	8130
803.635	8161
803.777	8077
803.919	8119
804.061	8336
804.204	8100
804.346	8020
804.488	8012
804.63	8134
804.773	8035
804.915	8123
805.057	8259
805.199	8176
805.341	8183
805.483	8202
805.626	8123
805.768	8073
805.91	8210
806.052	8202
806.194	8065
806.336	8324
806.478	8054
806.62	8043
806.762	8126
806.904	8244
807.046	8476
807.188	8343
807.33	8263
807.472	8290
807.614	8157
807.756	8157
807.898	8046
808.04	7887
808.182	7856
808.324	7849
808.465	7856
808.607	8050
808.749	8050
808.891	8084
809.033	8328
809.174	8214
809.316	8001
809.458	8069
809.6	7989
809.741	8081
809.883	8062
810.025	8081
810.166	8088
810.308	8031
810.45	7974
810.591	7887
810.733	7666
810.875	7708
811.016	7548
811.158	7449
811.299	7639
811.441	7666
811.582	7605
811.724	7438
811.865	7518
812.007	7575
812.148	7571
812.29	7620
812.431	7746
812.573	7788
812.714	7955
812.855	8142
812.997	8229
813.138	8301
813.279	8111
813.421	8058
813.562	7974
813.703	7818
813.845	7738
813.986	7460
814.127	7293
814.268	7152
814.41	7194
814.551	7095
814.692	7137
814.833	7080
814.974	7118
815.115	7072
815.256	6932
815.397	6970
815.539	7000
815.68	6848
815.821	6840
815.962	6776
816.103	6818
816.244	6700
816.385	6585
816.526	6684
816.666	6464
816.807	6311
816.948	6407
817.089	6456
817.23	6429
817.371	6369
817.512	6399
817.653	6391
817.793	6399
817.934	6433
818.075	6448
818.216	6448
818.356	6376
818.497	6254
818.638	6098
818.778	6152
818.919	6194
819.06	6068
819.2	6315
819.341	6296
819.481	6410
819.622	6490
819.762	6734
819.903	6696
820.043	6593
820.184	6608
820.324	6593
820.465	6711
820.605	6696
820.746	6623
820.886	6475
821.026	6703
821.167	6760
821.307	6818
821.447	6730
821.588	6616
821.728	6616
821.868	6498
822.008	6357
822.149	6361
822.289	6315
822.429	6114
822.569	6057
822.709	6049
822.849	5904
822.99	5931
823.13	5847
823.27	5859
823.41	5790
823.55	5756
823.69	5802
823.83	5752
823.97	5665
824.11	5551
824.25	5520
824.389	5501
824.529	5528
824.669	5516
824.809	5577
824.949	5661
825.089	5592
825.228	5490
825.368	5421
825.508	5280
825.648	5337
825.787	5307
825.927	5387
826.067	5303
826.206	5296
826.346	5341
826.485	5376
826.625	5421
826.765	5528
826.904	5463
827.044	5261
827.183	5109
827.323	5109
827.462	5231
827.601	5166
827.741	5178
827.88	5204
828.02	5079
828.159	5216
828.298	5277
828.437	5299
828.577	5235
828.716	5486
828.855	5349
828.994	5143
829.134	5159
829.273	5166
829.412	5090
829.551	5105
829.69	5147
829.829	5204
829.968	5402
830.107	5246
830.246	5265
830.385	5159
830.524	5151
830.663	5041
830.802	4930
830.941	4896
831.08	4835
831.219	4968
831.357	4968
831.496	5136
831.635	4927
831.774	4889
831.913	4854
832.051	4694
832.19	4725
832.329	4835
832.467	4691
832.606	4641
832.744	4710
832.883	4729
833.022	4717
833.16	4828
833.299	4786
833.437	4828
833.576	4831
833.714	4858
833.852	4870
833.991	4885
834.129	4987
834.267	4968
834.406	4908
834.544	5003
834.682	4984
834.821	4953
834.959	5147
835.097	4934
835.235	5166
835.373	5037
835.511	5079
835.65	4984
835.788	5006
835.926	4847
836.064	4835
836.202	4900
836.34	5151
836.478	5193
836.615	5102
836.753	5166
836.891	5258
837.029	5269
837.167	5124
837.305	5159
837.443	5124
837.58	5064
837.718	5242
837.856	5159
837.993	5174
838.131	5220
838.269	5201
838.406	5185
838.544	5109
838.681	5045
838.819	4987
838.956	4885
839.094	4889
839.231	4930
839.369	5067
839.506	5395
839.643	5216
839.781	5048
839.918	5056
840.055	5067
840.193	5071
840.33	5067
840.467	5143
840.604	5174
840.742	5414
840.879	5048
841.016	5041
841.153	5094
841.29	5349
841.427	5273
841.564	5258
841.701	5334
841.838	5242
841.975	5178
842.112	5227
842.249	5090
842.385	5079
842.522	5307
842.659	5136
842.796	5102
842.933	5143
843.069	5174
843.206	5178
843.343	5261
843.479	5216
843.616	5220
843.752	5025
843.889	4972
844.025	5140
844.162	4980
844.298	5227
844.435	5041
844.571	5064
844.708	5140
844.844	5250
844.98	5322
845.117	5235
845.253	5162
845.389	5064
845.525	5113
845.661	5162
845.798	4984
845.934	5113
846.07	5052
846.206	5193
846.342	5242
846.478	5140
846.614	4976
846.75	4908
846.886	4915
847.022	5140
847.158	4957
847.294	5060
847.429	5048
847.565	5056
847.701	5299
847.837	4828
847.972	4771
848.108	4968
848.244	4923
848.379	4809
848.515	4710
848.65	4748
848.786	4660
848.921	4710
849.057	4900
849.192	4873
849.328	4733
849.463	4790
849.598	4778
849.734	4767
849.869	4656
850.004	4660
850.14	4672
850.275	4569
850.41	4512
850.545	4546
850.68	4607
850.815	4637
850.95	4607
851.085	4831
851.22	4752
851.355	4649
851.49	4611
851.625	4603
851.76	4618
851.895	4508
852.03	4485
852.165	4611
852.299	4694
852.434	4752
852.569	4725
852.703	4740
852.838	4839
852.973	4881
853.107	4873
853.242	4725
853.376	4546
853.511	4523
853.645	4615
853.78	4790
853.914	4668
854.048	4626
854.183	4645
854.317	4706
854.451	4820
854.585	4622
854.72	4611
854.854	4736
854.988	4516
855.122	4592
855.256	4481
855.39	4679
855.524	4736
855.658	4736
855.792	4660
855.926	4710
856.06	4714
856.194	4755
856.327	4672
856.461	4535
856.595	4592
856.729	4580
856.862	4752
856.996	4675
857.13	4687
857.263	4733
857.397	4816
857.53	4596
857.664	4664
857.797	4721
857.931	4748
858.064	4660
858.197	4683
858.331	4607
858.464	4588
858.597	4504
858.731	4588
858.864	4615
858.997	4611
859.13	4664
859.263	4694
859.396	4706
859.529	4573
859.662	4584
859.795	4500
859.928	4634
860.061	4752
860.194	4782
860.327	4565
860.46	4592
860.592	4668
860.725	4736
860.858	4717
860.99	4596
861.123	4569
861.256	4577
861.388	4664
861.521	5273
861.653	4561
861.786	4440
861.918	4478
862.05	4497
862.183	4580
862.315	4592
862.447	4683
862.58	4523
862.712	4394
862.844	4371
862.976	4451
863.108	4508
863.24	4858
863.372	4375
863.504	4466
863.636	4440
863.768	4573
863.9	4500
864.032	4348
864.164	4462
864.296	4527
864.428	4592
864.559	4554
864.691	4584
864.823	4569
864.954	4546
865.086	4554
865.217	4500
865.349	4436
865.48	4459
865.612	4493
865.743	4653
865.875	4455
866.006	4451
866.137	4481
866.269	4516
866.4	4497
866.531	4424
866.662	4417
866.793	4379
866.924	4421
867.055	4554
867.186	4504
867.317	4409
867.448	4405
867.579	4455
867.71	4432
867.841	4455
867.972	4523
868.103	4489
868.233	4432
868.364	4489
868.495	4481
868.625	4706
868.756	4778
868.886	4561
869.017	4634
869.147	4812
869.278	4721
869.408	4660
869.539	4622
869.669	4672
869.799	4717
869.929	4839
870.06	4767
870.19	4976
870.32	4980
870.45	4972
870.58	5018
870.71	5094
870.84	5128
870.97	4972
871.1	4919
871.23	5181
871.36	5151
871.489	5064
871.619	5094
871.749	5098
871.879	5147
872.008	5136
872.138	5094
872.267	4987
872.397	4919
872.526	4835
872.656	4748
872.785	4870
872.915	5006
873.044	5029
873.173	4957
873.303	4949
873.432	4987
873.561	4999
873.69	4911
873.819	4885
873.948	4892
874.077	4843
874.206	4771
874.335	4801
874.464	4942
874.593	5071
874.722	4946
874.851	5124
874.979	5033
875.108	5010
875.237	4968
875.365	4873
875.494	4904
875.623	5022
875.751	4870
875.88	4919
876.008	4995
876.136	5014
876.265	5178
876.393	5357
876.521	5258
876.65	5235
876.778	5181
876.906	5075
877.034	5022
877.162	5052
877.29	4946
877.418	5056
877.546	4957
877.674	5045
877.802	5045
877.93	5048
878.058	4930
878.185	4889
878.313	4984
878.441	4953
878.568	4767
878.696	4911
878.824	4915
878.951	5014
879.079	5140
879.206	5307
879.333	5143
879.461	5003
879.588	4991
879.715	5136
879.842	5246
879.97	4976
880.097	4843
880.224	4790
880.351	4843
880.478	4866
880.605	4877
880.732	4793
880.859	5117
880.986	4927
881.112	4953
881.239	4809
881.366	4664
881.493	4668
881.619	4611
881.746	4664
881.872	4664
881.999	4725
882.125	4717
882.252	4847
882.378	4866
882.505	4984
882.631	4862
882.757	4660
882.883	4774
883.01	4801
883.136	4691
883.262	4622
883.388	4645
883.514	4881
883.64	4858
883.766	4748
883.892	4698
884.018	4733
884.143	4866
884.269	5033
884.395	4691
884.52	4664
884.646	4656
884.772	4596
884.897	4599
885.023	4717
885.148	4839
885.274	4892
885.399	4797
885.524	4793
885.65	4698
885.775	4831
885.9	4740
886.025	4843
886.15	4790
886.275	4797
886.4	4664
886.525	4771
886.65	4714
886.775	4691
886.9	4942
887.025	5094
887.149	4824
887.274	4653
887.399	4607
887.523	4637
887.648	4588
887.773	4584
887.897	4824
888.021	4763
888.146	4698
888.27	4835
888.395	4938
888.519	4828
888.643	4820
888.767	4839
888.891	4733
889.015	4641
889.139	4702
889.263	4626
889.387	4755
889.511	4889
889.635	4793
889.759	4649
889.883	4653
890.006	4744
890.13	4828
890.254	4664
890.377	4672
890.501	4577
890.624	4558
890.748	4634
890.871	4550
890.995	4451
891.118	4398
891.241	4542
891.364	4561
891.488	4634
891.611	4516
891.734	4550
891.857	4599
891.98	4580
892.103	4706
892.226	4630
892.349	4561
892.471	4413
892.594	4531
892.717	4603
892.839	4588
892.962	4641
893.085	4710
893.207	4618
893.33	4474
893.452	4584
893.575	4641
893.697	4500
893.819	4824
893.941	4900
894.064	4858
894.186	4580
894.308	4569
894.43	4763
894.552	4858
894.674	4820
894.796	4580
894.918	4596
895.04	4622
895.161	4664
895.283	4755
895.405	4626
895.526	4683
895.648	4672
895.769	4721
895.891	4748
896.012	4710
896.134	4717
896.255	4687
896.376	4706
896.498	4630
896.619	4752
896.74	4664
896.861	4634
896.982	4900
897.103	5064
897.224	4889
897.345	4778
897.466	4687
897.587	4710
897.708	4850
897.828	4752
897.949	4660
898.07	4573
898.19	4660
898.311	4839
898.431	4744
898.552	4736
898.672	4843
898.792	4812
898.913	4755
899.033	4634
899.153	4527
899.273	4424
899.393	4508
899.513	4584
899.633	4504
899.753	4596
899.873	4516
899.993	4550
900.113	4577
900.232	4622
900.352	4569
900.472	4512
900.591	4436
900.711	4519
900.83	4443
900.95	4653
901.069	4656
901.189	4599
901.308	4409
901.427	4303
901.546	4402
901.665	4481
901.784	4573
901.904	4383
902.023	4344
902.141	4200
902.26	4219
902.379	4284
902.498	4249
902.617	4185
902.735	4390
902.854	4424
902.973	4310
903.091	4219
903.21	4230
903.328	4295
903.446	4314
903.565	4291
903.683	4386
903.801	4318
903.919	4417
904.038	4462
904.156	4333
904.274	4466
904.392	4481
904.51	4436
904.627	4447
904.745	4554
904.863	4672
904.981	4367
905.098	4291
905.216	4421
905.334	4447
905.451	4447
905.569	4478
905.686	4569
905.803	4611
905.921	4443
906.038	4573
906.155	4538
906.272	4344
906.389	4478
906.506	4413
906.623	4383
906.74	4417
906.857	4318
906.974	4383
907.091	4535
907.208	4733
907.324	4603
907.441	4519
907.557	4386
907.674	4352
907.79	4284
907.907	4371
908.023	4455
908.139	4535
908.256	4478
908.372	4519
908.488	4466
908.604	4413
908.72	4333
908.836	4394
908.952	4421
909.068	4451
909.184	4558
909.3	4569
909.415	4653
909.531	4607
909.647	4318
909.762	4405
909.878	4367
909.993	4455
910.108	4402
910.224	4390
910.339	4459
910.454	4436
910.57	4379
910.685	4333
910.8	4618
910.915	4584
911.03	4558
911.145	4318
911.259	4280
911.374	4402
911.489	4306
911.604	4280
911.718	4185
911.833	4196
911.947	4101
912.062	4055
912.176	4192
912.291	4287
912.405	4249
912.519	4523
912.633	4497
912.748	4390
912.862	4318
912.976	4204
913.09	4116
913.204	4238
913.318	4272
913.431	4394
913.545	4344
913.659	4470
913.772	4348
913.886	4242
914	4246
914.113	4375
914.226	4440
914.34	4424
914.453	4223
914.566	4489
914.68	4310
914.793	4306
914.906	4158
915.019	4147
915.132	4090
915.245	4238
915.358	4166
915.47	4207
915.583	4265
915.696	4329
915.809	4459
915.921	4363
916.034	4284
916.146	4276
916.259	4246
916.371	4383
916.483	4337
916.595	4280
916.708	4341
916.82	4337
916.932	4348
917.044	4360
917.156	4409
917.268	4261
917.38	4284
917.491	4329
917.603	4379
917.715	4402
917.826	4405
917.938	4375
918.049	4238
918.161	4398
918.272	4569
918.384	4565
918.495	4451
918.606	4249
918.717	4253
918.828	4333
918.939	4348
919.05	4276
919.161	4318
919.272	4116
919.383	4257
919.494	4489
919.604	4573
919.715	4451
919.826	4360
919.936	4398
920.047	4588
920.157	4462
920.267	4736
920.378	4546
920.488	4523
920.598	4725
920.708	4911
920.818	4790
920.928	4774
921.038	4972
921.148	4904
921.258	4626
921.368	4531
921.477	4531
921.587	4421
921.697	4398
921.806	4550
921.916	4443
922.025	4268
922.134	4268
922.244	4219
922.353	4337
922.462	4166
922.571	4078
922.68	4036
922.789	3975
922.898	4059
923.007	3972
923.116	4112
923.224	4059
923.333	4093
923.442	3983
923.55	3949
923.659	4021
923.767	4120
923.876	4017
923.984	4090
924.092	3987
924.201	4036
924.309	4051
924.417	4131
924.525	4093
924.633	4109
924.741	5041
924.849	3873
924.956	4154
925.064	3930
925.172	3945
925.279	3937
925.387	4059
925.494	4059
925.602	4246
925.709	4147
925.816	4071
925.924	4143
926.031	4249
926.138	4158
926.245	4177
926.352	4109
926.459	4249
926.566	4265
926.673	4166
926.779	4109
926.886	4044
926.993	4010
927.099	3991
927.206	3903
927.312	3975
927.419	4055
927.525	4029
927.631	4131
927.737	3987
927.843	3934
927.95	3892
928.056	3975
928.162	4006
928.267	4131
928.373	4679
928.479	4150
928.585	3945
928.69	4044
928.796	4086
928.901	3994
929.007	3896
929.112	4082
929.218	4029
929.323	3968
929.428	3972
929.533	4143
929.638	3937
929.743	3979
929.848	4112
929.953	4055
930.058	3949
930.163	3793
930.267	3842
930.372	4013
930.477	3873
930.581	4101
930.685	3975
930.79	3838
930.894	3964
930.998	3865
931.103	4059
931.207	3766
931.311	3740
931.415	3724
931.519	3557
931.623	3610
