Data from test_V78500241_2547.txt Node
Date: Fri Mar 25 17:06:42 CST 2022
User: usil
Spectrometer: V785-0024
Trigger mode: 0
Integration Time (sec): 4.000000E-1
Scans to average: 1
Nonlinearity correction enabled: false
Boxcar width: 0
Storing dark spectrum: false
XAxis mode: Wavelengths
Number of Pixels in Spectrum: 1024
>>>>>Begin Spectral Data<<<<<
801.071	7993
801.214	8005
801.356	7928
801.499	7780
801.641	7799
801.783	7841
801.926	7955
802.068	7974
802.211	7974
802.353	7986
802.496	7879
802.638	7879
802.78	7928
802.923	7902
803.065	7879
803.208	7792
803.35	7989
803.492	8096
803.635	8199
803.777	8069
803.919	8142
804.061	8423
804.204	8142
804.346	8069
804.488	8016
804.63	8115
804.773	8039
804.915	8206
805.057	8248
805.199	8161
805.341	8180
805.483	8210
805.626	8218
805.768	8084
805.91	8142
806.052	8164
806.194	8134
806.336	8263
806.478	8103
806.62	8081
806.762	8050
806.904	8282
807.046	8419
807.188	8362
807.33	8328
807.472	8366
807.614	8176
807.756	8168
807.898	8005
808.04	7852
808.182	7917
808.324	7856
808.465	7913
808.607	8145
808.749	8119
808.891	8176
809.033	8195
809.174	8210
809.316	8054
809.458	8123
809.6	8031
809.741	8046
809.883	8043
810.025	8100
810.166	7940
810.308	7974
810.45	7978
810.591	7894
810.733	7746
810.875	7674
811.016	7518
811.158	7540
811.299	7636
811.441	7753
811.582	7674
811.724	7655
811.865	7529
812.007	7632
812.148	7571
812.29	7601
812.431	7753
812.573	7833
812.714	7917
812.855	8126
812.997	8149
813.138	8358
813.279	8221
813.421	7997
813.562	8016
813.703	7864
813.845	7776
813.986	7441
814.127	7247
814.268	7206
814.41	7156
814.551	7198
814.692	7209
814.833	7107
814.974	7099
815.115	7141
815.256	7008
815.397	6928
815.539	6951
815.68	6818
815.821	6745
815.962	6833
816.103	6867
816.244	6722
816.385	6646
816.526	6639
816.666	6506
816.807	6266
816.948	6467
817.089	6517
817.23	6407
817.371	6471
817.512	6414
817.653	6445
817.793	6315
817.934	6369
818.075	6441
818.216	6426
818.356	6483
818.497	6331
818.638	6148
818.778	6148
818.919	6194
819.06	6190
819.2	6277
819.341	6319
819.481	6353
819.622	6536
819.762	6745
819.903	6703
820.043	6669
820.184	6597
820.324	6574
820.465	6692
820.605	6772
820.746	6654
820.886	6551
821.026	6601
821.167	6703
821.307	6818
821.447	6802
821.588	6669
821.728	6578
821.868	6544
822.008	6338
822.149	6350
822.289	6315
822.429	6190
822.569	6140
822.709	6121
822.849	5939
822.99	5882
823.13	5965
823.27	5866
823.41	5798
823.55	5824
823.69	5813
823.83	5809
823.97	5653
824.11	5539
824.25	5524
824.389	5589
824.529	5630
824.669	5512
824.809	5630
824.949	5703
825.089	5634
825.228	5596
825.368	5376
825.508	5379
825.648	5341
825.787	5364
825.927	5364
826.067	5322
826.206	5311
826.346	5353
826.485	5417
826.625	5406
826.765	5566
826.904	5478
827.044	5223
827.183	5220
827.323	5140
827.462	5277
827.601	5140
827.741	5147
827.88	5189
828.02	5128
828.159	5220
828.298	5280
828.437	5368
828.577	5280
828.716	5478
828.855	5341
828.994	5143
829.134	5132
829.273	5201
829.412	5109
829.551	5117
829.69	5128
829.829	5235
829.968	5353
830.107	5269
830.246	5311
830.385	5197
830.524	5128
830.663	5048
830.802	4991
830.941	4850
831.08	4847
831.219	4946
831.357	4991
831.496	5178
831.635	4919
831.774	4839
831.913	4847
832.051	4736
832.19	4706
832.329	4835
832.467	4653
832.606	4645
832.744	4721
832.883	4702
833.022	4736
833.16	4797
833.299	4877
833.437	4831
833.576	4850
833.714	4835
833.852	4877
833.991	4927
834.129	4938
834.267	4987
834.406	4889
834.544	4942
834.682	4946
834.821	4927
834.959	5174
835.097	4995
835.235	5147
835.373	5113
835.511	5075
835.65	5029
835.788	5075
835.926	4870
836.064	4839
836.202	4961
836.34	5143
836.478	5201
836.615	5124
836.753	5170
836.891	5250
837.029	5273
837.167	5162
837.305	5166
837.443	5155
837.58	5128
837.718	5246
837.856	5174
837.993	5128
838.131	5216
838.269	5231
838.406	5204
838.544	5147
838.681	5033
838.819	4995
838.956	4904
839.094	4892
839.231	5018
839.369	5067
839.506	5398
839.643	5261
839.781	5083
839.918	5018
840.055	5098
840.193	5102
840.33	5060
840.467	5143
840.604	5166
840.742	5402
840.879	5117
841.016	5105
841.153	5162
841.29	5368
841.427	5318
841.564	5349
841.701	5322
841.838	5223
841.975	5212
842.112	5277
842.249	5136
842.385	5075
842.522	5326
842.659	5170
842.796	5109
842.933	5235
843.069	5174
843.206	5098
843.343	5315
843.479	5212
843.616	5242
843.752	5003
843.889	5048
844.025	5212
844.162	5048
844.298	5181
844.435	5067
844.571	5052
844.708	5189
844.844	5299
844.98	5379
845.117	5280
845.253	5189
845.389	5090
845.525	5155
845.661	5159
845.798	5022
845.934	5166
846.07	5041
846.206	5166
846.342	5261
846.478	5208
846.614	5041
846.75	4965
846.886	4984
847.022	5121
847.158	4995
847.294	5075
847.429	5086
847.565	5052
847.701	5280
847.837	4835
847.972	4843
848.108	4930
848.244	4900
848.379	4790
848.515	4717
848.65	4698
848.786	4748
848.921	4759
849.057	4835
849.192	4881
849.328	4820
849.463	4877
849.598	4744
849.734	4748
849.869	4656
850.004	4630
850.14	4641
850.275	4592
850.41	4504
850.545	4542
850.68	4599
850.815	4672
850.95	4622
851.085	4778
851.22	4740
851.355	4675
851.49	4535
851.625	4599
851.76	4603
851.895	4569
852.03	4546
852.165	4668
852.299	4706
852.434	4767
852.569	4725
852.703	4790
852.838	4805
852.973	4953
853.107	4949
853.242	4683
853.376	4687
853.511	4531
853.645	4618
853.78	4828
853.914	4656
854.048	4653
854.183	4649
854.317	4748
854.451	4828
854.585	4675
854.72	4660
854.854	4733
854.988	4580
855.122	4656
855.256	4558
855.39	4649
855.524	4755
855.658	4721
855.792	4675
855.926	4694
856.06	4786
856.194	4801
856.327	4645
856.461	4596
856.595	4558
856.729	4656
856.862	4771
856.996	4710
857.13	4733
857.263	4759
857.397	4797
857.53	4672
857.664	4717
857.797	4763
857.931	4733
858.064	4649
858.197	4759
858.331	4599
858.464	4599
858.597	4523
858.731	4641
858.864	4660
858.997	4645
859.13	4618
859.263	4679
859.396	4698
859.529	4554
859.662	4565
859.795	4527
859.928	4653
860.061	4691
860.194	4771
860.327	4596
860.46	4569
860.592	4698
860.725	4714
860.858	4714
860.99	4588
861.123	4519
861.256	4538
861.388	4653
861.521	5170
861.653	4500
861.786	4436
861.918	4474
862.05	4523
862.183	4535
862.315	4573
862.447	4656
862.58	4497
862.712	4383
862.844	4329
862.976	4474
863.108	4455
863.24	4748
863.372	4344
863.504	4440
863.636	4421
863.768	4485
863.9	4424
864.032	4360
864.164	4375
864.296	4455
864.428	4535
864.559	4531
864.691	4466
864.823	4489
864.954	4455
865.086	4470
865.217	4455
865.349	4409
865.48	4417
865.612	4451
865.743	4599
865.875	4478
866.006	4470
866.137	4421
866.269	4386
866.4	4478
866.531	4413
866.662	4379
866.793	4440
866.924	4409
867.055	4436
867.186	4409
867.317	4394
867.448	4360
867.579	4352
867.71	4405
867.841	4402
867.972	4489
868.103	4424
868.233	4451
868.364	4421
868.495	4508
868.625	4672
868.756	4805
868.886	4519
869.017	4630
869.147	4809
869.278	4797
869.408	4668
869.539	4634
869.669	4721
869.799	4691
869.929	4755
870.06	4702
870.19	4908
870.32	4896
870.45	5003
870.58	5018
870.71	5136
870.84	5117
870.97	4968
871.1	4873
871.23	5090
871.36	5143
871.489	5041
871.619	5102
871.749	5052
871.879	5075
872.008	5208
872.138	5037
872.267	4957
872.397	4828
872.526	4828
872.656	4733
872.785	4797
872.915	4946
873.044	5010
873.173	4908
873.303	4991
873.432	4987
873.561	4942
873.69	4904
873.819	4858
873.948	4911
874.077	4797
874.206	4725
874.335	4797
874.464	4904
874.593	5006
874.722	4957
874.851	5075
874.979	5067
875.108	5064
875.237	4919
875.365	4892
875.494	4889
875.623	4987
875.751	4771
875.88	4850
876.008	4942
876.136	5018
876.265	5174
876.393	5364
876.521	5288
876.65	5208
876.778	5197
876.906	5117
877.034	5022
877.162	5052
877.29	4987
877.418	5083
877.546	4995
877.674	5018
877.802	5037
877.93	5033
878.058	4934
878.185	4881
878.313	4957
878.441	4953
878.568	4778
878.696	4904
878.824	4919
878.951	5006
879.079	5128
879.206	5311
879.333	5170
879.461	4999
879.588	4991
879.715	5113
879.842	5201
879.97	5029
880.097	4771
880.224	4759
880.351	4778
880.478	4839
880.605	4824
880.732	4812
880.859	5136
880.986	4881
881.112	4915
881.239	4820
881.366	4706
881.493	4599
881.619	4580
881.746	4637
881.872	4664
881.999	4637
882.125	4698
882.252	4767
882.378	4850
882.505	4934
882.631	4809
882.757	4675
882.883	4714
883.01	4721
883.136	4698
883.262	4592
883.388	4634
883.514	4820
883.64	4850
883.766	4812
883.892	4683
884.018	4759
884.143	4911
884.269	4961
884.395	4664
884.52	4554
884.646	4626
884.772	4641
884.897	4573
885.023	4660
885.148	4782
885.274	4881
885.399	4828
885.524	4694
885.65	4660
885.775	4755
885.9	4710
886.025	4843
886.15	4771
886.275	4714
886.4	4698
886.525	4668
886.65	4691
886.775	4641
886.9	4892
887.025	5033
887.149	4790
887.274	4694
887.399	4592
887.523	4634
887.648	4561
887.773	4580
887.897	4797
888.021	4748
888.146	4683
888.27	4809
888.395	4930
888.519	4820
888.643	4805
888.767	4816
888.891	4656
889.015	4626
889.139	4630
889.263	4618
889.387	4763
889.511	4850
889.635	4816
889.759	4641
889.883	4645
890.006	4691
890.13	4820
890.254	4634
890.377	4668
890.501	4599
890.624	4466
890.748	4645
890.871	4493
890.995	4417
891.118	4360
891.241	4497
891.364	4577
891.488	4645
891.611	4512
891.734	4546
891.857	4599
891.98	4531
892.103	4645
892.226	4626
892.349	4550
892.471	4440
892.594	4565
892.717	4626
892.839	4588
892.962	4565
893.085	4683
893.207	4535
893.33	4478
893.452	4516
893.575	4649
893.697	4588
893.819	4812
893.941	4801
894.064	4771
894.186	4588
894.308	4592
894.43	4706
894.552	4816
894.674	4736
894.796	4535
894.918	4584
895.04	4538
895.161	4714
895.283	4710
895.405	4592
895.526	4611
895.648	4694
895.769	4706
895.891	4736
896.012	4774
896.134	4717
896.255	4660
896.376	4577
896.498	4607
896.619	4634
896.74	4637
896.861	4580
896.982	4938
897.103	5067
897.224	4858
897.345	4717
897.466	4630
897.587	4702
897.708	4854
897.828	4755
897.949	4672
898.07	4542
898.19	4634
898.311	4809
898.431	4630
898.552	4740
898.672	4835
898.792	4774
898.913	4710
899.033	4630
899.153	4527
899.273	4390
899.393	4493
899.513	4504
899.633	4546
899.753	4580
899.873	4508
899.993	4584
900.113	4558
900.232	4603
900.352	4573
900.472	4489
900.591	4424
900.711	4436
900.83	4436
900.95	4588
901.069	4641
901.189	4546
901.308	4383
901.427	4295
901.546	4383
901.665	4462
901.784	4466
901.904	4356
902.023	4344
902.141	4158
902.26	4162
902.379	4295
902.498	4272
902.617	4234
902.735	4348
902.854	4432
902.973	4363
903.091	4204
903.21	4242
903.328	4318
903.446	4265
903.565	4242
903.683	4390
903.801	4314
903.919	4390
904.038	4428
904.156	4314
904.274	4428
904.392	4402
904.51	4493
904.627	4474
904.745	4565
904.863	4675
904.981	4432
905.098	4291
905.216	4318
905.334	4398
905.451	4428
905.569	4447
905.686	4500
905.803	4558
905.921	4394
906.038	4516
906.155	4474
906.272	4417
906.389	4440
906.506	4348
906.623	4379
906.74	4375
906.857	4337
906.974	4363
907.091	4618
907.208	4660
907.324	4603
907.441	4527
907.557	4322
907.674	4394
907.79	4306
907.907	4379
908.023	4459
908.139	4481
908.256	4466
908.372	4470
908.488	4459
908.604	4341
908.72	4318
908.836	4398
908.952	4386
909.068	4390
909.184	4565
909.3	4508
909.415	4607
909.531	4565
909.647	4341
909.762	4390
909.878	4337
909.993	4421
910.108	4402
910.224	4428
910.339	4451
910.454	4405
910.57	4352
910.685	4306
910.8	4615
910.915	4592
911.03	4470
911.145	4310
911.259	4238
911.374	4348
911.489	4299
911.604	4265
911.718	4150
911.833	4230
911.947	4044
912.062	4025
912.176	4207
912.291	4280
912.405	4238
912.519	4470
912.633	4519
912.748	4341
912.862	4287
912.976	4192
913.09	4093
913.204	4192
913.318	4257
913.431	4344
913.545	4432
913.659	4417
913.772	4360
913.886	4249
914	4242
914.113	4329
914.226	4424
914.34	4421
914.453	4227
914.566	4409
914.68	4341
914.793	4356
914.906	4177
915.019	4120
915.132	4093
915.245	4188
915.358	4181
915.47	4257
915.583	4238
915.696	4287
915.809	4367
915.921	4421
916.034	4223
916.146	4306
916.259	4227
916.371	4402
916.483	4344
916.595	4318
916.708	4322
916.82	4333
916.932	4268
917.044	4333
917.156	4341
917.268	4181
917.38	4257
917.491	4272
917.603	4360
917.715	4455
917.826	4421
917.938	4352
918.049	4246
918.161	4424
918.272	4504
918.384	4504
918.495	4432
918.606	4268
918.717	4192
918.828	4306
918.939	4394
919.05	4253
919.161	4333
919.272	4112
919.383	4253
919.494	4455
919.604	4596
919.715	4413
919.826	4329
919.936	4432
920.047	4485
920.157	4516
920.267	4664
920.378	4550
920.488	4519
920.598	4710
920.708	4930
920.818	4717
920.928	4771
921.038	4938
921.148	4930
921.258	4641
921.368	4592
921.477	4478
921.587	4462
921.697	4360
921.806	4535
921.916	4405
922.025	4261
922.134	4276
922.244	4219
922.353	4306
922.462	4116
922.571	4128
922.68	3994
922.789	3987
922.898	4025
923.007	4013
923.116	4101
923.224	4036
923.333	4071
923.442	4006
923.55	3979
923.659	4032
923.767	4078
923.876	4002
923.984	4135
924.092	3945
924.201	4109
924.309	4021
924.417	4101
924.525	4101
924.633	4090
924.741	5086
924.849	3896
924.956	4135
925.064	3998
925.172	3899
925.279	3953
925.387	4036
925.494	4071
925.602	4181
925.709	4143
925.816	4010
925.924	4188
926.031	4242
926.138	4177
926.245	4223
926.352	4120
926.459	4242
926.566	4257
926.673	4173
926.779	4093
926.886	4059
926.993	4010
927.099	3934
927.206	3915
927.312	3922
927.419	4093
927.525	4082
927.631	4063
927.737	3983
927.843	3949
927.95	3869
928.056	3922
928.162	3975
928.267	4059
928.373	4569
928.479	4116
928.585	3884
928.69	4036
928.796	4109
928.901	3994
929.007	3850
929.112	3991
929.218	3983
929.323	3953
929.428	3972
929.533	4101
929.638	3911
929.743	3960
929.848	4029
929.953	3964
930.058	3911
930.163	3766
930.267	3846
930.372	3945
930.477	3804
930.581	4116
930.685	3922
930.79	3823
930.894	3888
930.998	3873
931.103	4040
931.207	3709
931.311	3701
931.415	3660
931.519	3523
931.623	3564
