Data from test_V78500241_2178.txt Node
Date: Fri Mar 25 17:04:08 CST 2022
User: usil
Spectrometer: V785-0024
Trigger mode: 0
Integration Time (sec): 4.000000E-1
Scans to average: 1
Nonlinearity correction enabled: false
Boxcar width: 0
Storing dark spectrum: false
XAxis mode: Wavelengths
Number of Pixels in Spectrum: 1024
>>>>>Begin Spectral Data<<<<<
801.071	7970
801.214	7944
801.356	7883
801.499	7792
801.641	7875
801.783	7841
801.926	7970
802.068	7913
802.211	7993
802.353	8024
802.496	7814
802.638	7830
802.78	7822
802.923	7913
803.065	7849
803.208	7807
803.35	7936
803.492	8043
803.635	8115
803.777	7955
803.919	8138
804.061	8381
804.204	8130
804.346	8054
804.488	7970
804.63	8046
804.773	7997
804.915	8081
805.057	8355
805.199	8157
805.341	8107
805.483	8248
805.626	8176
805.768	8119
805.91	8248
806.052	8206
806.194	8103
806.336	8256
806.478	8043
806.62	8062
806.762	8202
806.904	8259
807.046	8423
807.188	8408
807.33	8271
807.472	8275
807.614	8126
807.756	8172
807.898	7963
808.04	7887
808.182	7814
808.324	7871
808.465	7898
808.607	7982
808.749	8077
808.891	8252
809.033	8351
809.174	8218
809.316	8046
809.458	8039
809.6	8043
809.741	8054
809.883	8039
810.025	8054
810.166	8088
810.308	8020
810.45	8001
810.591	7799
810.733	7769
810.875	7655
811.016	7495
811.158	7430
811.299	7624
811.441	7670
811.582	7704
811.724	7601
811.865	7480
812.007	7537
812.148	7521
812.29	7628
812.431	7712
812.573	7849
812.714	7944
812.855	8103
812.997	8100
813.138	8279
813.279	8100
813.421	8130
813.562	7921
813.703	7849
813.845	7723
813.986	7449
814.127	7259
814.268	7164
814.41	7168
814.551	7175
814.692	7217
814.833	7103
814.974	7034
815.115	7126
815.256	7027
815.397	6932
815.539	6993
815.68	6783
815.821	6856
815.962	6814
816.103	6787
816.244	6749
816.385	6642
816.526	6608
816.666	6532
816.807	6319
816.948	6441
817.089	6494
817.23	6464
817.371	6395
817.512	6388
817.653	6350
817.793	6323
817.934	6391
818.075	6422
818.216	6395
818.356	6410
818.497	6247
818.638	6167
818.778	6114
818.919	6186
819.06	6125
819.2	6334
819.341	6384
819.481	6346
819.622	6513
819.762	6749
819.903	6662
820.043	6574
820.184	6593
820.324	6536
820.465	6654
820.605	6707
820.746	6601
820.886	6551
821.026	6597
821.167	6707
821.307	6738
821.447	6814
821.588	6684
821.728	6597
821.868	6483
822.008	6277
822.149	6346
822.289	6308
822.429	6129
822.569	6091
822.709	6091
822.849	5939
822.99	5920
823.13	5977
823.27	5912
823.41	5771
823.55	5760
823.69	5775
823.83	5688
823.97	5627
824.11	5585
824.25	5512
824.389	5577
824.529	5554
824.669	5528
824.809	5638
824.949	5668
825.089	5653
825.228	5562
825.368	5364
825.508	5398
825.648	5315
825.787	5379
825.927	5383
826.067	5315
826.206	5330
826.346	5376
826.485	5421
826.625	5379
826.765	5543
826.904	5467
827.044	5254
827.183	5246
827.323	5128
827.462	5273
827.601	5132
827.741	5140
827.88	5181
828.02	5117
828.159	5269
828.298	5277
828.437	5387
828.577	5258
828.716	5444
828.855	5330
828.994	5147
829.134	5201
829.273	5193
829.412	5113
829.551	5143
829.69	5143
829.829	5223
829.968	5337
830.107	5265
830.246	5235
830.385	5189
830.524	5132
830.663	5029
830.802	4995
830.941	4896
831.08	4866
831.219	4965
831.357	4968
831.496	5166
831.635	4934
831.774	4873
831.913	4782
832.051	4733
832.19	4679
832.329	4850
832.467	4714
832.606	4634
832.744	4702
832.883	4733
833.022	4748
833.16	4816
833.299	4778
833.437	4850
833.576	4854
833.714	4847
833.852	4866
833.991	4908
834.129	4953
834.267	4877
834.406	4938
834.544	4946
834.682	4957
834.821	4980
834.959	5178
835.097	4915
835.235	5147
835.373	5037
835.511	5113
835.65	5022
835.788	5083
835.926	4881
836.064	4862
836.202	4957
836.34	5155
836.478	5212
836.615	5079
836.753	5235
836.891	5288
837.029	5280
837.167	5181
837.305	5159
837.443	5159
837.58	5067
837.718	5231
837.856	5185
837.993	5185
838.131	5204
838.269	5220
838.406	5212
838.544	5170
838.681	5029
838.819	4968
838.956	4877
839.094	4911
839.231	5003
839.369	5109
839.506	5482
839.643	5269
839.781	5022
839.918	5025
840.055	5052
840.193	5067
840.33	5105
840.467	5124
840.604	5208
840.742	5425
840.879	5102
841.016	5086
841.153	5124
841.29	5391
841.427	5364
841.564	5334
841.701	5391
841.838	5315
841.975	5258
842.112	5239
842.249	5155
842.385	5117
842.522	5330
842.659	5174
842.796	5178
842.933	5197
843.069	5140
843.206	5151
843.343	5296
843.479	5201
843.616	5258
843.752	5033
843.889	4968
844.025	5227
844.162	4965
844.298	5189
844.435	5075
844.571	5045
844.708	5212
844.844	5273
844.98	5288
845.117	5303
845.253	5178
845.389	5075
845.525	5166
845.661	5128
845.798	5033
845.934	5105
846.07	5006
846.206	5212
846.342	5273
846.478	5162
846.614	5010
846.75	4938
846.886	4938
847.022	5140
847.158	4995
847.294	5083
847.429	5109
847.565	5094
847.701	5303
847.837	4820
847.972	4831
848.108	4991
848.244	4923
848.379	4801
848.515	4763
848.65	4649
848.786	4736
848.921	4797
849.057	4835
849.192	4847
849.328	4816
849.463	4809
849.598	4778
849.734	4767
849.869	4721
850.004	4622
850.14	4611
850.275	4622
850.41	4516
850.545	4554
850.68	4546
850.815	4664
850.95	4615
851.085	4790
851.22	4755
851.355	4679
851.49	4588
851.625	4645
851.76	4626
851.895	4565
852.03	4523
852.165	4622
852.299	4660
852.434	4767
852.569	4755
852.703	4759
852.838	4850
852.973	4919
853.107	4904
853.242	4725
853.376	4694
853.511	4535
853.645	4615
853.78	4843
853.914	4679
854.048	4672
854.183	4622
854.317	4740
854.451	4828
854.585	4675
854.72	4660
854.854	4721
854.988	4611
855.122	4634
855.256	4531
855.39	4683
855.524	4793
855.658	4786
855.792	4687
855.926	4702
856.06	4786
856.194	4763
856.327	4675
856.461	4603
856.595	4611
856.729	4622
856.862	4736
856.996	4679
857.13	4725
857.263	4710
857.397	4755
857.53	4653
857.664	4736
857.797	4771
857.931	4774
858.064	4664
858.197	4759
858.331	4641
858.464	4641
858.597	4512
858.731	4626
858.864	4664
858.997	4618
859.13	4634
859.263	4683
859.396	4675
859.529	4596
859.662	4577
859.795	4523
859.928	4615
860.061	4729
860.194	4767
860.327	4596
860.46	4588
860.592	4672
860.725	4740
860.858	4740
860.99	4542
861.123	4508
861.256	4504
861.388	4615
861.521	5429
861.653	4470
861.786	4405
861.918	4470
862.05	4508
862.183	4577
862.315	4603
862.447	4679
862.58	4512
862.712	4402
862.844	4306
862.976	4451
863.108	4455
863.24	4774
863.372	4371
863.504	4379
863.636	4443
863.768	4478
863.9	4455
864.032	4352
864.164	4375
864.296	4478
864.428	4558
864.559	4565
864.691	4519
864.823	4516
864.954	4493
865.086	4497
865.217	4455
865.349	4421
865.48	4459
865.612	4470
865.743	4577
865.875	4478
866.006	4462
866.137	4417
866.269	4447
866.4	4417
866.531	4466
866.662	4417
866.793	4405
866.924	4398
867.055	4516
867.186	4462
867.317	4394
867.448	4375
867.579	4405
867.71	4424
867.841	4348
867.972	4478
868.103	4481
868.233	4447
868.364	4432
868.495	4523
868.625	4641
868.756	4710
868.886	4569
869.017	4641
869.147	4793
869.278	4759
869.408	4664
869.539	4641
869.669	4717
869.799	4645
869.929	4733
870.06	4744
870.19	4930
870.32	4885
870.45	4991
870.58	5010
870.71	5075
870.84	5086
870.97	4980
871.1	4881
871.23	5166
871.36	5113
871.489	4961
871.619	5075
871.749	5124
871.879	5064
872.008	5151
872.138	5010
872.267	4980
872.397	4793
872.526	4816
872.656	4683
872.785	4824
872.915	4961
873.044	5025
873.173	4953
873.303	4930
873.432	4949
873.561	4953
873.69	4896
873.819	4850
873.948	4915
874.077	4835
874.206	4763
874.335	4812
874.464	4889
874.593	5052
874.722	4976
874.851	5113
874.979	5041
875.108	5079
875.237	4919
875.365	4911
875.494	4908
875.623	4968
875.751	4793
875.88	4839
876.008	4965
876.136	5041
876.265	5132
876.393	5357
876.521	5178
876.65	5227
876.778	5162
876.906	5109
877.034	4972
877.162	5041
877.29	5006
877.418	5018
877.546	5071
877.674	5025
877.802	5025
877.93	5010
878.058	4938
878.185	4873
878.313	4934
878.441	4987
878.568	4790
878.696	4850
878.824	5003
878.951	5022
879.079	5124
879.206	5296
879.333	5102
879.461	5014
879.588	4980
879.715	5098
879.842	5178
879.97	4984
880.097	4816
880.224	4733
880.351	4812
880.478	4839
880.605	4809
880.732	4812
880.859	5136
880.986	4877
881.112	4889
881.239	4759
881.366	4660
881.493	4664
881.619	4637
881.746	4634
881.872	4714
881.999	4664
882.125	4698
882.252	4744
882.378	4805
882.505	4953
882.631	4771
882.757	4656
882.883	4736
883.01	4744
883.136	4691
883.262	4603
883.388	4577
883.514	4790
883.64	4896
883.766	4759
883.892	4641
884.018	4698
884.143	4866
884.269	5018
884.395	4660
884.52	4649
884.646	4653
884.772	4569
884.897	4577
885.023	4596
885.148	4771
885.274	4839
885.399	4759
885.524	4706
885.65	4694
885.775	4729
885.9	4668
886.025	4862
886.15	4771
886.275	4755
886.4	4698
886.525	4740
886.65	4668
886.775	4641
886.9	4923
887.025	5022
887.149	4797
887.274	4656
887.399	4599
887.523	4584
887.648	4599
887.773	4603
887.897	4790
888.021	4752
888.146	4664
888.27	4812
888.395	4923
888.519	4774
888.643	4797
888.767	4824
888.891	4679
889.015	4603
889.139	4634
889.263	4603
889.387	4790
889.511	4858
889.635	4748
889.759	4584
889.883	4584
890.006	4729
890.13	4809
890.254	4645
890.377	4664
890.501	4481
890.624	4546
890.748	4656
890.871	4508
890.995	4398
891.118	4394
891.241	4516
891.364	4584
891.488	4668
891.611	4436
891.734	4500
891.857	4588
891.98	4516
892.103	4641
892.226	4573
892.349	4546
892.471	4402
892.594	4588
892.717	4596
892.839	4577
892.962	4599
893.085	4645
893.207	4618
893.33	4493
893.452	4512
893.575	4683
893.697	4592
893.819	4839
893.941	4843
894.064	4771
894.186	4599
894.308	4527
894.43	4748
894.552	4812
894.674	4740
894.796	4546
894.918	4607
895.04	4546
895.161	4698
895.283	4645
895.405	4580
895.526	4573
895.648	4694
895.769	4714
895.891	4702
896.012	4736
896.134	4706
896.255	4653
896.376	4649
896.498	4626
896.619	4611
896.74	4603
896.861	4622
896.982	4927
897.103	5041
897.224	4786
897.345	4793
897.466	4641
897.587	4687
897.708	4820
897.828	4797
897.949	4626
898.07	4535
898.19	4664
898.311	4793
898.431	4694
898.552	4706
898.672	4805
898.792	4771
898.913	4729
899.033	4637
899.153	4447
899.273	4455
899.393	4554
899.513	4516
899.633	4561
899.753	4550
899.873	4508
899.993	4561
900.113	4512
900.232	4584
900.352	4546
900.472	4478
900.591	4417
900.711	4466
900.83	4459
900.95	4561
901.069	4694
901.189	4508
901.308	4318
901.427	4306
901.546	4386
901.665	4455
901.784	4531
901.904	4367
902.023	4318
902.141	4223
902.26	4120
902.379	4303
902.498	4261
902.617	4169
902.735	4314
902.854	4352
902.973	4306
903.091	4223
903.21	4234
903.328	4322
903.446	4257
903.565	4276
903.683	4356
903.801	4303
903.919	4402
904.038	4421
904.156	4306
904.274	4451
904.392	4371
904.51	4485
904.627	4500
904.745	4542
904.863	4637
904.981	4402
905.098	4268
905.216	4348
905.334	4394
905.451	4409
905.569	4379
905.686	4558
905.803	4573
905.921	4405
906.038	4542
906.155	4512
906.272	4390
906.389	4474
906.506	4356
906.623	4356
906.74	4383
906.857	4299
906.974	4402
907.091	4580
907.208	4683
907.324	4565
907.441	4519
907.557	4348
907.674	4386
907.79	4303
907.907	4402
908.023	4470
908.139	4462
908.256	4394
908.372	4424
908.488	4428
908.604	4383
908.72	4348
908.836	4394
908.952	4303
909.068	4432
909.184	4542
909.3	4497
909.415	4584
909.531	4527
909.647	4375
909.762	4344
909.878	4325
909.993	4432
910.108	4390
910.224	4424
910.339	4516
910.454	4360
910.57	4386
910.685	4276
910.8	4660
910.915	4611
911.03	4466
911.145	4318
911.259	4363
911.374	4363
911.489	4261
911.604	4325
911.718	4181
911.833	4257
911.947	4101
912.062	4055
912.176	4230
912.291	4234
912.405	4223
912.519	4485
912.633	4489
912.748	4356
912.862	4325
912.976	4169
913.09	4082
913.204	4196
913.318	4291
913.431	4375
913.545	4352
913.659	4428
913.772	4405
913.886	4249
914	4234
914.113	4375
914.226	4466
914.34	4413
914.453	4227
914.566	4440
914.68	4310
914.793	4341
914.906	4131
915.019	4105
915.132	4112
915.245	4200
915.358	4181
915.47	4219
915.583	4253
915.696	4265
915.809	4440
915.921	4451
916.034	4234
916.146	4257
916.259	4268
916.371	4390
916.483	4314
916.595	4246
916.708	4276
916.82	4295
916.932	4318
917.044	4310
917.156	4325
917.268	4284
917.38	4257
917.491	4253
917.603	4329
917.715	4443
917.826	4398
917.938	4379
918.049	4234
918.161	4402
918.272	4512
918.384	4535
918.495	4443
918.606	4272
918.717	4223
918.828	4348
918.939	4314
919.05	4211
919.161	4306
919.272	4090
919.383	4227
919.494	4466
919.604	4580
919.715	4421
919.826	4363
919.936	4405
920.047	4561
920.157	4531
920.267	4744
920.378	4573
920.488	4470
920.598	4767
920.708	4919
920.818	4858
920.928	4786
921.038	4938
921.148	4930
921.258	4641
921.368	4546
921.477	4493
921.587	4451
921.697	4363
921.806	4542
921.916	4466
922.025	4268
922.134	4223
922.244	4211
922.353	4341
922.462	4169
922.571	4090
922.68	3983
922.789	3960
922.898	4025
923.007	4002
923.116	4059
923.224	4044
923.333	4055
923.442	3941
923.55	3991
923.659	4002
923.767	4093
923.876	4017
923.984	4090
924.092	3983
924.201	4074
924.309	4112
924.417	4109
924.525	4051
924.633	4093
924.741	5083
924.849	3888
924.956	4143
925.064	3991
925.172	3911
925.279	3941
925.387	4029
925.494	4082
925.602	4166
925.709	4158
925.816	4044
925.924	4112
926.031	4242
926.138	4166
926.245	4207
926.352	4071
926.459	4268
926.566	4322
926.673	4162
926.779	4051
926.886	4101
926.993	3964
927.099	3960
927.206	3930
927.312	3934
927.419	4036
927.525	4013
927.631	4074
927.737	3907
927.843	3953
927.95	3819
928.056	3956
928.162	3998
928.267	4063
928.373	4668
928.479	4154
928.585	3884
928.69	4021
928.796	4021
928.901	3991
929.007	3850
929.112	4044
929.218	3953
929.323	3945
929.428	3941
929.533	4082
929.638	3876
929.743	3960
929.848	4078
929.953	3972
930.058	3926
930.163	3743
930.267	3827
930.372	3972
930.477	3797
930.581	4048
930.685	3968
930.79	3797
930.894	3922
930.998	3812
931.103	4036
931.207	3724
931.311	3698
931.415	3663
931.519	3534
931.623	3545
