Data from test_V78500241_2662.txt Node
Date: Fri Mar 25 17:07:30 CST 2022
User: usil
Spectrometer: V785-0024
Trigger mode: 0
Integration Time (sec): 4.000000E-1
Scans to average: 1
Nonlinearity correction enabled: false
Boxcar width: 0
Storing dark spectrum: false
XAxis mode: Wavelengths
Number of Pixels in Spectrum: 1024
>>>>>Begin Spectral Data<<<<<
801.071	7982
801.214	8016
801.356	7871
801.499	7852
801.641	7792
801.783	7830
801.926	7940
802.068	7928
802.211	7989
802.353	8035
802.496	7837
802.638	7902
802.78	7925
802.923	7959
803.065	7894
803.208	7951
803.35	7932
803.492	8115
803.635	8176
803.777	8043
803.919	8183
804.061	8423
804.204	8176
804.346	7970
804.488	8027
804.63	8096
804.773	7982
804.915	8107
805.057	8328
805.199	8168
805.341	8183
805.483	8294
805.626	8218
805.768	8103
805.91	8225
806.052	8218
806.194	8092
806.336	8252
806.478	8084
806.62	8046
806.762	8138
806.904	8267
807.046	8461
807.188	8377
807.33	8332
807.472	8343
807.614	8142
807.756	8164
807.898	8012
808.04	7951
808.182	7890
808.324	7879
808.465	7951
808.607	8065
808.749	8202
808.891	8221
809.033	8256
809.174	8233
809.316	8065
809.458	8092
809.6	7986
809.741	8027
809.883	8024
810.025	8088
810.166	8073
810.308	7974
810.45	8024
810.591	7940
810.733	7742
810.875	7636
811.016	7491
811.158	7563
811.299	7666
811.441	7772
811.582	7731
811.724	7620
811.865	7575
812.007	7616
812.148	7666
812.29	7582
812.431	7696
812.573	7887
812.714	8001
812.855	8077
812.997	8126
813.138	8320
813.279	8172
813.421	8084
813.562	8065
813.703	7845
813.845	7792
813.986	7445
814.127	7282
814.268	7259
814.41	7206
814.551	7149
814.692	7190
814.833	7053
814.974	7110
815.115	7069
815.256	6958
815.397	6947
815.539	6894
815.68	6783
815.821	6810
815.962	6916
816.103	6844
816.244	6745
816.385	6608
816.526	6654
816.666	6547
816.807	6346
816.948	6418
817.089	6460
817.23	6422
817.371	6407
817.512	6357
817.653	6357
817.793	6403
817.934	6422
818.075	6441
818.216	6448
818.356	6429
818.497	6258
818.638	6121
818.778	6186
818.919	6125
819.06	6190
819.2	6300
819.341	6300
819.481	6372
819.622	6521
819.762	6711
819.903	6700
820.043	6616
820.184	6566
820.324	6559
820.465	6741
820.605	6673
820.746	6677
820.886	6559
821.026	6703
821.167	6696
821.307	6818
821.447	6719
821.588	6669
821.728	6570
821.868	6448
822.008	6338
822.149	6395
822.289	6376
822.429	6155
822.569	6098
822.709	6140
822.849	5923
822.99	5908
823.13	5942
823.27	5920
823.41	5828
823.55	5805
823.69	5760
823.83	5771
823.97	5657
824.11	5520
824.25	5520
824.389	5573
824.529	5630
824.669	5455
824.809	5623
824.949	5585
825.089	5638
825.228	5543
825.368	5379
825.508	5387
825.648	5341
825.787	5330
825.927	5349
826.067	5254
826.206	5284
826.346	5395
826.485	5429
826.625	5421
826.765	5520
826.904	5482
827.044	5235
827.183	5201
827.323	5105
827.462	5216
827.601	5185
827.741	5185
827.88	5204
828.02	5128
828.159	5288
828.298	5326
828.437	5337
828.577	5292
828.716	5486
828.855	5330
828.994	5136
829.134	5151
829.273	5250
829.412	5155
829.551	5121
829.69	5193
829.829	5216
829.968	5318
830.107	5307
830.246	5261
830.385	5162
830.524	5159
830.663	5090
830.802	4972
830.941	4847
831.08	4854
831.219	4995
831.357	4911
831.496	5155
831.635	4904
831.774	4797
831.913	4873
832.051	4733
832.19	4752
832.329	4809
832.467	4698
832.606	4626
832.744	4740
832.883	4725
833.022	4748
833.16	4778
833.299	4812
833.437	4774
833.576	4801
833.714	4938
833.852	4850
833.991	4889
834.129	4995
834.267	4934
834.406	4900
834.544	4938
834.682	4938
834.821	4957
834.959	5151
835.097	4946
835.235	5178
835.373	5029
835.511	5086
835.65	4949
835.788	4995
835.926	4908
836.064	4866
836.202	4961
836.34	5178
836.478	5166
836.615	5140
836.753	5212
836.891	5220
837.029	5246
837.167	5216
837.305	5197
837.443	5166
837.58	5094
837.718	5242
837.856	5189
837.993	5113
838.131	5235
838.269	5166
838.406	5174
838.544	5136
838.681	5010
838.819	5003
838.956	4942
839.094	4877
839.231	5014
839.369	5014
839.506	5398
839.643	5273
839.781	5086
839.918	5033
840.055	5109
840.193	5079
840.33	5105
840.467	5178
840.604	5178
840.742	5417
840.879	5090
841.016	5075
841.153	5105
841.29	5410
841.427	5360
841.564	5258
841.701	5368
841.838	5242
841.975	5174
842.112	5315
842.249	5140
842.385	5083
842.522	5315
842.659	5166
842.796	5121
842.933	5166
843.069	5151
843.206	5140
843.343	5258
843.479	5235
843.616	5277
843.752	5033
843.889	5056
844.025	5132
844.162	5048
844.298	5193
844.435	5071
844.571	5113
844.708	5201
844.844	5360
844.98	5337
845.117	5288
845.253	5147
845.389	5098
845.525	5181
845.661	5166
845.798	5086
845.934	5143
846.07	5067
846.206	5147
846.342	5254
846.478	5151
846.614	5014
846.75	4991
846.886	4965
847.022	5079
847.158	5033
847.294	5075
847.429	5102
847.565	5086
847.701	5303
847.837	4870
847.972	4824
848.108	5025
848.244	4957
848.379	4805
848.515	4778
848.65	4721
848.786	4782
848.921	4721
849.057	4873
849.192	4915
849.328	4771
849.463	4786
849.598	4763
849.734	4755
849.869	4706
850.004	4622
850.14	4649
850.275	4596
850.41	4535
850.545	4558
850.68	4634
850.815	4603
850.95	4588
851.085	4816
851.22	4702
851.355	4687
851.49	4634
851.625	4603
851.76	4634
851.895	4554
852.03	4538
852.165	4725
852.299	4694
852.434	4786
852.569	4706
852.703	4763
852.838	4820
852.973	4949
853.107	4870
853.242	4767
853.376	4672
853.511	4546
853.645	4588
853.78	4725
853.914	4653
854.048	4641
854.183	4630
854.317	4668
854.451	4858
854.585	4691
854.72	4634
854.854	4717
854.988	4580
855.122	4641
855.256	4478
855.39	4660
855.524	4778
855.658	4698
855.792	4698
855.926	4721
856.06	4755
856.194	4771
856.327	4721
856.461	4611
856.595	4592
856.729	4626
856.862	4736
856.996	4645
857.13	4694
857.263	4793
857.397	4809
857.53	4626
857.664	4721
857.797	4782
857.931	4778
858.064	4660
858.197	4721
858.331	4672
858.464	4615
858.597	4485
858.731	4637
858.864	4615
858.997	4554
859.13	4607
859.263	4656
859.396	4668
859.529	4653
859.662	4558
859.795	4531
859.928	4611
860.061	4790
860.194	4748
860.327	4607
860.46	4535
860.592	4691
860.725	4679
860.858	4774
860.99	4603
861.123	4500
861.256	4508
861.388	4599
861.521	5436
861.653	4512
861.786	4451
861.918	4451
862.05	4508
862.183	4558
862.315	4588
862.447	4687
862.58	4573
862.712	4394
862.844	4329
862.976	4485
863.108	4443
863.24	4763
863.372	4337
863.504	4409
863.636	4447
863.768	4455
863.9	4428
864.032	4352
864.164	4413
864.296	4462
864.428	4550
864.559	4573
864.691	4550
864.823	4531
864.954	4478
865.086	4504
865.217	4436
865.349	4432
865.48	4432
865.612	4512
865.743	4618
865.875	4455
866.006	4421
866.137	4500
866.269	4402
866.4	4371
866.531	4424
866.662	4363
866.793	4432
866.924	4428
867.055	4493
867.186	4409
867.317	4371
867.448	4367
867.579	4417
867.71	4360
867.841	4398
867.972	4440
868.103	4481
868.233	4367
868.364	4440
868.495	4489
868.625	4664
868.756	4805
868.886	4558
869.017	4611
869.147	4752
869.278	4744
869.408	4626
869.539	4637
869.669	4691
869.799	4687
869.929	4774
870.06	4740
870.19	4942
870.32	4892
870.45	4915
870.58	5006
870.71	5094
870.84	5083
870.97	4961
871.1	4873
871.23	5079
871.36	5117
871.489	5029
871.619	5048
871.749	5147
871.879	5121
872.008	5181
872.138	5018
872.267	4987
872.397	4843
872.526	4820
872.656	4694
872.785	4759
872.915	4915
873.044	5029
873.173	4908
873.303	4923
873.432	4961
873.561	4987
873.69	4896
873.819	4892
873.948	4987
874.077	4790
874.206	4729
874.335	4793
874.464	4957
874.593	5071
874.722	4984
874.851	5102
874.979	5086
875.108	5014
875.237	4896
875.365	4877
875.494	4911
875.623	4987
875.751	4797
875.88	4862
876.008	4972
876.136	5014
876.265	5162
876.393	5315
876.521	5258
876.65	5235
876.778	5159
876.906	5113
877.034	5022
877.162	5045
877.29	5022
877.418	5029
877.546	5006
877.674	5003
877.802	4965
877.93	5006
878.058	4923
878.185	4862
878.313	4930
878.441	4987
878.568	4809
878.696	4858
878.824	4984
878.951	4938
879.079	5166
879.206	5258
879.333	5090
879.461	4972
879.588	5006
879.715	5105
879.842	5223
879.97	5041
880.097	4786
880.224	4778
880.351	4778
880.478	4824
880.605	4771
880.732	4771
880.859	5098
880.986	4900
881.112	4885
881.239	4793
881.366	4649
881.493	4634
881.619	4542
881.746	4634
881.872	4645
881.999	4664
882.125	4691
882.252	4786
882.378	4824
882.505	4915
882.631	4835
882.757	4694
882.883	4717
883.01	4729
883.136	4672
883.262	4645
883.388	4607
883.514	4809
883.64	4904
883.766	4744
883.892	4702
884.018	4710
884.143	4870
884.269	5037
884.395	4668
884.52	4622
884.646	4672
884.772	4569
884.897	4531
885.023	4664
885.148	4759
885.274	4843
885.399	4736
885.524	4691
885.65	4694
885.775	4774
885.9	4691
886.025	4835
886.15	4778
886.275	4774
886.4	4656
886.525	4771
886.65	4645
886.775	4706
886.9	4908
887.025	5033
887.149	4790
887.274	4675
887.399	4588
887.523	4637
887.648	4599
887.773	4599
887.897	4740
888.021	4790
888.146	4706
888.27	4820
888.395	4862
888.519	4801
888.643	4778
888.767	4858
888.891	4702
889.015	4599
889.139	4653
889.263	4592
889.387	4782
889.511	4866
889.635	4805
889.759	4599
889.883	4626
890.006	4736
890.13	4828
890.254	4596
890.377	4675
890.501	4538
890.624	4489
890.748	4607
890.871	4500
890.995	4398
891.118	4371
891.241	4500
891.364	4561
891.488	4592
891.611	4485
891.734	4504
891.857	4573
891.98	4493
892.103	4626
892.226	4561
892.349	4481
892.471	4405
892.594	4493
892.717	4607
892.839	4561
892.962	4569
893.085	4653
893.207	4618
893.33	4455
893.452	4531
893.575	4660
893.697	4569
893.819	4771
893.941	4786
894.064	4755
894.186	4622
894.308	4531
894.43	4740
894.552	4816
894.674	4706
894.796	4592
894.918	4622
895.04	4580
895.161	4698
895.283	4634
895.405	4538
895.526	4641
895.648	4660
895.769	4710
895.891	4679
896.012	4744
896.134	4691
896.255	4691
896.376	4618
896.498	4611
896.619	4710
896.74	4580
896.861	4615
896.982	4915
897.103	5056
897.224	4763
897.345	4805
897.466	4653
897.587	4748
897.708	4843
897.828	4733
897.949	4698
898.07	4554
898.19	4630
898.311	4816
898.431	4694
898.552	4782
898.672	4839
898.792	4786
898.913	4759
899.033	4607
899.153	4558
899.273	4493
899.393	4512
899.513	4573
899.633	4546
899.753	4538
899.873	4512
899.993	4596
900.113	4565
900.232	4573
900.352	4542
900.472	4478
900.591	4421
900.711	4493
900.83	4504
900.95	4634
901.069	4748
901.189	4546
901.308	4405
901.427	4379
901.546	4428
901.665	4500
901.784	4569
901.904	4436
902.023	4421
902.141	4242
902.26	4192
902.379	4375
902.498	4276
902.617	4303
902.735	4440
902.854	4447
902.973	4436
903.091	4242
903.21	4261
903.328	4341
903.446	4310
903.565	4341
903.683	4413
903.801	4303
903.919	4470
904.038	4436
904.156	4363
904.274	4466
904.392	4428
904.51	4466
904.627	4489
904.745	4641
904.863	4694
904.981	4455
905.098	4375
905.216	4398
905.334	4451
905.451	4466
905.569	4504
905.686	4653
905.803	4573
905.921	4436
906.038	4592
906.155	4512
906.272	4405
906.389	4500
906.506	4421
906.623	4402
906.74	4398
906.857	4371
906.974	4409
907.091	4561
907.208	4683
907.324	4622
907.441	4538
907.557	4394
907.674	4375
907.79	4329
907.907	4375
908.023	4523
908.139	4519
908.256	4489
908.372	4516
908.488	4443
908.604	4325
908.72	4383
908.836	4409
908.952	4421
909.068	4466
909.184	4622
909.3	4542
909.415	4607
909.531	4615
909.647	4409
909.762	4360
909.878	4409
909.993	4462
910.108	4428
910.224	4421
910.339	4527
910.454	4424
910.57	4383
910.685	4318
910.8	4721
910.915	4615
911.03	4523
911.145	4363
911.259	4375
911.374	4386
911.489	4348
911.604	4352
911.718	4257
911.833	4242
911.947	4150
912.062	4086
912.176	4253
912.291	4291
912.405	4257
912.519	4565
912.633	4546
912.748	4367
912.862	4371
912.976	4230
913.09	4128
913.204	4162
913.318	4268
913.431	4386
913.545	4363
913.659	4455
913.772	4417
913.886	4280
914	4242
914.113	4417
914.226	4432
914.34	4405
914.453	4265
914.566	4466
914.68	4322
914.793	4405
914.906	4173
915.019	4166
915.132	4097
915.245	4215
915.358	4223
915.47	4234
915.583	4284
915.696	4295
915.809	4455
915.921	4462
916.034	4303
916.146	4257
916.259	4253
916.371	4379
916.483	4379
916.595	4299
916.708	4322
916.82	4337
916.932	4348
917.044	4337
917.156	4333
917.268	4207
917.38	4306
917.491	4325
917.603	4367
917.715	4474
917.826	4504
917.938	4379
918.049	4261
918.161	4398
918.272	4546
918.384	4569
918.495	4504
918.606	4352
918.717	4314
918.828	4405
918.939	4402
919.05	4325
919.161	4325
919.272	4158
919.383	4299
919.494	4500
919.604	4607
919.715	4436
919.826	4360
919.936	4432
920.047	4588
920.157	4512
920.267	4740
920.378	4554
920.488	4535
920.598	4752
920.708	4877
920.818	4801
920.928	4752
921.038	4976
921.148	4892
921.258	4637
921.368	4653
921.477	4470
921.587	4500
921.697	4436
921.806	4599
921.916	4489
922.025	4318
922.134	4333
922.244	4249
922.353	4413
922.462	4246
922.571	4162
922.68	4074
922.789	3979
922.898	4025
923.007	4010
923.116	4154
923.224	4105
923.333	4101
923.442	3987
923.55	3994
923.659	4029
923.767	4154
923.876	4067
923.984	4143
924.092	4036
924.201	4116
924.309	4124
924.417	4116
924.525	4128
924.633	4116
924.741	5064
924.849	3956
924.956	4150
925.064	3987
925.172	3994
925.279	3979
925.387	4074
925.494	4063
925.602	4276
925.709	4204
925.816	4059
925.924	4185
926.031	4299
926.138	4196
926.245	4227
926.352	4150
926.459	4295
926.566	4344
926.673	4177
926.779	4135
926.886	4063
926.993	4002
927.099	3972
927.206	3918
927.312	3987
927.419	4055
927.525	4029
927.631	4143
927.737	3975
927.843	3918
927.95	3861
928.056	3983
928.162	4006
928.267	4120
928.373	4584
928.479	4124
928.585	3876
928.69	4059
928.796	4101
928.901	4010
929.007	3857
929.112	4044
929.218	4002
929.323	3949
929.428	3964
929.533	4200
929.638	3983
929.743	4013
929.848	4021
929.953	4002
930.058	3964
930.163	3804
930.267	3876
930.372	4029
930.477	3850
930.581	4090
930.685	3991
930.79	3854
930.894	3949
930.998	3930
931.103	4082
931.207	3728
931.311	3713
931.415	3717
931.519	3568
931.623	3576
