Data from test_V78500241_755.txt Node
Date: Fri Mar 25 16:54:15 CST 2022
User: usil
Spectrometer: V785-0024
Trigger mode: 0
Integration Time (sec): 4.000000E-1
Scans to average: 1
Nonlinearity correction enabled: false
Boxcar width: 0
Storing dark spectrum: false
XAxis mode: Wavelengths
Number of Pixels in Spectrum: 1024
>>>>>Begin Spectral Data<<<<<
801.071	8077
801.214	8005
801.356	7849
801.499	7890
801.641	7712
801.783	7837
801.926	7986
802.068	7940
802.211	7955
802.353	7955
802.496	7890
802.638	7845
802.78	7959
802.923	7890
803.065	7883
803.208	7868
803.35	7925
803.492	8180
803.635	8157
803.777	8050
803.919	8084
804.061	8419
804.204	8062
804.346	8035
804.488	7909
804.63	8073
804.773	7986
804.915	8069
805.057	8305
805.199	8164
805.341	8202
805.483	8214
805.626	8206
805.768	8081
805.91	8142
806.052	8187
806.194	8092
806.336	8301
806.478	8043
806.62	8077
806.762	8142
806.904	8290
807.046	8423
807.188	8317
807.33	8339
807.472	8355
807.614	8145
807.756	8153
807.898	8039
808.04	7864
808.182	7898
808.324	7864
808.465	7871
808.607	8046
808.749	8077
808.891	8183
809.033	8271
809.174	8145
809.316	8054
809.458	8062
809.6	7928
809.741	7970
809.883	8058
810.025	8096
810.166	8043
810.308	8054
810.45	7974
810.591	7814
810.733	7685
810.875	7715
811.016	7571
811.158	7441
811.299	7666
811.441	7693
811.582	7647
811.724	7552
811.865	7510
812.007	7582
812.148	7616
812.29	7575
812.431	7765
812.573	7833
812.714	7974
812.855	8039
812.997	8214
813.138	8225
813.279	8119
813.421	8123
813.562	8043
813.703	7841
813.845	7845
813.986	7403
814.127	7247
814.268	7270
814.41	7206
814.551	7145
814.692	7088
814.833	7015
814.974	7015
815.115	7099
815.256	6924
815.397	6943
815.539	6894
815.68	6852
815.821	6753
815.962	6833
816.103	6814
816.244	6620
816.385	6658
816.526	6555
816.666	6445
816.807	6342
816.948	6403
817.089	6479
817.23	6388
817.371	6323
817.512	6395
817.653	6353
817.793	6395
817.934	6372
818.075	6445
818.216	6376
818.356	6342
818.497	6254
818.638	6064
818.778	6117
818.919	6072
819.06	6155
819.2	6361
819.341	6357
819.481	6338
819.622	6502
819.762	6658
819.903	6642
820.043	6563
820.184	6574
820.324	6486
820.465	6696
820.605	6684
820.746	6601
820.886	6445
821.026	6620
821.167	6665
821.307	6772
821.447	6768
821.588	6620
821.728	6521
821.868	6456
822.008	6285
822.149	6380
822.289	6353
822.429	6129
822.569	6053
822.709	6152
822.849	5832
822.99	5882
823.13	5927
823.27	5885
823.41	5718
823.55	5748
823.69	5756
823.83	5847
823.97	5718
824.11	5520
824.25	5459
824.389	5512
824.529	5577
824.669	5558
824.809	5611
824.949	5653
825.089	5596
825.228	5600
825.368	5410
825.508	5353
825.648	5299
825.787	5387
825.927	5334
826.067	5280
826.206	5242
826.346	5376
826.485	5440
826.625	5414
826.765	5562
826.904	5463
827.044	5258
827.183	5140
827.323	5143
827.462	5216
827.601	5170
827.741	5124
827.88	5212
828.02	5113
828.159	5250
828.298	5326
828.437	5303
828.577	5307
828.716	5414
828.855	5292
828.994	5147
829.134	5162
829.273	5170
829.412	5143
829.551	5147
829.69	5151
829.829	5250
829.968	5357
830.107	5246
830.246	5292
830.385	5155
830.524	5071
830.663	5098
830.802	5003
830.941	4919
831.08	4828
831.219	4965
831.357	5006
831.496	5155
831.635	4934
831.774	4858
831.913	4816
832.051	4714
832.19	4714
832.329	4828
832.467	4714
832.606	4618
832.744	4702
832.883	4687
833.022	4714
833.16	4736
833.299	4793
833.437	4797
833.576	4801
833.714	4896
833.852	4881
833.991	4862
834.129	4915
834.267	4927
834.406	4877
834.544	4961
834.682	5029
834.821	4919
834.959	5151
835.097	4991
835.235	5140
835.373	5060
835.511	5105
835.65	5010
835.788	5010
835.926	4900
836.064	4873
836.202	4908
836.34	5151
836.478	5159
836.615	5132
836.753	5189
836.891	5288
837.029	5269
837.167	5155
837.305	5098
837.443	5140
837.58	5029
837.718	5239
837.856	5151
837.993	5155
838.131	5258
838.269	5181
838.406	5212
838.544	5151
838.681	5064
838.819	4961
838.956	4885
839.094	4927
839.231	4999
839.369	5105
839.506	5421
839.643	5265
839.781	5045
839.918	4984
840.055	5048
840.193	5109
840.33	5094
840.467	5124
840.604	5208
840.742	5395
840.879	5067
841.016	5102
841.153	5143
841.29	5364
841.427	5334
841.564	5292
841.701	5368
841.838	5220
841.975	5246
842.112	5273
842.249	5132
842.385	5048
842.522	5326
842.659	5174
842.796	5170
842.933	5246
843.069	5079
843.206	5189
843.343	5292
843.479	5212
843.616	5212
843.752	4984
843.889	5006
844.025	5242
844.162	5033
844.298	5189
844.435	5048
844.571	5029
844.708	5166
844.844	5258
844.98	5334
845.117	5311
845.253	5102
845.389	5094
845.525	5105
845.661	5193
845.798	5022
845.934	5090
846.07	4999
846.206	5159
846.342	5303
846.478	5174
846.614	4987
846.75	4923
846.886	4934
847.022	5121
847.158	5022
847.294	5075
847.429	5090
847.565	5033
847.701	5322
847.837	4850
847.972	4835
848.108	5003
848.244	4942
848.379	4767
848.515	4733
848.65	4710
848.786	4748
848.921	4740
849.057	4854
849.192	4896
849.328	4805
849.463	4831
849.598	4809
849.734	4763
849.869	4702
850.004	4618
850.14	4607
850.275	4596
850.41	4504
850.545	4542
850.68	4592
850.815	4660
850.95	4630
851.085	4858
851.22	4744
851.355	4649
851.49	4618
851.625	4641
851.76	4710
851.895	4588
852.03	4500
852.165	4577
852.299	4706
852.434	4812
852.569	4721
852.703	4774
852.838	4812
852.973	4976
853.107	4889
853.242	4736
853.376	4679
853.511	4546
853.645	4649
853.78	4805
853.914	4691
854.048	4660
854.183	4653
854.317	4687
854.451	4812
854.585	4683
854.72	4630
854.854	4710
854.988	4615
855.122	4580
855.256	4527
855.39	4668
855.524	4793
855.658	4683
855.792	4679
855.926	4710
856.06	4797
856.194	4809
856.327	4630
856.461	4618
856.595	4561
856.729	4634
856.862	4729
856.996	4679
857.13	4694
857.263	4759
857.397	4816
857.53	4687
857.664	4721
857.797	4759
857.931	4767
858.064	4717
858.197	4767
858.331	4668
858.464	4641
858.597	4481
858.731	4634
858.864	4637
858.997	4561
859.13	4645
859.263	4675
859.396	4626
859.529	4554
859.662	4592
859.795	4554
859.928	4618
860.061	4694
860.194	4793
860.327	4577
860.46	4596
860.592	4645
860.725	4691
860.858	4706
860.99	4519
861.123	4489
861.256	4474
861.388	4603
861.521	5341
861.653	4447
861.786	4489
861.918	4413
862.05	4512
862.183	4519
862.315	4565
862.447	4615
862.58	4519
862.712	4383
862.844	4306
862.976	4440
863.108	4440
863.24	4870
863.372	4341
863.504	4409
863.636	4405
863.768	4500
863.9	4451
864.032	4333
864.164	4394
864.296	4421
864.428	4535
864.559	4527
864.691	4550
864.823	4493
864.954	4512
865.086	4512
865.217	4489
865.349	4390
865.48	4398
865.612	4462
865.743	4641
865.875	4500
866.006	4417
866.137	4493
866.269	4417
866.4	4421
866.531	4405
866.662	4360
866.793	4367
866.924	4417
867.055	4466
867.186	4489
867.317	4421
867.448	4428
867.579	4356
867.71	4360
867.841	4333
867.972	4459
868.103	4432
868.233	4421
868.364	4432
868.495	4470
868.625	4641
868.756	4736
868.886	4584
869.017	4645
869.147	4752
869.278	4793
869.408	4687
869.539	4630
869.669	4736
869.799	4694
869.929	4771
870.06	4733
870.19	4923
870.32	4938
870.45	4942
870.58	4968
870.71	5052
870.84	5079
870.97	4953
871.1	4923
871.23	5143
871.36	5086
871.489	4968
871.619	5090
871.749	5071
871.879	5121
872.008	5147
872.138	5052
872.267	4980
872.397	4805
872.526	4824
872.656	4733
872.785	4774
872.915	4968
873.044	5033
873.173	4953
873.303	4946
873.432	4942
873.561	4949
873.69	4873
873.819	4835
873.948	4866
874.077	4820
874.206	4721
874.335	4790
874.464	4911
874.593	5052
874.722	4999
874.851	5109
874.979	5086
875.108	5018
875.237	4923
875.365	4892
875.494	4873
875.623	5003
875.751	4820
875.88	4850
876.008	4984
876.136	5006
876.265	5166
876.393	5341
876.521	5193
876.65	5178
876.778	5113
876.906	5075
877.034	5067
877.162	5022
877.29	4965
877.418	5045
877.546	4980
877.674	5022
877.802	4957
877.93	4980
878.058	4946
878.185	4850
878.313	4949
878.441	4949
878.568	4847
878.696	4847
878.824	4923
878.951	5045
879.079	5109
879.206	5307
879.333	5128
879.461	4984
879.588	5029
879.715	5174
879.842	5220
879.97	5018
880.097	4801
880.224	4740
880.351	4797
880.478	4835
880.605	4778
880.732	4793
880.859	5090
880.986	4942
881.112	4900
881.239	4771
881.366	4679
881.493	4618
881.619	4611
881.746	4660
881.872	4607
881.999	4634
882.125	4698
882.252	4759
882.378	4797
882.505	4976
882.631	4835
882.757	4649
882.883	4672
883.01	4736
883.136	4630
883.262	4626
883.388	4679
883.514	4847
883.64	4835
883.766	4767
883.892	4630
884.018	4691
884.143	4911
884.269	4980
884.395	4675
884.52	4596
884.646	4596
884.772	4603
884.897	4550
885.023	4641
885.148	4736
885.274	4854
885.399	4816
885.524	4744
885.65	4653
885.775	4702
885.9	4679
886.025	4873
886.15	4763
886.275	4767
886.4	4649
886.525	4740
886.65	4660
886.775	4679
886.9	4866
887.025	5090
887.149	4774
887.274	4645
887.399	4611
887.523	4603
887.648	4580
887.773	4565
887.897	4793
888.021	4767
888.146	4672
888.27	4782
888.395	4854
888.519	4820
888.643	4793
888.767	4812
888.891	4687
889.015	4611
889.139	4580
889.263	4558
889.387	4763
889.511	4839
889.635	4812
889.759	4615
889.883	4694
890.006	4714
890.13	4828
890.254	4607
890.377	4691
890.501	4542
890.624	4531
890.748	4637
890.871	4531
890.995	4447
891.118	4337
891.241	4531
891.364	4542
891.488	4603
891.611	4508
891.734	4516
891.857	4641
891.98	4554
892.103	4653
892.226	4615
892.349	4478
892.471	4417
892.594	4531
892.717	4588
892.839	4603
892.962	4596
893.085	4637
893.207	4596
893.33	4417
893.452	4451
893.575	4694
893.697	4580
893.819	4778
893.941	4778
894.064	4812
894.186	4596
894.308	4565
894.43	4706
894.552	4824
894.674	4774
894.796	4546
894.918	4596
895.04	4538
895.161	4717
895.283	4634
895.405	4569
895.526	4618
895.648	4694
895.769	4668
895.891	4710
896.012	4729
896.134	4706
896.255	4626
896.376	4634
896.498	4607
896.619	4706
896.74	4588
896.861	4630
896.982	4900
897.103	5075
897.224	4816
897.345	4763
897.466	4634
897.587	4679
897.708	4831
897.828	4778
897.949	4687
898.07	4561
898.19	4622
898.311	4801
898.431	4630
898.552	4771
898.672	4812
898.792	4812
898.913	4740
899.033	4664
899.153	4497
899.273	4390
899.393	4508
899.513	4527
899.633	4538
899.753	4519
899.873	4531
899.993	4607
900.113	4531
900.232	4550
900.352	4546
900.472	4474
900.591	4417
900.711	4489
900.83	4451
900.95	4645
901.069	4694
901.189	4538
901.308	4363
901.427	4325
901.546	4383
901.665	4440
901.784	4497
901.904	4398
902.023	4246
902.141	4215
902.26	4166
902.379	4295
902.498	4223
902.617	4234
902.735	4394
902.854	4341
902.973	4379
903.091	4230
903.21	4207
903.328	4268
903.446	4253
903.565	4215
903.683	4310
903.801	4295
903.919	4417
904.038	4462
904.156	4291
904.274	4367
904.392	4394
904.51	4409
904.627	4413
904.745	4588
904.863	4630
904.981	4390
905.098	4280
905.216	4348
905.334	4432
905.451	4424
905.569	4432
905.686	4500
905.803	4538
905.921	4421
906.038	4573
906.155	4455
906.272	4413
906.389	4470
906.506	4333
906.623	4306
906.74	4371
906.857	4295
906.974	4424
907.091	4554
907.208	4660
907.324	4573
907.441	4474
907.557	4284
907.674	4325
907.79	4356
907.907	4371
908.023	4489
908.139	4462
908.256	4443
908.372	4474
908.488	4375
908.604	4352
908.72	4314
908.836	4341
908.952	4352
909.068	4402
909.184	4584
909.3	4459
909.415	4577
909.531	4538
909.647	4337
909.762	4360
909.878	4306
909.993	4371
910.108	4405
910.224	4409
910.339	4489
910.454	4386
910.57	4405
910.685	4337
910.8	4645
910.915	4569
911.03	4493
911.145	4329
911.259	4314
911.374	4367
911.489	4333
911.604	4284
911.718	4162
911.833	4211
911.947	4093
912.062	4002
912.176	4219
912.291	4249
912.405	4257
912.519	4478
912.633	4481
912.748	4344
912.862	4291
912.976	4211
913.09	4059
913.204	4181
913.318	4249
913.431	4390
913.545	4371
913.659	4436
913.772	4375
913.886	4207
914	4200
914.113	4360
914.226	4470
914.34	4405
914.453	4200
914.566	4428
914.68	4295
914.793	4322
914.906	4116
915.019	4131
915.132	4086
915.245	4169
915.358	4215
915.47	4204
915.583	4265
915.696	4322
915.809	4459
915.921	4466
916.034	4219
916.146	4272
916.259	4230
916.371	4344
916.483	4352
916.595	4265
916.708	4337
916.82	4287
916.932	4306
917.044	4295
917.156	4306
917.268	4234
917.38	4200
917.491	4257
917.603	4348
917.715	4436
917.826	4443
917.938	4383
918.049	4242
918.161	4371
918.272	4519
918.384	4497
918.495	4493
918.606	4360
918.717	4230
918.828	4291
918.939	4352
919.05	4276
919.161	4284
919.272	4154
919.383	4234
919.494	4462
919.604	4584
919.715	4424
919.826	4383
919.936	4386
920.047	4508
920.157	4489
920.267	4698
920.378	4527
920.488	4481
920.598	4714
920.708	4885
920.818	4771
920.928	4763
921.038	4938
921.148	4904
921.258	4592
921.368	4512
921.477	4447
921.587	4493
921.697	4375
921.806	4523
921.916	4424
922.025	4280
922.134	4227
922.244	4234
922.353	4310
922.462	4192
922.571	4135
922.68	4051
922.789	3987
922.898	3994
923.007	4013
923.116	4101
923.224	4086
923.333	4040
923.442	4002
923.55	4017
923.659	4029
923.767	4044
923.876	4036
923.984	4090
924.092	3979
924.201	4074
924.309	4059
924.417	4112
924.525	4063
924.633	4097
924.741	4877
924.849	3903
924.956	4147
925.064	3960
925.172	3964
925.279	4013
925.387	4036
925.494	4044
925.602	4211
925.709	4166
925.816	4067
925.924	4120
926.031	4219
926.138	4166
926.245	4162
926.352	4086
926.459	4238
926.566	4276
926.673	4169
926.779	4078
926.886	4051
926.993	3956
927.099	3869
927.206	3922
927.312	3953
927.419	4021
927.525	4017
927.631	4101
927.737	3934
927.843	3941
927.95	3865
928.056	3937
928.162	3911
928.267	4044
928.373	4683
928.479	4097
928.585	3869
928.69	4013
928.796	4071
928.901	3975
929.007	3808
929.112	4013
929.218	3998
929.323	3922
929.428	3975
929.533	4131
929.638	3911
929.743	3979
929.848	4051
929.953	3998
930.058	3922
930.163	3785
930.267	3827
930.372	3907
930.477	3835
930.581	4063
930.685	3941
930.79	3861
930.894	3876
930.998	3861
931.103	4036
931.207	3724
931.311	3724
931.415	3675
931.519	3492
931.623	3549
