Data from test_V78500241_2548.txt Node
Date: Fri Mar 25 17:06:43 CST 2022
User: usil
Spectrometer: V785-0024
Trigger mode: 0
Integration Time (sec): 4.000000E-1
Scans to average: 1
Nonlinearity correction enabled: false
Boxcar width: 0
Storing dark spectrum: false
XAxis mode: Wavelengths
Number of Pixels in Spectrum: 1024
>>>>>Begin Spectral Data<<<<<
801.071	7986
801.214	8020
801.356	7811
801.499	7860
801.641	7772
801.783	7799
801.926	7940
802.068	7940
802.211	8031
802.353	7944
802.496	7887
802.638	7811
802.78	7883
802.923	7898
803.065	7841
803.208	7871
803.35	7932
803.492	8157
803.635	8138
803.777	7982
803.919	8073
804.061	8404
804.204	8157
804.346	8027
804.488	7951
804.63	8115
804.773	8069
804.915	8161
805.057	8324
805.199	8130
805.341	8187
805.483	8309
805.626	8218
805.768	8168
805.91	8218
806.052	8161
806.194	8096
806.336	8305
806.478	8123
806.62	7978
806.762	8123
806.904	8225
807.046	8473
807.188	8381
807.33	8271
807.472	8313
807.614	8069
807.756	8161
807.898	7989
808.04	7898
808.182	7837
808.324	7849
808.465	7921
808.607	8027
808.749	8092
808.891	8252
809.033	8294
809.174	8210
809.316	8100
809.458	8081
809.6	7989
809.741	7955
809.883	8081
810.025	8088
810.166	8077
810.308	7959
810.45	8027
810.591	7894
810.733	7731
810.875	7636
811.016	7514
811.158	7518
811.299	7563
811.441	7708
811.582	7628
811.724	7628
811.865	7548
812.007	7575
812.148	7605
812.29	7605
812.431	7696
812.573	7868
812.714	7970
812.855	8126
812.997	8225
813.138	8244
813.279	8123
813.421	8100
813.562	7986
813.703	7830
813.845	7772
813.986	7487
814.127	7263
814.268	7240
814.41	7160
814.551	7213
814.692	7198
814.833	7118
814.974	7076
815.115	7156
815.256	6920
815.397	6897
815.539	6932
815.68	6878
815.821	6787
815.962	6897
816.103	6833
816.244	6715
816.385	6608
816.526	6646
816.666	6490
816.807	6327
816.948	6433
817.089	6475
817.23	6460
817.371	6429
817.512	6372
817.653	6429
817.793	6365
817.934	6399
818.075	6483
818.216	6448
818.356	6429
818.497	6220
818.638	6148
818.778	6125
818.919	6136
819.06	6175
819.2	6251
819.341	6281
819.481	6350
819.622	6555
819.762	6696
819.903	6711
820.043	6627
820.184	6578
820.324	6601
820.465	6719
820.605	6700
820.746	6677
820.886	6623
821.026	6703
821.167	6741
821.307	6833
821.447	6783
821.588	6673
821.728	6578
821.868	6532
822.008	6331
822.149	6380
822.289	6338
822.429	6235
822.569	6087
822.709	6133
822.849	5927
822.99	5882
823.13	5958
823.27	5927
823.41	5783
823.55	5786
823.69	5714
823.83	5745
823.97	5691
824.11	5562
824.25	5474
824.389	5554
824.529	5581
824.669	5539
824.809	5608
824.949	5680
825.089	5604
825.228	5539
825.368	5455
825.508	5364
825.648	5330
825.787	5353
825.927	5315
826.067	5353
826.206	5307
826.346	5341
826.485	5410
826.625	5406
826.765	5543
826.904	5524
827.044	5280
827.183	5220
827.323	5147
827.462	5269
827.601	5159
827.741	5151
827.88	5208
828.02	5124
828.159	5193
828.298	5277
828.437	5372
828.577	5307
828.716	5436
828.855	5334
828.994	5185
829.134	5151
829.273	5075
829.412	5098
829.551	5162
829.69	5181
829.829	5254
829.968	5353
830.107	5242
830.246	5307
830.385	5174
830.524	5113
830.663	5064
830.802	4991
830.941	4923
831.08	4889
831.219	4976
831.357	4972
831.496	5151
831.635	4873
831.774	4858
831.913	4847
832.051	4714
832.19	4740
832.329	4801
832.467	4710
832.606	4599
832.744	4698
832.883	4687
833.022	4729
833.16	4748
833.299	4824
833.437	4858
833.576	4831
833.714	4816
833.852	4843
833.991	4847
834.129	4953
834.267	4949
834.406	4942
834.544	5003
834.682	4976
834.821	4961
834.959	5109
835.097	4938
835.235	5117
835.373	5083
835.511	5121
835.65	5045
835.788	5018
835.926	4873
836.064	4919
836.202	4923
836.34	5151
836.478	5174
836.615	5132
836.753	5216
836.891	5330
837.029	5239
837.167	5174
837.305	5178
837.443	5128
837.58	5052
837.718	5231
837.856	5181
837.993	5143
838.131	5246
838.269	5185
838.406	5166
838.544	5185
838.681	5018
838.819	5052
838.956	4911
839.094	4896
839.231	4999
839.369	5086
839.506	5425
839.643	5254
839.781	5033
839.918	4980
840.055	5121
840.193	5052
840.33	5147
840.467	5151
840.604	5178
840.742	5425
840.879	5052
841.016	5086
841.153	5159
841.29	5379
841.427	5337
841.564	5353
841.701	5372
841.838	5307
841.975	5231
842.112	5277
842.249	5124
842.385	5083
842.522	5284
842.659	5197
842.796	5143
842.933	5197
843.069	5121
843.206	5178
843.343	5311
843.479	5204
843.616	5261
843.752	4995
843.889	4965
844.025	5208
844.162	5064
844.298	5208
844.435	5079
844.571	4984
844.708	5212
844.844	5322
844.98	5307
845.117	5254
845.253	5143
845.389	5048
845.525	5170
845.661	5121
845.798	5052
845.934	5109
846.07	5060
846.206	5151
846.342	5265
846.478	5113
846.614	5045
846.75	5006
846.886	4904
847.022	5102
847.158	5041
847.294	5018
847.429	5121
847.565	5029
847.701	5345
847.837	4831
847.972	4797
848.108	4984
848.244	4923
848.379	4809
848.515	4725
848.65	4710
848.786	4744
848.921	4717
849.057	4835
849.192	4866
849.328	4835
849.463	4824
849.598	4763
849.734	4752
849.869	4675
850.004	4580
850.14	4672
850.275	4630
850.41	4523
850.545	4596
850.68	4588
850.815	4565
850.95	4656
851.085	4854
851.22	4729
851.355	4653
851.49	4653
851.625	4653
851.76	4634
851.895	4580
852.03	4508
852.165	4645
852.299	4698
852.434	4771
852.569	4744
852.703	4782
852.838	4824
852.973	4934
853.107	4972
853.242	4706
853.376	4664
853.511	4519
853.645	4626
853.78	4824
853.914	4706
854.048	4660
854.183	4615
854.317	4656
854.451	4847
854.585	4714
854.72	4679
854.854	4725
854.988	4618
855.122	4634
855.256	4527
855.39	4611
855.524	4771
855.658	4721
855.792	4679
855.926	4740
856.06	4774
856.194	4778
856.327	4683
856.461	4569
856.595	4603
856.729	4565
856.862	4767
856.996	4683
857.13	4717
857.263	4710
857.397	4805
857.53	4653
857.664	4694
857.797	4774
857.931	4824
858.064	4679
858.197	4729
858.331	4668
858.464	4607
858.597	4481
858.731	4603
858.864	4626
858.997	4603
859.13	4656
859.263	4603
859.396	4706
859.529	4538
859.662	4546
859.795	4500
859.928	4626
860.061	4752
860.194	4752
860.327	4630
860.46	4558
860.592	4618
860.725	4691
860.858	4691
860.99	4573
861.123	4550
861.256	4550
861.388	4592
861.521	5128
861.653	4455
861.786	4459
861.918	4421
862.05	4542
862.183	4561
862.315	4592
862.447	4641
862.58	4558
862.712	4432
862.844	4329
862.976	4462
863.108	4459
863.24	4717
863.372	4318
863.504	4348
863.636	4375
863.768	4485
863.9	4390
864.032	4367
864.164	4383
864.296	4436
864.428	4588
864.559	4550
864.691	4550
864.823	4538
864.954	4500
865.086	4512
865.217	4462
865.349	4386
865.48	4459
865.612	4508
865.743	4622
865.875	4459
866.006	4421
866.137	4455
866.269	4474
866.4	4428
866.531	4417
866.662	4394
866.793	4398
866.924	4390
867.055	4451
867.186	4428
867.317	4394
867.448	4363
867.579	4417
867.71	4386
867.841	4367
867.972	4451
868.103	4402
868.233	4440
868.364	4428
868.495	4489
868.625	4645
868.756	4767
868.886	4554
869.017	4565
869.147	4797
869.278	4710
869.408	4637
869.539	4626
869.669	4721
869.799	4675
869.929	4752
870.06	4740
870.19	4957
870.32	4889
870.45	4896
870.58	5029
870.71	5098
870.84	5094
870.97	4949
871.1	4896
871.23	5102
871.36	5128
871.489	5003
871.619	5105
871.749	5109
871.879	5083
872.008	5189
872.138	5052
872.267	4987
872.397	4847
872.526	4790
872.656	4702
872.785	4820
872.915	4953
873.044	5003
873.173	4904
873.303	4965
873.432	4976
873.561	4938
873.69	4885
873.819	4873
873.948	4870
874.077	4850
874.206	4786
874.335	4755
874.464	4885
874.593	5067
874.722	4911
874.851	5045
874.979	5117
875.108	4991
875.237	4885
875.365	4927
875.494	4904
875.623	5014
875.751	4828
875.88	4881
876.008	5022
876.136	5079
876.265	5147
876.393	5318
876.521	5178
876.65	5174
876.778	5170
876.906	5067
877.034	5052
877.162	5060
877.29	4930
877.418	5025
877.546	5052
877.674	5056
877.802	5048
877.93	5025
878.058	4968
878.185	4889
878.313	4965
878.441	4984
878.568	4820
878.696	4915
878.824	4942
878.951	4987
879.079	5170
879.206	5284
879.333	5098
879.461	4976
879.588	5018
879.715	5181
879.842	5250
879.97	4976
880.097	4797
880.224	4740
880.351	4812
880.478	4812
880.605	4771
880.732	4771
880.859	5102
880.986	4915
881.112	4904
881.239	4809
881.366	4645
881.493	4622
881.619	4580
881.746	4653
881.872	4641
881.999	4599
882.125	4668
882.252	4850
882.378	4862
882.505	4946
882.631	4824
882.757	4687
882.883	4725
883.01	4729
883.136	4660
883.262	4565
883.388	4660
883.514	4820
883.64	4885
883.766	4774
883.892	4668
884.018	4710
884.143	4820
884.269	4987
884.395	4637
884.52	4588
884.646	4725
884.772	4554
884.897	4554
885.023	4641
885.148	4752
885.274	4809
885.399	4771
885.524	4736
885.65	4736
885.775	4759
885.9	4717
886.025	4805
886.15	4790
886.275	4698
886.4	4694
886.525	4694
886.65	4672
886.775	4664
886.9	4904
887.025	5018
887.149	4767
887.274	4691
887.399	4626
887.523	4607
887.648	4554
887.773	4573
887.897	4763
888.021	4831
888.146	4645
888.27	4828
888.395	4870
888.519	4805
888.643	4805
888.767	4771
888.891	4675
889.015	4592
889.139	4573
889.263	4577
889.387	4771
889.511	4862
889.635	4812
889.759	4603
889.883	4596
890.006	4702
890.13	4850
890.254	4611
890.377	4653
890.501	4527
890.624	4470
890.748	4660
890.871	4462
890.995	4428
891.118	4405
891.241	4493
891.364	4580
891.488	4554
891.611	4470
891.734	4489
891.857	4653
891.98	4577
892.103	4653
892.226	4588
892.349	4497
892.471	4394
892.594	4485
892.717	4584
892.839	4607
892.962	4573
893.085	4637
893.207	4611
893.33	4485
893.452	4493
893.575	4668
893.697	4565
893.819	4793
893.941	4881
894.064	4774
894.186	4569
894.308	4550
894.43	4755
894.552	4805
894.674	4698
894.796	4523
894.918	4599
895.04	4558
895.161	4740
895.283	4672
895.405	4588
895.526	4588
895.648	4721
895.769	4637
895.891	4702
896.012	4782
896.134	4733
896.255	4660
896.376	4618
896.498	4580
896.619	4672
896.74	4603
896.861	4592
896.982	4873
897.103	5048
897.224	4831
897.345	4729
897.466	4668
897.587	4752
897.708	4843
897.828	4812
897.949	4698
898.07	4580
898.19	4611
898.311	4835
898.431	4664
898.552	4782
898.672	4835
898.792	4870
898.913	4736
899.033	4626
899.153	4466
899.273	4367
899.393	4508
899.513	4538
899.633	4542
899.753	4573
899.873	4485
899.993	4573
900.113	4523
900.232	4618
900.352	4554
900.472	4550
900.591	4447
900.711	4535
900.83	4485
900.95	4660
901.069	4714
901.189	4538
901.308	4371
901.427	4344
901.546	4428
901.665	4478
901.784	4531
901.904	4424
902.023	4352
902.141	4215
902.26	4188
902.379	4325
902.498	4329
902.617	4291
902.735	4428
902.854	4421
902.973	4344
903.091	4234
903.21	4284
903.328	4337
903.446	4314
903.565	4356
903.683	4379
903.801	4341
903.919	4459
904.038	4485
904.156	4348
904.274	4447
904.392	4440
904.51	4466
904.627	4550
904.745	4634
904.863	4694
904.981	4424
905.098	4352
905.216	4363
905.334	4451
905.451	4462
905.569	4523
905.686	4618
905.803	4618
905.921	4470
906.038	4584
906.155	4481
906.272	4440
906.389	4489
906.506	4417
906.623	4421
906.74	4443
906.857	4303
906.974	4383
907.091	4637
907.208	4767
907.324	4607
907.441	4500
907.557	4398
907.674	4363
907.79	4386
907.907	4447
908.023	4481
908.139	4512
908.256	4470
908.372	4519
908.488	4493
908.604	4409
908.72	4360
908.836	4432
908.952	4428
909.068	4417
909.184	4656
909.3	4542
909.415	4622
909.531	4569
909.647	4371
909.762	4379
909.878	4417
909.993	4440
910.108	4428
910.224	4451
910.339	4542
910.454	4447
910.57	4421
910.685	4337
910.8	4687
910.915	4611
911.03	4550
911.145	4310
911.259	4363
911.374	4394
911.489	4371
911.604	4299
911.718	4177
911.833	4295
911.947	4109
912.062	4059
912.176	4223
912.291	4284
912.405	4284
912.519	4504
912.633	4523
912.748	4428
912.862	4348
912.976	4166
913.09	4150
913.204	4154
913.318	4246
913.431	4409
913.545	4367
913.659	4512
913.772	4405
913.886	4318
914	4276
914.113	4367
914.226	4424
914.34	4440
914.453	4234
914.566	4440
914.68	4363
914.793	4386
914.906	4177
915.019	4166
915.132	4093
915.245	4196
915.358	4207
915.47	4291
915.583	4360
915.696	4337
915.809	4470
915.921	4481
916.034	4299
916.146	4322
916.259	4238
916.371	4398
916.483	4356
916.595	4325
916.708	4333
916.82	4329
916.932	4337
917.044	4398
917.156	4402
917.268	4223
917.38	4322
917.491	4272
917.603	4360
917.715	4440
917.826	4451
917.938	4375
918.049	4276
918.161	4424
918.272	4504
918.384	4523
918.495	4478
918.606	4318
918.717	4280
918.828	4367
918.939	4386
919.05	4261
919.161	4325
919.272	4147
919.383	4249
919.494	4485
919.604	4653
919.715	4466
919.826	4417
919.936	4413
920.047	4489
920.157	4489
920.267	4733
920.378	4523
920.488	4535
920.598	4721
920.708	4908
920.818	4771
920.928	4797
921.038	5010
921.148	5006
921.258	4641
921.368	4588
921.477	4523
921.587	4527
921.697	4386
921.806	4592
921.916	4455
922.025	4356
922.134	4284
922.244	4268
922.353	4371
922.462	4230
922.571	4162
922.68	4029
922.789	4032
922.898	4086
923.007	4025
923.116	4109
923.224	4067
923.333	4090
923.442	4013
923.55	3998
923.659	4067
923.767	4131
923.876	4051
923.984	4109
924.092	3975
924.201	4135
924.309	4143
924.417	4143
924.525	4082
924.633	4147
924.741	5067
924.849	3922
924.956	4177
925.064	4006
925.172	3918
925.279	3983
925.387	4078
925.494	4059
925.602	4261
925.709	4188
925.816	4109
925.924	4162
926.031	4246
926.138	4234
926.245	4219
926.352	4124
926.459	4253
926.566	4348
926.673	4135
926.779	4116
926.886	4196
926.993	3991
927.099	3983
927.206	3949
927.312	3972
927.419	4128
927.525	4101
927.631	4128
927.737	4006
927.843	3994
927.95	3884
928.056	3987
928.162	4025
928.267	4097
928.373	4611
928.479	4162
928.585	3892
928.69	4051
928.796	4109
928.901	3979
929.007	3903
929.112	4055
929.218	4063
929.323	3991
929.428	3975
929.533	4112
929.638	3884
929.743	3968
929.848	4044
929.953	4036
930.058	3941
930.163	3800
930.267	3903
930.372	4017
930.477	3842
930.581	4162
930.685	4029
930.79	3816
930.894	3869
930.998	3903
931.103	4067
931.207	3720
931.311	3698
931.415	3705
931.519	3557
931.623	3595
