Data from test_V78500241_889.txt Node
Date: Fri Mar 25 16:55:11 CST 2022
User: usil
Spectrometer: V785-0024
Trigger mode: 0
Integration Time (sec): 4.000000E-1
Scans to average: 1
Nonlinearity correction enabled: false
Boxcar width: 0
Storing dark spectrum: false
XAxis mode: Wavelengths
Number of Pixels in Spectrum: 1024
>>>>>Begin Spectral Data<<<<<
801.071	8043
801.214	7993
801.356	7902
801.499	7898
801.641	7826
801.783	7849
801.926	8020
802.068	7967
802.211	7902
802.353	7947
802.496	7852
802.638	7852
802.78	7955
802.923	7932
803.065	7902
803.208	7906
803.35	7989
803.492	8088
803.635	8172
803.777	8050
803.919	8084
804.061	8476
804.204	8153
804.346	8016
804.488	7925
804.63	8065
804.773	8077
804.915	8088
805.057	8263
805.199	8191
805.341	8237
805.483	8183
805.626	8244
805.768	8084
805.91	8191
806.052	8202
806.194	8164
806.336	8374
806.478	8081
806.62	8084
806.762	8164
806.904	8305
807.046	8465
807.188	8355
807.33	8336
807.472	8351
807.614	8126
807.756	8161
807.898	8046
808.04	7830
808.182	7963
808.324	7978
808.465	7925
808.607	8039
808.749	8077
808.891	8214
809.033	8313
809.174	8244
809.316	8100
809.458	8073
809.6	8020
809.741	8035
809.883	8020
810.025	8153
810.166	8100
810.308	8020
810.45	8016
810.591	7947
810.733	7761
810.875	7674
811.016	7556
811.158	7510
811.299	7605
811.441	7693
811.582	7624
811.724	7556
811.865	7559
812.007	7544
812.148	7537
812.29	7597
812.431	7670
812.573	7890
812.714	7925
812.855	8088
812.997	8225
813.138	8305
813.279	8218
813.421	8111
813.562	8046
813.703	7860
813.845	7814
813.986	7464
814.127	7316
814.268	7232
814.41	7171
814.551	7156
814.692	7137
814.833	7114
814.974	7061
815.115	7099
815.256	6954
815.397	6943
815.539	6951
815.68	6859
815.821	6779
815.962	6871
816.103	6814
816.244	6692
816.385	6650
816.526	6654
816.666	6460
816.807	6266
816.948	6384
817.089	6471
817.23	6467
817.371	6407
817.512	6369
817.653	6426
817.793	6350
817.934	6426
818.075	6448
818.216	6418
818.356	6433
818.497	6205
818.638	6140
818.778	6159
818.919	6110
819.06	6117
819.2	6315
819.341	6296
819.481	6372
819.622	6517
819.762	6669
819.903	6726
820.043	6650
820.184	6559
820.324	6585
820.465	6684
820.605	6593
820.746	6673
820.886	6471
821.026	6662
821.167	6665
821.307	6787
821.447	6696
821.588	6616
821.728	6547
821.868	6563
822.008	6342
822.149	6388
822.289	6338
822.429	6148
822.569	6049
822.709	6129
822.849	5912
822.99	5870
823.13	5893
823.27	5893
823.41	5809
823.55	5775
823.69	5809
823.83	5802
823.97	5676
824.11	5539
824.25	5493
824.389	5535
824.529	5528
824.669	5516
824.809	5657
824.949	5668
825.089	5562
825.228	5532
825.368	5414
825.508	5357
825.648	5292
825.787	5357
825.927	5421
826.067	5258
826.206	5330
826.346	5357
826.485	5448
826.625	5387
826.765	5528
826.904	5459
827.044	5277
827.183	5189
827.323	5121
827.462	5181
827.601	5170
827.741	5197
827.88	5212
828.02	5113
828.159	5223
828.298	5261
828.437	5353
828.577	5288
828.716	5459
828.855	5353
828.994	5189
829.134	5181
829.273	5197
829.412	5155
829.551	5140
829.69	5151
829.829	5258
829.968	5334
830.107	5223
830.246	5246
830.385	5147
830.524	5143
830.663	5086
830.802	4980
830.941	4843
831.08	4820
831.219	5018
831.357	4999
831.496	5143
831.635	4927
831.774	4831
831.913	4828
832.051	4694
832.19	4759
832.329	4797
832.467	4645
832.606	4637
832.744	4733
832.883	4714
833.022	4710
833.16	4721
833.299	4816
833.437	4835
833.576	4835
833.714	4870
833.852	4862
833.991	4831
834.129	4946
834.267	4946
834.406	4908
834.544	4953
834.682	4961
834.821	4991
834.959	5151
835.097	4953
835.235	5113
835.373	5064
835.511	5143
835.65	5079
835.788	5006
835.926	4896
836.064	4854
836.202	4938
836.34	5159
836.478	5223
836.615	5113
836.753	5174
836.891	5258
837.029	5235
837.167	5178
837.305	5143
837.443	5132
837.58	5071
837.718	5227
837.856	5151
837.993	5098
838.131	5212
838.269	5147
838.406	5189
838.544	5102
838.681	4991
838.819	4980
838.956	4934
839.094	4850
839.231	4995
839.369	5060
839.506	5410
839.643	5246
839.781	5029
839.918	5037
840.055	5086
840.193	5098
840.33	5124
840.467	5140
840.604	5193
840.742	5421
840.879	5090
841.016	5121
841.153	5121
841.29	5341
841.427	5357
841.564	5334
841.701	5372
841.838	5277
841.975	5246
842.112	5318
842.249	5117
842.385	5083
842.522	5341
842.659	5147
842.796	5147
842.933	5170
843.069	5105
843.206	5208
843.343	5330
843.479	5227
843.616	5296
843.752	5029
843.889	5056
844.025	5254
844.162	5022
844.298	5231
844.435	5060
844.571	5006
844.708	5185
844.844	5303
844.98	5395
845.117	5334
845.253	5189
845.389	5128
845.525	5178
845.661	5201
845.798	5090
845.934	5208
846.07	5109
846.206	5212
846.342	5322
846.478	5193
846.614	5090
846.75	4995
846.886	4965
847.022	5189
847.158	5060
847.294	5121
847.429	5197
847.565	5056
847.701	5353
847.837	4870
847.972	4835
848.108	4991
848.244	4961
848.379	4828
848.515	4748
848.65	4793
848.786	4744
848.921	4767
849.057	4870
849.192	4919
849.328	4877
849.463	4896
849.598	4797
849.734	4816
849.869	4702
850.004	4675
850.14	4710
850.275	4660
850.41	4569
850.545	4596
850.68	4653
850.815	4645
850.95	4664
851.085	4847
851.22	4778
851.355	4672
851.49	4611
851.625	4660
851.76	4687
851.895	4580
852.03	4580
852.165	4660
852.299	4714
852.434	4797
852.569	4710
852.703	4752
852.838	4881
852.973	4995
853.107	4927
853.242	4786
853.376	4660
853.511	4573
853.645	4634
853.78	4847
853.914	4717
854.048	4710
854.183	4626
854.317	4710
854.451	4889
854.585	4687
854.72	4637
854.854	4778
854.988	4599
855.122	4641
855.256	4538
855.39	4714
855.524	4877
855.658	4767
855.792	4714
855.926	4706
856.06	4793
856.194	4816
856.327	4752
856.461	4599
856.595	4706
856.729	4698
856.862	4778
856.996	4748
857.13	4725
857.263	4782
857.397	4767
857.53	4683
857.664	4767
857.797	4774
857.931	4805
858.064	4698
858.197	4816
858.331	4698
858.464	4641
858.597	4580
858.731	4649
858.864	4626
858.997	4615
859.13	4653
859.263	4672
859.396	4759
859.529	4542
859.662	4626
859.795	4550
859.928	4698
860.061	4771
860.194	4797
860.327	4607
860.46	4561
860.592	4691
860.725	4755
860.858	4736
860.99	4607
861.123	4538
861.256	4466
861.388	4649
861.521	5280
861.653	4497
861.786	4413
861.918	4447
862.05	4558
862.183	4580
862.315	4599
862.447	4710
862.58	4580
862.712	4409
862.844	4329
862.976	4470
863.108	4466
863.24	4778
863.372	4367
863.504	4390
863.636	4459
863.768	4573
863.9	4459
864.032	4440
864.164	4413
864.296	4519
864.428	4584
864.559	4580
864.691	4538
864.823	4500
864.954	4527
865.086	4512
865.217	4470
865.349	4417
865.48	4500
865.612	4512
865.743	4675
865.875	4497
866.006	4493
866.137	4512
866.269	4459
866.4	4428
866.531	4440
866.662	4428
866.793	4402
866.924	4451
867.055	4497
867.186	4470
867.317	4451
867.448	4424
867.579	4348
867.71	4436
867.841	4417
867.972	4474
868.103	4478
868.233	4508
868.364	4478
868.495	4550
868.625	4664
868.756	4752
868.886	4577
869.017	4615
869.147	4782
869.278	4763
869.408	4694
869.539	4710
869.669	4691
869.799	4698
869.929	4755
870.06	4759
870.19	4953
870.32	4995
870.45	4942
870.58	5064
870.71	5147
870.84	5140
870.97	4972
871.1	4957
871.23	5159
871.36	5239
871.489	4995
871.619	5056
871.749	5178
871.879	5117
872.008	5147
872.138	5075
872.267	4987
872.397	4862
872.526	4843
872.656	4778
872.785	4812
872.915	4965
873.044	5029
873.173	4953
873.303	4980
873.432	4984
873.561	4984
873.69	4877
873.819	4889
873.948	4953
874.077	4831
874.206	4755
874.335	4797
874.464	4946
874.593	5048
874.722	4995
874.851	5113
874.979	5083
875.108	5025
875.237	4938
875.365	4877
875.494	4915
875.623	4987
875.751	4835
875.88	4885
876.008	4980
876.136	5037
876.265	5151
876.393	5307
876.521	5220
876.65	5216
876.778	5155
876.906	5098
877.034	5018
877.162	5045
877.29	4987
877.418	5109
877.546	5094
877.674	5060
877.802	5033
877.93	5060
878.058	4987
878.185	4854
878.313	4965
878.441	4957
878.568	4782
878.696	4900
878.824	5010
878.951	5003
879.079	5151
879.206	5303
879.333	5117
879.461	4957
879.588	4991
879.715	5155
879.842	5258
879.97	5003
880.097	4809
880.224	4759
880.351	4816
880.478	4854
880.605	4793
880.732	4782
880.859	5064
880.986	4892
881.112	4881
881.239	4740
881.366	4622
881.493	4603
881.619	4630
881.746	4607
881.872	4694
881.999	4649
882.125	4721
882.252	4801
882.378	4801
882.505	4930
882.631	4782
882.757	4733
882.883	4755
883.01	4702
883.136	4679
883.262	4615
883.388	4637
883.514	4824
883.64	4870
883.766	4816
883.892	4698
884.018	4778
884.143	4889
884.269	5052
884.395	4656
884.52	4668
884.646	4664
884.772	4637
884.897	4599
885.023	4664
885.148	4812
885.274	4908
885.399	4790
885.524	4706
885.65	4679
885.775	4752
885.9	4736
886.025	4866
886.15	4790
886.275	4748
886.4	4698
886.525	4736
886.65	4702
886.775	4698
886.9	4911
887.025	5067
887.149	4816
887.274	4630
887.399	4626
887.523	4607
887.648	4607
887.773	4596
887.897	4809
888.021	4778
888.146	4672
888.27	4801
888.395	4908
888.519	4820
888.643	4748
888.767	4870
888.891	4645
889.015	4615
889.139	4675
889.263	4607
889.387	4729
889.511	4892
889.635	4778
889.759	4645
889.883	4668
890.006	4755
890.13	4873
890.254	4618
890.377	4660
890.501	4512
890.624	4558
890.748	4664
890.871	4508
890.995	4428
891.118	4383
891.241	4538
891.364	4523
891.488	4683
891.611	4519
891.734	4527
891.857	4630
891.98	4569
892.103	4645
892.226	4523
892.349	4535
892.471	4451
892.594	4558
892.717	4599
892.839	4607
892.962	4561
893.085	4649
893.207	4584
893.33	4451
893.452	4523
893.575	4645
893.697	4546
893.819	4786
893.941	4824
894.064	4782
894.186	4592
894.308	4599
894.43	4740
894.552	4843
894.674	4759
894.796	4584
894.918	4607
895.04	4584
895.161	4672
895.283	4615
895.405	4569
895.526	4596
895.648	4660
895.769	4672
895.891	4763
896.012	4721
896.134	4763
896.255	4691
896.376	4672
896.498	4603
896.619	4714
896.74	4660
896.861	4675
896.982	4942
897.103	5033
897.224	4850
897.345	4721
897.466	4645
897.587	4748
897.708	4923
897.828	4782
897.949	4687
898.07	4546
898.19	4656
898.311	4835
898.431	4637
898.552	4748
898.672	4820
898.792	4797
898.913	4744
899.033	4603
899.153	4516
899.273	4432
899.393	4569
899.513	4531
899.633	4493
899.753	4497
899.873	4508
899.993	4622
900.113	4550
900.232	4599
900.352	4508
900.472	4504
900.591	4367
900.711	4531
900.83	4409
900.95	4641
901.069	4714
901.189	4538
901.308	4375
901.427	4329
901.546	4360
901.665	4459
901.784	4485
901.904	4436
902.023	4352
902.141	4234
902.26	4196
902.379	4303
902.498	4257
902.617	4249
902.735	4383
902.854	4394
902.973	4398
903.091	4192
903.21	4253
903.328	4325
903.446	4303
903.565	4287
903.683	4363
903.801	4211
903.919	4398
904.038	4447
904.156	4322
904.274	4443
904.392	4405
904.51	4466
904.627	4489
904.745	4546
904.863	4656
904.981	4383
905.098	4329
905.216	4333
905.334	4459
905.451	4421
905.569	4436
905.686	4531
905.803	4561
905.921	4413
906.038	4569
906.155	4504
906.272	4394
906.389	4466
906.506	4375
906.623	4363
906.74	4390
906.857	4303
906.974	4383
907.091	4577
907.208	4618
907.324	4569
907.441	4527
907.557	4333
907.674	4337
907.79	4287
907.907	4383
908.023	4478
908.139	4470
908.256	4428
908.372	4462
908.488	4459
908.604	4443
908.72	4314
908.836	4356
908.952	4356
909.068	4390
909.184	4599
909.3	4489
909.415	4554
909.531	4565
909.647	4360
909.762	4367
909.878	4344
909.993	4440
910.108	4440
910.224	4432
910.339	4478
910.454	4352
910.57	4386
910.685	4352
910.8	4641
910.915	4558
911.03	4504
911.145	4303
911.259	4265
911.374	4375
911.489	4341
911.604	4318
911.718	4147
911.833	4204
911.947	4090
912.062	4013
912.176	4238
912.291	4227
912.405	4249
912.519	4443
912.633	4523
912.748	4394
912.862	4322
912.976	4238
913.09	4135
913.204	4192
913.318	4238
913.431	4341
913.545	4367
913.659	4470
913.772	4386
913.886	4238
914	4246
914.113	4341
914.226	4462
914.34	4375
914.453	4200
914.566	4489
914.68	4325
914.793	4341
914.906	4169
915.019	4147
915.132	4112
915.245	4158
915.358	4188
915.47	4207
915.583	4249
915.696	4303
915.809	4413
915.921	4436
916.034	4234
916.146	4268
916.259	4253
916.371	4363
916.483	4352
916.595	4314
916.708	4325
916.82	4329
916.932	4325
917.044	4363
917.156	4383
917.268	4204
917.38	4314
917.491	4314
917.603	4314
917.715	4398
917.826	4451
917.938	4356
918.049	4215
918.161	4356
918.272	4538
918.384	4535
918.495	4402
918.606	4306
918.717	4249
918.828	4322
918.939	4371
919.05	4268
919.161	4314
919.272	4173
919.383	4257
919.494	4470
919.604	4603
919.715	4432
919.826	4318
919.936	4424
920.047	4577
920.157	4466
920.267	4752
920.378	4558
920.488	4493
920.598	4729
920.708	4896
920.818	4714
920.928	4721
921.038	4949
921.148	4900
921.258	4653
921.368	4573
921.477	4504
921.587	4440
921.697	4348
921.806	4508
921.916	4466
922.025	4238
922.134	4272
922.244	4219
922.353	4356
922.462	4166
922.571	4135
922.68	4025
922.789	4006
922.898	4044
923.007	3987
923.116	4097
923.224	4109
923.333	4097
923.442	4006
923.55	3991
923.659	4032
923.767	4097
923.876	3987
923.984	4112
924.092	3983
924.201	4116
924.309	4116
924.417	4097
924.525	4109
924.633	4097
924.741	4881
924.849	3930
924.956	4124
925.064	3949
925.172	3869
925.279	4010
925.387	4048
925.494	4097
925.602	4211
925.709	4181
925.816	4078
925.924	4131
926.031	4215
926.138	4188
926.245	4219
926.352	4071
926.459	4268
926.566	4306
926.673	4139
926.779	4082
926.886	4051
926.993	3994
927.099	4006
927.206	3979
927.312	3960
927.419	4055
927.525	4017
927.631	4067
927.737	3994
927.843	3922
927.95	3880
928.056	3968
928.162	3953
928.267	4040
928.373	4592
928.479	4090
928.585	3869
928.69	3994
928.796	4071
928.901	3972
929.007	3873
929.112	4010
929.218	3945
929.323	3945
929.428	3937
929.533	4101
929.638	3918
929.743	3968
929.848	4063
929.953	3979
930.058	3953
930.163	3800
930.267	3899
930.372	3960
930.477	3785
930.581	4093
930.685	3972
930.79	3819
930.894	3880
930.998	3846
931.103	4029
931.207	3774
931.311	3713
931.415	3671
931.519	3515
931.623	3530
