Data from test_V78500241_2808.txt Node
Date: Fri Mar 25 17:08:31 CST 2022
User: usil
Spectrometer: V785-0024
Trigger mode: 0
Integration Time (sec): 4.000000E-1
Scans to average: 1
Nonlinearity correction enabled: false
Boxcar width: 0
Storing dark spectrum: false
XAxis mode: Wavelengths
Number of Pixels in Spectrum: 1024
>>>>>Begin Spectral Data<<<<<
801.071	8024
801.214	8092
801.356	7906
801.499	7963
801.641	7868
801.783	7856
801.926	8024
802.068	8005
802.211	8008
802.353	8043
802.496	7883
802.638	7951
802.78	8001
802.923	7921
803.065	7826
803.208	7890
803.35	8065
803.492	8130
803.635	8199
803.777	8035
803.919	8142
804.061	8476
804.204	8233
804.346	8107
804.488	7982
804.63	8081
804.773	8077
804.915	8100
805.057	8271
805.199	8134
805.341	8176
805.483	8286
805.626	8237
805.768	8187
805.91	8218
806.052	8199
806.194	8168
806.336	8309
806.478	8157
806.62	8062
806.762	8153
806.904	8317
807.046	8465
807.188	8393
807.33	8294
807.472	8305
807.614	8202
807.756	8195
807.898	8039
808.04	7898
808.182	7921
808.324	7898
808.465	7951
808.607	8115
808.749	8248
808.891	8271
809.033	8290
809.174	8244
809.316	8096
809.458	8062
809.6	8043
809.741	8008
809.883	8123
810.025	8142
810.166	8100
810.308	8031
810.45	8054
810.591	7879
810.733	7723
810.875	7670
811.016	7578
811.158	7487
811.299	7590
811.441	7757
811.582	7731
811.724	7643
811.865	7597
812.007	7681
812.148	7590
812.29	7651
812.431	7738
812.573	7837
812.714	7978
812.855	8103
812.997	8248
813.138	8347
813.279	8233
813.421	8210
813.562	8081
813.703	7852
813.845	7818
813.986	7460
814.127	7308
814.268	7278
814.41	7221
814.551	7187
814.692	7198
814.833	7118
814.974	7145
815.115	7088
815.256	6981
815.397	6932
815.539	7034
815.68	6871
815.821	6757
815.962	6871
816.103	6840
816.244	6768
816.385	6658
816.526	6673
816.666	6544
816.807	6365
816.948	6471
817.089	6490
817.23	6467
817.371	6350
817.512	6365
817.653	6414
817.793	6365
817.934	6380
818.075	6513
818.216	6418
818.356	6441
818.497	6262
818.638	6178
818.778	6117
818.919	6228
819.06	6209
819.2	6372
819.341	6342
819.481	6384
819.622	6612
819.762	6753
819.903	6783
820.043	6673
820.184	6578
820.324	6642
820.465	6692
820.605	6639
820.746	6642
820.886	6544
821.026	6688
821.167	6738
821.307	6837
821.447	6818
821.588	6673
821.728	6589
821.868	6532
822.008	6319
822.149	6376
822.289	6403
822.429	6163
822.569	6140
822.709	6182
822.849	5931
822.99	5882
823.13	5927
823.27	5958
823.41	5745
823.55	5824
823.69	5786
823.83	5760
823.97	5676
824.11	5562
824.25	5509
824.389	5581
824.529	5665
824.669	5589
824.809	5638
824.949	5630
825.089	5604
825.228	5573
825.368	5406
825.508	5379
825.648	5372
825.787	5406
825.927	5433
826.067	5299
826.206	5284
826.346	5357
826.485	5444
826.625	5448
826.765	5532
826.904	5524
827.044	5181
827.183	5220
827.323	5136
827.462	5277
827.601	5193
827.741	5181
827.88	5250
828.02	5128
828.159	5261
828.298	5307
828.437	5330
828.577	5284
828.716	5463
828.855	5326
828.994	5189
829.134	5204
829.273	5151
829.412	5170
829.551	5147
829.69	5181
829.829	5250
829.968	5383
830.107	5273
830.246	5269
830.385	5155
830.524	5132
830.663	5056
830.802	4919
830.941	4911
831.08	4831
831.219	4976
831.357	4961
831.496	5155
831.635	4919
831.774	4885
831.913	4831
832.051	4717
832.19	4755
832.329	4771
832.467	4702
832.606	4637
832.744	4691
832.883	4714
833.022	4725
833.16	4778
833.299	4843
833.437	4843
833.576	4870
833.714	4862
833.852	4889
833.991	4911
834.129	5022
834.267	4949
834.406	4881
834.544	4991
834.682	5037
834.821	4995
834.959	5223
835.097	5033
835.235	5155
835.373	5048
835.511	5132
835.65	4987
835.788	5067
835.926	4911
836.064	4892
836.202	4908
836.34	5166
836.478	5201
836.615	5174
836.753	5189
836.891	5322
837.029	5265
837.167	5193
837.305	5162
837.443	5155
837.58	5060
837.718	5246
837.856	5208
837.993	5170
838.131	5231
838.269	5231
838.406	5223
838.544	5159
838.681	4987
838.819	5052
838.956	4908
839.094	4934
839.231	4946
839.369	5052
839.506	5391
839.643	5254
839.781	5094
839.918	5045
840.055	5159
840.193	5124
840.33	5102
840.467	5162
840.604	5147
840.742	5417
840.879	5094
841.016	5102
841.153	5155
841.29	5379
841.427	5372
841.564	5360
841.701	5376
841.838	5284
841.975	5254
842.112	5299
842.249	5170
842.385	5056
842.522	5387
842.659	5185
842.796	5185
842.933	5201
843.069	5166
843.206	5170
843.343	5322
843.479	5227
843.616	5296
843.752	5029
843.889	5014
844.025	5197
844.162	5014
844.298	5201
844.435	5113
844.571	5045
844.708	5143
844.844	5242
844.98	5353
845.117	5288
845.253	5071
845.389	5041
845.525	5132
845.661	5113
845.798	5041
845.934	5147
846.07	5086
846.206	5201
846.342	5265
846.478	5185
846.614	5033
846.75	4942
846.886	4919
847.022	5147
847.158	4999
847.294	5060
847.429	5128
847.565	4980
847.701	5353
847.837	4892
847.972	4793
848.108	4911
848.244	4938
848.379	4721
848.515	4725
848.65	4771
848.786	4736
848.921	4797
849.057	4824
849.192	4873
849.328	4790
849.463	4900
849.598	4782
849.734	4721
849.869	4725
850.004	4596
850.14	4653
850.275	4618
850.41	4561
850.545	4538
850.68	4599
850.815	4637
850.95	4641
851.085	4850
851.22	4771
851.355	4691
851.49	4656
851.625	4607
851.76	4664
851.895	4580
852.03	4538
852.165	4672
852.299	4675
852.434	4763
852.569	4786
852.703	4782
852.838	4877
852.973	4911
853.107	4919
853.242	4736
853.376	4706
853.511	4603
853.645	4603
853.78	4820
853.914	4763
854.048	4675
854.183	4702
854.317	4698
854.451	4885
854.585	4744
854.72	4691
854.854	4843
854.988	4580
855.122	4694
855.256	4611
855.39	4694
855.524	4790
855.658	4763
855.792	4717
855.926	4786
856.06	4786
856.194	4862
856.327	4702
856.461	4672
856.595	4668
856.729	4641
856.862	4801
856.996	4736
857.13	4759
857.263	4793
857.397	4858
857.53	4679
857.664	4759
857.797	4752
857.931	4835
858.064	4774
858.197	4767
858.331	4694
858.464	4622
858.597	4618
858.731	4668
858.864	4736
858.997	4626
859.13	4706
859.263	4702
859.396	4759
859.529	4641
859.662	4580
859.795	4538
859.928	4698
860.061	4824
860.194	4847
860.327	4660
860.46	4622
860.592	4752
860.725	4793
860.858	4793
860.99	4618
861.123	4592
861.256	4508
861.388	4637
861.521	5364
861.653	4493
861.786	4500
861.918	4519
862.05	4637
862.183	4622
862.315	4622
862.447	4668
862.58	4577
862.712	4443
862.844	4375
862.976	4508
863.108	4519
863.24	4824
863.372	4348
863.504	4462
863.636	4402
863.768	4550
863.9	4481
864.032	4447
864.164	4424
864.296	4527
864.428	4622
864.559	4603
864.691	4588
864.823	4611
864.954	4508
865.086	4527
865.217	4569
865.349	4398
865.48	4497
865.612	4542
865.743	4622
865.875	4542
866.006	4462
866.137	4538
866.269	4466
866.4	4470
866.531	4447
866.662	4413
866.793	4504
866.924	4466
867.055	4538
867.186	4474
867.317	4428
867.448	4436
867.579	4443
867.71	4424
867.841	4424
867.972	4497
868.103	4500
868.233	4462
868.364	4489
868.495	4550
868.625	4691
868.756	4782
868.886	4596
869.017	4637
869.147	4816
869.278	4850
869.408	4706
869.539	4679
869.669	4736
869.799	4710
869.929	4763
870.06	4782
870.19	4976
870.32	4965
870.45	4980
870.58	5022
870.71	5132
870.84	5143
870.97	4961
871.1	4892
871.23	5193
871.36	5113
871.489	5098
871.619	5132
871.749	5094
871.879	5181
872.008	5201
872.138	5041
872.267	5064
872.397	4850
872.526	4828
872.656	4729
872.785	4862
872.915	4965
873.044	5071
873.173	4984
873.303	5022
873.432	4976
873.561	5037
873.69	4892
873.819	4919
873.948	4942
874.077	4828
874.206	4816
874.335	4900
874.464	4984
874.593	5048
874.722	4984
874.851	5162
874.979	5128
875.108	5056
875.237	4942
875.365	4953
875.494	4976
875.623	5041
875.751	4858
875.88	4908
876.008	5071
876.136	5083
876.265	5261
876.393	5440
876.521	5303
876.65	5208
876.778	5216
876.906	5029
877.034	5060
877.162	5067
877.29	5014
877.418	5090
877.546	5086
877.674	5079
877.802	5102
877.93	5113
878.058	5003
878.185	4908
878.313	4987
878.441	4980
878.568	4831
878.696	4892
878.824	4938
878.951	5022
879.079	5178
879.206	5341
879.333	5132
879.461	5048
879.588	5086
879.715	5128
879.842	5269
879.97	5029
880.097	4835
880.224	4778
880.351	4839
880.478	4843
880.605	4820
880.732	4828
880.859	5155
880.986	4930
881.112	4892
881.239	4820
881.366	4691
881.493	4645
881.619	4660
881.746	4683
881.872	4687
881.999	4744
882.125	4759
882.252	4812
882.378	4835
882.505	5010
882.631	4820
882.757	4725
882.883	4805
883.01	4771
883.136	4694
883.262	4656
883.388	4611
883.514	4797
883.64	4908
883.766	4812
883.892	4729
884.018	4717
884.143	4942
884.269	5064
884.395	4675
884.52	4679
884.646	4687
884.772	4653
884.897	4630
885.023	4710
885.148	4862
885.274	4847
885.399	4824
885.524	4774
885.65	4714
885.775	4774
885.9	4740
886.025	4870
886.15	4797
886.275	4702
886.4	4702
886.525	4740
886.65	4736
886.775	4710
886.9	4923
887.025	5083
887.149	4839
887.274	4698
887.399	4584
887.523	4645
887.648	4592
887.773	4656
887.897	4752
888.021	4778
888.146	4694
888.27	4873
888.395	4961
888.519	4778
888.643	4873
888.767	4824
888.891	4710
889.015	4641
889.139	4736
889.263	4637
889.387	4801
889.511	4889
889.635	4831
889.759	4679
889.883	4637
890.006	4721
890.13	4793
890.254	4645
890.377	4691
890.501	4565
890.624	4615
890.748	4653
890.871	4500
890.995	4447
891.118	4386
891.241	4531
891.364	4558
891.488	4637
891.611	4546
891.734	4527
891.857	4630
891.98	4592
892.103	4706
892.226	4561
892.349	4554
892.471	4459
892.594	4554
892.717	4618
892.839	4611
892.962	4637
893.085	4687
893.207	4607
893.33	4451
893.452	4512
893.575	4721
893.697	4622
893.819	4805
893.941	4809
894.064	4812
894.186	4637
894.308	4611
894.43	4790
894.552	4850
894.674	4755
894.796	4584
894.918	4653
895.04	4580
895.161	4752
895.283	4683
895.405	4565
895.526	4653
895.648	4698
895.769	4694
895.891	4733
896.012	4710
896.134	4763
896.255	4729
896.376	4645
896.498	4645
896.619	4725
896.74	4626
896.861	4672
896.982	4946
897.103	5140
897.224	4862
897.345	4782
897.466	4683
897.587	4771
897.708	4892
897.828	4782
897.949	4752
898.07	4569
898.19	4675
898.311	4854
898.431	4675
898.552	4767
898.672	4816
898.792	4790
898.913	4736
899.033	4630
899.153	4573
899.273	4440
899.393	4523
899.513	4573
899.633	4554
899.753	4561
899.873	4489
899.993	4637
900.113	4558
900.232	4615
900.352	4565
900.472	4546
900.591	4462
900.711	4546
900.83	4474
900.95	4702
901.069	4736
901.189	4554
901.308	4409
901.427	4348
901.546	4424
901.665	4497
901.784	4519
901.904	4405
902.023	4363
902.141	4238
902.26	4139
902.379	4280
902.498	4257
902.617	4234
902.735	4386
902.854	4405
902.973	4405
903.091	4215
903.21	4261
903.328	4337
903.446	4306
903.565	4295
903.683	4371
903.801	4284
903.919	4493
904.038	4474
904.156	4337
904.274	4413
904.392	4379
904.51	4413
904.627	4500
904.745	4626
904.863	4668
904.981	4398
905.098	4352
905.216	4390
905.334	4409
905.451	4424
905.569	4474
905.686	4622
905.803	4558
905.921	4485
906.038	4577
906.155	4504
906.272	4394
906.389	4504
906.506	4371
906.623	4417
906.74	4428
906.857	4303
906.974	4363
907.091	4596
907.208	4672
907.324	4588
907.441	4546
907.557	4341
907.674	4360
907.79	4333
907.907	4409
908.023	4500
908.139	4466
908.256	4470
908.372	4516
908.488	4481
908.604	4417
908.72	4329
908.836	4375
908.952	4394
909.068	4451
909.184	4554
909.3	4493
909.415	4596
909.531	4596
909.647	4348
909.762	4417
909.878	4383
909.993	4440
910.108	4421
910.224	4440
910.339	4508
910.454	4421
910.57	4371
910.685	4371
910.8	4672
910.915	4615
911.03	4478
911.145	4360
911.259	4329
911.374	4379
911.489	4356
911.604	4261
911.718	4185
911.833	4211
911.947	4128
912.062	4059
912.176	4249
912.291	4276
912.405	4268
912.519	4485
912.633	4519
912.748	4371
912.862	4287
912.976	4211
913.09	4116
913.204	4207
913.318	4268
913.431	4379
913.545	4383
913.659	4481
913.772	4367
913.886	4246
914	4219
914.113	4363
914.226	4485
914.34	4405
914.453	4291
914.566	4447
914.68	4360
914.793	4333
914.906	4166
915.019	4101
915.132	4109
915.245	4207
915.358	4246
915.47	4204
915.583	4295
915.696	4276
915.809	4386
915.921	4440
916.034	4287
916.146	4299
916.259	4253
916.371	4451
916.483	4367
916.595	4223
916.708	4314
916.82	4329
916.932	4394
917.044	4337
917.156	4291
917.268	4268
917.38	4310
917.491	4280
917.603	4383
917.715	4440
917.826	4455
917.938	4367
918.049	4234
918.161	4390
918.272	4584
918.384	4584
918.495	4500
918.606	4318
918.717	4284
918.828	4303
918.939	4356
919.05	4242
919.161	4337
919.272	4147
919.383	4249
919.494	4447
919.604	4668
919.715	4443
919.826	4371
919.936	4436
920.047	4535
920.157	4500
920.267	4710
920.378	4558
920.488	4535
920.598	4683
920.708	4949
920.818	4778
920.928	4759
921.038	4927
921.148	4900
921.258	4653
921.368	4550
921.477	4516
921.587	4459
921.697	4367
921.806	4519
921.916	4428
922.025	4268
922.134	4272
922.244	4238
922.353	4306
922.462	4154
922.571	4166
922.68	4063
922.789	3987
922.898	4082
923.007	4006
923.116	4109
923.224	4082
923.333	4071
923.442	3998
923.55	4029
923.659	4017
923.767	4120
923.876	4006
923.984	4101
924.092	4017
924.201	4105
924.309	4093
924.417	4135
924.525	4090
924.633	4097
924.741	4866
924.849	3915
924.956	4120
925.064	3998
925.172	3934
925.279	4025
925.387	4067
925.494	4048
925.602	4276
925.709	4185
925.816	4044
925.924	4166
926.031	4200
926.138	4177
926.245	4223
926.352	4101
926.459	4265
926.566	4303
926.673	4135
926.779	4101
926.886	4097
926.993	3983
927.099	3941
927.206	3941
927.312	3968
927.419	4048
927.525	4059
927.631	4082
927.737	3983
927.843	4006
927.95	3907
928.056	3949
928.162	4021
928.267	4048
928.373	4710
928.479	4105
928.585	3892
928.69	4055
928.796	4093
928.901	3972
929.007	3816
929.112	4021
929.218	3991
929.323	3960
929.428	3953
929.533	4128
929.638	3896
929.743	3937
929.848	4055
929.953	4036
930.058	3945
930.163	3797
930.267	3846
930.372	3956
930.477	3812
930.581	4074
930.685	3911
930.79	3857
930.894	3903
930.998	3842
931.103	4013
931.207	3717
931.311	3724
931.415	3652
931.519	3492
931.623	3587
