Data from test_V78500241_559.txt Node
Date: Fri Mar 25 16:52:53 CST 2022
User: usil
Spectrometer: V785-0024
Trigger mode: 0
Integration Time (sec): 4.000000E-1
Scans to average: 1
Nonlinearity correction enabled: false
Boxcar width: 0
Storing dark spectrum: false
XAxis mode: Wavelengths
Number of Pixels in Spectrum: 1024
>>>>>Begin Spectral Data<<<<<
801.071	8020
801.214	8050
801.356	7890
801.499	7822
801.641	7727
801.783	7906
801.926	8043
802.068	8008
802.211	8035
802.353	7997
802.496	7852
802.638	7883
802.78	7917
802.923	7868
803.065	7906
803.208	7860
803.35	7974
803.492	8115
803.635	8142
803.777	8016
803.919	8237
804.061	8454
804.204	8100
804.346	8027
804.488	7951
804.63	8054
804.773	8069
804.915	8123
805.057	8248
805.199	8168
805.341	8282
805.483	8317
805.626	8229
805.768	8081
805.91	8214
806.052	8191
806.194	8153
806.336	8279
806.478	8088
806.62	8107
806.762	8149
806.904	8263
807.046	8476
807.188	8301
807.33	8244
807.472	8347
807.614	8111
807.756	8115
807.898	7955
808.04	7898
808.182	7909
808.324	7947
808.465	7917
808.607	8031
808.749	8084
808.891	8187
809.033	8309
809.174	8199
809.316	8035
809.458	8031
809.6	7921
809.741	8024
809.883	8046
810.025	8073
810.166	8001
810.308	8046
810.45	7963
810.591	7890
810.733	7746
810.875	7628
811.016	7548
811.158	7483
811.299	7620
811.441	7780
811.582	7696
811.724	7597
811.865	7563
812.007	7643
812.148	7609
812.29	7639
812.431	7776
812.573	7864
812.714	7970
812.855	8191
812.997	8225
813.138	8366
813.279	8233
813.421	8161
813.562	8107
813.703	7826
813.845	7830
813.986	7491
814.127	7400
814.268	7293
814.41	7190
814.551	7152
814.692	7236
814.833	7114
814.974	7072
815.115	7133
815.256	6989
815.397	6981
815.539	6871
815.68	6818
815.821	6802
815.962	6844
816.103	6852
816.244	6806
816.385	6631
816.526	6665
816.666	6429
816.807	6315
816.948	6471
817.089	6506
817.23	6422
817.371	6407
817.512	6372
817.653	6395
817.793	6437
817.934	6456
818.075	6509
818.216	6407
818.356	6372
818.497	6285
818.638	6148
818.778	6121
818.919	6159
819.06	6216
819.2	6289
819.341	6300
819.481	6346
819.622	6536
819.762	6658
819.903	6703
820.043	6506
820.184	6566
820.324	6563
820.465	6677
820.605	6612
820.746	6642
820.886	6410
821.026	6597
821.167	6734
821.307	6821
821.447	6806
821.588	6658
821.728	6578
821.868	6494
822.008	6296
822.149	6342
822.289	6342
822.429	6148
822.569	6125
822.709	6110
822.849	5893
822.99	5889
823.13	5965
823.27	5893
823.41	5771
823.55	5760
823.69	5741
823.83	5836
823.97	5676
824.11	5577
824.25	5539
824.389	5566
824.529	5623
824.669	5478
824.809	5638
824.949	5699
825.089	5649
825.228	5566
825.368	5364
825.508	5303
825.648	5368
825.787	5368
825.927	5364
826.067	5307
826.206	5292
826.346	5391
826.485	5429
826.625	5398
826.765	5543
826.904	5478
827.044	5296
827.183	5197
827.323	5102
827.462	5258
827.601	5162
827.741	5197
827.88	5201
828.02	5121
828.159	5197
828.298	5311
828.437	5345
828.577	5296
828.716	5467
828.855	5372
828.994	5140
829.134	5155
829.273	5201
829.412	5143
829.551	5128
829.69	5162
829.829	5292
829.968	5364
830.107	5307
830.246	5258
830.385	5140
830.524	5151
830.663	5060
830.802	4938
830.941	4889
831.08	4870
831.219	4980
831.357	4953
831.496	5174
831.635	4927
831.774	4881
831.913	4885
832.051	4763
832.19	4763
832.329	4873
832.467	4740
832.606	4672
832.744	4740
832.883	4740
833.022	4767
833.16	4755
833.299	4828
833.437	4862
833.576	4847
833.714	4847
833.852	4870
833.991	4889
834.129	4972
834.267	4987
834.406	4877
834.544	4923
834.682	4961
834.821	4957
834.959	5128
835.097	4991
835.235	5178
835.373	5102
835.511	5090
835.65	5033
835.788	4995
835.926	4873
836.064	4904
836.202	4892
836.34	5162
836.478	5254
836.615	5147
836.753	5212
836.891	5322
837.029	5250
837.167	5185
837.305	5143
837.443	5197
837.58	5067
837.718	5246
837.856	5140
837.993	5121
838.131	5197
838.269	5288
838.406	5201
838.544	5159
838.681	5025
838.819	5037
838.956	4904
839.094	4881
839.231	4972
839.369	5086
839.506	5398
839.643	5280
839.781	5048
839.918	5052
840.055	5105
840.193	5102
840.33	5094
840.467	5151
840.604	5143
840.742	5436
840.879	5006
841.016	5113
841.153	5166
841.29	5360
841.427	5345
841.564	5299
841.701	5379
841.838	5376
841.975	5212
842.112	5246
842.249	5109
842.385	5090
842.522	5315
842.659	5159
842.796	5094
842.933	5204
843.069	5124
843.206	5140
843.343	5288
843.479	5208
843.616	5303
843.752	5033
843.889	4995
844.025	5140
844.162	5052
844.298	5212
844.435	5045
844.571	5014
844.708	5212
844.844	5349
844.98	5360
845.117	5288
845.253	5140
845.389	5098
845.525	5151
845.661	5151
845.798	5045
845.934	5105
846.07	5041
846.206	5151
846.342	5277
846.478	5155
846.614	5056
846.75	5022
846.886	4984
847.022	5151
847.158	4987
847.294	5060
847.429	5121
847.565	5083
847.701	5372
847.837	4896
847.972	4767
848.108	4949
848.244	4927
848.379	4805
848.515	4744
848.65	4706
848.786	4691
848.921	4839
849.057	4850
849.192	4900
849.328	4839
849.463	4850
849.598	4790
849.734	4717
849.869	4664
850.004	4615
850.14	4649
850.275	4645
850.41	4519
850.545	4531
850.68	4580
850.815	4599
850.95	4634
851.085	4809
851.22	4668
851.355	4618
851.49	4656
851.625	4535
851.76	4660
851.895	4569
852.03	4584
852.165	4607
852.299	4721
852.434	4786
852.569	4736
852.703	4733
852.838	4801
852.973	4957
853.107	4919
853.242	4725
853.376	4653
853.511	4497
853.645	4618
853.78	4793
853.914	4717
854.048	4637
854.183	4660
854.317	4683
854.451	4854
854.585	4649
854.72	4656
854.854	4744
854.988	4584
855.122	4637
855.256	4554
855.39	4664
855.524	4740
855.658	4755
855.792	4694
855.926	4729
856.06	4778
856.194	4812
856.327	4679
856.461	4611
856.595	4607
856.729	4592
856.862	4706
856.996	4717
857.13	4733
857.263	4778
857.397	4790
857.53	4668
857.664	4778
857.797	4801
857.931	4778
858.064	4725
858.197	4679
858.331	4656
858.464	4626
858.597	4497
858.731	4653
858.864	4622
858.997	4615
859.13	4653
859.263	4675
859.396	4691
859.529	4611
859.662	4550
859.795	4504
859.928	4675
860.061	4820
860.194	4767
860.327	4584
860.46	4546
860.592	4698
860.725	4752
860.858	4694
860.99	4542
861.123	4546
861.256	4493
861.388	4596
861.521	5482
861.653	4481
861.786	4443
861.918	4489
862.05	4554
862.183	4554
862.315	4599
862.447	4618
862.58	4527
862.712	4390
862.844	4299
862.976	4447
863.108	4417
863.24	4866
863.372	4303
863.504	4402
863.636	4405
863.768	4470
863.9	4413
864.032	4344
864.164	4436
864.296	4466
864.428	4535
864.559	4580
864.691	4580
864.823	4538
864.954	4527
865.086	4512
865.217	4493
865.349	4459
865.48	4440
865.612	4462
865.743	4645
865.875	4470
866.006	4390
866.137	4485
866.269	4424
866.4	4436
866.531	4386
866.662	4375
866.793	4428
866.924	4432
867.055	4497
867.186	4432
867.317	4375
867.448	4371
867.579	4424
867.71	4409
867.841	4363
867.972	4459
868.103	4462
868.233	4428
868.364	4451
868.495	4451
868.625	4618
868.756	4710
868.886	4592
869.017	4615
869.147	4767
869.278	4797
869.408	4668
869.539	4664
869.669	4717
869.799	4660
869.929	4759
870.06	4691
870.19	4968
870.32	4900
870.45	4938
870.58	5052
870.71	5086
870.84	5048
870.97	4911
871.1	4873
871.23	5124
871.36	5113
871.489	5022
871.619	5079
871.749	5083
871.879	5094
872.008	5197
872.138	5075
872.267	4995
872.397	4889
872.526	4831
872.656	4744
872.785	4793
872.915	4923
873.044	4953
873.173	4961
873.303	4938
873.432	4961
873.561	4934
873.69	4847
873.819	4839
873.948	4915
874.077	4812
874.206	4748
874.335	4820
874.464	4923
874.593	5067
874.722	4934
874.851	5151
874.979	5037
875.108	5025
875.237	4885
875.365	4889
875.494	4858
875.623	4968
875.751	4850
875.88	4877
876.008	4972
876.136	5048
876.265	5208
876.393	5372
876.521	5246
876.65	5220
876.778	5181
876.906	5037
877.034	5022
877.162	5045
877.29	4968
877.418	5029
877.546	5075
877.674	5056
877.802	5010
877.93	5086
878.058	4923
878.185	4862
878.313	4942
878.441	4919
878.568	4824
878.696	4835
878.824	4915
878.951	5037
879.079	5090
879.206	5261
879.333	5083
879.461	4987
879.588	5010
879.715	5124
879.842	5258
879.97	4972
880.097	4797
880.224	4759
880.351	4759
880.478	4809
880.605	4790
880.732	4782
880.859	5102
880.986	4866
881.112	4968
881.239	4790
881.366	4634
881.493	4615
881.619	4569
881.746	4637
881.872	4637
881.999	4622
882.125	4714
882.252	4793
882.378	4805
882.505	4946
882.631	4778
882.757	4691
882.883	4656
883.01	4717
883.136	4649
883.262	4577
883.388	4622
883.514	4748
883.64	4900
883.766	4733
883.892	4641
884.018	4736
884.143	4900
884.269	4961
884.395	4687
884.52	4565
884.646	4615
884.772	4596
884.897	4626
885.023	4683
885.148	4763
885.274	4881
885.399	4812
885.524	4668
885.65	4706
885.775	4767
885.9	4656
886.025	4831
886.15	4767
886.275	4702
886.4	4679
886.525	4725
886.65	4694
886.775	4683
886.9	4915
887.025	5003
887.149	4816
887.274	4675
887.399	4596
887.523	4558
887.648	4569
887.773	4607
887.897	4717
888.021	4782
888.146	4694
888.27	4786
888.395	4930
888.519	4809
888.643	4801
888.767	4786
888.891	4679
889.015	4599
889.139	4683
889.263	4565
889.387	4736
889.511	4904
889.635	4797
889.759	4691
889.883	4660
890.006	4782
890.13	4850
890.254	4603
890.377	4683
890.501	4550
890.624	4516
890.748	4664
890.871	4493
890.995	4462
891.118	4424
891.241	4531
891.364	4542
891.488	4679
891.611	4531
891.734	4519
891.857	4588
891.98	4523
892.103	4649
892.226	4622
892.349	4531
892.471	4424
892.594	4554
892.717	4531
892.839	4535
892.962	4618
893.085	4656
893.207	4538
893.33	4497
893.452	4542
893.575	4668
893.697	4538
893.819	4771
893.941	4820
894.064	4755
894.186	4580
894.308	4542
894.43	4759
894.552	4805
894.674	4755
894.796	4592
894.918	4596
895.04	4580
895.161	4725
895.283	4626
895.405	4592
895.526	4641
895.648	4664
895.769	4702
895.891	4702
896.012	4759
896.134	4683
896.255	4687
896.376	4611
896.498	4622
896.619	4675
896.74	4588
896.861	4672
896.982	4904
897.103	5064
897.224	4790
897.345	4778
897.466	4733
897.587	4752
897.708	4831
897.828	4797
897.949	4656
898.07	4531
898.19	4637
898.311	4828
898.431	4637
898.552	4744
898.672	4812
898.792	4782
898.913	4729
899.033	4626
899.153	4546
899.273	4466
899.393	4523
899.513	4531
899.633	4554
899.753	4516
899.873	4542
899.993	4577
900.113	4504
900.232	4573
900.352	4535
900.472	4436
900.591	4402
900.711	4493
900.83	4436
900.95	4592
901.069	4694
901.189	4554
901.308	4356
901.427	4299
901.546	4363
901.665	4443
901.784	4512
901.904	4424
902.023	4348
902.141	4200
902.26	4158
902.379	4329
902.498	4242
902.617	4223
902.735	4379
902.854	4360
902.973	4394
903.091	4188
903.21	4242
903.328	4310
903.446	4295
903.565	4322
903.683	4371
903.801	4329
903.919	4402
904.038	4443
904.156	4341
904.274	4436
904.392	4344
904.51	4402
904.627	4470
904.745	4569
904.863	4653
904.981	4417
905.098	4306
905.216	4356
905.334	4409
905.451	4436
905.569	4443
905.686	4535
905.803	4592
905.921	4413
906.038	4516
906.155	4440
906.272	4386
906.389	4462
906.506	4306
906.623	4386
906.74	4360
906.857	4265
906.974	4344
907.091	4554
907.208	4691
907.324	4565
907.441	4500
907.557	4329
907.674	4352
907.79	4329
907.907	4390
908.023	4459
908.139	4413
908.256	4455
908.372	4440
908.488	4459
908.604	4402
908.72	4295
908.836	4379
908.952	4363
909.068	4466
909.184	4561
909.3	4440
909.415	4618
909.531	4523
909.647	4360
909.762	4371
909.878	4284
909.993	4424
910.108	4417
910.224	4402
910.339	4485
910.454	4398
910.57	4371
910.685	4299
910.8	4599
910.915	4538
911.03	4474
911.145	4303
911.259	4318
911.374	4348
911.489	4341
911.604	4261
911.718	4204
911.833	4162
911.947	4059
912.062	4040
912.176	4207
912.291	4204
912.405	4257
912.519	4417
912.633	4497
912.748	4413
912.862	4306
912.976	4204
913.09	4124
913.204	4162
913.318	4238
913.431	4352
913.545	4367
913.659	4443
913.772	4325
913.886	4188
914	4291
914.113	4421
914.226	4413
914.34	4432
914.453	4234
914.566	4409
914.68	4325
914.793	4310
914.906	4192
915.019	4128
915.132	4051
915.245	4242
915.358	4219
915.47	4242
915.583	4306
915.696	4325
915.809	4428
915.921	4436
916.034	4272
916.146	4272
916.259	4192
916.371	4375
916.483	4386
916.595	4257
916.708	4322
916.82	4348
916.932	4310
917.044	4299
917.156	4344
917.268	4227
917.38	4265
917.491	4242
917.603	4314
917.715	4394
917.826	4383
917.938	4337
918.049	4230
918.161	4424
918.272	4523
918.384	4535
918.495	4440
918.606	4337
918.717	4246
918.828	4303
918.939	4352
919.05	4253
919.161	4356
919.272	4097
919.383	4253
919.494	4424
919.604	4603
919.715	4440
919.826	4344
919.936	4405
920.047	4523
920.157	4470
920.267	4687
920.378	4535
920.488	4481
920.598	4714
920.708	4847
920.818	4755
920.928	4793
921.038	4946
921.148	4942
921.258	4592
921.368	4554
921.477	4493
921.587	4440
921.697	4394
921.806	4542
921.916	4451
922.025	4287
922.134	4299
922.244	4227
922.353	4291
922.462	4181
922.571	4135
922.68	4021
922.789	3991
922.898	4071
923.007	4006
923.116	4071
923.224	4090
923.333	4074
923.442	4002
923.55	4013
923.659	3987
923.767	4116
923.876	3983
923.984	4128
924.092	3983
924.201	4097
924.309	4078
924.417	4101
924.525	4082
924.633	4109
924.741	5086
924.849	3926
924.956	4150
925.064	3949
925.172	3899
925.279	3983
925.387	4021
925.494	4021
925.602	4204
925.709	4169
925.816	3998
925.924	4128
926.031	4265
926.138	4185
926.245	4166
926.352	4086
926.459	4246
926.566	4329
926.673	4154
926.779	4040
926.886	4063
926.993	3964
927.099	3972
927.206	3884
927.312	3892
927.419	4124
927.525	4013
927.631	4109
927.737	3991
927.843	3960
927.95	3861
928.056	3968
928.162	4017
928.267	4032
928.373	4687
928.479	4093
928.585	3831
928.69	3994
928.796	4048
928.901	3979
929.007	3812
929.112	3953
929.218	4036
929.323	3930
929.428	3960
929.533	4097
929.638	3899
929.743	3987
929.848	4010
929.953	3991
930.058	3918
930.163	3781
930.267	3781
930.372	3937
930.477	3850
930.581	4105
930.685	3934
930.79	3793
930.894	3842
930.998	3838
931.103	4029
931.207	3686
931.311	3720
931.415	3667
931.519	3511
931.623	3557
