Data from test_V78500241_1720.txt Node
Date: Fri Mar 25 17:00:57 CST 2022
User: usil
Spectrometer: V785-0024
Trigger mode: 0
Integration Time (sec): 4.000000E-1
Scans to average: 1
Nonlinearity correction enabled: false
Boxcar width: 0
Storing dark spectrum: false
XAxis mode: Wavelengths
Number of Pixels in Spectrum: 1024
>>>>>Begin Spectral Data<<<<<
801.071	8008
801.214	8020
801.356	7875
801.499	7818
801.641	7772
801.783	7830
801.926	7959
802.068	7871
802.211	8027
802.353	7940
802.496	7833
802.638	7879
802.78	7852
802.923	7909
803.065	7879
803.208	7833
803.35	7906
803.492	8069
803.635	8077
803.777	7989
803.919	8020
804.061	8427
804.204	8138
804.346	8046
804.488	7917
804.63	7997
804.773	7997
804.915	8111
805.057	8248
805.199	8142
805.341	8157
805.483	8225
805.626	8157
805.768	8046
805.91	8123
806.052	8138
806.194	8073
806.336	8240
806.478	8058
806.62	8077
806.762	8153
806.904	8267
807.046	8476
807.188	8351
807.33	8279
807.472	8301
807.614	8153
807.756	8115
807.898	7997
808.04	7879
808.182	7841
808.324	7837
808.465	7913
808.607	8073
808.749	8100
808.891	8176
809.033	8328
809.174	8176
809.316	7982
809.458	8005
809.6	8046
809.741	8069
809.883	8096
810.025	8077
810.166	8081
810.308	8027
810.45	7993
810.591	7803
810.733	7700
810.875	7655
811.016	7480
811.158	7472
811.299	7643
811.441	7708
811.582	7708
811.724	7575
811.865	7506
812.007	7552
812.148	7567
812.29	7605
812.431	7753
812.573	7890
812.714	8039
812.855	8062
812.997	8233
813.138	8301
813.279	8153
813.421	8062
813.562	8027
813.703	7795
813.845	7769
813.986	7472
814.127	7251
814.268	7270
814.41	7221
814.551	7187
814.692	7213
814.833	7088
814.974	7126
815.115	7175
815.256	7046
815.397	6909
815.539	6928
815.68	6878
815.821	6684
815.962	6856
816.103	6875
816.244	6703
816.385	6612
816.526	6612
816.666	6498
816.807	6331
816.948	6483
817.089	6486
817.23	6441
817.371	6410
817.512	6422
817.653	6319
817.793	6369
817.934	6422
818.075	6471
818.216	6422
818.356	6388
818.497	6323
818.638	6129
818.778	6133
818.919	6171
819.06	6171
819.2	6319
819.341	6350
819.481	6456
819.622	6563
819.762	6779
819.903	6662
820.043	6658
820.184	6555
820.324	6585
820.465	6719
820.605	6681
820.746	6677
820.886	6559
821.026	6627
821.167	6722
821.307	6867
821.447	6791
821.588	6715
821.728	6570
821.868	6528
822.008	6331
822.149	6403
822.289	6407
822.429	6194
822.569	6133
822.709	6106
822.849	5889
822.99	5950
823.13	5965
823.27	5939
823.41	5794
823.55	5786
823.69	5802
823.83	5809
823.97	5649
824.11	5520
824.25	5539
824.389	5573
824.529	5611
824.669	5501
824.809	5649
824.949	5592
825.089	5577
825.228	5547
825.368	5497
825.508	5360
825.648	5357
825.787	5387
825.927	5391
826.067	5299
826.206	5303
826.346	5402
826.485	5345
826.625	5429
826.765	5577
826.904	5509
827.044	5334
827.183	5147
827.323	5124
827.462	5299
827.601	5239
827.741	5166
827.88	5246
828.02	5162
828.159	5296
828.298	5322
828.437	5387
828.577	5315
828.716	5455
828.855	5334
828.994	5162
829.134	5174
829.273	5185
829.412	5143
829.551	5124
829.69	5201
829.829	5223
829.968	5406
830.107	5296
830.246	5277
830.385	5220
830.524	5147
830.663	5079
830.802	4999
830.941	4930
831.08	4904
831.219	4987
831.357	4957
831.496	5174
831.635	4999
831.774	4778
831.913	4839
832.051	4767
832.19	4744
832.329	4850
832.467	4729
832.606	4653
832.744	4744
832.883	4748
833.022	4725
833.16	4782
833.299	4854
833.437	4858
833.576	4850
833.714	4904
833.852	4858
833.991	4923
834.129	4942
834.267	4953
834.406	4930
834.544	5014
834.682	5006
834.821	4991
834.959	5159
835.097	5041
835.235	5181
835.373	5105
835.511	5124
835.65	5033
835.788	4984
835.926	4911
836.064	4847
836.202	4927
836.34	5204
836.478	5216
836.615	5121
836.753	5239
836.891	5292
837.029	5235
837.167	5239
837.305	5208
837.443	5143
837.58	5105
837.718	5242
837.856	5235
837.993	5189
838.131	5254
838.269	5318
838.406	5258
838.544	5242
838.681	5025
838.819	5071
838.956	4911
839.094	4900
839.231	4976
839.369	5105
839.506	5440
839.643	5288
839.781	5067
839.918	5045
840.055	5151
840.193	5113
840.33	5185
840.467	5170
840.604	5193
840.742	5421
840.879	5094
841.016	5090
841.153	5166
841.29	5357
841.427	5360
841.564	5311
841.701	5440
841.838	5288
841.975	5254
842.112	5337
842.249	5178
842.385	5102
842.522	5299
842.659	5128
842.796	5185
842.933	5170
843.069	5170
843.206	5185
843.343	5292
843.479	5254
843.616	5311
843.752	5018
843.889	5022
844.025	5231
844.162	5109
844.298	5235
844.435	5071
844.571	5098
844.708	5242
844.844	5315
844.98	5330
845.117	5349
845.253	5132
845.389	5094
845.525	5159
845.661	5155
845.798	5071
845.934	5147
846.07	5071
846.206	5197
846.342	5288
846.478	5193
846.614	5025
846.75	4972
846.886	4946
847.022	5147
847.158	5033
847.294	5056
847.429	5174
847.565	5041
847.701	5337
847.837	4847
847.972	4805
848.108	4991
848.244	4938
848.379	4752
848.515	4710
848.65	4733
848.786	4736
848.921	4812
849.057	4915
849.192	4919
849.328	4763
849.463	4911
849.598	4778
849.734	4835
849.869	4668
850.004	4645
850.14	4702
850.275	4645
850.41	4535
850.545	4561
850.68	4603
850.815	4630
850.95	4641
851.085	4839
851.22	4759
851.355	4675
851.49	4622
851.625	4603
851.76	4641
851.895	4573
852.03	4584
852.165	4664
852.299	4748
852.434	4793
852.569	4790
852.703	4809
852.838	4858
852.973	4953
853.107	4961
853.242	4721
853.376	4694
853.511	4573
853.645	4637
853.78	4812
853.914	4694
854.048	4698
854.183	4637
854.317	4698
854.451	4797
854.585	4706
854.72	4615
854.854	4771
854.988	4634
855.122	4653
855.256	4535
855.39	4694
855.524	4820
855.658	4752
855.792	4714
855.926	4740
856.06	4771
856.194	4816
856.327	4706
856.461	4660
856.595	4607
856.729	4641
856.862	4816
856.996	4698
857.13	4702
857.263	4767
857.397	4820
857.53	4675
857.664	4759
857.797	4763
857.931	4805
858.064	4729
858.197	4767
858.331	4641
858.464	4584
858.597	4554
858.731	4675
858.864	4683
858.997	4634
859.13	4675
859.263	4687
859.396	4744
859.529	4626
859.662	4603
859.795	4546
859.928	4645
860.061	4736
860.194	4767
860.327	4630
860.46	4588
860.592	4721
860.725	4691
860.858	4767
860.99	4607
861.123	4558
861.256	4516
861.388	4622
861.521	5246
861.653	4508
861.786	4455
861.918	4508
862.05	4527
862.183	4588
862.315	4607
862.447	4660
862.58	4531
862.712	4424
862.844	4367
862.976	4447
863.108	4443
863.24	4896
863.372	4344
863.504	4436
863.636	4390
863.768	4508
863.9	4409
864.032	4402
864.164	4440
864.296	4478
864.428	4558
864.559	4580
864.691	4542
864.823	4527
864.954	4527
865.086	4550
865.217	4489
865.349	4417
865.48	4523
865.612	4478
865.743	4622
865.875	4500
866.006	4459
866.137	4462
866.269	4451
866.4	4466
866.531	4432
866.662	4421
866.793	4440
866.924	4428
867.055	4519
867.186	4451
867.317	4421
867.448	4371
867.579	4432
867.71	4383
867.841	4394
867.972	4470
868.103	4440
868.233	4447
868.364	4417
868.495	4508
868.625	4668
868.756	4752
868.886	4573
869.017	4611
869.147	4736
869.278	4793
869.408	4626
869.539	4656
869.669	4752
869.799	4683
869.929	4809
870.06	4733
870.19	4919
870.32	4911
870.45	4923
870.58	4984
870.71	5132
870.84	5075
870.97	4938
871.1	4892
871.23	5204
871.36	5151
871.489	5022
871.619	5033
871.749	5113
871.879	5090
872.008	5151
872.138	5064
872.267	4999
872.397	4843
872.526	4831
872.656	4736
872.785	4839
872.915	4995
873.044	5067
873.173	4938
873.303	4919
873.432	4968
873.561	5003
873.69	4870
873.819	4843
873.948	4949
874.077	4824
874.206	4748
874.335	4812
874.464	4972
874.593	5056
874.722	4927
874.851	5086
874.979	5098
875.108	5033
875.237	4919
875.365	4904
875.494	4850
875.623	4987
875.751	4843
875.88	4934
876.008	5014
876.136	5048
876.265	5140
876.393	5383
876.521	5296
876.65	5322
876.778	5155
876.906	5048
877.034	5079
877.162	5041
877.29	4999
877.418	5086
877.546	5067
877.674	5048
877.802	5052
877.93	5079
878.058	4972
878.185	4889
878.313	4972
878.441	4976
878.568	4839
878.696	4889
878.824	4995
878.951	5025
879.079	5162
879.206	5349
879.333	5189
879.461	5033
879.588	4999
879.715	5117
879.842	5288
879.97	5151
880.097	4843
880.224	4763
880.351	4801
880.478	4816
880.605	4877
880.732	4809
880.859	5166
880.986	4957
881.112	4946
881.239	4801
881.366	4706
881.493	4664
881.619	4637
881.746	4649
881.872	4645
881.999	4664
882.125	4729
882.252	4885
882.378	4892
882.505	5022
882.631	4854
882.757	4694
882.883	4752
883.01	4778
883.136	4691
883.262	4675
883.388	4691
883.514	4850
883.64	4908
883.766	4824
883.892	4717
884.018	4767
884.143	4972
884.269	5025
884.395	4736
884.52	4675
884.646	4679
884.772	4577
884.897	4626
885.023	4706
885.148	4843
885.274	4900
885.399	4816
885.524	4755
885.65	4717
885.775	4755
885.9	4733
886.025	4896
886.15	4835
886.275	4767
886.4	4668
886.525	4778
886.65	4740
886.775	4729
886.9	4980
887.025	5071
887.149	4866
887.274	4691
887.399	4599
887.523	4634
887.648	4622
887.773	4577
887.897	4816
888.021	4854
888.146	4717
888.27	4885
888.395	4908
888.519	4854
888.643	4858
888.767	4889
888.891	4778
889.015	4641
889.139	4675
889.263	4611
889.387	4763
889.511	4923
889.635	4828
889.759	4687
889.883	4649
890.006	4797
890.13	4866
890.254	4649
890.377	4706
890.501	4588
890.624	4550
890.748	4679
890.871	4527
890.995	4485
891.118	4398
891.241	4573
891.364	4565
891.488	4675
891.611	4577
891.734	4615
891.857	4577
891.98	4584
892.103	4706
892.226	4599
892.349	4584
892.471	4417
892.594	4584
892.717	4622
892.839	4588
892.962	4607
893.085	4714
893.207	4656
893.33	4519
893.452	4603
893.575	4702
893.697	4565
893.819	4820
893.941	4847
894.064	4774
894.186	4622
894.308	4565
894.43	4763
894.552	4847
894.674	4763
894.796	4573
894.918	4668
895.04	4626
895.161	4767
895.283	4687
895.405	4615
895.526	4637
895.648	4706
895.769	4740
895.891	4744
896.012	4729
896.134	4759
896.255	4653
896.376	4649
896.498	4615
896.619	4660
896.74	4660
896.861	4706
896.982	4885
897.103	5117
897.224	4839
897.345	4752
897.466	4702
897.587	4790
897.708	4889
897.828	4843
897.949	4702
898.07	4573
898.19	4691
898.311	4881
898.431	4653
898.552	4755
898.672	4843
898.792	4820
898.913	4774
899.033	4645
899.153	4550
899.273	4440
899.393	4519
899.513	4550
899.633	4535
899.753	4592
899.873	4512
899.993	4626
900.113	4527
900.232	4611
900.352	4630
900.472	4481
900.591	4459
900.711	4527
900.83	4459
900.95	4664
901.069	4733
901.189	4569
901.308	4371
901.427	4383
901.546	4402
901.665	4474
901.784	4516
901.904	4421
902.023	4379
902.141	4234
902.26	4188
902.379	4337
902.498	4253
902.617	4272
902.735	4405
902.854	4462
902.973	4390
903.091	4253
903.21	4249
903.328	4310
903.446	4287
903.565	4276
903.683	4375
903.801	4284
903.919	4413
904.038	4451
904.156	4310
904.274	4447
904.392	4443
904.51	4474
904.627	4538
904.745	4607
904.863	4668
904.981	4417
905.098	4363
905.216	4421
905.334	4493
905.451	4455
905.569	4485
905.686	4584
905.803	4611
905.921	4459
906.038	4607
906.155	4516
906.272	4405
906.389	4474
906.506	4379
906.623	4394
906.74	4390
906.857	4352
906.974	4409
907.091	4542
907.208	4721
907.324	4611
907.441	4577
907.557	4360
907.674	4375
907.79	4337
907.907	4409
908.023	4512
908.139	4504
908.256	4443
908.372	4508
908.488	4466
908.604	4341
908.72	4322
908.836	4402
908.952	4402
909.068	4436
909.184	4603
909.3	4580
909.415	4630
909.531	4538
909.647	4363
909.762	4325
909.878	4310
909.993	4485
910.108	4432
910.224	4417
910.339	4512
910.454	4443
910.57	4394
910.685	4352
910.8	4641
910.915	4599
911.03	4580
911.145	4443
911.259	4356
911.374	4405
911.489	4341
911.604	4295
911.718	4219
911.833	4234
911.947	4131
912.062	4078
912.176	4280
912.291	4295
912.405	4280
912.519	4497
912.633	4538
912.748	4363
912.862	4314
912.976	4234
913.09	4128
913.204	4211
913.318	4284
913.431	4409
913.545	4390
913.659	4466
913.772	4413
913.886	4246
914	4219
914.113	4413
914.226	4474
914.34	4398
914.453	4234
914.566	4447
914.68	4348
914.793	4348
914.906	4219
915.019	4173
915.132	4131
915.245	4219
915.358	4246
915.47	4291
915.583	4284
915.696	4322
915.809	4455
915.921	4386
916.034	4242
916.146	4322
916.259	4253
916.371	4413
916.483	4390
916.595	4284
916.708	4337
916.82	4325
916.932	4306
917.044	4341
917.156	4325
917.268	4280
917.38	4333
917.491	4299
917.603	4360
917.715	4428
917.826	4481
917.938	4398
918.049	4299
918.161	4436
918.272	4519
918.384	4573
918.495	4489
918.606	4306
918.717	4261
918.828	4352
918.939	4367
919.05	4253
919.161	4371
919.272	4169
919.383	4257
919.494	4436
919.604	4634
919.715	4436
919.826	4379
919.936	4424
920.047	4554
920.157	4504
920.267	4694
920.378	4577
920.488	4527
920.598	4744
920.708	4885
920.818	4763
920.928	4771
921.038	4946
921.148	4919
921.258	4622
921.368	4542
921.477	4512
921.587	4455
921.697	4383
921.806	4542
921.916	4436
922.025	4246
922.134	4356
922.244	4215
922.353	4344
922.462	4215
922.571	4147
922.68	4013
922.789	4002
922.898	4093
923.007	3987
923.116	4124
923.224	4097
923.333	4055
923.442	4010
923.55	4032
923.659	4067
923.767	4090
923.876	3998
923.984	4169
924.092	3987
924.201	4093
924.309	4139
924.417	4154
924.525	4074
924.633	4139
924.741	4900
924.849	3911
924.956	4131
925.064	3975
925.172	3937
925.279	3994
925.387	4048
925.494	4093
925.602	4257
925.709	4234
925.816	4082
925.924	4139
926.031	4238
926.138	4211
926.245	4173
926.352	4147
926.459	4261
926.566	4299
926.673	4177
926.779	4086
926.886	4112
926.993	3994
927.099	4017
927.206	3964
927.312	3979
927.419	4055
927.525	4032
927.631	4093
927.737	3991
927.843	4021
927.95	3861
928.056	3979
928.162	4029
928.267	4067
928.373	4637
928.479	4166
928.585	3915
928.69	4029
928.796	4032
928.901	4010
929.007	3854
929.112	3998
929.218	3987
929.323	3953
929.428	3937
929.533	4158
929.638	3896
929.743	3960
929.848	4101
929.953	3994
930.058	3960
930.163	3812
930.267	3850
930.372	3979
930.477	3854
930.581	4082
930.685	3987
930.79	3869
930.894	3876
930.998	3880
931.103	4051
931.207	3774
931.311	3728
931.415	3709
931.519	3542
931.623	3561
