Data from test_V78500241_2207.txt Node
Date: Fri Mar 25 17:04:20 CST 2022
User: usil
Spectrometer: V785-0024
Trigger mode: 0
Integration Time (sec): 4.000000E-1
Scans to average: 1
Nonlinearity correction enabled: false
Boxcar width: 0
Storing dark spectrum: false
XAxis mode: Wavelengths
Number of Pixels in Spectrum: 1024
>>>>>Begin Spectral Data<<<<<
801.071	8001
801.214	7986
801.356	7845
801.499	7871
801.641	7795
801.783	7890
801.926	7959
802.068	7997
802.211	7974
802.353	8005
802.496	7837
802.638	7807
802.78	7871
802.923	7940
803.065	7887
803.208	7852
803.35	7894
803.492	8100
803.635	8199
803.777	8001
803.919	8134
804.061	8518
804.204	8202
804.346	8073
804.488	7978
804.63	8092
804.773	8035
804.915	8161
805.057	8298
805.199	8244
805.341	8252
805.483	8298
805.626	8180
805.768	8096
805.91	8252
806.052	8237
806.194	8153
806.336	8294
806.478	8142
806.62	8100
806.762	8161
806.904	8328
807.046	8476
807.188	8328
807.33	8309
807.472	8347
807.614	8248
807.756	8195
807.898	8005
808.04	7875
808.182	7852
808.324	7906
808.465	7967
808.607	8107
808.749	8164
808.891	8202
809.033	8298
809.174	8240
809.316	8103
809.458	8096
809.6	7982
809.741	8016
809.883	8016
810.025	8149
810.166	8081
810.308	7989
810.45	7963
810.591	7913
810.733	7776
810.875	7677
811.016	7578
811.158	7487
811.299	7609
811.441	7731
811.582	7636
811.724	7582
811.865	7578
812.007	7651
812.148	7647
812.29	7662
812.431	7814
812.573	7906
812.714	8008
812.855	8149
812.997	8187
813.138	8286
813.279	8123
813.421	8008
813.562	7947
813.703	7833
813.845	7742
813.986	7502
814.127	7240
814.268	7198
814.41	7209
814.551	7236
814.692	7213
814.833	7099
814.974	7099
815.115	7107
815.256	7000
815.397	6985
815.539	6932
815.68	6848
815.821	6753
815.962	6913
816.103	6871
816.244	6749
816.385	6547
816.526	6589
816.666	6525
816.807	6365
816.948	6460
817.089	6490
817.23	6513
817.371	6395
817.512	6391
817.653	6445
817.793	6361
817.934	6414
818.075	6494
818.216	6448
818.356	6445
818.497	6216
818.638	6159
818.778	6152
818.919	6175
819.06	6110
819.2	6266
819.341	6369
819.481	6399
819.622	6566
819.762	6760
819.903	6757
820.043	6585
820.184	6532
820.324	6635
820.465	6684
820.605	6787
820.746	6620
820.886	6509
821.026	6616
821.167	6722
821.307	6821
821.447	6783
821.588	6711
821.728	6589
821.868	6536
822.008	6315
822.149	6372
822.289	6395
822.429	6167
822.569	6136
822.709	6197
822.849	5946
822.99	5901
823.13	5939
823.27	5942
823.41	5824
823.55	5794
823.69	5783
823.83	5824
823.97	5661
824.11	5558
824.25	5589
824.389	5611
824.529	5570
824.669	5463
824.809	5615
824.949	5661
825.089	5589
825.228	5566
825.368	5455
825.508	5387
825.648	5395
825.787	5376
825.927	5391
826.067	5345
826.206	5315
826.346	5417
826.485	5429
826.625	5387
826.765	5570
826.904	5493
827.044	5296
827.183	5166
827.323	5079
827.462	5235
827.601	5201
827.741	5166
827.88	5212
828.02	5147
828.159	5220
828.298	5311
828.437	5353
828.577	5273
828.716	5474
828.855	5372
828.994	5239
829.134	5235
829.273	5220
829.412	5117
829.551	5174
829.69	5250
829.829	5307
829.968	5357
830.107	5288
830.246	5280
830.385	5201
830.524	5143
830.663	5079
830.802	4995
830.941	4911
831.08	4938
831.219	4980
831.357	5003
831.496	5140
831.635	4957
831.774	4820
831.913	4831
832.051	4748
832.19	4812
832.329	4820
832.467	4687
832.606	4637
832.744	4763
832.883	4771
833.022	4767
833.16	4755
833.299	4820
833.437	4809
833.576	4805
833.714	4847
833.852	4942
833.991	4915
834.129	4976
834.267	4915
834.406	4889
834.544	4991
834.682	4991
834.821	4953
834.959	5174
835.097	5033
835.235	5140
835.373	5048
835.511	5113
835.65	5029
835.788	5018
835.926	4870
836.064	4881
836.202	4900
836.34	5170
836.478	5284
836.615	5121
836.753	5204
836.891	5296
837.029	5277
837.167	5174
837.305	5235
837.443	5159
837.58	5113
837.718	5193
837.856	5174
837.993	5181
838.131	5250
838.269	5220
838.406	5208
838.544	5261
838.681	5025
838.819	4987
838.956	4908
839.094	4896
839.231	4911
839.369	5098
839.506	5440
839.643	5288
839.781	5003
839.918	5029
840.055	5117
840.193	5140
840.33	5071
840.467	5147
840.604	5185
840.742	5478
840.879	5113
841.016	5132
841.153	5170
841.29	5417
841.427	5303
841.564	5303
841.701	5345
841.838	5273
841.975	5220
842.112	5273
842.249	5155
842.385	5159
842.522	5334
842.659	5216
842.796	5174
842.933	5121
843.069	5132
843.206	5166
843.343	5284
843.479	5280
843.616	5235
843.752	5048
843.889	4995
844.025	5216
844.162	5010
844.298	5231
844.435	5083
844.571	5113
844.708	5212
844.844	5288
844.98	5345
845.117	5261
845.253	5147
845.389	5064
845.525	5181
845.661	5159
845.798	4984
845.934	5090
846.07	5033
846.206	5151
846.342	5239
846.478	5216
846.614	5052
846.75	4946
846.886	4961
847.022	5113
847.158	5041
847.294	5052
847.429	5086
847.565	5060
847.701	5353
847.837	4870
847.972	4755
848.108	4942
848.244	4923
848.379	4767
848.515	4694
848.65	4755
848.786	4725
848.921	4752
849.057	4892
849.192	4927
849.328	4854
849.463	4820
849.598	4797
849.734	4771
849.869	4763
850.004	4637
850.14	4679
850.275	4599
850.41	4538
850.545	4558
850.68	4649
850.815	4618
850.95	4611
851.085	4824
851.22	4717
851.355	4630
851.49	4577
851.625	4694
851.76	4664
851.895	4554
852.03	4523
852.165	4626
852.299	4717
852.434	4793
852.569	4759
852.703	4801
852.838	4862
852.973	4930
853.107	4911
853.242	4729
853.376	4653
853.511	4592
853.645	4588
853.78	4752
853.914	4611
854.048	4668
854.183	4649
854.317	4698
854.451	4816
854.585	4653
854.72	4656
854.854	4714
854.988	4622
855.122	4618
855.256	4504
855.39	4698
855.524	4809
855.658	4664
855.792	4736
855.926	4702
856.06	4721
856.194	4782
856.327	4706
856.461	4645
856.595	4584
856.729	4634
856.862	4714
856.996	4637
857.13	4740
857.263	4755
857.397	4786
857.53	4656
857.664	4714
857.797	4763
857.931	4774
858.064	4679
858.197	4740
858.331	4634
858.464	4599
858.597	4527
858.731	4687
858.864	4626
858.997	4580
859.13	4710
859.263	4694
859.396	4668
859.529	4607
859.662	4554
859.795	4500
859.928	4611
860.061	4763
860.194	4782
860.327	4626
860.46	4558
860.592	4744
860.725	4698
860.858	4717
860.99	4607
861.123	4497
861.256	4485
861.388	4626
861.521	5299
861.653	4504
861.786	4455
861.918	4440
862.05	4546
862.183	4618
862.315	4599
862.447	4653
862.58	4558
862.712	4386
862.844	4310
862.976	4527
863.108	4462
863.24	4786
863.372	4383
863.504	4424
863.636	4424
863.768	4531
863.9	4413
864.032	4383
864.164	4440
864.296	4451
864.428	4580
864.559	4577
864.691	4546
864.823	4485
864.954	4550
865.086	4497
865.217	4478
865.349	4447
865.48	4447
865.612	4451
865.743	4592
865.875	4462
866.006	4417
866.137	4504
866.269	4474
866.4	4402
866.531	4394
866.662	4466
866.793	4394
866.924	4413
867.055	4519
867.186	4417
867.317	4424
867.448	4379
867.579	4371
867.71	4390
867.841	4348
867.972	4424
868.103	4459
868.233	4405
868.364	4466
868.495	4462
868.625	4641
868.756	4767
868.886	4577
869.017	4630
869.147	4752
869.278	4774
869.408	4660
869.539	4653
869.669	4706
869.799	4733
869.929	4774
870.06	4740
870.19	4930
870.32	4961
870.45	4927
870.58	4995
870.71	5048
870.84	5052
870.97	4915
871.1	4934
871.23	5098
871.36	5132
871.489	5006
871.619	5064
871.749	5075
871.879	5105
872.008	5201
872.138	5079
872.267	4995
872.397	4850
872.526	4809
872.656	4710
872.785	4812
872.915	4957
873.044	5071
873.173	4873
873.303	4930
873.432	4930
873.561	4911
873.69	4896
873.819	4908
873.948	4915
874.077	4797
874.206	4801
874.335	4805
874.464	4949
874.593	5056
874.722	5029
874.851	5083
874.979	5071
875.108	4968
875.237	4934
875.365	4923
875.494	4889
875.623	5006
875.751	4900
875.88	4854
876.008	4995
876.136	5022
876.265	5193
876.393	5395
876.521	5299
876.65	5181
876.778	5147
876.906	5060
877.034	5022
877.162	5018
877.29	4987
877.418	5014
877.546	5041
877.674	5003
877.802	4984
877.93	5052
878.058	4961
878.185	4862
878.313	4919
878.441	4957
878.568	4790
878.696	4862
878.824	4984
878.951	4976
879.079	5155
879.206	5337
879.333	5075
879.461	4965
879.588	4995
879.715	5105
879.842	5235
879.97	5003
880.097	4805
880.224	4755
880.351	4809
880.478	4805
880.605	4755
880.732	4786
880.859	5109
880.986	4877
881.112	4900
881.239	4805
881.366	4710
881.493	4607
881.619	4588
881.746	4656
881.872	4660
881.999	4675
882.125	4717
882.252	4812
882.378	4778
882.505	4938
882.631	4831
882.757	4698
882.883	4809
883.01	4740
883.136	4637
883.262	4615
883.388	4607
883.514	4801
883.64	4873
883.766	4790
883.892	4729
884.018	4710
884.143	4877
884.269	5006
884.395	4710
884.52	4660
884.646	4645
884.772	4592
884.897	4577
885.023	4675
885.148	4786
885.274	4835
885.399	4786
885.524	4729
885.65	4721
885.775	4744
885.9	4721
886.025	4885
886.15	4774
886.275	4691
886.4	4645
886.525	4748
886.65	4706
886.775	4736
886.9	4881
887.025	4991
887.149	4839
887.274	4626
887.399	4558
887.523	4550
887.648	4554
887.773	4588
887.897	4763
888.021	4782
888.146	4687
888.27	4816
888.395	4904
888.519	4786
888.643	4877
888.767	4873
888.891	4752
889.015	4634
889.139	4668
889.263	4611
889.387	4736
889.511	4850
889.635	4763
889.759	4656
889.883	4607
890.006	4714
890.13	4805
890.254	4558
890.377	4664
890.501	4554
890.624	4504
890.748	4618
890.871	4538
890.995	4421
891.118	4344
891.241	4512
891.364	4538
891.488	4618
891.611	4485
891.734	4538
891.857	4592
891.98	4561
892.103	4622
892.226	4626
892.349	4508
892.471	4421
892.594	4603
892.717	4577
892.839	4531
892.962	4596
893.085	4710
893.207	4603
893.33	4485
893.452	4523
893.575	4649
893.697	4599
893.819	4809
893.941	4812
894.064	4771
894.186	4577
894.308	4580
894.43	4736
894.552	4831
894.674	4748
894.796	4565
894.918	4561
895.04	4527
895.161	4729
895.283	4660
895.405	4569
895.526	4694
895.648	4721
895.769	4687
895.891	4729
896.012	4763
896.134	4706
896.255	4683
896.376	4630
896.498	4603
896.619	4687
896.74	4626
896.861	4622
896.982	4949
897.103	5094
897.224	4801
897.345	4767
897.466	4672
897.587	4717
897.708	4850
897.828	4786
897.949	4660
898.07	4584
898.19	4641
898.311	4843
898.431	4656
898.552	4820
898.672	4801
898.792	4759
898.913	4740
899.033	4641
899.153	4497
899.273	4447
899.393	4432
899.513	4531
899.633	4550
899.753	4554
899.873	4485
899.993	4531
900.113	4542
900.232	4599
900.352	4538
900.472	4497
900.591	4390
900.711	4470
900.83	4405
900.95	4599
901.069	4672
901.189	4508
901.308	4386
901.427	4314
901.546	4356
901.665	4470
901.784	4519
901.904	4367
902.023	4295
902.141	4169
902.26	4196
902.379	4310
902.498	4234
902.617	4227
902.735	4348
902.854	4379
902.973	4348
903.091	4150
903.21	4192
903.328	4344
903.446	4230
903.565	4287
903.683	4322
903.801	4295
903.919	4424
904.038	4398
904.156	4352
904.274	4459
904.392	4398
904.51	4440
904.627	4428
904.745	4550
904.863	4626
904.981	4341
905.098	4333
905.216	4405
905.334	4363
905.451	4459
905.569	4413
905.686	4538
905.803	4580
905.921	4405
906.038	4577
906.155	4417
906.272	4402
906.389	4421
906.506	4341
906.623	4386
906.74	4386
906.857	4314
906.974	4367
907.091	4535
907.208	4664
907.324	4675
907.441	4497
907.557	4306
907.674	4314
907.79	4318
907.907	4421
908.023	4489
908.139	4504
908.256	4405
908.372	4474
908.488	4440
908.604	4348
908.72	4310
908.836	4333
908.952	4299
909.068	4443
909.184	4538
909.3	4459
909.415	4607
909.531	4535
909.647	4371
909.762	4333
909.878	4333
909.993	4428
910.108	4375
910.224	4402
910.339	4455
910.454	4394
910.57	4375
910.685	4322
910.8	4664
910.915	4580
911.03	4466
911.145	4322
911.259	4318
911.374	4371
911.489	4295
911.604	4303
911.718	4169
911.833	4177
911.947	4139
912.062	4017
912.176	4207
912.291	4230
912.405	4276
912.519	4470
912.633	4516
912.748	4356
912.862	4299
912.976	4246
913.09	4128
913.204	4169
913.318	4261
913.431	4344
913.545	4341
913.659	4443
913.772	4379
913.886	4223
914	4204
914.113	4337
914.226	4417
914.34	4341
914.453	4215
914.566	4424
914.68	4268
914.793	4291
914.906	4169
915.019	4120
915.132	4048
915.245	4154
915.358	4211
915.47	4219
915.583	4257
915.696	4306
915.809	4383
915.921	4398
916.034	4219
916.146	4280
916.259	4230
916.371	4383
916.483	4363
916.595	4310
916.708	4299
916.82	4383
916.932	4356
917.044	4325
917.156	4341
917.268	4188
917.38	4284
917.491	4242
917.603	4325
917.715	4421
917.826	4440
917.938	4367
918.049	4204
918.161	4428
918.272	4546
918.384	4550
918.495	4481
918.606	4268
918.717	4200
918.828	4386
918.939	4394
919.05	4242
919.161	4318
919.272	4109
919.383	4246
919.494	4398
919.604	4672
919.715	4405
919.826	4344
919.936	4363
920.047	4512
920.157	4451
920.267	4702
920.378	4523
920.488	4512
920.598	4691
920.708	4900
920.818	4755
920.928	4759
921.038	4930
921.148	4911
921.258	4630
921.368	4603
921.477	4497
921.587	4493
921.697	4409
921.806	4538
921.916	4405
922.025	4276
922.134	4242
922.244	4242
922.353	4322
922.462	4207
922.571	4112
922.68	4002
922.789	3991
922.898	4063
923.007	3979
923.116	4097
923.224	4044
923.333	4063
923.442	3987
923.55	3983
923.659	4013
923.767	4112
923.876	3975
923.984	4105
924.092	3964
924.201	4067
924.309	4124
924.417	4101
924.525	4044
924.633	4078
924.741	5071
924.849	3937
924.956	4082
925.064	3922
925.172	3903
925.279	3960
925.387	4051
925.494	4055
925.602	4192
925.709	4166
925.816	4067
925.924	4158
926.031	4242
926.138	4109
926.245	4204
926.352	4112
926.459	4227
926.566	4257
926.673	4177
926.779	4116
926.886	4112
926.993	4017
927.099	3968
927.206	3937
927.312	3918
927.419	4025
927.525	4021
927.631	4105
927.737	3922
927.843	3964
927.95	3869
928.056	3953
928.162	3956
928.267	3994
928.373	4710
928.479	4086
928.585	3884
928.69	4006
928.796	4116
928.901	3964
929.007	3831
929.112	3979
929.218	3953
929.323	3956
929.428	3937
929.533	4105
929.638	3876
929.743	3926
929.848	4048
929.953	4032
930.058	3926
930.163	3762
930.267	3827
930.372	3937
930.477	3812
930.581	4086
930.685	3930
930.79	3854
930.894	3888
930.998	3869
931.103	4010
931.207	3728
931.311	3709
931.415	3682
931.519	3530
931.623	3553
