Data from test_V78500241_2496.txt Node
Date: Fri Mar 25 17:06:21 CST 2022
User: usil
Spectrometer: V785-0024
Trigger mode: 0
Integration Time (sec): 4.000000E-1
Scans to average: 1
Nonlinearity correction enabled: false
Boxcar width: 0
Storing dark spectrum: false
XAxis mode: Wavelengths
Number of Pixels in Spectrum: 1024
>>>>>Begin Spectral Data<<<<<
801.071	8039
801.214	7978
801.356	7772
801.499	7814
801.641	7693
801.783	7753
801.926	7974
802.068	7913
802.211	8001
802.353	7967
802.496	7841
802.638	7830
802.78	7837
802.923	7928
803.065	7803
803.208	7807
803.35	7864
803.492	7989
803.635	8161
803.777	8058
803.919	8130
804.061	8450
804.204	8218
804.346	8016
804.488	7959
804.63	8081
804.773	8016
804.915	8103
805.057	8267
805.199	8123
805.341	8172
805.483	8240
805.626	8145
805.768	8119
805.91	8172
806.052	8168
806.194	8119
806.336	8298
806.478	8115
806.62	8126
806.762	8119
806.904	8237
807.046	8434
807.188	8389
807.33	8275
807.472	8362
807.614	8043
807.756	8134
807.898	8020
808.04	7913
808.182	7830
808.324	7868
808.465	7883
808.607	8027
808.749	8111
808.891	8214
809.033	8267
809.174	8130
809.316	8073
809.458	8046
809.6	7936
809.741	8035
809.883	8005
810.025	8039
810.166	8005
810.308	7993
810.45	8020
810.591	7845
810.733	7715
810.875	7647
811.016	7499
811.158	7460
811.299	7586
811.441	7765
811.582	7772
811.724	7540
811.865	7552
812.007	7590
812.148	7590
812.29	7677
812.431	7719
812.573	7837
812.714	7936
812.855	8130
812.997	8259
813.138	8286
813.279	8176
813.421	8062
813.562	7974
813.703	7894
813.845	7742
813.986	7415
814.127	7255
814.268	7213
814.41	7160
814.551	7282
814.692	7225
814.833	7095
814.974	7069
815.115	7053
815.256	7012
815.397	6894
815.539	6867
815.68	6810
815.821	6753
815.962	6882
816.103	6829
816.244	6684
816.385	6650
816.526	6631
816.666	6490
816.807	6365
816.948	6410
817.089	6486
817.23	6426
817.371	6448
817.512	6395
817.653	6414
817.793	6346
817.934	6384
818.075	6429
818.216	6452
818.356	6399
818.497	6289
818.638	6125
818.778	6140
818.919	6167
819.06	6178
819.2	6319
819.341	6384
819.481	6369
819.622	6559
819.762	6707
819.903	6734
820.043	6662
820.184	6570
820.324	6551
820.465	6783
820.605	6669
820.746	6639
820.886	6551
821.026	6650
821.167	6715
821.307	6696
821.447	6814
821.588	6673
821.728	6551
821.868	6540
822.008	6331
822.149	6418
822.289	6365
822.429	6178
822.569	6068
822.709	6087
822.849	5901
822.99	5950
823.13	5950
823.27	5893
823.41	5794
823.55	5832
823.69	5817
823.83	5756
823.97	5688
824.11	5516
824.25	5520
824.389	5532
824.529	5566
824.669	5543
824.809	5646
824.949	5676
825.089	5585
825.228	5604
825.368	5410
825.508	5330
825.648	5368
825.787	5334
825.927	5357
826.067	5360
826.206	5299
826.346	5341
826.485	5383
826.625	5417
826.765	5520
826.904	5436
827.044	5277
827.183	5204
827.323	5113
827.462	5254
827.601	5204
827.741	5147
827.88	5239
828.02	5109
828.159	5239
828.298	5307
828.437	5372
828.577	5303
828.716	5440
828.855	5284
828.994	5170
829.134	5124
829.273	5261
829.412	5159
829.551	5098
829.69	5166
829.829	5189
829.968	5364
830.107	5250
830.246	5273
830.385	5155
830.524	5155
830.663	5029
830.802	4953
830.941	4873
831.08	4892
831.219	4980
831.357	4972
831.496	5159
831.635	4896
831.774	4854
831.913	4831
832.051	4748
832.19	4714
832.329	4793
832.467	4710
832.606	4607
832.744	4733
832.883	4759
833.022	4691
833.16	4797
833.299	4774
833.437	4866
833.576	4870
833.714	4866
833.852	4896
833.991	4904
834.129	4942
834.267	4946
834.406	4911
834.544	5003
834.682	4972
834.821	4976
834.959	5201
835.097	4949
835.235	5147
835.373	5041
835.511	5140
835.65	5048
835.788	4987
835.926	4915
836.064	4908
836.202	4881
836.34	5143
836.478	5174
836.615	5143
836.753	5220
836.891	5208
837.029	5201
837.167	5223
837.305	5143
837.443	5143
837.58	5083
837.718	5231
837.856	5201
837.993	5204
838.131	5166
838.269	5189
838.406	5166
838.544	5178
838.681	5056
838.819	5018
838.956	4949
839.094	4953
839.231	4965
839.369	5083
839.506	5395
839.643	5326
839.781	5045
839.918	5075
840.055	5102
840.193	5067
840.33	5124
840.467	5128
840.604	5151
840.742	5429
840.879	5048
841.016	5105
841.153	5136
841.29	5387
841.427	5341
841.564	5299
841.701	5391
841.838	5254
841.975	5235
842.112	5261
842.249	5159
842.385	5098
842.522	5360
842.659	5117
842.796	5159
842.933	5201
843.069	5143
843.206	5159
843.343	5288
843.479	5235
843.616	5326
843.752	5056
843.889	5029
844.025	5174
844.162	5014
844.298	5181
844.435	5060
844.571	5018
844.708	5208
844.844	5265
844.98	5303
845.117	5242
845.253	5109
845.389	5064
845.525	5121
845.661	5147
845.798	5048
845.934	5159
846.07	5045
846.206	5181
846.342	5265
846.478	5204
846.614	5075
846.75	4965
846.886	4961
847.022	5094
847.158	5014
847.294	5086
847.429	5052
847.565	5067
847.701	5303
847.837	4904
847.972	4816
848.108	4987
848.244	4976
848.379	4797
848.515	4721
848.65	4721
848.786	4729
848.921	4771
849.057	4877
849.192	4927
849.328	4843
849.463	4816
849.598	4752
849.734	4797
849.869	4645
850.004	4603
850.14	4637
850.275	4569
850.41	4519
850.545	4535
850.68	4611
850.815	4607
850.95	4611
851.085	4858
851.22	4778
851.355	4653
851.49	4618
851.625	4637
851.76	4653
851.895	4538
852.03	4542
852.165	4653
852.299	4710
852.434	4786
852.569	4725
852.703	4755
852.838	4847
852.973	4904
853.107	4889
853.242	4771
853.376	4649
853.511	4550
853.645	4596
853.78	4759
853.914	4660
854.048	4672
854.183	4653
854.317	4714
854.451	4870
854.585	4710
854.72	4660
854.854	4752
854.988	4584
855.122	4641
855.256	4519
855.39	4691
855.524	4835
855.658	4755
855.792	4668
855.926	4714
856.06	4755
856.194	4850
856.327	4698
856.461	4611
856.595	4653
856.729	4679
856.862	4755
856.996	4687
857.13	4740
857.263	4771
857.397	4805
857.53	4630
857.664	4733
857.797	4782
857.931	4767
858.064	4694
858.197	4706
858.331	4626
858.464	4622
858.597	4538
858.731	4637
858.864	4675
858.997	4596
859.13	4611
859.263	4683
859.396	4771
859.529	4580
859.662	4546
859.795	4546
859.928	4637
860.061	4782
860.194	4744
860.327	4611
860.46	4603
860.592	4694
860.725	4710
860.858	4748
860.99	4580
861.123	4516
861.256	4512
861.388	4535
861.521	5220
861.653	4485
861.786	4447
861.918	4470
862.05	4535
862.183	4516
862.315	4596
862.447	4660
862.58	4527
862.712	4386
862.844	4333
862.976	4516
863.108	4409
863.24	4877
863.372	4299
863.504	4398
863.636	4417
863.768	4424
863.9	4432
864.032	4352
864.164	4421
864.296	4466
864.428	4580
864.559	4592
864.691	4577
864.823	4500
864.954	4436
865.086	4478
865.217	4459
865.349	4402
865.48	4440
865.612	4478
865.743	4668
865.875	4417
866.006	4421
866.137	4459
866.269	4432
866.4	4421
866.531	4409
866.662	4371
866.793	4462
866.924	4383
867.055	4512
867.186	4424
867.317	4478
867.448	4356
867.579	4402
867.71	4363
867.841	4367
867.972	4451
868.103	4409
868.233	4440
868.364	4462
868.495	4481
868.625	4649
868.756	4755
868.886	4542
869.017	4592
869.147	4774
869.278	4801
869.408	4634
869.539	4584
869.669	4717
869.799	4664
869.929	4752
870.06	4687
870.19	5022
870.32	4930
870.45	4930
870.58	4995
870.71	5064
870.84	5094
870.97	4942
871.1	4911
871.23	5121
871.36	5105
871.489	4987
871.619	5071
871.749	5052
871.879	5105
872.008	5098
872.138	5079
872.267	4987
872.397	4843
872.526	4752
872.656	4668
872.785	4816
872.915	4930
873.044	5056
873.173	4934
873.303	5010
873.432	4930
873.561	4949
873.69	4870
873.819	4866
873.948	4927
874.077	4805
874.206	4778
874.335	4862
874.464	4923
874.593	5060
874.722	4915
874.851	5162
874.979	5079
875.108	5029
875.237	4942
875.365	4873
875.494	4911
875.623	4972
875.751	4839
875.88	4862
876.008	4946
876.136	4995
876.265	5208
876.393	5379
876.521	5204
876.65	5181
876.778	5185
876.906	5033
877.034	5052
877.162	5064
877.29	4991
877.418	5003
877.546	5090
877.674	5113
877.802	4965
877.93	5060
878.058	4991
878.185	4873
878.313	4968
878.441	4972
878.568	4816
878.696	4847
878.824	4961
878.951	4987
879.079	5105
879.206	5318
879.333	5109
879.461	5029
879.588	4953
879.715	5109
879.842	5178
879.97	4991
880.097	4812
880.224	4782
880.351	4812
880.478	4850
880.605	4835
880.732	4831
880.859	5094
880.986	4923
881.112	4915
881.239	4771
881.366	4668
881.493	4573
881.619	4588
881.746	4626
881.872	4668
881.999	4626
882.125	4664
882.252	4801
882.378	4854
882.505	4946
882.631	4801
882.757	4675
882.883	4679
883.01	4710
883.136	4664
883.262	4618
883.388	4664
883.514	4809
883.64	4870
883.766	4801
883.892	4672
884.018	4729
884.143	4927
884.269	5045
884.395	4634
884.52	4626
884.646	4649
884.772	4626
884.897	4538
885.023	4691
885.148	4793
885.274	4900
885.399	4797
885.524	4725
885.65	4668
885.775	4759
885.9	4698
886.025	4812
886.15	4793
886.275	4714
886.4	4653
886.525	4755
886.65	4656
886.775	4675
886.9	4881
887.025	5037
887.149	4809
887.274	4622
887.399	4588
887.523	4577
887.648	4607
887.773	4546
887.897	4736
888.021	4790
888.146	4683
888.27	4809
888.395	4915
888.519	4733
888.643	4820
888.767	4805
888.891	4733
889.015	4630
889.139	4607
889.263	4577
889.387	4721
889.511	4858
889.635	4828
889.759	4626
889.883	4702
890.006	4725
890.13	4782
890.254	4580
890.377	4649
890.501	4531
890.624	4592
890.748	4641
890.871	4493
890.995	4405
891.118	4417
891.241	4512
891.364	4573
891.488	4592
891.611	4485
891.734	4535
891.857	4599
891.98	4615
892.103	4618
892.226	4569
892.349	4500
892.471	4390
892.594	4580
892.717	4584
892.839	4554
892.962	4615
893.085	4626
893.207	4577
893.33	4447
893.452	4474
893.575	4615
893.697	4550
893.819	4778
893.941	4831
894.064	4763
894.186	4599
894.308	4546
894.43	4702
894.552	4831
894.674	4706
894.796	4535
894.918	4561
895.04	4561
895.161	4710
895.283	4664
895.405	4580
895.526	4645
895.648	4683
895.769	4702
895.891	4717
896.012	4759
896.134	4729
896.255	4664
896.376	4611
896.498	4607
896.619	4717
896.74	4630
896.861	4622
896.982	4957
897.103	5048
897.224	4820
897.345	4717
897.466	4668
897.587	4752
897.708	4858
897.828	4771
897.949	4698
898.07	4584
898.19	4645
898.311	4809
898.431	4725
898.552	4710
898.672	4771
898.792	4831
898.913	4755
899.033	4622
899.153	4489
899.273	4455
899.393	4459
899.513	4569
899.633	4561
899.753	4546
899.873	4558
899.993	4577
900.113	4546
900.232	4622
900.352	4512
900.472	4474
900.591	4390
900.711	4504
900.83	4417
900.95	4641
901.069	4675
901.189	4531
901.308	4386
901.427	4344
901.546	4341
901.665	4402
901.784	4485
901.904	4421
902.023	4280
902.141	4169
902.26	4166
902.379	4268
902.498	4246
902.617	4200
902.735	4352
902.854	4421
902.973	4390
903.091	4227
903.21	4268
903.328	4295
903.446	4291
903.565	4265
903.683	4344
903.801	4325
903.919	4360
904.038	4470
904.156	4337
904.274	4428
904.392	4405
904.51	4432
904.627	4462
904.745	4592
904.863	4630
904.981	4405
905.098	4276
905.216	4383
905.334	4436
905.451	4383
905.569	4440
905.686	4561
905.803	4561
905.921	4405
906.038	4580
906.155	4485
906.272	4436
906.389	4443
906.506	4360
906.623	4379
906.74	4421
906.857	4295
906.974	4383
907.091	4546
907.208	4615
907.324	4603
907.441	4459
907.557	4379
907.674	4363
907.79	4360
907.907	4363
908.023	4470
908.139	4497
908.256	4443
908.372	4485
908.488	4504
908.604	4344
908.72	4360
908.836	4348
908.952	4383
909.068	4390
909.184	4531
909.3	4497
909.415	4573
909.531	4538
909.647	4402
909.762	4409
909.878	4303
909.993	4428
910.108	4421
910.224	4432
910.339	4459
910.454	4424
910.57	4360
910.685	4322
910.8	4626
910.915	4622
911.03	4512
911.145	4287
911.259	4344
911.374	4348
911.489	4284
911.604	4238
911.718	4162
911.833	4223
911.947	4090
912.062	4017
912.176	4215
912.291	4242
912.405	4253
912.519	4459
912.633	4516
912.748	4390
912.862	4287
912.976	4166
913.09	4082
913.204	4196
913.318	4257
913.431	4371
913.545	4303
913.659	4417
913.772	4383
913.886	4253
914	4246
914.113	4375
914.226	4424
914.34	4360
914.453	4246
914.566	4375
914.68	4299
914.793	4344
914.906	4204
915.019	4162
915.132	4059
915.245	4238
915.358	4234
915.47	4234
915.583	4223
915.696	4303
915.809	4402
915.921	4470
916.034	4257
916.146	4295
916.259	4200
916.371	4360
916.483	4398
916.595	4253
916.708	4314
916.82	4280
916.932	4291
917.044	4318
917.156	4306
917.268	4246
917.38	4272
917.491	4265
917.603	4329
917.715	4413
917.826	4394
917.938	4363
918.049	4230
918.161	4379
918.272	4565
918.384	4542
918.495	4432
918.606	4303
918.717	4242
918.828	4329
918.939	4329
919.05	4261
919.161	4325
919.272	4131
919.383	4242
919.494	4379
919.604	4607
919.715	4432
919.826	4371
919.936	4352
920.047	4542
920.157	4478
920.267	4687
920.378	4558
920.488	4546
920.598	4721
920.708	4812
920.818	4755
920.928	4740
921.038	4923
921.148	4885
921.258	4664
921.368	4565
921.477	4474
921.587	4470
921.697	4375
921.806	4531
921.916	4440
922.025	4295
922.134	4284
922.244	4207
922.353	4333
922.462	4158
922.571	4097
922.68	4002
922.789	3968
922.898	4021
923.007	3972
923.116	4074
923.224	4082
923.333	4051
923.442	4010
923.55	3968
923.659	4044
923.767	4128
923.876	4044
923.984	4120
924.092	3956
924.201	4124
924.309	4101
924.417	4124
924.525	4048
924.633	4078
924.741	4820
924.849	3899
924.956	4093
925.064	3953
925.172	3949
925.279	3964
925.387	4010
925.494	4059
925.602	4219
925.709	4158
925.816	4048
925.924	4135
926.031	4249
926.138	4162
926.245	4188
926.352	4105
926.459	4280
926.566	4348
926.673	4150
926.779	4074
926.886	4093
926.993	4021
927.099	3972
927.206	3949
927.312	3922
927.419	4040
927.525	4010
927.631	4082
927.737	3975
927.843	3972
927.95	3827
928.056	3968
928.162	3991
928.267	4078
928.373	4577
928.479	4082
928.585	3915
928.69	3960
928.796	4101
928.901	3949
929.007	3865
929.112	4006
929.218	4013
929.323	3926
929.428	3960
929.533	4097
929.638	3899
929.743	3956
929.848	4055
929.953	3998
930.058	3915
930.163	3800
930.267	3854
930.372	3949
930.477	3770
930.581	4078
930.685	3945
930.79	3816
930.894	3861
930.998	3842
931.103	4063
931.207	3690
931.311	3690
931.415	3622
931.519	3500
931.623	3553
