Data from test_V78500241_1902.txt Node
Date: Fri Mar 25 17:02:13 CST 2022
User: usil
Spectrometer: V785-0024
Trigger mode: 0
Integration Time (sec): 4.000000E-1
Scans to average: 1
Nonlinearity correction enabled: false
Boxcar width: 0
Storing dark spectrum: false
XAxis mode: Wavelengths
Number of Pixels in Spectrum: 1024
>>>>>Begin Spectral Data<<<<<
801.071	7970
801.214	8001
801.356	7868
801.499	7864
801.641	7784
801.783	7807
801.926	7955
802.068	8024
802.211	7944
802.353	7951
802.496	7837
802.638	7890
802.78	7902
802.923	7970
803.065	7913
803.208	7833
803.35	7944
803.492	8077
803.635	8191
803.777	8008
803.919	8172
804.061	8469
804.204	8195
804.346	8107
804.488	7974
804.63	8149
804.773	8027
804.915	8134
805.057	8244
805.199	8195
805.341	8218
805.483	8244
805.626	8263
805.768	8115
805.91	8164
806.052	8164
806.194	8134
806.336	8294
806.478	8138
806.62	8024
806.762	8111
806.904	8252
807.046	8522
807.188	8400
807.33	8358
807.472	8309
807.614	8221
807.756	8153
807.898	8096
808.04	7875
808.182	7932
808.324	7864
808.465	7868
808.607	8035
808.749	8107
808.891	8164
809.033	8328
809.174	8221
809.316	8039
809.458	8092
809.6	7993
809.741	8024
809.883	8081
810.025	8153
810.166	8100
810.308	8054
810.45	7894
810.591	7868
810.733	7765
810.875	7636
811.016	7468
811.158	7468
811.299	7571
811.441	7712
811.582	7704
811.724	7597
811.865	7586
812.007	7628
812.148	7525
812.29	7616
812.431	7833
812.573	7868
812.714	8043
812.855	8157
812.997	8210
813.138	8328
813.279	8199
813.421	8046
813.562	8008
813.703	7856
813.845	7681
813.986	7449
814.127	7255
814.268	7270
814.41	7285
814.551	7244
814.692	7209
814.833	7110
814.974	7160
815.115	7110
815.256	6966
815.397	6932
815.539	6901
815.68	6791
815.821	6791
815.962	6897
816.103	6852
816.244	6726
816.385	6563
816.526	6616
816.666	6502
816.807	6304
816.948	6410
817.089	6452
817.23	6486
817.371	6388
817.512	6361
817.653	6429
817.793	6346
817.934	6361
818.075	6418
818.216	6456
818.356	6422
818.497	6277
818.638	6159
818.778	6155
818.919	6155
819.06	6163
819.2	6285
819.341	6357
819.481	6353
819.622	6570
819.762	6726
819.903	6684
820.043	6627
820.184	6544
820.324	6570
820.465	6681
820.605	6642
820.746	6662
820.886	6540
821.026	6639
821.167	6719
821.307	6787
821.447	6791
821.588	6662
821.728	6612
821.868	6528
822.008	6357
822.149	6433
822.289	6369
822.429	6190
822.569	6110
822.709	6106
822.849	5931
822.99	5920
823.13	5931
823.27	5965
823.41	5779
823.55	5824
823.69	5836
823.83	5722
823.97	5699
824.11	5600
824.25	5509
824.389	5573
824.529	5551
824.669	5554
824.809	5600
824.949	5634
825.089	5630
825.228	5551
825.368	5406
825.508	5376
825.648	5349
825.787	5376
825.927	5459
826.067	5357
826.206	5280
826.346	5341
826.485	5410
826.625	5402
826.765	5596
826.904	5455
827.044	5288
827.183	5231
827.323	5201
827.462	5227
827.601	5178
827.741	5197
827.88	5242
828.02	5159
828.159	5208
828.298	5280
828.437	5360
828.577	5299
828.716	5467
828.855	5318
828.994	5147
829.134	5121
829.273	5231
829.412	5086
829.551	5105
829.69	5166
829.829	5227
829.968	5315
830.107	5269
830.246	5296
830.385	5151
830.524	5132
830.663	5075
830.802	4927
830.941	4923
831.08	4847
831.219	4984
831.357	4999
831.496	5151
831.635	4919
831.774	4820
831.913	4828
832.051	4763
832.19	4763
832.329	4835
832.467	4675
832.606	4611
832.744	4759
832.883	4744
833.022	4714
833.16	4774
833.299	4790
833.437	4835
833.576	4839
833.714	4934
833.852	4873
833.991	4923
834.129	4987
834.267	4987
834.406	4892
834.544	4999
834.682	4991
834.821	4934
834.959	5159
835.097	4968
835.235	5174
835.373	5052
835.511	5102
835.65	5033
835.788	4976
835.926	4854
836.064	4870
836.202	4900
836.34	5178
836.478	5185
836.615	5140
836.753	5231
836.891	5242
837.029	5311
837.167	5181
837.305	5159
837.443	5170
837.58	5094
837.718	5216
837.856	5140
837.993	5098
838.131	5277
838.269	5242
838.406	5189
838.544	5159
838.681	5037
838.819	4972
838.956	4938
839.094	4927
839.231	4980
839.369	5064
839.506	5406
839.643	5254
839.781	5003
839.918	5003
840.055	5102
840.193	5071
840.33	5098
840.467	5086
840.604	5140
840.742	5395
840.879	5102
841.016	5117
841.153	5189
841.29	5383
841.427	5337
841.564	5326
841.701	5330
841.838	5311
841.975	5201
842.112	5220
842.249	5166
842.385	5136
842.522	5326
842.659	5162
842.796	5105
842.933	5151
843.069	5162
843.206	5159
843.343	5334
843.479	5277
843.616	5261
843.752	5048
843.889	5067
844.025	5242
844.162	5037
844.298	5181
844.435	5075
844.571	5067
844.708	5216
844.844	5265
844.98	5296
845.117	5280
845.253	5143
845.389	5079
845.525	5201
845.661	5113
845.798	5071
845.934	5155
846.07	5018
846.206	5181
846.342	5277
846.478	5185
846.614	4968
846.75	4968
846.886	4946
847.022	5102
847.158	5037
847.294	5048
847.429	5094
847.565	5086
847.701	5280
847.837	4854
847.972	4809
848.108	4934
848.244	4946
848.379	4736
848.515	4736
848.65	4698
848.786	4733
848.921	4771
849.057	4850
849.192	4896
849.328	4767
849.463	4835
849.598	4843
849.734	4755
849.869	4752
850.004	4637
850.14	4698
850.275	4634
850.41	4535
850.545	4592
850.68	4596
850.815	4645
850.95	4637
851.085	4797
851.22	4782
851.355	4679
851.49	4622
851.625	4656
851.76	4622
851.895	4531
852.03	4546
852.165	4702
852.299	4759
852.434	4812
852.569	4706
852.703	4748
852.838	4858
852.973	4911
853.107	4908
853.242	4736
853.376	4702
853.511	4546
853.645	4546
853.78	4767
853.914	4694
854.048	4683
854.183	4679
854.317	4717
854.451	4797
854.585	4694
854.72	4641
854.854	4786
854.988	4577
855.122	4664
855.256	4531
855.39	4702
855.524	4797
855.658	4717
855.792	4683
855.926	4752
856.06	4793
856.194	4831
856.327	4683
856.461	4550
856.595	4611
856.729	4630
856.862	4763
856.996	4668
857.13	4736
857.263	4725
857.397	4801
857.53	4660
857.664	4717
857.797	4767
857.931	4721
858.064	4675
858.197	4691
858.331	4649
858.464	4599
858.597	4512
858.731	4698
858.864	4607
858.997	4588
859.13	4618
859.263	4660
859.396	4717
859.529	4565
859.662	4580
859.795	4512
859.928	4599
860.061	4744
860.194	4759
860.327	4603
860.46	4573
860.592	4714
860.725	4698
860.858	4725
860.99	4569
861.123	4531
861.256	4516
861.388	4637
861.521	5299
861.653	4485
861.786	4485
861.918	4451
862.05	4569
862.183	4504
862.315	4565
862.447	4573
862.58	4561
862.712	4409
862.844	4337
862.976	4459
863.108	4443
863.24	4717
863.372	4322
863.504	4402
863.636	4398
863.768	4504
863.9	4405
864.032	4329
864.164	4383
864.296	4436
864.428	4523
864.559	4565
864.691	4531
864.823	4527
864.954	4451
865.086	4474
865.217	4424
865.349	4436
865.48	4459
865.612	4497
865.743	4596
865.875	4497
866.006	4398
866.137	4451
866.269	4470
866.4	4428
866.531	4402
866.662	4402
866.793	4440
866.924	4409
867.055	4489
867.186	4455
867.317	4451
867.448	4329
867.579	4402
867.71	4356
867.841	4409
867.972	4470
868.103	4462
868.233	4459
868.364	4470
868.495	4470
868.625	4630
868.756	4717
868.886	4561
869.017	4664
869.147	4805
869.278	4710
869.408	4656
869.539	4626
869.669	4706
869.799	4664
869.929	4729
870.06	4717
870.19	4938
870.32	4980
870.45	4919
870.58	5025
870.71	5083
870.84	5060
870.97	4934
871.1	4911
871.23	5124
871.36	5094
871.489	4991
871.619	5064
871.749	5094
871.879	5124
872.008	5197
872.138	5067
872.267	4953
872.397	4847
872.526	4828
872.656	4729
872.785	4820
872.915	4957
873.044	5033
873.173	4980
873.303	4934
873.432	4915
873.561	4961
873.69	4877
873.819	4824
873.948	4854
874.077	4824
874.206	4771
874.335	4805
874.464	4915
874.593	5067
874.722	4949
874.851	5181
874.979	5086
875.108	5025
875.237	4919
875.365	4873
875.494	4927
875.623	4991
875.751	4862
875.88	4900
876.008	4999
876.136	4953
876.265	5197
876.393	5322
876.521	5254
876.65	5212
876.778	5147
876.906	5037
877.034	4984
877.162	5022
877.29	4976
877.418	5022
877.546	4995
877.674	5010
877.802	5067
877.93	5033
878.058	4915
878.185	4858
878.313	4984
878.441	4961
878.568	4858
878.696	4843
878.824	4915
878.951	5045
879.079	5121
879.206	5269
879.333	5094
879.461	4942
879.588	4987
879.715	5155
879.842	5201
879.97	5003
880.097	4763
880.224	4793
880.351	4786
880.478	4835
880.605	4774
880.732	4816
880.859	5037
880.986	4858
881.112	4847
881.239	4805
881.366	4645
881.493	4569
881.619	4599
881.746	4584
881.872	4683
881.999	4618
882.125	4691
882.252	4774
882.378	4820
882.505	4911
882.631	4774
882.757	4672
882.883	4706
883.01	4714
883.136	4641
883.262	4577
883.388	4603
883.514	4797
883.64	4839
883.766	4790
883.892	4645
884.018	4710
884.143	4896
884.269	5033
884.395	4679
884.52	4645
884.646	4599
884.772	4577
884.897	4565
885.023	4653
885.148	4805
885.274	4881
885.399	4835
885.524	4710
885.65	4710
885.775	4733
885.9	4706
886.025	4850
886.15	4771
886.275	4679
886.4	4675
886.525	4721
886.65	4660
886.775	4675
886.9	4885
887.025	5033
887.149	4850
887.274	4660
887.399	4569
887.523	4596
887.648	4558
887.773	4592
887.897	4759
888.021	4809
888.146	4641
888.27	4790
888.395	4870
888.519	4744
888.643	4812
888.767	4820
888.891	4626
889.015	4603
889.139	4656
889.263	4622
889.387	4748
889.511	4881
889.635	4816
889.759	4630
889.883	4656
890.006	4714
890.13	4778
890.254	4569
890.377	4683
890.501	4535
890.624	4538
890.748	4660
890.871	4485
890.995	4481
891.118	4379
891.241	4516
891.364	4527
891.488	4592
891.611	4527
891.734	4489
891.857	4588
891.98	4573
892.103	4634
892.226	4558
892.349	4546
892.471	4432
892.594	4561
892.717	4599
892.839	4569
892.962	4607
893.085	4653
893.207	4588
893.33	4447
893.452	4516
893.575	4668
893.697	4584
893.819	4755
893.941	4828
894.064	4771
894.186	4558
894.308	4577
894.43	4710
894.552	4835
894.674	4740
894.796	4554
894.918	4588
895.04	4573
895.161	4706
895.283	4653
895.405	4580
895.526	4622
895.648	4710
895.769	4679
895.891	4675
896.012	4736
896.134	4710
896.255	4653
896.376	4630
896.498	4577
896.619	4694
896.74	4546
896.861	4580
896.982	4900
897.103	5105
897.224	4858
897.345	4725
897.466	4710
897.587	4725
897.708	4873
897.828	4771
897.949	4679
898.07	4531
898.19	4626
898.311	4805
898.431	4630
898.552	4790
898.672	4763
898.792	4809
898.913	4736
899.033	4653
899.153	4485
899.273	4447
899.393	4474
899.513	4554
899.633	4535
899.753	4466
899.873	4546
899.993	4573
900.113	4565
900.232	4542
900.352	4577
900.472	4493
900.591	4386
900.711	4485
900.83	4443
900.95	4580
901.069	4668
901.189	4504
901.308	4356
901.427	4303
901.546	4417
901.665	4462
901.784	4516
901.904	4363
902.023	4344
902.141	4181
902.26	4173
902.379	4306
902.498	4249
902.617	4230
902.735	4383
902.854	4432
902.973	4367
903.091	4173
903.21	4215
903.328	4303
903.446	4276
903.565	4227
903.683	4405
903.801	4246
903.919	4367
904.038	4447
904.156	4303
904.274	4443
904.392	4363
904.51	4462
904.627	4428
904.745	4599
904.863	4660
904.981	4371
905.098	4322
905.216	4367
905.334	4402
905.451	4409
905.569	4440
905.686	4538
905.803	4508
905.921	4398
906.038	4554
906.155	4455
906.272	4402
906.389	4466
906.506	4325
906.623	4360
906.74	4421
906.857	4352
906.974	4352
907.091	4523
907.208	4641
907.324	4550
907.441	4527
907.557	4325
907.674	4367
907.79	4314
907.907	4352
908.023	4462
908.139	4481
908.256	4417
908.372	4424
908.488	4451
908.604	4344
908.72	4276
908.836	4428
908.952	4360
909.068	4447
909.184	4538
909.3	4466
909.415	4580
909.531	4508
909.647	4333
909.762	4383
909.878	4348
909.993	4417
910.108	4383
910.224	4436
910.339	4497
910.454	4432
910.57	4352
910.685	4322
910.8	4607
910.915	4592
911.03	4493
911.145	4325
911.259	4333
911.374	4409
911.489	4314
911.604	4261
911.718	4192
911.833	4196
911.947	4097
912.062	4032
912.176	4246
912.291	4242
912.405	4257
912.519	4485
912.633	4523
912.748	4375
912.862	4310
912.976	4230
913.09	4120
913.204	4181
913.318	4295
913.431	4379
913.545	4394
913.659	4421
913.772	4352
913.886	4257
914	4196
914.113	4344
914.226	4398
914.34	4421
914.453	4230
914.566	4398
914.68	4295
914.793	4325
914.906	4169
915.019	4128
915.132	4044
915.245	4166
915.358	4211
915.47	4215
915.583	4261
915.696	4299
915.809	4405
915.921	4371
916.034	4253
916.146	4253
916.259	4230
916.371	4333
916.483	4348
916.595	4230
916.708	4295
916.82	4287
916.932	4314
917.044	4344
917.156	4295
917.268	4238
917.38	4268
917.491	4265
917.603	4299
917.715	4440
917.826	4398
917.938	4363
918.049	4181
918.161	4417
918.272	4489
918.384	4535
918.495	4470
918.606	4234
918.717	4280
918.828	4322
918.939	4356
919.05	4257
919.161	4325
919.272	4139
919.383	4246
919.494	4417
919.604	4607
919.715	4462
919.826	4310
919.936	4402
920.047	4516
920.157	4500
920.267	4698
920.378	4519
920.488	4493
920.598	4714
920.708	4850
920.818	4733
920.928	4729
921.038	4930
921.148	4870
921.258	4653
921.368	4531
921.477	4485
921.587	4436
921.697	4344
921.806	4550
921.916	4421
922.025	4291
922.134	4215
922.244	4211
922.353	4299
922.462	4124
922.571	4124
922.68	3998
922.789	3975
922.898	4017
923.007	3983
923.116	4131
923.224	4048
923.333	4067
923.442	3983
923.55	3975
923.659	4017
923.767	4074
923.876	4013
923.984	4112
924.092	4002
924.201	4067
924.309	4063
924.417	4078
924.525	4097
924.633	4116
924.741	5022
924.849	3903
924.956	4150
925.064	3975
925.172	3876
925.279	3979
925.387	4013
925.494	4017
925.602	4200
925.709	4181
925.816	4021
925.924	4105
926.031	4215
926.138	4204
926.245	4223
926.352	4120
926.459	4272
926.566	4303
926.673	4143
926.779	4086
926.886	4074
926.993	3956
927.099	3998
927.206	3926
927.312	3934
927.419	4044
927.525	3983
927.631	4086
927.737	3953
927.843	3911
927.95	3861
928.056	3956
928.162	4002
928.267	4051
928.373	4573
928.479	4109
928.585	3850
928.69	4040
928.796	4082
928.901	3934
929.007	3842
929.112	4006
929.218	3979
929.323	3972
929.428	3937
929.533	4074
929.638	3888
929.743	3960
929.848	4067
929.953	3991
930.058	3949
930.163	3755
930.267	3823
930.372	3953
930.477	3800
930.581	4097
930.685	3888
930.79	3850
930.894	3888
930.998	3854
931.103	3994
931.207	3724
931.311	3686
931.415	3644
931.519	3485
931.623	3542
