Data from test_V78500241_1811.txt Node
Date: Fri Mar 25 17:01:35 CST 2022
User: usil
Spectrometer: V785-0024
Trigger mode: 0
Integration Time (sec): 4.000000E-1
Scans to average: 1
Nonlinearity correction enabled: false
Boxcar width: 0
Storing dark spectrum: false
XAxis mode: Wavelengths
Number of Pixels in Spectrum: 1024
>>>>>Begin Spectral Data<<<<<
801.071	7947
801.214	8024
801.356	7864
801.499	7887
801.641	7868
801.783	7803
801.926	7959
802.068	7936
802.211	7925
802.353	8005
802.496	7807
802.638	7807
802.78	7841
802.923	7917
803.065	7849
803.208	7799
803.35	7986
803.492	8054
803.635	8225
803.777	8024
803.919	8077
804.061	8431
804.204	8195
804.346	8123
804.488	7898
804.63	8020
804.773	8005
804.915	8084
805.057	8229
805.199	8149
805.341	8103
805.483	8282
805.626	8191
805.768	8027
805.91	8279
806.052	8161
806.194	8103
806.336	8294
806.478	8103
806.62	8035
806.762	8096
806.904	8286
807.046	8442
807.188	8377
807.33	8332
807.472	8301
807.614	8191
807.756	8077
807.898	7970
808.04	7883
808.182	7883
808.324	7860
808.465	7921
808.607	8092
808.749	8077
808.891	8263
809.033	8233
809.174	8191
809.316	8043
809.458	8024
809.6	8008
809.741	8088
809.883	7986
810.025	8100
810.166	8065
810.308	7982
810.45	7955
810.591	7818
810.733	7753
810.875	7620
811.016	7506
811.158	7480
811.299	7533
811.441	7723
811.582	7620
811.724	7525
811.865	7586
812.007	7506
812.148	7639
812.29	7597
812.431	7761
812.573	7849
812.714	7932
812.855	8084
812.997	8191
813.138	8259
813.279	8123
813.421	8050
813.562	7974
813.703	7776
813.845	7723
813.986	7415
814.127	7228
814.268	7232
814.41	7187
814.551	7175
814.692	7240
814.833	7053
814.974	7099
815.115	7118
815.256	6958
815.397	6932
815.539	6939
815.68	6715
815.821	6776
815.962	6913
816.103	6745
816.244	6741
816.385	6578
816.526	6601
816.666	6506
816.807	6277
816.948	6517
817.089	6490
817.23	6426
817.371	6353
817.512	6357
817.653	6357
817.793	6338
817.934	6399
818.075	6426
818.216	6460
818.356	6350
818.497	6251
818.638	6144
818.778	6159
818.919	6178
819.06	6159
819.2	6304
819.341	6384
819.481	6388
819.622	6486
819.762	6726
819.903	6696
820.043	6627
820.184	6525
820.324	6521
820.465	6677
820.605	6654
820.746	6635
820.886	6506
821.026	6646
821.167	6719
821.307	6810
821.447	6791
821.588	6631
821.728	6547
821.868	6490
822.008	6361
822.149	6399
822.289	6414
822.429	6133
822.569	6038
822.709	6110
822.849	5939
822.99	5908
823.13	5897
823.27	5939
823.41	5767
823.55	5790
823.69	5752
823.83	5771
823.97	5680
824.11	5554
824.25	5539
824.389	5524
824.529	5551
824.669	5455
824.809	5657
824.949	5596
825.089	5573
825.228	5573
825.368	5349
825.508	5349
825.648	5349
825.787	5334
825.927	5364
826.067	5330
826.206	5284
826.346	5368
826.485	5433
826.625	5391
826.765	5554
826.904	5444
827.044	5201
827.183	5273
827.323	5094
827.462	5140
827.601	5189
827.741	5136
827.88	5204
828.02	5109
828.159	5166
828.298	5315
828.437	5330
828.577	5250
828.716	5493
828.855	5235
828.994	5143
829.134	5185
829.273	5174
829.412	5113
829.551	5174
829.69	5166
829.829	5216
829.968	5315
830.107	5231
830.246	5292
830.385	5132
830.524	5136
830.663	5022
830.802	4957
830.941	4881
831.08	4873
831.219	4984
831.357	4965
831.496	5094
831.635	4934
831.774	4892
831.913	4816
832.051	4691
832.19	4702
832.329	4839
832.467	4729
832.606	4615
832.744	4698
832.883	4733
833.022	4717
833.16	4782
833.299	4778
833.437	4850
833.576	4771
833.714	4843
833.852	4885
833.991	4847
834.129	4927
834.267	4915
834.406	4889
834.544	4968
834.682	4938
834.821	4923
834.959	5098
835.097	4961
835.235	5178
835.373	5045
835.511	5079
835.65	5003
835.788	4968
835.926	4927
836.064	4858
836.202	4923
836.34	5151
836.478	5231
836.615	5143
836.753	5201
836.891	5292
837.029	5185
837.167	5181
837.305	5121
837.443	5132
837.58	5098
837.718	5216
837.856	5132
837.993	5124
838.131	5235
838.269	5185
838.406	5140
838.544	5181
838.681	5025
838.819	4984
838.956	4885
839.094	4824
839.231	5029
839.369	5064
839.506	5429
839.643	5258
839.781	5010
839.918	4984
840.055	5048
840.193	5075
840.33	5121
840.467	5086
840.604	5185
840.742	5448
840.879	5079
841.016	5105
841.153	5147
841.29	5387
841.427	5318
841.564	5307
841.701	5322
841.838	5273
841.975	5178
842.112	5280
842.249	5140
842.385	5048
842.522	5307
842.659	5105
842.796	5109
842.933	5159
843.069	5140
843.206	5140
843.343	5311
843.479	5216
843.616	5250
843.752	5041
843.889	4987
844.025	5197
844.162	4995
844.298	5193
844.435	5041
844.571	5029
844.708	5204
844.844	5273
844.98	5288
845.117	5288
845.253	5166
845.389	5140
845.525	5162
845.661	5132
845.798	5010
845.934	5117
846.07	5014
846.206	5201
846.342	5269
846.478	5121
846.614	5025
846.75	4949
846.886	4930
847.022	5140
847.158	5037
847.294	5033
847.429	5128
847.565	5029
847.701	5284
847.837	4904
847.972	4801
848.108	4915
848.244	4934
848.379	4778
848.515	4729
848.65	4694
848.786	4740
848.921	4767
849.057	4850
849.192	4881
849.328	4831
849.463	4885
849.598	4850
849.734	4782
849.869	4729
850.004	4607
850.14	4672
850.275	4599
850.41	4516
850.545	4508
850.68	4630
850.815	4626
850.95	4615
851.085	4812
851.22	4721
851.355	4683
851.49	4626
851.625	4626
851.76	4645
851.895	4580
852.03	4531
852.165	4683
852.299	4729
852.434	4809
852.569	4801
852.703	4828
852.838	4881
852.973	4991
853.107	4923
853.242	4771
853.376	4721
853.511	4561
853.645	4618
853.78	4820
853.914	4733
854.048	4725
854.183	4687
854.317	4717
854.451	4873
854.585	4645
854.72	4710
854.854	4801
854.988	4649
855.122	4733
855.256	4569
855.39	4702
855.524	4790
855.658	4717
855.792	4771
855.926	4790
856.06	4767
856.194	4809
856.327	4721
856.461	4656
856.595	4664
856.729	4679
856.862	4797
856.996	4717
857.13	4755
857.263	4790
857.397	4828
857.53	4736
857.664	4767
857.797	4774
857.931	4801
858.064	4710
858.197	4778
858.331	4714
858.464	4660
858.597	4596
858.731	4683
858.864	4710
858.997	4660
859.13	4679
859.263	4710
859.396	4740
859.529	4603
859.662	4592
859.795	4580
859.928	4672
860.061	4839
860.194	4748
860.327	4596
860.46	4596
860.592	4733
860.725	4717
860.858	4767
860.99	4580
861.123	4580
861.256	4546
861.388	4634
861.521	5414
861.653	4554
861.786	4443
861.918	4516
862.05	4500
862.183	4611
862.315	4634
862.447	4664
862.58	4558
862.712	4417
862.844	4367
862.976	4554
863.108	4512
863.24	4911
863.372	4402
863.504	4481
863.636	4432
863.768	4470
863.9	4443
864.032	4405
864.164	4428
864.296	4470
864.428	4580
864.559	4546
864.691	4584
864.823	4516
864.954	4523
865.086	4584
865.217	4519
865.349	4447
865.48	4474
865.612	4519
865.743	4645
865.875	4462
866.006	4466
866.137	4451
866.269	4432
866.4	4447
866.531	4455
866.662	4428
866.793	4424
866.924	4421
867.055	4558
867.186	4508
867.317	4417
867.448	4447
867.579	4413
867.71	4417
867.841	4424
867.972	4527
868.103	4504
868.233	4462
868.364	4424
868.495	4474
868.625	4683
868.756	4809
868.886	4626
869.017	4656
869.147	4797
869.278	4778
869.408	4641
869.539	4687
869.669	4752
869.799	4710
869.929	4786
870.06	4755
870.19	4968
870.32	4934
870.45	4957
870.58	5018
870.71	5140
870.84	5071
870.97	4976
871.1	4957
871.23	5151
871.36	5170
871.489	4987
871.619	5090
871.749	5094
871.879	5098
872.008	5170
872.138	5067
872.267	4984
872.397	4885
872.526	4873
872.656	4786
872.785	4820
872.915	5029
873.044	5029
873.173	4949
873.303	4972
873.432	4965
873.561	4991
873.69	4938
873.819	4892
873.948	4930
874.077	4816
874.206	4774
874.335	4797
874.464	4946
874.593	5071
874.722	4968
874.851	5132
874.979	5109
875.108	5071
875.237	4987
875.365	4930
875.494	4923
875.623	4953
875.751	4873
875.88	4927
876.008	5010
876.136	5086
876.265	5216
876.393	5360
876.521	5246
876.65	5197
876.778	5140
876.906	5105
877.034	5067
877.162	5098
877.29	5018
877.418	5083
877.546	5079
877.674	5071
877.802	5037
877.93	5071
878.058	4957
878.185	4911
878.313	4957
878.441	4980
878.568	4797
878.696	4870
878.824	4972
878.951	5029
879.079	5174
879.206	5292
879.333	5086
879.461	4942
879.588	5083
879.715	5117
879.842	5239
879.97	5037
880.097	4820
880.224	4733
880.351	4831
880.478	4828
880.605	4870
880.732	4812
880.859	5140
880.986	4942
881.112	4927
881.239	4782
881.366	4653
881.493	4672
881.619	4626
881.746	4626
881.872	4649
881.999	4752
882.125	4729
882.252	4812
882.378	4824
882.505	5006
882.631	4850
882.757	4710
882.883	4702
883.01	4706
883.136	4672
883.262	4637
883.388	4649
883.514	4816
883.64	4858
883.766	4805
883.892	4702
884.018	4725
884.143	4896
884.269	4965
884.395	4706
884.52	4641
884.646	4672
884.772	4592
884.897	4561
885.023	4668
885.148	4809
885.274	4877
885.399	4793
885.524	4706
885.65	4729
885.775	4778
885.9	4710
886.025	4908
886.15	4820
886.275	4755
886.4	4717
886.525	4729
886.65	4672
886.775	4679
886.9	4953
887.025	5029
887.149	4870
887.274	4691
887.399	4596
887.523	4664
887.648	4599
887.773	4626
887.897	4797
888.021	4797
888.146	4672
888.27	4809
888.395	4896
888.519	4793
888.643	4847
888.767	4820
888.891	4683
889.015	4592
889.139	4672
889.263	4641
889.387	4820
889.511	4854
889.635	4809
889.759	4664
889.883	4622
890.006	4733
890.13	4828
890.254	4672
890.377	4687
890.501	4584
890.624	4508
890.748	4630
890.871	4542
890.995	4489
891.118	4390
891.241	4527
891.364	4588
891.488	4649
891.611	4493
891.734	4523
891.857	4603
891.98	4565
892.103	4656
892.226	4626
892.349	4542
892.471	4440
892.594	4577
892.717	4637
892.839	4622
892.962	4618
893.085	4675
893.207	4618
893.33	4500
893.452	4542
893.575	4698
893.697	4603
893.819	4767
893.941	4824
894.064	4790
894.186	4573
894.308	4561
894.43	4752
894.552	4831
894.674	4793
894.796	4558
894.918	4607
895.04	4615
895.161	4767
895.283	4698
895.405	4626
895.526	4660
895.648	4698
895.769	4725
895.891	4702
896.012	4717
896.134	4729
896.255	4683
896.376	4645
896.498	4649
896.619	4755
896.74	4634
896.861	4672
896.982	4919
897.103	5113
897.224	4847
897.345	4782
897.466	4630
897.587	4786
897.708	4904
897.828	4801
897.949	4702
898.07	4588
898.19	4626
898.311	4835
898.431	4664
898.552	4740
898.672	4847
898.792	4763
898.913	4748
899.033	4660
899.153	4565
899.273	4470
899.393	4493
899.513	4542
899.633	4531
899.753	4531
899.873	4546
899.993	4565
900.113	4554
900.232	4588
900.352	4542
900.472	4500
900.591	4440
900.711	4512
900.83	4466
900.95	4615
901.069	4706
901.189	4554
901.308	4398
901.427	4314
901.546	4417
901.665	4485
901.784	4508
901.904	4451
902.023	4322
902.141	4219
902.26	4162
902.379	4341
902.498	4246
902.617	4185
902.735	4405
902.854	4341
902.973	4367
903.091	4223
903.21	4223
903.328	4306
903.446	4242
903.565	4280
903.683	4360
903.801	4287
903.919	4447
904.038	4424
904.156	4318
904.274	4462
904.392	4432
904.51	4440
904.627	4455
904.745	4558
904.863	4653
904.981	4398
905.098	4337
905.216	4398
905.334	4462
905.451	4447
905.569	4455
905.686	4569
905.803	4596
905.921	4409
906.038	4603
906.155	4512
906.272	4424
906.389	4497
906.506	4341
906.623	4356
906.74	4447
906.857	4318
906.974	4394
907.091	4554
907.208	4672
907.324	4603
907.441	4512
907.557	4356
907.674	4436
907.79	4352
907.907	4413
908.023	4443
908.139	4527
908.256	4436
908.372	4451
908.488	4455
908.604	4371
908.72	4325
908.836	4402
908.952	4371
909.068	4462
909.184	4592
909.3	4447
909.415	4630
909.531	4546
909.647	4344
909.762	4432
909.878	4318
909.993	4451
910.108	4424
910.224	4455
910.339	4443
910.454	4375
910.57	4379
910.685	4314
910.8	4675
910.915	4584
911.03	4538
911.145	4337
911.259	4344
911.374	4394
911.489	4310
911.604	4276
911.718	4177
911.833	4188
911.947	4120
912.062	4055
912.176	4196
912.291	4223
912.405	4230
912.519	4470
912.633	4500
912.748	4383
912.862	4333
912.976	4211
913.09	4131
913.204	4192
913.318	4272
913.431	4379
913.545	4363
913.659	4474
913.772	4375
913.886	4261
914	4242
914.113	4424
914.226	4459
914.34	4383
914.453	4257
914.566	4451
914.68	4287
914.793	4337
914.906	4192
915.019	4112
915.132	4051
915.245	4166
915.358	4227
915.47	4200
915.583	4246
915.696	4287
915.809	4379
915.921	4455
916.034	4204
916.146	4230
916.259	4200
916.371	4421
916.483	4356
916.595	4253
916.708	4341
916.82	4306
916.932	4398
917.044	4329
917.156	4322
917.268	4276
917.38	4337
917.491	4257
917.603	4386
917.715	4413
917.826	4485
917.938	4360
918.049	4227
918.161	4390
918.272	4561
918.384	4550
918.495	4497
918.606	4356
918.717	4238
918.828	4371
918.939	4363
919.05	4242
919.161	4322
919.272	4166
919.383	4276
919.494	4512
919.604	4668
919.715	4489
919.826	4405
919.936	4447
920.047	4573
920.157	4569
920.267	4721
920.378	4588
920.488	4554
920.598	4752
920.708	4873
920.818	4812
920.928	4797
921.038	5010
921.148	5029
921.258	4656
921.368	4588
921.477	4527
921.587	4500
921.697	4402
921.806	4577
921.916	4508
922.025	4318
922.134	4333
922.244	4291
922.353	4371
922.462	4257
922.571	4150
922.68	4055
922.789	4013
922.898	4059
923.007	4048
923.116	4116
923.224	4112
923.333	4124
923.442	4021
923.55	4032
923.659	4067
923.767	4128
923.876	4082
923.984	4188
924.092	4051
924.201	4105
924.309	4234
924.417	4188
924.525	4135
924.633	4143
924.741	5140
924.849	3979
924.956	4181
925.064	3979
925.172	3964
925.279	3979
925.387	4082
925.494	4097
925.602	4219
925.709	4272
925.816	4112
925.924	4169
926.031	4227
926.138	4204
926.245	4291
926.352	4154
926.459	4314
926.566	4352
926.673	4204
926.779	4105
926.886	4109
926.993	4010
927.099	3991
927.206	3918
927.312	3937
927.419	4124
927.525	4063
927.631	4162
927.737	4021
927.843	3983
927.95	3873
928.056	4017
928.162	4071
928.267	4097
928.373	4687
928.479	4150
928.585	3964
928.69	4063
928.796	4090
928.901	4010
929.007	3857
929.112	3983
929.218	4032
929.323	3994
929.428	3975
929.533	4169
929.638	3922
929.743	3987
929.848	4048
929.953	4013
930.058	3945
930.163	3819
930.267	3846
930.372	4040
930.477	3842
930.581	4120
930.685	3975
930.79	3865
930.894	3953
930.998	3926
931.103	4063
931.207	3743
931.311	3728
931.415	3709
931.519	3526
931.623	3587
