Data from test_V78500241_2162.txt Node
Date: Fri Mar 25 17:04:02 CST 2022
User: usil
Spectrometer: V785-0024
Trigger mode: 0
Integration Time (sec): 4.000000E-1
Scans to average: 1
Nonlinearity correction enabled: false
Boxcar width: 0
Storing dark spectrum: false
XAxis mode: Wavelengths
Number of Pixels in Spectrum: 1024
>>>>>Begin Spectral Data<<<<<
801.071	7997
801.214	7917
801.356	7792
801.499	7818
801.641	7799
801.783	7788
801.926	7959
802.068	7936
802.211	7967
802.353	8005
802.496	7860
802.638	7913
802.78	7902
802.923	7913
803.065	7841
803.208	7841
803.35	8035
803.492	8069
803.635	8191
803.777	8039
803.919	8157
804.061	8434
804.204	8145
804.346	8088
804.488	7951
804.63	8119
804.773	7986
804.915	8088
805.057	8328
805.199	8176
805.341	8206
805.483	8187
805.626	8199
805.768	8191
805.91	8248
806.052	8164
806.194	8161
806.336	8267
806.478	8157
806.62	8039
806.762	8237
806.904	8267
807.046	8427
807.188	8419
807.33	8233
807.472	8336
807.614	8161
807.756	8161
807.898	8020
808.04	7921
808.182	8020
808.324	7883
808.465	7982
808.607	8119
808.749	8187
808.891	8233
809.033	8290
809.174	8218
809.316	8031
809.458	8062
809.6	8016
809.741	8103
809.883	8062
810.025	8195
810.166	8103
810.308	8084
810.45	8001
810.591	7917
810.733	7776
810.875	7715
811.016	7586
811.158	7468
811.299	7563
811.441	7750
811.582	7666
811.724	7624
811.865	7556
812.007	7639
812.148	7647
812.29	7655
812.431	7795
812.573	7879
812.714	8115
812.855	8157
812.997	8206
813.138	8294
813.279	8172
813.421	8115
813.562	7989
813.703	7894
813.845	7765
813.986	7415
814.127	7285
814.268	7285
814.41	7263
814.551	7225
814.692	7240
814.833	7179
814.974	7160
815.115	7160
815.256	6993
815.397	6985
815.539	6928
815.68	6833
815.821	6791
815.962	6882
816.103	6878
816.244	6722
816.385	6631
816.526	6608
816.666	6506
816.807	6365
816.948	6429
817.089	6441
817.23	6407
817.371	6410
817.512	6414
817.653	6388
817.793	6369
817.934	6513
818.075	6521
818.216	6452
818.356	6399
818.497	6285
818.638	6136
818.778	6205
818.919	6167
819.06	6266
819.2	6350
819.341	6308
819.481	6460
819.622	6555
819.762	6738
819.903	6764
820.043	6551
820.184	6639
820.324	6597
820.465	6635
820.605	6650
820.746	6700
820.886	6544
821.026	6639
821.167	6753
821.307	6741
821.447	6871
821.588	6745
821.728	6662
821.868	6490
822.008	6353
822.149	6391
822.289	6353
822.429	6205
822.569	6117
822.709	6136
822.849	5954
822.99	5927
823.13	5977
823.27	5935
823.41	5802
823.55	5802
823.69	5802
823.83	5821
823.97	5657
824.11	5551
824.25	5524
824.389	5543
824.529	5646
824.669	5566
824.809	5676
824.949	5672
825.089	5653
825.228	5600
825.368	5395
825.508	5402
825.648	5376
825.787	5360
825.927	5395
826.067	5357
826.206	5341
826.346	5410
826.485	5395
826.625	5448
826.765	5547
826.904	5512
827.044	5303
827.183	5227
827.323	5162
827.462	5284
827.601	5193
827.741	5227
827.88	5273
828.02	5102
828.159	5258
828.298	5372
828.437	5353
828.577	5265
828.716	5463
828.855	5360
828.994	5193
829.134	5185
829.273	5166
829.412	5212
829.551	5155
829.69	5201
829.829	5254
829.968	5410
830.107	5292
830.246	5269
830.385	5239
830.524	5170
830.663	5143
830.802	4987
830.941	4911
831.08	4927
831.219	4995
831.357	5003
831.496	5220
831.635	4930
831.774	4835
831.913	4839
832.051	4816
832.19	4740
832.329	4870
832.467	4691
832.606	4702
832.744	4793
832.883	4714
833.022	4778
833.16	4782
833.299	4850
833.437	4858
833.576	4862
833.714	4877
833.852	4858
833.991	4946
834.129	4980
834.267	4923
834.406	4938
834.544	5060
834.682	5045
834.821	4987
834.959	5204
835.097	5018
835.235	5140
835.373	5121
835.511	5140
835.65	5018
835.788	5014
835.926	4927
836.064	4881
836.202	4953
836.34	5220
836.478	5220
836.615	5174
836.753	5246
836.891	5364
837.029	5288
837.167	5174
837.305	5143
837.443	5143
837.58	5094
837.718	5318
837.856	5239
837.993	5212
838.131	5246
838.269	5185
838.406	5227
838.544	5201
838.681	5006
838.819	4999
838.956	4930
839.094	4930
839.231	5010
839.369	5029
839.506	5455
839.643	5277
839.781	5086
839.918	5022
840.055	5155
840.193	5086
840.33	5162
840.467	5094
840.604	5227
840.742	5505
840.879	5102
841.016	5113
841.153	5155
841.29	5387
841.427	5379
841.564	5379
841.701	5383
841.838	5318
841.975	5277
842.112	5246
842.249	5166
842.385	5170
842.522	5341
842.659	5201
842.796	5174
842.933	5178
843.069	5193
843.206	5174
843.343	5345
843.479	5284
843.616	5258
843.752	5060
843.889	5041
844.025	5223
844.162	5067
844.298	5254
844.435	5117
844.571	5102
844.708	5155
844.844	5326
844.98	5406
845.117	5322
845.253	5170
845.389	5098
845.525	5140
845.661	5178
845.798	5018
845.934	5121
846.07	5098
846.206	5254
846.342	5273
846.478	5166
846.614	5056
846.75	5037
846.886	4923
847.022	5151
847.158	5071
847.294	5090
847.429	5079
847.565	5064
847.701	5353
847.837	4870
847.972	4778
848.108	5003
848.244	4949
848.379	4835
848.515	4740
848.65	4748
848.786	4809
848.921	4839
849.057	4919
849.192	4930
849.328	4850
849.463	4870
849.598	4771
849.734	4767
849.869	4702
850.004	4645
850.14	4714
850.275	4687
850.41	4550
850.545	4592
850.68	4596
850.815	4687
850.95	4675
851.085	4847
851.22	4782
851.355	4675
851.49	4626
851.625	4683
851.76	4668
851.895	4596
852.03	4550
852.165	4675
852.299	4755
852.434	4885
852.569	4725
852.703	4778
852.838	4889
852.973	4961
853.107	4923
853.242	4752
853.376	4683
853.511	4626
853.645	4599
853.78	4797
853.914	4653
854.048	4683
854.183	4664
854.317	4714
854.451	4843
854.585	4698
854.72	4664
854.854	4782
854.988	4596
855.122	4660
855.256	4554
855.39	4649
855.524	4755
855.658	4752
855.792	4687
855.926	4759
856.06	4744
856.194	4801
856.327	4698
856.461	4683
856.595	4596
856.729	4656
856.862	4801
856.996	4694
857.13	4736
857.263	4755
857.397	4801
857.53	4702
857.664	4733
857.797	4729
857.931	4759
858.064	4733
858.197	4755
858.331	4641
858.464	4637
858.597	4538
858.731	4607
858.864	4694
858.997	4615
859.13	4679
859.263	4672
859.396	4702
859.529	4561
859.662	4634
859.795	4546
859.928	4641
860.061	4740
860.194	4790
860.327	4611
860.46	4550
860.592	4694
860.725	4767
860.858	4782
860.99	4523
861.123	4527
861.256	4558
861.388	4626
861.521	5440
861.653	4497
861.786	4466
861.918	4478
862.05	4512
862.183	4596
862.315	4622
862.447	4679
862.58	4538
862.712	4474
862.844	4398
862.976	4470
863.108	4421
863.24	4809
863.372	4337
863.504	4443
863.636	4440
863.768	4466
863.9	4432
864.032	4360
864.164	4390
864.296	4519
864.428	4527
864.559	4584
864.691	4558
864.823	4565
864.954	4504
865.086	4516
865.217	4466
865.349	4432
865.48	4493
865.612	4489
865.743	4653
865.875	4478
866.006	4474
866.137	4489
866.269	4481
866.4	4481
866.531	4466
866.662	4409
866.793	4421
866.924	4405
867.055	4474
867.186	4485
867.317	4451
867.448	4405
867.579	4375
867.71	4360
867.841	4409
867.972	4436
868.103	4489
868.233	4478
868.364	4485
868.495	4508
868.625	4691
868.756	4744
868.886	4546
869.017	4599
869.147	4752
869.278	4797
869.408	4683
869.539	4607
869.669	4679
869.799	4645
869.929	4809
870.06	4740
870.19	4938
870.32	4927
870.45	4904
870.58	5041
870.71	5041
870.84	5094
870.97	4972
871.1	4870
871.23	5140
871.36	5117
871.489	4984
871.619	5102
871.749	5136
871.879	5102
872.008	5189
872.138	5079
872.267	5025
872.397	4847
872.526	4820
872.656	4717
872.785	4805
872.915	4930
873.044	5056
873.173	4915
873.303	4942
873.432	5006
873.561	4938
873.69	4892
873.819	4885
873.948	4934
874.077	4801
874.206	4824
874.335	4797
874.464	4904
874.593	5075
874.722	4987
874.851	5105
874.979	5086
875.108	5041
875.237	4919
875.365	4866
875.494	4847
875.623	5022
875.751	4843
875.88	4927
876.008	4976
876.136	5006
876.265	5235
876.393	5357
876.521	5277
876.65	5235
876.778	5140
876.906	5094
877.034	5025
877.162	4984
877.29	5025
877.418	5086
877.546	5037
877.674	5033
877.802	5022
877.93	5014
878.058	4946
878.185	4908
878.313	4972
878.441	4946
878.568	4805
878.696	4847
878.824	4942
878.951	4976
879.079	5086
879.206	5284
879.333	5121
879.461	5006
879.588	5029
879.715	5128
879.842	5220
879.97	4995
880.097	4763
880.224	4694
880.351	4801
880.478	4828
880.605	4862
880.732	4767
880.859	5052
880.986	4965
881.112	4896
881.239	4809
881.366	4656
881.493	4622
881.619	4615
881.746	4603
881.872	4649
881.999	4660
882.125	4694
882.252	4793
882.378	4782
882.505	4942
882.631	4805
882.757	4706
882.883	4755
883.01	4702
883.136	4656
883.262	4584
883.388	4634
883.514	4828
883.64	4850
883.766	4805
883.892	4645
884.018	4740
884.143	4850
884.269	5041
884.395	4694
884.52	4672
884.646	4626
884.772	4611
884.897	4519
885.023	4694
885.148	4790
885.274	4835
885.399	4816
885.524	4717
885.65	4714
885.775	4790
885.9	4729
886.025	4835
886.15	4786
886.275	4694
886.4	4660
886.525	4717
886.65	4702
886.775	4702
886.9	4854
887.025	5056
887.149	4835
887.274	4668
887.399	4626
887.523	4584
887.648	4558
887.773	4592
887.897	4816
888.021	4778
888.146	4664
888.27	4801
888.395	4854
888.519	4782
888.643	4881
888.767	4847
888.891	4630
889.015	4603
889.139	4626
889.263	4611
889.387	4721
889.511	4892
889.635	4831
889.759	4656
889.883	4664
890.006	4755
890.13	4854
890.254	4645
890.377	4683
890.501	4554
890.624	4531
890.748	4626
890.871	4497
890.995	4383
891.118	4383
891.241	4497
891.364	4538
891.488	4611
891.611	4478
891.734	4569
891.857	4592
891.98	4531
892.103	4630
892.226	4558
892.349	4565
892.471	4409
892.594	4493
892.717	4637
892.839	4569
892.962	4596
893.085	4615
893.207	4580
893.33	4447
893.452	4538
893.575	4653
893.697	4569
893.819	4805
893.941	4790
894.064	4759
894.186	4580
894.308	4577
894.43	4714
894.552	4797
894.674	4721
894.796	4538
894.918	4580
895.04	4577
895.161	4710
895.283	4672
895.405	4611
895.526	4660
895.648	4744
895.769	4702
895.891	4706
896.012	4706
896.134	4725
896.255	4649
896.376	4588
896.498	4618
896.619	4694
896.74	4622
896.861	4626
896.982	4957
897.103	5083
897.224	4820
897.345	4717
897.466	4691
897.587	4733
897.708	4862
897.828	4729
897.949	4668
898.07	4626
898.19	4683
898.311	4778
898.431	4641
898.552	4706
898.672	4866
898.792	4812
898.913	4778
899.033	4607
899.153	4470
899.273	4394
899.393	4508
899.513	4516
899.633	4489
899.753	4569
899.873	4504
899.993	4558
900.113	4542
900.232	4603
900.352	4542
900.472	4478
900.591	4440
900.711	4535
900.83	4443
900.95	4599
901.069	4710
901.189	4546
901.308	4379
901.427	4310
901.546	4405
901.665	4470
901.784	4497
901.904	4424
902.023	4337
902.141	4188
902.26	4124
902.379	4303
902.498	4234
902.617	4227
902.735	4390
902.854	4417
902.973	4367
903.091	4204
903.21	4192
903.328	4284
903.446	4280
903.565	4261
903.683	4360
903.801	4249
903.919	4375
904.038	4428
904.156	4303
904.274	4485
904.392	4371
904.51	4417
904.627	4527
904.745	4577
904.863	4603
904.981	4413
905.098	4325
905.216	4348
905.334	4390
905.451	4436
905.569	4417
905.686	4565
905.803	4573
905.921	4428
906.038	4523
906.155	4432
906.272	4440
906.389	4489
906.506	4394
906.623	4356
906.74	4405
906.857	4318
906.974	4344
907.091	4596
907.208	4702
907.324	4596
907.441	4447
907.557	4329
907.674	4352
907.79	4329
907.907	4390
908.023	4459
908.139	4493
908.256	4443
908.372	4443
908.488	4436
908.604	4322
908.72	4295
908.836	4344
908.952	4390
909.068	4405
909.184	4561
909.3	4459
909.415	4611
909.531	4565
909.647	4402
909.762	4337
909.878	4344
909.993	4447
910.108	4409
910.224	4394
910.339	4474
910.454	4367
910.57	4348
910.685	4348
910.8	4618
910.915	4542
911.03	4489
911.145	4272
911.259	4318
911.374	4402
911.489	4318
911.604	4291
911.718	4177
911.833	4204
911.947	4071
912.062	4036
912.176	4230
912.291	4253
912.405	4246
912.519	4489
912.633	4462
912.748	4383
912.862	4333
912.976	4173
913.09	4120
913.204	4192
913.318	4238
913.431	4333
913.545	4363
913.659	4462
913.772	4360
913.886	4253
914	4223
914.113	4394
914.226	4398
914.34	4363
914.453	4215
914.566	4424
914.68	4272
914.793	4367
914.906	4154
915.019	4101
915.132	4025
915.245	4204
915.358	4192
915.47	4257
915.583	4306
915.696	4318
915.809	4421
915.921	4398
916.034	4280
916.146	4211
916.259	4173
916.371	4421
916.483	4379
916.595	4295
916.708	4329
916.82	4276
916.932	4310
917.044	4291
917.156	4318
917.268	4200
917.38	4299
917.491	4265
917.603	4337
917.715	4375
917.826	4409
917.938	4386
918.049	4238
918.161	4390
918.272	4550
918.384	4565
918.495	4478
918.606	4344
918.717	4192
918.828	4318
918.939	4390
919.05	4268
919.161	4329
919.272	4154
919.383	4219
919.494	4409
919.604	4637
919.715	4390
919.826	4367
919.936	4375
920.047	4519
920.157	4424
920.267	4679
920.378	4542
920.488	4481
920.598	4725
920.708	4843
920.818	4729
920.928	4721
921.038	4984
921.148	4934
921.258	4641
921.368	4516
921.477	4462
921.587	4443
921.697	4356
921.806	4565
921.916	4443
922.025	4242
922.134	4272
922.244	4215
922.353	4322
922.462	4131
922.571	4071
922.68	4021
922.789	3926
922.898	4025
923.007	3953
923.116	4071
923.224	4021
923.333	4086
923.442	4048
923.55	3987
923.659	4006
923.767	4090
923.876	4006
923.984	4124
924.092	3979
924.201	4063
924.309	4082
924.417	4120
924.525	4074
924.633	4086
924.741	5067
924.849	3930
924.956	4131
925.064	3953
925.172	3911
925.279	3937
925.387	4044
925.494	4051
925.602	4227
925.709	4139
925.816	3994
925.924	4082
926.031	4219
926.138	4169
926.245	4173
926.352	4135
926.459	4219
926.566	4299
926.673	4135
926.779	4063
926.886	4109
926.993	4013
927.099	3968
927.206	3930
927.312	3918
927.419	4055
927.525	4029
927.631	4116
927.737	3918
927.843	3941
927.95	3865
928.056	3979
928.162	4002
928.267	4044
928.373	4698
928.479	4131
928.585	3865
928.69	3991
928.796	4029
928.901	4006
929.007	3876
929.112	4006
929.218	4006
929.323	3941
929.428	3960
929.533	4093
929.638	3892
929.743	3941
929.848	4059
929.953	3994
930.058	3915
930.163	3770
930.267	3846
930.372	3960
930.477	3789
930.581	4063
930.685	3949
930.79	3850
930.894	3846
930.998	3869
931.103	4040
931.207	3720
931.311	3770
931.415	3652
931.519	3564
931.623	3549
