Data from test_V78500241_126.txt Node
Date: Fri Mar 25 16:49:52 CST 2022
User: usil
Spectrometer: V785-0024
Trigger mode: 0
Integration Time (sec): 4.000000E-1
Scans to average: 1
Nonlinearity correction enabled: false
Boxcar width: 0
Storing dark spectrum: false
XAxis mode: Wavelengths
Number of Pixels in Spectrum: 1024
>>>>>Begin Spectral Data<<<<<
801.071	7932
801.214	7993
801.356	7921
801.499	7890
801.641	7792
801.783	7909
801.926	8016
802.068	7989
802.211	7997
802.353	8020
802.496	7936
802.638	7978
802.78	7959
802.923	7989
803.065	7906
803.208	7849
803.35	7936
803.492	8050
803.635	8168
803.777	7963
803.919	8084
804.061	8339
804.204	8145
804.346	7978
804.488	7913
804.63	8027
804.773	7928
804.915	8103
805.057	8328
805.199	8096
805.341	8214
805.483	8275
805.626	8221
805.768	8062
805.91	8161
806.052	8248
806.194	8103
806.336	8271
806.478	8138
806.62	8130
806.762	8187
806.904	8252
807.046	8465
807.188	8279
807.33	8317
807.472	8248
807.614	8092
807.756	8123
807.898	8054
808.04	7967
808.182	7883
808.324	7947
808.465	7906
808.607	8020
808.749	8035
808.891	8180
809.033	8317
809.174	8210
809.316	8054
809.458	8024
809.6	7993
809.741	8016
809.883	8092
810.025	8100
810.166	8123
810.308	8008
810.45	7997
810.591	7875
810.733	7727
810.875	7643
811.016	7483
811.158	7487
811.299	7620
811.441	7807
811.582	7696
811.724	7636
811.865	7620
812.007	7666
812.148	7670
812.29	7708
812.431	7879
812.573	7982
812.714	7967
812.855	8210
812.997	8240
813.138	8404
813.279	8282
813.421	8172
813.562	8100
813.703	7913
813.845	7685
813.986	7422
814.127	7278
814.268	7293
814.41	7278
814.551	7183
814.692	7213
814.833	7133
814.974	7206
815.115	7156
815.256	7023
815.397	7000
815.539	6977
815.68	6856
815.821	6821
815.962	6833
816.103	6844
816.244	6787
816.385	6604
816.526	6620
816.666	6547
816.807	6361
816.948	6479
817.089	6494
817.23	6506
817.371	6445
817.512	6410
817.653	6467
817.793	6464
817.934	6452
818.075	6483
818.216	6456
818.356	6399
818.497	6239
818.638	6144
818.778	6129
818.919	6155
819.06	6224
819.2	6376
819.341	6357
819.481	6418
819.622	6593
819.762	6795
819.903	6646
820.043	6612
820.184	6570
820.324	6601
820.465	6688
820.605	6684
820.746	6635
820.886	6574
821.026	6700
821.167	6745
821.307	6856
821.447	6776
821.588	6696
821.728	6627
821.868	6521
822.008	6391
822.149	6429
822.289	6388
822.429	6216
822.569	6133
822.709	6140
822.849	5901
822.99	5977
823.13	5954
823.27	5912
823.41	5813
823.55	5790
823.69	5809
823.83	5844
823.97	5714
824.11	5573
824.25	5566
824.389	5589
824.529	5589
824.669	5570
824.809	5615
824.949	5649
825.089	5615
825.228	5543
825.368	5417
825.508	5379
825.648	5391
825.787	5436
825.927	5433
826.067	5292
826.206	5318
826.346	5402
826.485	5429
826.625	5467
826.765	5608
826.904	5535
827.044	5311
827.183	5178
827.323	5151
827.462	5269
827.601	5197
827.741	5155
827.88	5261
828.02	5151
828.159	5254
828.298	5303
828.437	5311
828.577	5330
828.716	5471
828.855	5360
828.994	5204
829.134	5193
829.273	5197
829.412	5189
829.551	5086
829.69	5166
829.829	5193
829.968	5410
830.107	5280
830.246	5322
830.385	5189
830.524	5140
830.663	5121
830.802	4980
830.941	4927
831.08	4873
831.219	5025
831.357	4965
831.496	5162
831.635	4927
831.774	4866
831.913	4866
832.051	4763
832.19	4748
832.329	4828
832.467	4714
832.606	4668
832.744	4717
832.883	4744
833.022	4733
833.16	4778
833.299	4885
833.437	4843
833.576	4850
833.714	4854
833.852	4870
833.991	4927
834.129	4999
834.267	4961
834.406	4949
834.544	4980
834.682	4961
834.821	4957
834.959	5132
835.097	5014
835.235	5178
835.373	5124
835.511	5098
835.65	5052
835.788	5067
835.926	4896
836.064	4850
836.202	4968
836.34	5189
836.478	5258
836.615	5140
836.753	5239
836.891	5318
837.029	5307
837.167	5231
837.305	5189
837.443	5155
837.58	5102
837.718	5250
837.856	5189
837.993	5204
838.131	5239
838.269	5277
838.406	5250
838.544	5147
838.681	5086
838.819	5060
838.956	4877
839.094	4923
839.231	5022
839.369	5090
839.506	5440
839.643	5265
839.781	5109
839.918	5037
840.055	5109
840.193	5121
840.33	5132
840.467	5174
840.604	5181
840.742	5509
840.879	5128
841.016	5132
841.153	5132
841.29	5402
841.427	5341
841.564	5337
841.701	5421
841.838	5235
841.975	5239
842.112	5330
842.249	5197
842.385	5090
842.522	5318
842.659	5159
842.796	5113
842.933	5178
843.069	5170
843.206	5166
843.343	5318
843.479	5250
843.616	5296
843.752	5094
843.889	4999
844.025	5223
844.162	5052
844.298	5178
844.435	5079
844.571	5090
844.708	5231
844.844	5330
844.98	5315
845.117	5337
845.253	5132
845.389	5109
845.525	5174
845.661	5170
845.798	5025
845.934	5128
846.07	5083
846.206	5178
846.342	5299
846.478	5208
846.614	5025
846.75	5010
846.886	4999
847.022	5166
847.158	5041
847.294	5105
847.429	5117
847.565	5117
847.701	5349
847.837	4904
847.972	4881
848.108	4923
848.244	4987
848.379	4809
848.515	4736
848.65	4755
848.786	4771
848.921	4797
849.057	4839
849.192	4870
849.328	4790
849.463	4854
849.598	4812
849.734	4786
849.869	4714
850.004	4622
850.14	4702
850.275	4607
850.41	4588
850.545	4592
850.68	4573
850.815	4630
850.95	4596
851.085	4816
851.22	4740
851.355	4626
851.49	4630
851.625	4653
851.76	4660
851.895	4641
852.03	4504
852.165	4637
852.299	4748
852.434	4828
852.569	4801
852.703	4763
852.838	4870
852.973	4927
853.107	4881
853.242	4755
853.376	4675
853.511	4519
853.645	4668
853.78	4812
853.914	4706
854.048	4645
854.183	4626
854.317	4706
854.451	4850
854.585	4683
854.72	4664
854.854	4771
854.988	4630
855.122	4630
855.256	4538
855.39	4683
855.524	4805
855.658	4736
855.792	4714
855.926	4771
856.06	4778
856.194	4866
856.327	4729
856.461	4649
856.595	4672
856.729	4641
856.862	4778
856.996	4733
857.13	4786
857.263	4778
857.397	4820
857.53	4679
857.664	4721
857.797	4759
857.931	4801
858.064	4683
858.197	4774
858.331	4653
858.464	4626
858.597	4554
858.731	4660
858.864	4664
858.997	4637
859.13	4675
859.263	4645
859.396	4710
859.529	4615
859.662	4626
859.795	4531
859.928	4653
860.061	4744
860.194	4759
860.327	4592
860.46	4584
860.592	4710
860.725	4717
860.858	4755
860.99	4611
861.123	4512
861.256	4565
861.388	4615
861.521	5398
861.653	4485
861.786	4462
861.918	4470
862.05	4592
862.183	4519
862.315	4573
862.447	4664
862.58	4573
862.712	4432
862.844	4303
862.976	4489
863.108	4459
863.24	4892
863.372	4329
863.504	4462
863.636	4481
863.768	4523
863.9	4379
864.032	4390
864.164	4383
864.296	4493
864.428	4565
864.559	4538
864.691	4554
864.823	4538
864.954	4538
865.086	4535
865.217	4504
865.349	4394
865.48	4550
865.612	4512
865.743	4622
865.875	4497
866.006	4478
866.137	4504
866.269	4436
866.4	4417
866.531	4455
866.662	4409
866.793	4417
866.924	4451
867.055	4508
867.186	4451
867.317	4440
867.448	4398
867.579	4413
867.71	4360
867.841	4402
867.972	4474
868.103	4481
868.233	4432
868.364	4478
868.495	4466
868.625	4679
868.756	4755
868.886	4607
869.017	4664
869.147	4812
869.278	4767
869.408	4630
869.539	4691
869.669	4706
869.799	4668
869.929	4736
870.06	4725
870.19	4942
870.32	4889
870.45	4995
870.58	5006
870.71	5143
870.84	5147
870.97	4949
871.1	4896
871.23	5147
871.36	5151
871.489	4972
871.619	5117
871.749	5105
871.879	5121
872.008	5159
872.138	5045
872.267	4965
872.397	4862
872.526	4805
872.656	4786
872.785	4816
872.915	4957
873.044	5037
873.173	4946
873.303	5045
873.432	4984
873.561	4968
873.69	4858
873.819	4892
873.948	4927
874.077	4850
874.206	4759
874.335	4782
874.464	4900
874.593	5102
874.722	5003
874.851	5102
874.979	5083
875.108	5037
875.237	4934
875.365	4904
875.494	4919
875.623	5003
875.751	4835
875.88	4862
876.008	4984
876.136	5056
876.265	5220
876.393	5315
876.521	5277
876.65	5231
876.778	5162
876.906	5067
877.034	5025
877.162	5094
877.29	4984
877.418	5071
877.546	5022
877.674	5033
877.802	5029
877.93	5048
878.058	4942
878.185	4892
878.313	4987
878.441	4923
878.568	4786
878.696	4843
878.824	4999
878.951	4965
879.079	5143
879.206	5292
879.333	5079
879.461	5025
879.588	5079
879.715	5121
879.842	5254
879.97	5018
880.097	4763
880.224	4736
880.351	4820
880.478	4831
880.605	4782
880.732	4778
880.859	5124
880.986	4858
881.112	4885
881.239	4767
881.366	4698
881.493	4592
881.619	4618
881.746	4637
881.872	4641
881.999	4702
882.125	4691
882.252	4835
882.378	4847
882.505	4987
882.631	4831
882.757	4763
882.883	4771
883.01	4759
883.136	4679
883.262	4649
883.388	4645
883.514	4847
883.64	4820
883.766	4812
883.892	4706
884.018	4755
884.143	4889
884.269	5128
884.395	4710
884.52	4679
884.646	4660
884.772	4569
884.897	4603
885.023	4725
885.148	4801
885.274	4915
885.399	4847
885.524	4759
885.65	4763
885.775	4820
885.9	4694
886.025	4949
886.15	4816
886.275	4740
886.4	4694
886.525	4759
886.65	4748
886.775	4725
886.9	4976
887.025	5079
887.149	4892
887.274	4706
887.399	4660
887.523	4672
887.648	4660
887.773	4599
887.897	4831
888.021	4839
888.146	4748
888.27	4915
888.395	4934
888.519	4915
888.643	4889
888.767	4900
888.891	4733
889.015	4660
889.139	4717
889.263	4618
889.387	4820
889.511	4934
889.635	4820
889.759	4687
889.883	4721
890.006	4805
890.13	4949
890.254	4706
890.377	4717
890.501	4637
890.624	4588
890.748	4729
890.871	4573
890.995	4512
891.118	4478
891.241	4577
891.364	4592
891.488	4729
891.611	4561
891.734	4577
891.857	4656
891.98	4607
892.103	4691
892.226	4618
892.349	4554
892.471	4531
892.594	4634
892.717	4660
892.839	4645
892.962	4653
893.085	4706
893.207	4649
893.33	4497
893.452	4531
893.575	4717
893.697	4683
893.819	4790
893.941	4923
894.064	4809
894.186	4611
894.308	4637
894.43	4809
894.552	4889
894.674	4797
894.796	4607
894.918	4645
895.04	4615
895.161	4763
895.283	4702
895.405	4649
895.526	4649
895.648	4725
895.769	4744
895.891	4759
896.012	4812
896.134	4733
896.255	4729
896.376	4706
896.498	4672
896.619	4725
896.74	4664
896.861	4729
896.982	4984
897.103	5147
897.224	4919
897.345	4843
897.466	4744
897.587	4809
897.708	4854
897.828	4847
897.949	4736
898.07	4641
898.19	4687
898.311	4930
898.431	4702
898.552	4786
898.672	4889
898.792	4850
898.913	4763
899.033	4645
899.153	4611
899.273	4474
899.393	4558
899.513	4565
899.633	4565
899.753	4599
899.873	4542
899.993	4660
900.113	4603
900.232	4664
900.352	4603
900.472	4504
900.591	4459
900.711	4542
900.83	4466
900.95	4672
901.069	4767
901.189	4558
901.308	4474
901.427	4352
901.546	4455
901.665	4527
901.784	4546
901.904	4386
902.023	4348
902.141	4249
902.26	4219
902.379	4333
902.498	4329
902.617	4299
902.735	4455
902.854	4447
902.973	4371
903.091	4249
903.21	4284
903.328	4306
903.446	4379
903.565	4322
903.683	4367
903.801	4363
903.919	4394
904.038	4504
904.156	4356
904.274	4478
904.392	4462
904.51	4493
904.627	4546
904.745	4596
904.863	4645
904.981	4428
905.098	4371
905.216	4497
905.334	4462
905.451	4478
905.569	4432
905.686	4626
905.803	4596
905.921	4470
906.038	4588
906.155	4577
906.272	4432
906.389	4504
906.506	4367
906.623	4470
906.74	4455
906.857	4417
906.974	4424
907.091	4592
907.208	4744
907.324	4664
907.441	4485
907.557	4375
907.674	4432
907.79	4432
907.907	4447
908.023	4527
908.139	4512
908.256	4508
908.372	4527
908.488	4523
908.604	4356
908.72	4394
908.836	4394
908.952	4390
909.068	4447
909.184	4603
909.3	4550
909.415	4664
909.531	4618
909.647	4413
909.762	4386
909.878	4424
909.993	4497
910.108	4478
910.224	4409
910.339	4497
910.454	4432
910.57	4386
910.685	4394
910.8	4679
910.915	4626
911.03	4573
911.145	4379
911.259	4409
911.374	4394
911.489	4356
911.604	4318
911.718	4188
911.833	4268
911.947	4082
912.062	4101
912.176	4242
912.291	4287
912.405	4265
912.519	4523
912.633	4546
912.748	4432
912.862	4402
912.976	4249
913.09	4192
913.204	4227
913.318	4344
913.431	4398
913.545	4398
913.659	4493
913.772	4394
913.886	4318
914	4272
914.113	4360
914.226	4481
914.34	4424
914.453	4325
914.566	4466
914.68	4337
914.793	4352
914.906	4196
915.019	4166
915.132	4082
915.245	4268
915.358	4276
915.47	4284
915.583	4295
915.696	4375
915.809	4481
915.921	4432
916.034	4310
916.146	4291
916.259	4287
916.371	4413
916.483	4409
916.595	4287
916.708	4417
916.82	4360
916.932	4390
917.044	4417
917.156	4417
917.268	4284
917.38	4352
917.491	4352
917.603	4386
917.715	4474
917.826	4466
917.938	4424
918.049	4299
918.161	4428
918.272	4573
918.384	4584
918.495	4493
918.606	4318
918.717	4284
918.828	4352
918.939	4443
919.05	4310
919.161	4341
919.272	4162
919.383	4310
919.494	4504
919.604	4687
919.715	4470
919.826	4428
919.936	4451
920.047	4596
920.157	4527
920.267	4786
920.378	4611
920.488	4577
920.598	4790
920.708	4938
920.818	4786
920.928	4854
921.038	4987
921.148	4980
921.258	4675
921.368	4611
921.477	4565
921.587	4523
921.697	4436
921.806	4577
921.916	4470
922.025	4295
922.134	4333
922.244	4242
922.353	4306
922.462	4230
922.571	4207
922.68	4067
922.789	4029
922.898	4063
923.007	4025
923.116	4166
923.224	4090
923.333	4101
923.442	4017
923.55	4059
923.659	4048
923.767	4090
923.876	4059
923.984	4166
924.092	4059
924.201	4131
924.309	4181
924.417	4143
924.525	4105
924.633	4101
924.741	4923
924.849	3968
924.956	4185
925.064	3998
925.172	3949
925.279	4002
925.387	4086
925.494	4116
925.602	4242
925.709	4200
925.816	4086
925.924	4143
926.031	4249
926.138	4200
926.245	4280
926.352	4158
926.459	4291
926.566	4375
926.673	4131
926.779	4135
926.886	4135
926.993	4071
927.099	3975
927.206	3972
927.312	4013
927.419	4071
927.525	4032
927.631	4131
927.737	3998
927.843	3953
927.95	3896
928.056	4006
928.162	4017
928.267	4120
928.373	4622
928.479	4128
928.585	3926
928.69	4082
928.796	4112
928.901	4021
929.007	3892
929.112	4055
929.218	4029
929.323	3956
929.428	3987
929.533	4124
929.638	3987
929.743	4013
929.848	4109
929.953	4093
930.058	3975
930.163	3819
930.267	3850
930.372	4029
930.477	3838
930.581	4150
930.685	3960
930.79	3846
930.894	3964
930.998	3846
931.103	4051
931.207	3770
931.311	3736
931.415	3682
931.519	3545
931.623	3652
