Data from test_V78500241_1649.txt Node
Date: Fri Mar 25 17:00:28 CST 2022
User: usil
Spectrometer: V785-0024
Trigger mode: 0
Integration Time (sec): 4.000000E-1
Scans to average: 1
Nonlinearity correction enabled: false
Boxcar width: 0
Storing dark spectrum: false
XAxis mode: Wavelengths
Number of Pixels in Spectrum: 1024
>>>>>Begin Spectral Data<<<<<
801.071	7970
801.214	7997
801.356	7784
801.499	7822
801.641	7807
801.783	7795
801.926	7883
802.068	7936
802.211	7989
802.353	8016
802.496	7830
802.638	7837
802.78	7898
802.923	7936
803.065	7890
803.208	7845
803.35	7967
803.492	8027
803.635	8134
803.777	8035
803.919	8187
804.061	8438
804.204	8157
804.346	8046
804.488	7890
804.63	8077
804.773	8031
804.915	8100
805.057	8313
805.199	8134
805.341	8187
805.483	8206
805.626	8225
805.768	8065
805.91	8199
806.052	8191
806.194	8096
806.336	8309
806.478	8115
806.62	8005
806.762	8134
806.904	8248
807.046	8465
807.188	8313
807.33	8259
807.472	8343
807.614	8103
807.756	8084
807.898	8031
808.04	7864
808.182	7883
808.324	7890
808.465	7833
808.607	8062
808.749	8119
808.891	8259
809.033	8259
809.174	8153
809.316	8096
809.458	8138
809.6	8001
809.741	8035
809.883	8012
810.025	8145
810.166	8039
810.308	8008
810.45	7913
810.591	7807
810.733	7750
810.875	7609
811.016	7487
811.158	7499
811.299	7639
811.441	7700
811.582	7689
811.724	7594
811.865	7552
812.007	7567
812.148	7521
812.29	7655
812.431	7765
812.573	7890
812.714	8039
812.855	8142
812.997	8161
813.138	8271
813.279	8157
813.421	8043
813.562	7928
813.703	7788
813.845	7727
813.986	7449
814.127	7285
814.268	7244
814.41	7164
814.551	7187
814.692	7217
814.833	7095
814.974	7141
815.115	7072
815.256	6897
815.397	6867
815.539	6897
815.68	6783
815.821	6806
815.962	6844
816.103	6798
816.244	6673
816.385	6635
816.526	6623
816.666	6498
816.807	6327
816.948	6403
817.089	6471
817.23	6403
817.371	6380
817.512	6380
817.653	6429
817.793	6357
817.934	6414
818.075	6456
818.216	6475
818.356	6369
818.497	6243
818.638	6117
818.778	6129
818.919	6152
819.06	6194
819.2	6285
819.341	6372
819.481	6319
819.622	6517
819.762	6715
819.903	6734
820.043	6494
820.184	6589
820.324	6597
820.465	6642
820.605	6726
820.746	6703
820.886	6559
821.026	6669
821.167	6681
821.307	6814
821.447	6806
821.588	6665
821.728	6559
821.868	6498
822.008	6308
822.149	6357
822.289	6323
822.429	6155
822.569	6045
822.709	6076
822.849	5942
822.99	5908
823.13	5901
823.27	5950
823.41	5756
823.55	5764
823.69	5745
823.83	5817
823.97	5699
824.11	5539
824.25	5471
824.389	5547
824.529	5547
824.669	5493
824.809	5630
824.949	5684
825.089	5619
825.228	5539
825.368	5337
825.508	5326
825.648	5303
825.787	5376
825.927	5387
826.067	5277
826.206	5254
826.346	5349
826.485	5364
826.625	5383
826.765	5577
826.904	5497
827.044	5254
827.183	5155
827.323	5098
827.462	5227
827.601	5124
827.741	5117
827.88	5212
828.02	5102
828.159	5254
828.298	5334
828.437	5322
828.577	5299
828.716	5490
828.855	5299
828.994	5151
829.134	5117
829.273	5212
829.412	5132
829.551	5136
829.69	5201
829.829	5269
829.968	5417
830.107	5250
830.246	5296
830.385	5212
830.524	5166
830.663	5014
830.802	5006
830.941	4938
831.08	4927
831.219	5041
831.357	4965
831.496	5197
831.635	4930
831.774	4873
831.913	4904
832.051	4778
832.19	4744
832.329	4881
832.467	4729
832.606	4630
832.744	4740
832.883	4706
833.022	4740
833.16	4809
833.299	4839
833.437	4801
833.576	4896
833.714	4881
833.852	4923
833.991	4949
834.129	4991
834.267	4949
834.406	4908
834.544	5018
834.682	5025
834.821	4953
834.959	5204
835.097	5056
835.235	5185
835.373	5086
835.511	5140
835.65	5056
835.788	5037
835.926	4930
836.064	4877
836.202	4911
836.34	5227
836.478	5277
836.615	5170
836.753	5258
836.891	5288
837.029	5273
837.167	5220
837.305	5197
837.443	5220
837.58	5136
837.718	5258
837.856	5292
837.993	5170
838.131	5307
838.269	5223
838.406	5235
838.544	5197
838.681	5056
838.819	5075
838.956	4896
839.094	4889
839.231	5006
839.369	5159
839.506	5474
839.643	5277
839.781	5098
839.918	5071
840.055	5140
840.193	5098
840.33	5132
840.467	5151
840.604	5239
840.742	5471
840.879	5090
841.016	5151
841.153	5170
841.29	5417
841.427	5391
841.564	5395
841.701	5379
841.838	5368
841.975	5277
842.112	5273
842.249	5143
842.385	5155
842.522	5337
842.659	5208
842.796	5185
842.933	5242
843.069	5223
843.206	5159
843.343	5330
843.479	5284
843.616	5261
843.752	5052
843.889	5025
844.025	5220
844.162	5071
844.298	5208
844.435	5151
844.571	5014
844.708	5235
844.844	5315
844.98	5349
845.117	5322
845.253	5155
845.389	5128
845.525	5143
845.661	5140
845.798	5109
845.934	5185
846.07	5060
846.206	5208
846.342	5296
846.478	5170
846.614	5071
846.75	4946
846.886	4965
847.022	5189
847.158	5033
847.294	5098
847.429	5048
847.565	5056
847.701	5345
847.837	4908
847.972	4889
848.108	4984
848.244	5003
848.379	4835
848.515	4801
848.65	4740
848.786	4801
848.921	4793
849.057	4908
849.192	4915
849.328	4892
849.463	4873
849.598	4824
849.734	4774
849.869	4755
850.004	4679
850.14	4675
850.275	4691
850.41	4580
850.545	4569
850.68	4630
850.815	4656
850.95	4672
851.085	4877
851.22	4793
851.355	4736
851.49	4649
851.625	4675
851.76	4687
851.895	4561
852.03	4573
852.165	4683
852.299	4744
852.434	4862
852.569	4752
852.703	4824
852.838	4889
852.973	4991
853.107	4934
853.242	4736
853.376	4710
853.511	4550
853.645	4653
853.78	4801
853.914	4706
854.048	4645
854.183	4694
854.317	4721
854.451	4858
854.585	4714
854.72	4675
854.854	4786
854.988	4656
855.122	4645
855.256	4561
855.39	4714
855.524	4812
855.658	4740
855.792	4698
855.926	4767
856.06	4782
856.194	4805
856.327	4706
856.461	4683
856.595	4656
856.729	4675
856.862	4733
856.996	4702
857.13	4748
857.263	4767
857.397	4793
857.53	4653
857.664	4748
857.797	4809
857.931	4782
858.064	4687
858.197	4782
858.331	4687
858.464	4630
858.597	4546
858.731	4660
858.864	4702
858.997	4649
859.13	4641
859.263	4706
859.396	4729
859.529	4653
859.662	4630
859.795	4550
859.928	4656
860.061	4790
860.194	4706
860.327	4622
860.46	4592
860.592	4717
860.725	4752
860.858	4755
860.99	4584
861.123	4554
861.256	4542
861.388	4596
861.521	5197
861.653	4466
861.786	4474
861.918	4481
862.05	4569
862.183	4577
862.315	4626
862.447	4668
862.58	4588
862.712	4481
862.844	4322
862.976	4489
863.108	4462
863.24	4820
863.372	4402
863.504	4500
863.636	4447
863.768	4500
863.9	4462
864.032	4344
864.164	4390
864.296	4481
864.428	4561
864.559	4592
864.691	4531
864.823	4554
864.954	4535
865.086	4554
865.217	4455
865.349	4424
865.48	4455
865.612	4504
865.743	4660
865.875	4455
866.006	4447
866.137	4508
866.269	4470
866.4	4508
866.531	4432
866.662	4481
866.793	4402
866.924	4409
867.055	4523
867.186	4500
867.317	4447
867.448	4402
867.579	4398
867.71	4394
867.841	4363
867.972	4493
868.103	4493
868.233	4421
868.364	4489
868.495	4512
868.625	4683
868.756	4786
868.886	4569
869.017	4660
869.147	4793
869.278	4793
869.408	4645
869.539	4626
869.669	4714
869.799	4653
869.929	4744
870.06	4744
870.19	4953
870.32	4976
870.45	4968
870.58	5060
870.71	5170
870.84	5086
870.97	4949
871.1	4919
871.23	5174
871.36	5124
871.489	5045
871.619	5079
871.749	5094
871.879	5174
872.008	5189
872.138	5067
872.267	4946
872.397	4942
872.526	4839
872.656	4752
872.785	4835
872.915	4946
873.044	5083
873.173	4946
873.303	4965
873.432	4949
873.561	4984
873.69	4904
873.819	4854
873.948	4892
874.077	4854
874.206	4763
874.335	4793
874.464	4942
874.593	5029
874.722	4961
874.851	5147
874.979	5075
875.108	5048
875.237	4923
875.365	4862
875.494	4908
875.623	4976
875.751	4900
875.88	4850
876.008	5018
876.136	5079
876.265	5185
876.393	5337
876.521	5246
876.65	5212
876.778	5189
876.906	5109
877.034	5071
877.162	5075
877.29	4987
877.418	5117
877.546	5071
877.674	5052
877.802	5056
877.93	5025
878.058	4930
878.185	4885
878.313	4999
878.441	4946
878.568	4839
878.696	4881
878.824	4995
878.951	4976
879.079	5128
879.206	5292
879.333	5098
879.461	5006
879.588	5010
879.715	5109
879.842	5258
879.97	5037
880.097	4801
880.224	4767
880.351	4771
880.478	4839
880.605	4847
880.732	4771
880.859	5086
880.986	4908
881.112	4927
881.239	4767
881.366	4710
881.493	4618
881.619	4611
881.746	4637
881.872	4611
881.999	4672
882.125	4679
882.252	4797
882.378	4858
882.505	5018
882.631	4790
882.757	4717
882.883	4774
883.01	4744
883.136	4675
883.262	4622
883.388	4592
883.514	4797
883.64	4900
883.766	4820
883.892	4729
884.018	4736
884.143	4877
884.269	5041
884.395	4698
884.52	4603
884.646	4687
884.772	4565
884.897	4554
885.023	4710
885.148	4805
885.274	4885
885.399	4816
885.524	4691
885.65	4664
885.775	4733
885.9	4721
886.025	4850
886.15	4801
886.275	4752
886.4	4672
886.525	4725
886.65	4698
886.775	4702
886.9	4949
887.025	5098
887.149	4797
887.274	4679
887.399	4561
887.523	4615
887.648	4558
887.773	4622
887.897	4771
888.021	4786
888.146	4679
888.27	4797
888.395	4915
888.519	4831
888.643	4820
888.767	4854
888.891	4698
889.015	4634
889.139	4679
889.263	4603
889.387	4774
889.511	4881
889.635	4755
889.759	4615
889.883	4664
890.006	4736
890.13	4873
890.254	4698
890.377	4706
890.501	4611
890.624	4523
890.748	4675
890.871	4470
890.995	4402
891.118	4409
891.241	4500
891.364	4554
891.488	4634
891.611	4470
891.734	4535
891.857	4603
891.98	4561
892.103	4645
892.226	4637
892.349	4489
892.471	4424
892.594	4531
892.717	4603
892.839	4588
892.962	4603
893.085	4664
893.207	4626
893.33	4516
893.452	4485
893.575	4698
893.697	4630
893.819	4797
893.941	4805
894.064	4698
894.186	4584
894.308	4584
894.43	4714
894.552	4831
894.674	4744
894.796	4546
894.918	4596
895.04	4607
895.161	4710
895.283	4675
895.405	4615
895.526	4611
895.648	4683
895.769	4675
895.891	4706
896.012	4755
896.134	4740
896.255	4672
896.376	4634
896.498	4664
896.619	4721
896.74	4683
896.861	4634
896.982	4915
897.103	5086
897.224	4839
897.345	4702
897.466	4672
897.587	4736
897.708	4858
897.828	4824
897.949	4721
898.07	4596
898.19	4653
898.311	4877
898.431	4710
898.552	4710
898.672	4809
898.792	4828
898.913	4725
899.033	4630
899.153	4527
899.273	4405
899.393	4489
899.513	4592
899.633	4523
899.753	4538
899.873	4538
899.993	4542
900.113	4558
900.232	4615
900.352	4603
900.472	4470
900.591	4413
900.711	4512
900.83	4462
900.95	4588
901.069	4694
901.189	4588
901.308	4379
901.427	4341
901.546	4375
901.665	4455
901.784	4504
901.904	4367
902.023	4322
902.141	4173
902.26	4154
902.379	4329
902.498	4246
902.617	4207
902.735	4383
902.854	4409
902.973	4360
903.091	4192
903.21	4280
903.328	4322
903.446	4291
903.565	4261
903.683	4314
903.801	4325
903.919	4405
904.038	4432
904.156	4306
904.274	4379
904.392	4379
904.51	4443
904.627	4512
904.745	4573
904.863	4660
904.981	4413
905.098	4352
905.216	4386
905.334	4405
905.451	4478
905.569	4428
905.686	4538
905.803	4527
905.921	4383
906.038	4535
906.155	4462
906.272	4405
906.389	4474
906.506	4375
906.623	4390
906.74	4363
906.857	4268
906.974	4398
907.091	4523
907.208	4649
907.324	4584
907.441	4554
907.557	4344
907.674	4341
907.79	4322
907.907	4344
908.023	4474
908.139	4466
908.256	4424
908.372	4481
908.488	4531
908.604	4337
908.72	4341
908.836	4341
908.952	4398
909.068	4394
909.184	4546
909.3	4531
909.415	4622
909.531	4558
909.647	4379
909.762	4356
909.878	4356
909.993	4440
910.108	4421
910.224	4405
910.339	4485
910.454	4424
910.57	4390
910.685	4322
910.8	4660
910.915	4660
911.03	4523
911.145	4287
911.259	4360
911.374	4383
911.489	4276
911.604	4287
911.718	4188
911.833	4204
911.947	4036
912.062	4059
912.176	4185
912.291	4257
912.405	4276
912.519	4462
912.633	4493
912.748	4379
912.862	4318
912.976	4200
913.09	4131
913.204	4162
913.318	4257
913.431	4375
913.545	4402
913.659	4432
913.772	4383
913.886	4238
914	4261
914.113	4363
914.226	4413
914.34	4379
914.453	4242
914.566	4386
914.68	4295
914.793	4363
914.906	4135
915.019	4158
915.132	4105
915.245	4185
915.358	4227
915.47	4265
915.583	4333
915.696	4261
915.809	4409
915.921	4424
916.034	4242
916.146	4215
916.259	4246
916.371	4405
916.483	4383
916.595	4238
916.708	4314
916.82	4318
916.932	4341
917.044	4341
917.156	4371
917.268	4253
917.38	4299
917.491	4249
917.603	4306
917.715	4405
917.826	4466
917.938	4303
918.049	4261
918.161	4409
918.272	4554
918.384	4519
918.495	4455
918.606	4318
918.717	4200
918.828	4363
918.939	4356
919.05	4246
919.161	4337
919.272	4166
919.383	4246
919.494	4443
919.604	4615
919.715	4394
919.826	4363
919.936	4424
920.047	4512
920.157	4432
920.267	4706
920.378	4584
920.488	4493
920.598	4714
920.708	4915
920.818	4740
920.928	4748
921.038	4953
921.148	4908
921.258	4618
921.368	4607
921.477	4531
921.587	4447
921.697	4398
921.806	4542
921.916	4462
922.025	4303
922.134	4299
922.244	4219
922.353	4325
922.462	4192
922.571	4086
922.68	4048
922.789	4032
922.898	4048
923.007	3991
923.116	4128
923.224	4074
923.333	4086
923.442	3994
923.55	3991
923.659	4036
923.767	4105
923.876	4017
923.984	4105
924.092	4002
924.201	4109
924.309	4120
924.417	4120
924.525	4067
924.633	4090
924.741	5022
924.849	3888
924.956	4158
925.064	3987
925.172	3896
925.279	3968
925.387	4093
925.494	4055
925.602	4200
925.709	4185
925.816	4013
925.924	4158
926.031	4196
926.138	4177
926.245	4181
926.352	4135
926.459	4272
926.566	4299
926.673	4166
926.779	4078
926.886	4036
926.993	3987
927.099	3975
927.206	3960
927.312	3911
927.419	4078
927.525	4082
927.631	4143
927.737	3994
927.843	3945
927.95	3831
928.056	3960
928.162	3964
928.267	4044
928.373	4542
928.479	4120
928.585	3896
928.69	4013
928.796	4029
928.901	4013
929.007	3846
929.112	3987
929.218	3998
929.323	3930
929.428	3949
929.533	4086
929.638	3903
929.743	3968
929.848	4013
929.953	3949
930.058	3922
930.163	3793
930.267	3827
930.372	3991
930.477	3804
930.581	4048
930.685	3953
930.79	3823
930.894	3892
930.998	3838
931.103	4063
931.207	3705
931.311	3679
931.415	3675
931.519	3549
931.623	3534
