Data from test_V78500241_1094.txt Node
Date: Fri Mar 25 16:56:36 CST 2022
User: usil
Spectrometer: V785-0024
Trigger mode: 0
Integration Time (sec): 4.000000E-1
Scans to average: 1
Nonlinearity correction enabled: false
Boxcar width: 0
Storing dark spectrum: false
XAxis mode: Wavelengths
Number of Pixels in Spectrum: 1024
>>>>>Begin Spectral Data<<<<<
801.071	8092
801.214	8016
801.356	7822
801.499	7795
801.641	7849
801.783	7860
801.926	7928
802.068	7940
802.211	7925
802.353	7989
802.496	7852
802.638	7883
802.78	7879
802.923	7917
803.065	7879
803.208	7894
803.35	7993
803.492	8084
803.635	8149
803.777	8073
803.919	8134
804.061	8454
804.204	8126
804.346	8081
804.488	7944
804.63	8161
804.773	8043
804.915	8126
805.057	8240
805.199	8176
805.341	8164
805.483	8290
805.626	8187
805.768	8149
805.91	8145
806.052	8195
806.194	8088
806.336	8282
806.478	8206
806.62	7967
806.762	8096
806.904	8290
807.046	8454
807.188	8275
807.33	8252
807.472	8309
807.614	8149
807.756	8100
807.898	7989
808.04	7928
808.182	7967
808.324	7814
808.465	7913
808.607	8031
808.749	8092
808.891	8252
809.033	8267
809.174	8176
809.316	8065
809.458	8008
809.6	7955
809.741	7982
809.883	8039
810.025	8024
810.166	8069
810.308	8069
810.45	8054
810.591	7871
810.733	7750
810.875	7624
811.016	7499
811.158	7464
811.299	7597
811.441	7772
811.582	7708
811.724	7601
811.865	7472
812.007	7601
812.148	7540
812.29	7609
812.431	7731
812.573	7883
812.714	7951
812.855	8065
812.997	8050
813.138	8381
813.279	8145
813.421	8100
813.562	7963
813.703	7799
813.845	7761
813.986	7453
814.127	7251
814.268	7168
814.41	7164
814.551	7164
814.692	7198
814.833	6970
814.974	7034
815.115	7084
815.256	6966
815.397	6928
815.539	6966
815.68	6852
815.821	6791
815.962	6901
816.103	6802
816.244	6730
816.385	6646
816.526	6604
816.666	6513
816.807	6350
816.948	6410
817.089	6506
817.23	6403
817.371	6346
817.512	6369
817.653	6391
817.793	6376
817.934	6513
818.075	6403
818.216	6429
818.356	6350
818.497	6220
818.638	6083
818.778	6125
818.919	6133
819.06	6114
819.2	6289
819.341	6327
819.481	6319
819.622	6494
819.762	6719
819.903	6707
820.043	6631
820.184	6646
820.324	6555
820.465	6715
820.605	6635
820.746	6681
820.886	6555
821.026	6631
821.167	6703
821.307	6711
821.447	6749
821.588	6612
821.728	6551
821.868	6429
822.008	6251
822.149	6365
822.289	6365
822.429	6148
822.569	6064
822.709	6117
822.849	5885
822.99	5946
823.13	5912
823.27	5912
823.41	5779
823.55	5745
823.69	5718
823.83	5729
823.97	5646
824.11	5463
824.25	5486
824.389	5535
824.529	5547
824.669	5543
824.809	5600
824.949	5627
825.089	5608
825.228	5562
825.368	5395
825.508	5364
825.648	5379
825.787	5357
825.927	5322
826.067	5299
826.206	5311
826.346	5387
826.485	5417
826.625	5379
826.765	5543
826.904	5455
827.044	5246
827.183	5151
827.323	5102
827.462	5261
827.601	5136
827.741	5155
827.88	5197
828.02	5109
828.159	5261
828.298	5273
828.437	5383
828.577	5277
828.716	5490
828.855	5254
828.994	5143
829.134	5098
829.273	5151
829.412	5113
829.551	5056
829.69	5185
829.829	5223
829.968	5315
830.107	5280
830.246	5250
830.385	5155
830.524	5094
830.663	5048
830.802	4949
830.941	4873
831.08	4885
831.219	5029
831.357	4961
831.496	5128
831.635	4908
831.774	4839
831.913	4866
832.051	4698
832.19	4687
832.329	4847
832.467	4649
832.606	4630
832.744	4702
832.883	4759
833.022	4687
833.16	4763
833.299	4812
833.437	4797
833.576	4873
833.714	4828
833.852	4850
833.991	4873
834.129	4957
834.267	4942
834.406	4927
834.544	4949
834.682	4934
834.821	4953
834.959	5151
835.097	5014
835.235	5185
835.373	5075
835.511	5109
835.65	5033
835.788	5022
835.926	4900
836.064	4854
836.202	4862
836.34	5178
836.478	5307
836.615	5121
836.753	5227
836.891	5261
837.029	5227
837.167	5197
837.305	5098
837.443	5121
837.58	5029
837.718	5261
837.856	5208
837.993	5113
838.131	5162
838.269	5201
838.406	5223
838.544	5181
838.681	4987
838.819	5022
838.956	4854
839.094	4877
839.231	4999
839.369	5060
839.506	5436
839.643	5258
839.781	5086
839.918	5022
840.055	5075
840.193	5079
840.33	5124
840.467	5155
840.604	5151
840.742	5425
840.879	5079
841.016	5098
841.153	5094
841.29	5387
841.427	5330
841.564	5280
841.701	5334
841.838	5265
841.975	5273
842.112	5288
842.249	5136
842.385	5094
842.522	5315
842.659	5204
842.796	5147
842.933	5151
843.069	5212
843.206	5136
843.343	5296
843.479	5258
843.616	5223
843.752	5037
843.889	4980
844.025	5121
844.162	4991
844.298	5201
844.435	5048
844.571	5041
844.708	5166
844.844	5261
844.98	5326
845.117	5273
845.253	5166
845.389	5048
845.525	5075
845.661	5086
845.798	5037
845.934	5124
846.07	5025
846.206	5212
846.342	5269
846.478	5220
846.614	5014
846.75	4980
846.886	4900
847.022	5170
847.158	4980
847.294	4999
847.429	5105
847.565	5022
847.701	5254
847.837	4816
847.972	4767
848.108	4946
848.244	4923
848.379	4733
848.515	4729
848.65	4683
848.786	4691
848.921	4714
849.057	4835
849.192	4854
849.328	4805
849.463	4805
849.598	4748
849.734	4797
849.869	4672
850.004	4649
850.14	4637
850.275	4558
850.41	4508
850.545	4569
850.68	4607
850.815	4577
850.95	4599
851.085	4790
851.22	4752
851.355	4626
851.49	4626
851.625	4637
851.76	4660
851.895	4569
852.03	4478
852.165	4596
852.299	4717
852.434	4725
852.569	4744
852.703	4736
852.838	4816
852.973	4919
853.107	4927
853.242	4748
853.376	4683
853.511	4588
853.645	4668
853.78	4744
853.914	4664
854.048	4672
854.183	4592
854.317	4668
854.451	4847
854.585	4622
854.72	4596
854.854	4691
854.988	4641
855.122	4592
855.256	4489
855.39	4645
855.524	4752
855.658	4714
855.792	4660
855.926	4714
856.06	4748
856.194	4778
856.327	4706
856.461	4584
856.595	4622
856.729	4653
856.862	4755
856.996	4679
857.13	4725
857.263	4702
857.397	4744
857.53	4664
857.664	4714
857.797	4752
857.931	4786
858.064	4618
858.197	4729
858.331	4615
858.464	4599
858.597	4466
858.731	4637
858.864	4599
858.997	4565
859.13	4637
859.263	4664
859.396	4717
859.529	4565
859.662	4527
859.795	4622
859.928	4607
860.061	4736
860.194	4767
860.327	4611
860.46	4542
860.592	4672
860.725	4675
860.858	4683
860.99	4569
861.123	4516
861.256	4550
861.388	4596
861.521	5345
861.653	4478
861.786	4386
861.918	4459
862.05	4485
862.183	4500
862.315	4592
862.447	4679
862.58	4531
862.712	4413
862.844	4318
862.976	4455
863.108	4443
863.24	4717
863.372	4291
863.504	4402
863.636	4409
863.768	4462
863.9	4447
864.032	4348
864.164	4337
864.296	4466
864.428	4527
864.559	4535
864.691	4485
864.823	4516
864.954	4462
865.086	4516
865.217	4474
865.349	4356
865.48	4424
865.612	4485
865.743	4607
865.875	4459
866.006	4424
866.137	4462
866.269	4470
866.4	4371
866.531	4375
866.662	4375
866.793	4417
866.924	4424
867.055	4481
867.186	4363
867.317	4417
867.448	4344
867.579	4371
867.71	4379
867.841	4341
867.972	4466
868.103	4462
868.233	4428
868.364	4417
868.495	4447
868.625	4630
868.756	4767
868.886	4573
869.017	4565
869.147	4771
869.278	4740
869.408	4618
869.539	4653
869.669	4698
869.799	4679
869.929	4759
870.06	4687
870.19	4923
870.32	4908
870.45	4942
870.58	5075
870.71	5029
870.84	5041
870.97	4892
871.1	4953
871.23	5094
871.36	5090
871.489	4972
871.619	5052
871.749	5083
871.879	5121
872.008	5181
872.138	5079
872.267	4976
872.397	4843
872.526	4824
872.656	4694
872.785	4786
872.915	4961
873.044	5003
873.173	4923
873.303	4900
873.432	4953
873.561	4957
873.69	4881
873.819	4858
873.948	4953
874.077	4786
874.206	4744
874.335	4763
874.464	4942
874.593	5010
874.722	4934
874.851	5090
874.979	5037
875.108	5037
875.237	4885
875.365	4919
875.494	4896
875.623	4930
875.751	4774
875.88	4847
876.008	4980
876.136	4999
876.265	5212
876.393	5315
876.521	5235
876.65	5227
876.778	5121
876.906	5033
877.034	4972
877.162	5014
877.29	5003
877.418	5056
877.546	5041
877.674	5022
877.802	5025
877.93	5014
878.058	4900
878.185	4862
878.313	4927
878.441	4892
878.568	4793
878.696	4839
878.824	4896
878.951	4938
879.079	5143
879.206	5269
879.333	5090
879.461	4965
879.588	4946
879.715	5064
879.842	5136
879.97	4972
880.097	4805
880.224	4752
880.351	4771
880.478	4786
880.605	4805
880.732	4805
880.859	5045
880.986	4854
881.112	4847
881.239	4725
881.366	4599
881.493	4599
881.619	4580
881.746	4622
881.872	4634
881.999	4660
882.125	4672
882.252	4771
882.378	4767
882.505	4930
882.631	4790
882.757	4664
882.883	4691
883.01	4694
883.136	4691
883.262	4558
883.388	4599
883.514	4755
883.64	4870
883.766	4736
883.892	4622
884.018	4664
884.143	4877
884.269	4976
884.395	4664
884.52	4645
884.646	4641
884.772	4622
884.897	4580
885.023	4664
885.148	4733
885.274	4812
885.399	4835
885.524	4698
885.65	4702
885.775	4763
885.9	4717
886.025	4862
886.15	4759
886.275	4668
886.4	4611
886.525	4714
886.65	4714
886.775	4672
886.9	4953
887.025	5083
887.149	4824
887.274	4634
887.399	4584
887.523	4565
887.648	4607
887.773	4569
887.897	4782
888.021	4797
888.146	4660
888.27	4752
888.395	4870
888.519	4816
888.643	4771
888.767	4862
888.891	4717
889.015	4599
889.139	4729
889.263	4618
889.387	4767
889.511	4942
889.635	4790
889.759	4687
889.883	4683
890.006	4767
890.13	4862
890.254	4653
890.377	4733
890.501	4592
890.624	4546
890.748	4683
890.871	4588
890.995	4466
891.118	4417
891.241	4512
891.364	4561
891.488	4721
891.611	4569
891.734	4618
891.857	4653
891.98	4592
892.103	4733
892.226	4637
892.349	4508
892.471	4470
892.594	4573
892.717	4641
892.839	4596
892.962	4603
893.085	4733
893.207	4637
893.33	4538
893.452	4531
893.575	4656
893.697	4599
893.819	4763
893.941	4881
894.064	4763
894.186	4611
894.308	4565
894.43	4736
894.552	4843
894.674	4782
894.796	4599
894.918	4634
895.04	4622
895.161	4721
895.283	4641
895.405	4580
895.526	4698
895.648	4733
895.769	4702
895.891	4710
896.012	4755
896.134	4748
896.255	4687
896.376	4668
896.498	4611
896.619	4698
896.74	4599
896.861	4649
896.982	4957
897.103	5105
897.224	4881
897.345	4782
897.466	4687
897.587	4786
897.708	4919
897.828	4771
897.949	4717
898.07	4618
898.19	4679
898.311	4835
898.431	4698
898.552	4767
898.672	4839
898.792	4820
898.913	4748
899.033	4641
899.153	4554
899.273	4436
899.393	4466
899.513	4527
899.633	4508
899.753	4493
899.873	4504
899.993	4592
900.113	4569
900.232	4637
900.352	4550
900.472	4531
900.591	4432
900.711	4474
900.83	4489
900.95	4618
901.069	4721
901.189	4607
901.308	4394
901.427	4337
901.546	4402
901.665	4500
901.784	4504
901.904	4398
902.023	4310
902.141	4223
902.26	4207
902.379	4333
902.498	4318
902.617	4204
902.735	4398
902.854	4424
902.973	4405
903.091	4265
903.21	4242
903.328	4325
903.446	4265
903.565	4303
903.683	4375
903.801	4360
903.919	4421
904.038	4436
904.156	4417
904.274	4447
904.392	4421
904.51	4462
904.627	4504
904.745	4584
904.863	4634
904.981	4413
905.098	4356
905.216	4348
905.334	4424
905.451	4485
905.569	4474
905.686	4569
905.803	4611
905.921	4417
906.038	4603
906.155	4485
906.272	4417
906.389	4451
906.506	4383
906.623	4390
906.74	4436
906.857	4337
906.974	4432
907.091	4603
907.208	4679
907.324	4626
907.441	4527
907.557	4367
907.674	4386
907.79	4352
907.907	4409
908.023	4504
908.139	4466
908.256	4485
908.372	4443
908.488	4466
908.604	4409
908.72	4367
908.836	4447
908.952	4371
909.068	4516
909.184	4569
909.3	4485
909.415	4558
909.531	4577
909.647	4348
909.762	4409
909.878	4371
909.993	4466
910.108	4451
910.224	4455
910.339	4478
910.454	4402
910.57	4386
910.685	4303
910.8	4653
910.915	4637
911.03	4474
911.145	4314
911.259	4405
911.374	4356
911.489	4291
911.604	4333
911.718	4230
911.833	4207
911.947	4051
912.062	4059
912.176	4207
912.291	4261
912.405	4268
912.519	4519
912.633	4561
912.748	4386
912.862	4356
912.976	4238
913.09	4090
913.204	4200
913.318	4265
913.431	4390
913.545	4421
913.659	4443
913.772	4386
913.886	4318
914	4223
914.113	4390
914.226	4459
914.34	4417
914.453	4238
914.566	4466
914.68	4299
914.793	4337
914.906	4169
915.019	4131
915.132	4116
915.245	4188
915.358	4234
915.47	4238
915.583	4291
915.696	4306
915.809	4432
915.921	4447
916.034	4276
916.146	4280
916.259	4238
916.371	4440
916.483	4375
916.595	4329
916.708	4318
916.82	4337
916.932	4352
917.044	4325
917.156	4310
917.268	4287
917.38	4318
917.491	4310
917.603	4310
917.715	4432
917.826	4466
917.938	4409
918.049	4253
918.161	4436
918.272	4584
918.384	4519
918.495	4470
918.606	4333
918.717	4246
918.828	4348
918.939	4383
919.05	4261
919.161	4360
919.272	4166
919.383	4265
919.494	4504
919.604	4649
919.715	4432
919.826	4344
919.936	4428
920.047	4516
920.157	4508
920.267	4702
920.378	4588
920.488	4527
920.598	4729
920.708	4915
920.818	4763
920.928	4797
921.038	4953
921.148	4896
921.258	4599
921.368	4592
921.477	4485
921.587	4493
921.697	4405
921.806	4554
921.916	4440
922.025	4306
922.134	4246
922.244	4215
922.353	4310
922.462	4230
922.571	4097
922.68	4032
922.789	4006
922.898	4067
923.007	4051
923.116	4120
923.224	4044
923.333	4097
923.442	3998
923.55	4017
923.659	4063
923.767	4101
923.876	4082
923.984	4090
924.092	3998
924.201	4078
924.309	4112
924.417	4139
924.525	4059
924.633	4105
924.741	5079
924.849	3941
924.956	4112
925.064	3968
925.172	3937
925.279	4036
925.387	4071
925.494	4040
925.602	4207
925.709	4234
925.816	3975
925.924	4169
926.031	4234
926.138	4223
926.245	4215
926.352	4147
926.459	4287
926.566	4276
926.673	4154
926.779	4048
926.886	4124
926.993	4006
927.099	4002
927.206	3991
927.312	3953
927.419	4086
927.525	4040
927.631	4143
927.737	3945
927.843	3937
927.95	3816
928.056	3960
928.162	3979
928.267	4078
928.373	4687
928.479	4147
928.585	3857
928.69	4036
928.796	4055
928.901	3979
929.007	3846
929.112	3994
929.218	4021
929.323	3949
929.428	3987
929.533	4139
929.638	3922
929.743	3987
929.848	4097
929.953	4010
930.058	3934
930.163	3797
930.267	3846
930.372	3991
930.477	3880
930.581	4109
930.685	3972
930.79	3827
930.894	3911
930.998	3819
931.103	4059
931.207	3701
931.311	3751
931.415	3675
931.519	3553
931.623	3564
