Data from test_V78500241_798.txt Node
Date: Fri Mar 25 16:54:33 CST 2022
User: usil
Spectrometer: V785-0024
Trigger mode: 0
Integration Time (sec): 4.000000E-1
Scans to average: 1
Nonlinearity correction enabled: false
Boxcar width: 0
Storing dark spectrum: false
XAxis mode: Wavelengths
Number of Pixels in Spectrum: 1024
>>>>>Begin Spectral Data<<<<<
801.071	8001
801.214	7989
801.356	7906
801.499	7868
801.641	7822
801.783	7883
801.926	7986
802.068	7871
802.211	7913
802.353	7947
802.496	7856
802.638	7822
802.78	7887
802.923	7909
803.065	7864
803.208	7868
803.35	8020
803.492	8084
803.635	8161
803.777	8012
803.919	8073
804.061	8347
804.204	8180
804.346	8031
804.488	7925
804.63	8157
804.773	7963
804.915	8084
805.057	8290
805.199	8126
805.341	8206
805.483	8294
805.626	8275
805.768	8138
805.91	8183
806.052	8183
806.194	8035
806.336	8237
806.478	8084
806.62	8149
806.762	8107
806.904	8206
807.046	8457
807.188	8351
807.33	8301
807.472	8305
807.614	8153
807.756	8100
807.898	7959
808.04	7906
808.182	7902
808.324	7830
808.465	7875
808.607	8031
808.749	8027
808.891	8214
809.033	8237
809.174	8183
809.316	8081
809.458	8065
809.6	7970
809.741	8020
809.883	8005
810.025	8073
810.166	8126
810.308	7959
810.45	8016
810.591	7887
810.733	7731
810.875	7693
811.016	7548
811.158	7460
811.299	7571
811.441	7685
811.582	7658
811.724	7514
811.865	7506
812.007	7548
812.148	7533
812.29	7597
812.431	7674
812.573	7799
812.714	7925
812.855	8100
812.997	8206
813.138	8263
813.279	8092
813.421	8054
813.562	7909
813.703	7799
813.845	7757
813.986	7381
814.127	7266
814.268	7297
814.41	7209
814.551	7080
814.692	7076
814.833	7046
814.974	7031
815.115	7042
815.256	6924
815.397	6928
815.539	6951
815.68	6798
815.821	6783
815.962	6821
816.103	6829
816.244	6707
816.385	6570
816.526	6639
816.666	6547
816.807	6273
816.948	6441
817.089	6437
817.23	6426
817.371	6448
817.512	6380
817.653	6376
817.793	6372
817.934	6391
818.075	6426
818.216	6342
818.356	6327
818.497	6254
818.638	6072
818.778	6144
818.919	6178
819.06	6144
819.2	6300
819.341	6342
819.481	6338
819.622	6555
819.762	6715
819.903	6703
820.043	6555
820.184	6566
820.324	6563
820.465	6642
820.605	6642
820.746	6608
820.886	6498
821.026	6692
821.167	6658
821.307	6711
821.447	6776
821.588	6665
821.728	6570
821.868	6490
822.008	6331
822.149	6422
822.289	6422
822.429	6178
822.569	6087
822.709	6083
822.849	5939
822.99	5920
823.13	5923
823.27	5920
823.41	5794
823.55	5726
823.69	5741
823.83	5802
823.97	5600
824.11	5535
824.25	5516
824.389	5566
824.529	5581
824.669	5497
824.809	5638
824.949	5638
825.089	5611
825.228	5509
825.368	5353
825.508	5368
825.648	5349
825.787	5368
825.927	5330
826.067	5277
826.206	5277
826.346	5398
826.485	5402
826.625	5357
826.765	5539
826.904	5482
827.044	5239
827.183	5204
827.323	5067
827.462	5201
827.601	5174
827.741	5170
827.88	5242
828.02	5041
828.159	5201
828.298	5288
828.437	5261
828.577	5254
828.716	5455
828.855	5299
828.994	5174
829.134	5197
829.273	5208
829.412	5128
829.551	5041
829.69	5181
829.829	5212
829.968	5337
830.107	5261
830.246	5223
830.385	5170
830.524	5140
830.663	5033
830.802	4961
830.941	4847
831.08	4854
831.219	4999
831.357	4976
831.496	5113
831.635	4919
831.774	4858
831.913	4816
832.051	4729
832.19	4714
832.329	4824
832.467	4694
832.606	4535
832.744	4706
832.883	4645
833.022	4706
833.16	4771
833.299	4786
833.437	4801
833.576	4828
833.714	4831
833.852	4835
833.991	4892
834.129	4919
834.267	4957
834.406	4919
834.544	4984
834.682	4980
834.821	4957
834.959	5178
835.097	4991
835.235	5121
835.373	5079
835.511	5128
835.65	5022
835.788	5041
835.926	4900
836.064	4873
836.202	4854
836.34	5147
836.478	5246
836.615	5143
836.753	5223
836.891	5284
837.029	5220
837.167	5185
837.305	5098
837.443	5117
837.58	5098
837.718	5246
837.856	5151
837.993	5083
838.131	5185
838.269	5193
838.406	5132
838.544	5155
838.681	5033
838.819	5022
838.956	4877
839.094	4911
839.231	5003
839.369	5071
839.506	5444
839.643	5292
839.781	5022
839.918	5025
840.055	5109
840.193	5071
840.33	5098
840.467	5045
840.604	5212
840.742	5444
840.879	5064
841.016	5071
841.153	5132
841.29	5391
841.427	5360
841.564	5326
841.701	5318
841.838	5261
841.975	5185
842.112	5269
842.249	5162
842.385	5094
842.522	5334
842.659	5094
842.796	5109
842.933	5189
843.069	5136
843.206	5117
843.343	5334
843.479	5174
843.616	5212
843.752	4972
843.889	5010
844.025	5181
844.162	5060
844.298	5250
844.435	5067
844.571	5003
844.708	5147
844.844	5254
844.98	5345
845.117	5246
845.253	5117
845.389	5041
845.525	5147
845.661	5113
845.798	5045
845.934	5079
846.07	5056
846.206	5140
846.342	5288
846.478	5189
846.614	5025
846.75	4965
846.886	4870
847.022	5143
847.158	5041
847.294	5064
847.429	5056
847.565	5075
847.701	5318
847.837	4790
847.972	4824
848.108	4953
848.244	4885
848.379	4778
848.515	4702
848.65	4675
848.786	4725
848.921	4786
849.057	4839
849.192	4889
849.328	4877
849.463	4847
849.598	4767
849.734	4752
849.869	4668
850.004	4592
850.14	4672
850.275	4546
850.41	4516
850.545	4550
850.68	4607
850.815	4622
850.95	4630
851.085	4790
851.22	4694
851.355	4698
851.49	4637
851.625	4649
851.76	4641
851.895	4550
852.03	4512
852.165	4618
852.299	4683
852.434	4805
852.569	4710
852.703	4698
852.838	4809
852.973	4889
853.107	4843
853.242	4714
853.376	4683
853.511	4558
853.645	4618
853.78	4797
853.914	4630
854.048	4664
854.183	4634
854.317	4660
854.451	4778
854.585	4630
854.72	4618
854.854	4752
854.988	4637
855.122	4611
855.256	4523
855.39	4668
855.524	4717
855.658	4710
855.792	4634
855.926	4706
856.06	4767
856.194	4790
856.327	4691
856.461	4588
856.595	4580
856.729	4618
856.862	4710
856.996	4668
857.13	4717
857.263	4778
857.397	4812
857.53	4675
857.664	4721
857.797	4687
857.931	4759
858.064	4634
858.197	4717
858.331	4637
858.464	4618
858.597	4500
858.731	4630
858.864	4660
858.997	4584
859.13	4630
859.263	4653
859.396	4672
859.529	4550
859.662	4618
859.795	4519
859.928	4634
860.061	4755
860.194	4767
860.327	4573
860.46	4565
860.592	4702
860.725	4675
860.858	4687
860.99	4603
861.123	4504
861.256	4527
861.388	4611
861.521	5250
861.653	4466
861.786	4466
861.918	4394
862.05	4500
862.183	4538
862.315	4588
862.447	4694
862.58	4542
862.712	4405
862.844	4295
862.976	4470
863.108	4424
863.24	4858
863.372	4348
863.504	4421
863.636	4379
863.768	4478
863.9	4459
864.032	4367
864.164	4440
864.296	4451
864.428	4500
864.559	4516
864.691	4531
864.823	4478
864.954	4428
865.086	4451
865.217	4470
865.349	4440
865.48	4409
865.612	4447
865.743	4630
865.875	4413
866.006	4428
866.137	4455
866.269	4421
866.4	4417
866.531	4466
866.662	4386
866.793	4383
866.924	4424
867.055	4497
867.186	4451
867.317	4398
867.448	4383
867.579	4390
867.71	4352
867.841	4295
867.972	4443
868.103	4470
868.233	4470
868.364	4421
868.495	4440
868.625	4702
868.756	4774
868.886	4569
869.017	4588
869.147	4710
869.278	4740
869.408	4660
869.539	4584
869.669	4714
869.799	4672
869.929	4744
870.06	4706
870.19	4953
870.32	4866
870.45	4862
870.58	5048
870.71	5064
870.84	5067
870.97	4892
871.1	4885
871.23	5109
871.36	5140
871.489	4972
871.619	5105
871.749	5105
871.879	5124
872.008	5162
872.138	5075
872.267	4911
872.397	4816
872.526	4801
872.656	4778
872.785	4736
872.915	4923
873.044	4995
873.173	4896
873.303	4938
873.432	4927
873.561	4927
873.69	4854
873.819	4885
873.948	4900
874.077	4805
874.206	4752
874.335	4778
874.464	4889
874.593	5052
874.722	4904
874.851	5071
874.979	5060
875.108	5060
875.237	4911
875.365	4858
875.494	4862
875.623	4953
875.751	4820
875.88	4850
876.008	4946
876.136	5067
876.265	5181
876.393	5307
876.521	5193
876.65	5193
876.778	5113
876.906	5075
877.034	4976
877.162	5018
877.29	5029
877.418	4980
877.546	5010
877.674	5048
877.802	4972
877.93	5003
878.058	4892
878.185	4881
878.313	4908
878.441	4930
878.568	4736
878.696	4820
878.824	4911
878.951	4972
879.079	5128
879.206	5341
879.333	5102
879.461	4987
879.588	4957
879.715	5128
879.842	5201
879.97	5025
880.097	4828
880.224	4767
880.351	4778
880.478	4820
880.605	4778
880.732	4809
880.859	5113
880.986	4877
881.112	4930
881.239	4797
881.366	4683
881.493	4668
881.619	4596
881.746	4687
881.872	4660
881.999	4588
882.125	4687
882.252	4816
882.378	4843
882.505	4972
882.631	4824
882.757	4687
882.883	4755
883.01	4717
883.136	4694
883.262	4603
883.388	4637
883.514	4824
883.64	4892
883.766	4820
883.892	4683
884.018	4763
884.143	4900
884.269	5037
884.395	4694
884.52	4653
884.646	4668
884.772	4615
884.897	4607
885.023	4664
885.148	4816
885.274	4866
885.399	4824
885.524	4774
885.65	4740
885.775	4812
885.9	4740
886.025	4900
886.15	4847
886.275	4774
886.4	4729
886.525	4755
886.65	4733
886.775	4736
886.9	4946
887.025	5098
887.149	4885
887.274	4710
887.399	4618
887.523	4588
887.648	4630
887.773	4607
887.897	4797
888.021	4835
888.146	4767
888.27	4870
888.395	4866
888.519	4877
888.643	4835
888.767	4847
888.891	4740
889.015	4584
889.139	4710
889.263	4634
889.387	4786
889.511	4896
889.635	4828
889.759	4702
889.883	4683
890.006	4729
890.13	4870
890.254	4656
890.377	4744
890.501	4596
890.624	4573
890.748	4675
890.871	4558
890.995	4519
891.118	4481
891.241	4516
891.364	4592
891.488	4687
891.611	4535
891.734	4558
891.857	4637
891.98	4592
892.103	4679
892.226	4599
892.349	4554
892.471	4455
892.594	4565
892.717	4618
892.839	4592
892.962	4622
893.085	4645
893.207	4664
893.33	4470
893.452	4565
893.575	4675
893.697	4611
893.819	4831
893.941	4866
894.064	4782
894.186	4641
894.308	4607
894.43	4767
894.552	4850
894.674	4782
894.796	4561
894.918	4599
895.04	4584
895.161	4774
895.283	4634
895.405	4615
895.526	4641
895.648	4698
895.769	4717
895.891	4748
896.012	4755
896.134	4759
896.255	4744
896.376	4660
896.498	4649
896.619	4630
896.74	4615
896.861	4641
896.982	4930
897.103	5113
897.224	4824
897.345	4755
897.466	4691
897.587	4793
897.708	4889
897.828	4778
897.949	4683
898.07	4584
898.19	4656
898.311	4835
898.431	4702
898.552	4782
898.672	4854
898.792	4820
898.913	4790
899.033	4653
899.153	4535
899.273	4481
899.393	4535
899.513	4558
899.633	4542
899.753	4531
899.873	4542
899.993	4577
900.113	4622
900.232	4584
900.352	4561
900.472	4504
900.591	4470
900.711	4523
900.83	4485
900.95	4656
901.069	4687
901.189	4580
901.308	4379
901.427	4383
901.546	4402
901.665	4474
901.784	4535
901.904	4383
902.023	4379
902.141	4169
902.26	4177
902.379	4356
902.498	4295
902.617	4242
902.735	4428
902.854	4348
902.973	4405
903.091	4276
903.21	4291
903.328	4329
903.446	4291
903.565	4272
903.683	4405
903.801	4314
903.919	4462
904.038	4493
904.156	4314
904.274	4428
904.392	4409
904.51	4428
904.627	4485
904.745	4645
904.863	4653
904.981	4428
905.098	4352
905.216	4363
905.334	4455
905.451	4443
905.569	4459
905.686	4569
905.803	4558
905.921	4436
906.038	4584
906.155	4527
906.272	4409
906.389	4531
906.506	4360
906.623	4424
906.74	4440
906.857	4341
906.974	4390
907.091	4607
907.208	4717
907.324	4573
907.441	4538
907.557	4306
907.674	4348
907.79	4329
907.907	4402
908.023	4489
908.139	4508
908.256	4455
908.372	4470
908.488	4470
908.604	4363
908.72	4348
908.836	4436
908.952	4375
909.068	4466
909.184	4588
909.3	4516
909.415	4607
909.531	4599
909.647	4394
909.762	4390
909.878	4360
909.993	4451
910.108	4462
910.224	4428
910.339	4523
910.454	4447
910.57	4318
910.685	4341
910.8	4672
910.915	4641
911.03	4500
911.145	4341
911.259	4386
911.374	4428
911.489	4287
911.604	4310
911.718	4204
911.833	4196
911.947	4120
912.062	4036
912.176	4227
912.291	4284
912.405	4280
912.519	4474
912.633	4523
912.748	4398
912.862	4329
912.976	4234
913.09	4150
913.204	4207
913.318	4303
913.431	4383
913.545	4409
913.659	4443
913.772	4390
913.886	4322
914	4268
914.113	4356
914.226	4485
914.34	4405
914.453	4272
914.566	4424
914.68	4352
914.793	4386
914.906	4227
915.019	4143
915.132	4112
915.245	4204
915.358	4177
915.47	4322
915.583	4299
915.696	4341
915.809	4390
915.921	4481
916.034	4287
916.146	4299
916.259	4234
916.371	4440
916.483	4344
916.595	4261
916.708	4287
916.82	4344
916.932	4363
917.044	4356
917.156	4375
917.268	4246
917.38	4306
917.491	4306
917.603	4383
917.715	4424
917.826	4440
917.938	4363
918.049	4242
918.161	4409
918.272	4508
918.384	4554
918.495	4428
918.606	4314
918.717	4276
918.828	4394
918.939	4402
919.05	4295
919.161	4367
919.272	4143
919.383	4211
919.494	4485
919.604	4645
919.715	4451
919.826	4325
919.936	4386
920.047	4550
920.157	4512
920.267	4706
920.378	4573
920.488	4504
920.598	4710
920.708	4885
920.818	4824
920.928	4763
921.038	4995
921.148	4942
921.258	4630
921.368	4634
921.477	4527
921.587	4409
921.697	4375
921.806	4527
921.916	4459
922.025	4276
922.134	4261
922.244	4253
922.353	4329
922.462	4188
922.571	4150
922.68	4040
922.789	3983
922.898	4078
923.007	4013
923.116	4105
923.224	4082
923.333	4147
923.442	4032
923.55	4010
923.659	4071
923.767	4131
923.876	4067
923.984	4154
924.092	3991
924.201	4029
924.309	4086
924.417	4116
924.525	4086
924.633	4135
924.741	4896
924.849	3922
924.956	4162
925.064	3934
925.172	3937
925.279	3922
925.387	4078
925.494	4055
925.602	4223
925.709	4173
925.816	4059
925.924	4158
926.031	4276
926.138	4181
926.245	4238
926.352	4128
926.459	4295
926.566	4299
926.673	4173
926.779	4093
926.886	4067
926.993	3975
927.099	3983
927.206	3907
927.312	3975
927.419	4097
927.525	4044
927.631	4105
927.737	3987
927.843	3937
927.95	3869
928.056	3956
928.162	4017
928.267	4090
928.373	4668
928.479	4112
928.585	3888
928.69	4029
928.796	4101
928.901	3991
929.007	3869
929.112	4067
929.218	4013
929.323	3953
929.428	3964
929.533	4131
929.638	3892
929.743	4002
929.848	4071
929.953	4013
930.058	3930
930.163	3800
930.267	3831
930.372	3960
930.477	3804
930.581	4124
930.685	3945
930.79	3819
930.894	3903
930.998	3899
931.103	4040
931.207	3713
931.311	3686
931.415	3675
931.519	3561
931.623	3564
