Data from test_V78500241_2612.txt Node
Date: Fri Mar 25 17:07:09 CST 2022
User: usil
Spectrometer: V785-0024
Trigger mode: 0
Integration Time (sec): 4.000000E-1
Scans to average: 1
Nonlinearity correction enabled: false
Boxcar width: 0
Storing dark spectrum: false
XAxis mode: Wavelengths
Number of Pixels in Spectrum: 1024
>>>>>Begin Spectral Data<<<<<
801.071	8069
801.214	8012
801.356	7849
801.499	7852
801.641	7788
801.783	7849
801.926	7967
802.068	7978
802.211	8005
802.353	7982
802.496	7837
802.638	7871
802.78	7852
802.923	7928
803.065	7894
803.208	7909
803.35	7993
803.492	8111
803.635	8142
803.777	8012
803.919	8180
804.061	8415
804.204	8123
804.346	8088
804.488	7974
804.63	8054
804.773	8016
804.915	8142
805.057	8218
805.199	8142
805.341	8176
805.483	8275
805.626	8206
805.768	8111
805.91	8161
806.052	8206
806.194	8130
806.336	8324
806.478	8084
806.62	8035
806.762	8157
806.904	8271
807.046	8526
807.188	8377
807.33	8355
807.472	8294
807.614	8115
807.756	8096
807.898	8035
808.04	7849
808.182	7890
808.324	7921
808.465	7921
808.607	8119
808.749	8145
808.891	8183
809.033	8294
809.174	8176
809.316	8020
809.458	8008
809.6	7974
809.741	8001
809.883	7993
810.025	8039
810.166	8107
810.308	7970
810.45	8035
810.591	7898
810.733	7734
810.875	7575
811.016	7518
811.158	7502
811.299	7674
811.441	7704
811.582	7693
811.724	7636
811.865	7502
812.007	7590
812.148	7643
812.29	7636
812.431	7727
812.573	7894
812.714	7970
812.855	8111
812.997	8218
813.138	8305
813.279	8191
813.421	8012
813.562	7986
813.703	7788
813.845	7761
813.986	7483
814.127	7301
814.268	7198
814.41	7133
814.551	7152
814.692	7194
814.833	7095
814.974	7149
815.115	7126
815.256	6989
815.397	6901
815.539	6909
815.68	6791
815.821	6753
815.962	6806
816.103	6787
816.244	6715
816.385	6627
816.526	6623
816.666	6494
816.807	6323
816.948	6494
817.089	6483
817.23	6418
817.371	6391
817.512	6471
817.653	6418
817.793	6388
817.934	6433
818.075	6460
818.216	6376
818.356	6384
818.497	6285
818.638	6163
818.778	6140
818.919	6117
819.06	6182
819.2	6308
819.341	6357
819.481	6327
819.622	6536
819.762	6783
819.903	6795
820.043	6612
820.184	6616
820.324	6627
820.465	6760
820.605	6677
820.746	6711
820.886	6620
821.026	6665
821.167	6719
821.307	6818
821.447	6802
821.588	6620
821.728	6631
821.868	6494
822.008	6308
822.149	6399
822.289	6403
822.429	6110
822.569	6076
822.709	6201
822.849	5889
822.99	5977
823.13	5939
823.27	5977
823.41	5821
823.55	5828
823.69	5745
823.83	5794
823.97	5649
824.11	5524
824.25	5570
824.389	5589
824.529	5566
824.669	5532
824.809	5608
824.949	5665
825.089	5657
825.228	5581
825.368	5425
825.508	5307
825.648	5353
825.787	5417
825.927	5391
826.067	5330
826.206	5311
826.346	5357
826.485	5410
826.625	5379
826.765	5512
826.904	5452
827.044	5239
827.183	5197
827.323	5136
827.462	5277
827.601	5143
827.741	5204
827.88	5261
828.02	5105
828.159	5246
828.298	5326
828.437	5379
828.577	5296
828.716	5455
828.855	5372
828.994	5128
829.134	5181
829.273	5242
829.412	5174
829.551	5143
829.69	5117
829.829	5220
829.968	5311
830.107	5326
830.246	5284
830.385	5178
830.524	5117
830.663	5075
830.802	4968
830.941	4927
831.08	4870
831.219	4957
831.357	4946
831.496	5132
831.635	4911
831.774	4862
831.913	4812
832.051	4771
832.19	4694
832.329	4843
832.467	4721
832.606	4634
832.744	4714
832.883	4717
833.022	4717
833.16	4767
833.299	4816
833.437	4759
833.576	4835
833.714	4923
833.852	4885
833.991	4919
834.129	5018
834.267	4892
834.406	4904
834.544	4999
834.682	4953
834.821	4987
834.959	5181
835.097	5014
835.235	5159
835.373	5083
835.511	5079
835.65	5033
835.788	4999
835.926	4923
836.064	4881
836.202	4942
836.34	5143
836.478	5216
836.615	5113
836.753	5212
836.891	5330
837.029	5261
837.167	5204
837.305	5143
837.443	5151
837.58	5102
837.718	5254
837.856	5185
837.993	5128
838.131	5227
838.269	5174
838.406	5227
838.544	5201
838.681	5064
838.819	4987
838.956	4908
839.094	4889
839.231	4949
839.369	5064
839.506	5395
839.643	5242
839.781	5075
839.918	5010
840.055	5113
840.193	5037
840.33	5132
840.467	5147
840.604	5185
840.742	5417
840.879	5022
841.016	5113
841.153	5102
841.29	5337
841.427	5357
841.564	5395
841.701	5414
841.838	5292
841.975	5277
842.112	5227
842.249	5086
842.385	5098
842.522	5330
842.659	5151
842.796	5136
842.933	5174
843.069	5124
843.206	5155
843.343	5303
843.479	5239
843.616	5239
843.752	4984
843.889	4968
844.025	5204
844.162	5003
844.298	5201
844.435	5124
844.571	5025
844.708	5197
844.844	5326
844.98	5303
845.117	5326
845.253	5181
845.389	5067
845.525	5147
845.661	5136
845.798	4999
845.934	5174
846.07	5010
846.206	5216
846.342	5265
846.478	5136
846.614	5048
846.75	4949
846.886	4934
847.022	5075
847.158	4965
847.294	5086
847.429	5064
847.565	5048
847.701	5280
847.837	4854
847.972	4831
848.108	4957
848.244	4957
848.379	4755
848.515	4721
848.65	4733
848.786	4710
848.921	4801
849.057	4828
849.192	4896
849.328	4843
849.463	4828
849.598	4801
849.734	4793
849.869	4634
850.004	4649
850.14	4668
850.275	4592
850.41	4535
850.545	4596
850.68	4618
850.815	4607
850.95	4653
851.085	4816
851.22	4767
851.355	4691
851.49	4603
851.625	4641
851.76	4653
851.895	4561
852.03	4550
852.165	4618
852.299	4740
852.434	4778
852.569	4763
852.703	4790
852.838	4835
852.973	4953
853.107	4930
853.242	4740
853.376	4660
853.511	4561
853.645	4626
853.78	4809
853.914	4687
854.048	4672
854.183	4672
854.317	4721
854.451	4782
854.585	4679
854.72	4660
854.854	4698
854.988	4607
855.122	4618
855.256	4519
855.39	4649
855.524	4774
855.658	4710
855.792	4733
855.926	4725
856.06	4763
856.194	4790
856.327	4755
856.461	4588
856.595	4592
856.729	4634
856.862	4782
856.996	4683
857.13	4733
857.263	4725
857.397	4816
857.53	4668
857.664	4694
857.797	4740
857.931	4752
858.064	4691
858.197	4759
858.331	4615
858.464	4603
858.597	4527
858.731	4656
858.864	4664
858.997	4622
859.13	4660
859.263	4634
859.396	4714
859.529	4508
859.662	4500
859.795	4504
859.928	4664
860.061	4797
860.194	4778
860.327	4588
860.46	4588
860.592	4683
860.725	4687
860.858	4763
860.99	4535
861.123	4554
861.256	4558
861.388	4577
861.521	5452
861.653	4508
861.786	4478
861.918	4481
862.05	4508
862.183	4558
862.315	4607
862.447	4672
862.58	4561
862.712	4413
862.844	4303
862.976	4421
863.108	4451
863.24	4748
863.372	4299
863.504	4383
863.636	4432
863.768	4466
863.9	4428
864.032	4379
864.164	4402
864.296	4470
864.428	4531
864.559	4569
864.691	4580
864.823	4550
864.954	4519
865.086	4519
865.217	4474
865.349	4402
865.48	4451
865.612	4497
865.743	4637
865.875	4478
866.006	4409
866.137	4432
866.269	4417
866.4	4436
866.531	4459
866.662	4413
866.793	4402
866.924	4447
867.055	4497
867.186	4470
867.317	4443
867.448	4405
867.579	4398
867.71	4405
867.841	4375
867.972	4455
868.103	4455
868.233	4440
868.364	4504
868.495	4489
868.625	4668
868.756	4752
868.886	4550
869.017	4607
869.147	4793
869.278	4797
869.408	4706
869.539	4641
869.669	4733
869.799	4656
869.929	4820
870.06	4694
870.19	4968
870.32	4923
870.45	4934
870.58	5010
870.71	5090
870.84	5083
870.97	4927
871.1	4862
871.23	5166
871.36	5147
871.489	5064
871.619	5117
871.749	5071
871.879	5109
872.008	5185
872.138	5060
872.267	5006
872.397	4873
872.526	4790
872.656	4702
872.785	4793
872.915	4953
873.044	5029
873.173	4949
873.303	4923
873.432	4976
873.561	4995
873.69	4896
873.819	4877
873.948	4911
874.077	4805
874.206	4828
874.335	4767
874.464	4930
874.593	5079
874.722	4965
874.851	5121
874.979	5022
875.108	5006
875.237	4923
875.365	4900
875.494	4870
875.623	4991
875.751	4797
875.88	4927
876.008	4957
876.136	5045
876.265	5151
876.393	5307
876.521	5250
876.65	5185
876.778	5174
876.906	5025
877.034	4991
877.162	5052
877.29	5006
877.418	5056
877.546	5086
877.674	5041
877.802	5041
877.93	5003
878.058	4968
878.185	4824
878.313	4965
878.441	4953
878.568	4763
878.696	4873
878.824	4953
878.951	4987
879.079	5128
879.206	5349
879.333	5124
879.461	4965
879.588	5064
879.715	5094
879.842	5231
879.97	5018
880.097	4752
880.224	4755
880.351	4778
880.478	4767
880.605	4873
880.732	4797
880.859	5105
880.986	4923
881.112	4896
881.239	4790
881.366	4679
881.493	4596
881.619	4580
881.746	4645
881.872	4660
881.999	4626
882.125	4656
882.252	4759
882.378	4870
882.505	4930
882.631	4812
882.757	4679
882.883	4714
883.01	4702
883.136	4653
883.262	4615
883.388	4622
883.514	4854
883.64	4843
883.766	4797
883.892	4679
884.018	4729
884.143	4873
884.269	4976
884.395	4668
884.52	4630
884.646	4645
884.772	4569
884.897	4519
885.023	4618
885.148	4820
885.274	4862
885.399	4793
885.524	4694
885.65	4664
885.775	4759
885.9	4740
886.025	4809
886.15	4801
886.275	4675
886.4	4630
886.525	4725
886.65	4668
886.775	4721
886.9	4889
887.025	5006
887.149	4790
887.274	4645
887.399	4611
887.523	4558
887.648	4611
887.773	4611
887.897	4767
888.021	4801
888.146	4687
888.27	4828
888.395	4889
888.519	4786
888.643	4809
888.767	4805
888.891	4656
889.015	4611
889.139	4675
889.263	4599
889.387	4729
889.511	4854
889.635	4786
889.759	4660
889.883	4626
890.006	4782
890.13	4809
890.254	4599
890.377	4694
890.501	4531
890.624	4523
890.748	4626
890.871	4500
890.995	4428
891.118	4424
891.241	4516
891.364	4493
891.488	4630
891.611	4489
891.734	4531
891.857	4584
891.98	4538
892.103	4691
892.226	4569
892.349	4550
892.471	4413
892.594	4527
892.717	4584
892.839	4611
892.962	4615
893.085	4641
893.207	4603
893.33	4451
893.452	4550
893.575	4637
893.697	4580
893.819	4786
893.941	4778
894.064	4771
894.186	4603
894.308	4546
894.43	4706
894.552	4835
894.674	4759
894.796	4580
894.918	4523
895.04	4577
895.161	4706
895.283	4672
895.405	4596
895.526	4607
895.648	4698
895.769	4664
895.891	4698
896.012	4733
896.134	4710
896.255	4691
896.376	4622
896.498	4615
896.619	4653
896.74	4584
896.861	4626
896.982	4953
897.103	5029
897.224	4778
897.345	4729
897.466	4611
897.587	4786
897.708	4835
897.828	4767
897.949	4672
898.07	4523
898.19	4656
898.311	4793
898.431	4702
898.552	4733
898.672	4774
898.792	4782
898.913	4694
899.033	4630
899.153	4466
899.273	4383
899.393	4500
899.513	4470
899.633	4504
899.753	4535
899.873	4546
899.993	4580
900.113	4546
900.232	4630
900.352	4573
900.472	4466
900.591	4466
900.711	4462
900.83	4424
900.95	4596
901.069	4672
901.189	4554
901.308	4341
901.427	4295
901.546	4363
901.665	4402
901.784	4527
901.904	4386
902.023	4268
902.141	4215
902.26	4154
902.379	4257
902.498	4207
902.617	4188
902.735	4367
902.854	4405
902.973	4322
903.091	4166
903.21	4211
903.328	4318
903.446	4318
903.565	4223
903.683	4348
903.801	4257
903.919	4337
904.038	4443
904.156	4325
904.274	4459
904.392	4390
904.51	4421
904.627	4459
904.745	4611
904.863	4618
904.981	4390
905.098	4322
905.216	4322
905.334	4356
905.451	4421
905.569	4398
905.686	4542
905.803	4554
905.921	4386
906.038	4516
906.155	4455
906.272	4352
906.389	4474
906.506	4363
906.623	4394
906.74	4379
906.857	4276
906.974	4394
907.091	4508
907.208	4683
907.324	4538
907.441	4569
907.557	4367
907.674	4337
907.79	4322
907.907	4329
908.023	4478
908.139	4481
908.256	4478
908.372	4466
908.488	4481
908.604	4352
908.72	4375
908.836	4367
908.952	4390
909.068	4417
909.184	4527
909.3	4531
909.415	4626
909.531	4554
909.647	4390
909.762	4386
909.878	4375
909.993	4443
910.108	4432
910.224	4398
910.339	4523
910.454	4398
910.57	4413
910.685	4360
910.8	4710
910.915	4675
911.03	4481
911.145	4375
911.259	4356
911.374	4413
911.489	4280
911.604	4356
911.718	4219
911.833	4265
911.947	4116
912.062	4063
912.176	4242
912.291	4268
912.405	4337
912.519	4527
912.633	4542
912.748	4405
912.862	4329
912.976	4280
913.09	4131
913.204	4181
913.318	4314
913.431	4443
913.545	4379
913.659	4470
913.772	4409
913.886	4287
914	4318
914.113	4421
914.226	4474
914.34	4436
914.453	4268
914.566	4508
914.68	4356
914.793	4344
914.906	4211
915.019	4162
915.132	4097
915.245	4188
915.358	4261
915.47	4299
915.583	4318
915.696	4333
915.809	4417
915.921	4417
916.034	4295
916.146	4268
916.259	4261
916.371	4466
916.483	4405
916.595	4310
916.708	4371
916.82	4356
916.932	4329
917.044	4356
917.156	4394
917.268	4242
917.38	4341
917.491	4329
917.603	4383
917.715	4466
917.826	4462
917.938	4371
918.049	4303
918.161	4447
918.272	4580
918.384	4577
918.495	4459
918.606	4325
918.717	4261
918.828	4383
918.939	4421
919.05	4287
919.161	4318
919.272	4196
919.383	4299
919.494	4451
919.604	4660
919.715	4424
919.826	4367
919.936	4424
920.047	4584
920.157	4523
920.267	4706
920.378	4622
920.488	4546
920.598	4740
920.708	4965
920.818	4786
920.928	4763
921.038	5041
921.148	4995
921.258	4675
921.368	4599
921.477	4535
921.587	4516
921.697	4398
921.806	4561
921.916	4440
922.025	4291
922.134	4287
922.244	4230
922.353	4409
922.462	4200
922.571	4143
922.68	4036
922.789	4002
922.898	4071
923.007	4006
923.116	4105
923.224	4109
923.333	4116
923.442	4021
923.55	3998
923.659	4055
923.767	4090
923.876	4055
923.984	4204
924.092	4010
924.201	4093
924.309	4135
924.417	4105
924.525	4051
924.633	4112
924.741	5109
924.849	3956
924.956	4158
925.064	4002
925.172	3918
925.279	3983
925.387	4051
925.494	4071
925.602	4276
925.709	4223
925.816	4093
925.924	4181
926.031	4211
926.138	4173
926.245	4230
926.352	4097
926.459	4325
926.566	4356
926.673	4196
926.779	4101
926.886	4158
926.993	3979
927.099	3991
927.206	3964
927.312	3960
927.419	4090
927.525	4059
927.631	4112
927.737	3998
927.843	3983
927.95	3896
928.056	3968
928.162	4025
928.267	4135
928.373	4653
928.479	4150
928.585	3949
928.69	4048
928.796	4147
928.901	3949
929.007	3899
929.112	4017
929.218	4048
929.323	3968
929.428	3960
929.533	4154
929.638	3960
929.743	3991
929.848	4086
929.953	4025
930.058	3983
930.163	3793
930.267	3831
930.372	4029
930.477	3835
930.581	4135
930.685	4017
930.79	3880
930.894	3915
930.998	3880
931.103	4059
931.207	3720
931.311	3713
931.415	3728
931.519	3557
931.623	3557
