Data from test_V78500241_1910.txt Node
Date: Fri Mar 25 17:02:16 CST 2022
User: usil
Spectrometer: V785-0024
Trigger mode: 0
Integration Time (sec): 4.000000E-1
Scans to average: 1
Nonlinearity correction enabled: false
Boxcar width: 0
Storing dark spectrum: false
XAxis mode: Wavelengths
Number of Pixels in Spectrum: 1024
>>>>>Begin Spectral Data<<<<<
801.071	7940
801.214	7959
801.356	7803
801.499	7849
801.641	7845
801.783	7696
801.926	7970
802.068	7879
802.211	7883
802.353	7944
802.496	7792
802.638	7852
802.78	7902
802.923	7909
803.065	7852
803.208	7837
803.35	7871
803.492	8050
803.635	8168
803.777	7955
803.919	8024
804.061	8488
804.204	8187
804.346	8001
804.488	7967
804.63	8069
804.773	7997
804.915	8115
805.057	8214
805.199	8252
805.341	8206
805.483	8240
805.626	8248
805.768	8161
805.91	8183
806.052	8290
806.194	8138
806.336	8301
806.478	8073
806.62	8065
806.762	8123
806.904	8282
807.046	8419
807.188	8377
807.33	8324
807.472	8286
807.614	8202
807.756	8119
807.898	7955
808.04	7947
808.182	7978
808.324	7871
808.465	7909
808.607	8027
808.749	8142
808.891	8183
809.033	8332
809.174	8191
809.316	8096
809.458	8073
809.6	8024
809.741	8050
809.883	8012
810.025	8123
810.166	8043
810.308	7978
810.45	7974
810.591	7864
810.733	7685
810.875	7674
811.016	7537
811.158	7441
811.299	7552
811.441	7715
811.582	7715
811.724	7575
811.865	7502
812.007	7559
812.148	7582
812.29	7647
812.431	7719
812.573	7826
812.714	8027
812.855	8164
812.997	8199
813.138	8214
813.279	8176
813.421	8134
813.562	8039
813.703	7845
813.845	7746
813.986	7400
814.127	7232
814.268	7228
814.41	7190
814.551	7152
814.692	7282
814.833	7080
814.974	7084
815.115	7126
815.256	6977
815.397	6909
815.539	6901
815.68	6818
815.821	6791
815.962	6779
816.103	6829
816.244	6707
816.385	6608
816.526	6608
816.666	6483
816.807	6342
816.948	6448
817.089	6467
817.23	6380
817.371	6331
817.512	6361
817.653	6426
817.793	6365
817.934	6407
818.075	6429
818.216	6448
818.356	6388
818.497	6220
818.638	6136
818.778	6140
818.919	6129
819.06	6140
819.2	6342
819.341	6285
819.481	6331
819.622	6555
819.762	6696
819.903	6738
820.043	6578
820.184	6490
820.324	6570
820.465	6612
820.605	6631
820.746	6639
820.886	6467
821.026	6658
821.167	6715
821.307	6749
821.447	6703
821.588	6703
821.728	6574
821.868	6479
822.008	6270
822.149	6365
822.289	6346
822.429	6129
822.569	6076
822.709	6121
822.849	5923
822.99	5851
823.13	5908
823.27	5939
823.41	5775
823.55	5752
823.69	5817
823.83	5813
823.97	5649
824.11	5528
824.25	5493
824.389	5596
824.529	5573
824.669	5501
824.809	5615
824.949	5649
825.089	5615
825.228	5535
825.368	5448
825.508	5284
825.648	5372
825.787	5337
825.927	5406
826.067	5258
826.206	5258
826.346	5395
826.485	5387
826.625	5493
826.765	5520
826.904	5448
827.044	5258
827.183	5220
827.323	5071
827.462	5303
827.601	5155
827.741	5166
827.88	5231
828.02	5098
828.159	5197
828.298	5284
828.437	5330
828.577	5277
828.716	5482
828.855	5318
828.994	5136
829.134	5105
829.273	5178
829.412	5071
829.551	5140
829.69	5170
829.829	5258
829.968	5341
830.107	5277
830.246	5239
830.385	5216
830.524	5121
830.663	5105
830.802	4968
830.941	4858
831.08	4889
831.219	4965
831.357	4961
831.496	5132
831.635	4892
831.774	4835
831.913	4831
832.051	4687
832.19	4763
832.329	4839
832.467	4599
832.606	4653
832.744	4740
832.883	4729
833.022	4725
833.16	4812
833.299	4835
833.437	4858
833.576	4805
833.714	4847
833.852	4873
833.991	4862
834.129	4923
834.267	4892
834.406	4866
834.544	4968
834.682	4957
834.821	4995
834.959	5208
835.097	4984
835.235	5159
835.373	5060
835.511	5083
835.65	5022
835.788	4995
835.926	4877
836.064	4835
836.202	4942
836.34	5185
836.478	5201
836.615	5121
836.753	5193
836.891	5299
837.029	5250
837.167	5189
837.305	5220
837.443	5162
837.58	5041
837.718	5212
837.856	5147
837.993	5166
838.131	5181
838.269	5136
838.406	5208
838.544	5178
838.681	4980
838.819	4965
838.956	4862
839.094	4923
839.231	4995
839.369	5022
839.506	5410
839.643	5265
839.781	5090
839.918	5029
840.055	5064
840.193	5052
840.33	5090
840.467	5143
840.604	5143
840.742	5417
840.879	5090
841.016	5098
841.153	5128
841.29	5376
841.427	5296
841.564	5288
841.701	5337
841.838	5315
841.975	5273
842.112	5273
842.249	5193
842.385	5075
842.522	5277
842.659	5159
842.796	5181
842.933	5197
843.069	5136
843.206	5102
843.343	5311
843.479	5261
843.616	5273
843.752	5014
843.889	5025
844.025	5239
844.162	5094
844.298	5197
844.435	5014
844.571	5048
844.708	5189
844.844	5258
844.98	5307
845.117	5284
845.253	5109
845.389	5045
845.525	5132
845.661	5166
845.798	5037
845.934	5136
846.07	4999
846.206	5189
846.342	5277
846.478	5201
846.614	4991
846.75	5006
846.886	4984
847.022	5162
847.158	5018
847.294	5048
847.429	5098
847.565	5018
847.701	5284
847.837	4873
847.972	4755
848.108	4946
848.244	4908
848.379	4729
848.515	4714
848.65	4717
848.786	4729
848.921	4793
849.057	4900
849.192	4889
849.328	4805
849.463	4862
849.598	4744
849.734	4752
849.869	4683
850.004	4607
850.14	4694
850.275	4554
850.41	4519
850.545	4542
850.68	4531
850.815	4634
850.95	4637
851.085	4812
851.22	4744
851.355	4691
851.49	4615
851.625	4668
851.76	4603
851.895	4584
852.03	4538
852.165	4653
852.299	4694
852.434	4736
852.569	4691
852.703	4748
852.838	4858
852.973	4881
853.107	4850
853.242	4691
853.376	4630
853.511	4538
853.645	4649
853.78	4812
853.914	4634
854.048	4683
854.183	4653
854.317	4721
854.451	4839
854.585	4717
854.72	4588
854.854	4801
854.988	4577
855.122	4672
855.256	4500
855.39	4664
855.524	4763
855.658	4706
855.792	4645
855.926	4687
856.06	4710
856.194	4759
856.327	4691
856.461	4573
856.595	4599
856.729	4645
856.862	4782
856.996	4649
857.13	4717
857.263	4767
857.397	4805
857.53	4683
857.664	4717
857.797	4752
857.931	4793
858.064	4687
858.197	4729
858.331	4656
858.464	4596
858.597	4538
858.731	4615
858.864	4641
858.997	4615
859.13	4649
859.263	4634
859.396	4710
859.529	4558
859.662	4561
859.795	4599
859.928	4561
860.061	4717
860.194	4759
860.327	4561
860.46	4569
860.592	4672
860.725	4710
860.858	4752
860.99	4519
861.123	4573
861.256	4485
861.388	4634
861.521	5235
861.653	4489
861.786	4436
861.918	4489
862.05	4535
862.183	4584
862.315	4573
862.447	4660
862.58	4531
862.712	4421
862.844	4367
862.976	4481
863.108	4451
863.24	4710
863.372	4318
863.504	4466
863.636	4428
863.768	4485
863.9	4421
864.032	4329
864.164	4436
864.296	4519
864.428	4538
864.559	4573
864.691	4546
864.823	4538
864.954	4466
865.086	4500
865.217	4481
865.349	4424
865.48	4462
865.612	4470
865.743	4645
865.875	4478
866.006	4432
866.137	4466
866.269	4413
866.4	4417
866.531	4413
866.662	4398
866.793	4409
866.924	4421
867.055	4436
867.186	4466
867.317	4371
867.448	4356
867.579	4383
867.71	4417
867.841	4360
867.972	4432
868.103	4436
868.233	4440
868.364	4459
868.495	4462
868.625	4679
868.756	4748
868.886	4592
869.017	4580
869.147	4767
869.278	4733
869.408	4634
869.539	4645
869.669	4710
869.799	4649
869.929	4729
870.06	4740
870.19	4927
870.32	4870
870.45	4976
870.58	4953
870.71	5136
870.84	5067
870.97	4908
871.1	4889
871.23	5105
871.36	5105
871.489	5010
871.619	5117
871.749	5124
871.879	5098
872.008	5170
872.138	5071
872.267	4976
872.397	4835
872.526	4858
872.656	4736
872.785	4790
872.915	5006
873.044	5048
873.173	4934
873.303	4976
873.432	4957
873.561	4953
873.69	4805
873.819	4877
873.948	4911
874.077	4809
874.206	4744
874.335	4755
874.464	4961
874.593	5079
874.722	4968
874.851	5029
874.979	5094
875.108	5067
875.237	4900
875.365	4866
875.494	4843
875.623	4942
875.751	4831
875.88	4866
876.008	4987
876.136	4991
876.265	5189
876.393	5364
876.521	5250
876.65	5254
876.778	5117
876.906	5079
877.034	5048
877.162	5041
877.29	4999
877.418	5014
877.546	5033
877.674	5033
877.802	5033
877.93	5014
878.058	4938
878.185	4854
878.313	5003
878.441	4927
878.568	4793
878.696	4873
878.824	4942
878.951	5025
879.079	5201
879.206	5322
879.333	5136
879.461	4991
879.588	4987
879.715	5174
879.842	5246
879.97	4965
880.097	4755
880.224	4736
880.351	4843
880.478	4896
880.605	4782
880.732	4824
880.859	5060
880.986	4896
881.112	4915
881.239	4767
881.366	4698
881.493	4622
881.619	4558
881.746	4603
881.872	4618
881.999	4649
882.125	4675
882.252	4763
882.378	4816
882.505	4870
882.631	4824
882.757	4668
882.883	4706
883.01	4774
883.136	4672
883.262	4626
883.388	4599
883.514	4790
883.64	4824
883.766	4771
883.892	4660
884.018	4717
884.143	4858
884.269	5052
884.395	4668
884.52	4618
884.646	4626
884.772	4580
884.897	4519
885.023	4630
885.148	4759
885.274	4820
885.399	4812
885.524	4755
885.65	4748
885.775	4679
885.9	4694
886.025	4866
886.15	4740
886.275	4729
886.4	4637
886.525	4694
886.65	4675
886.775	4687
886.9	4881
887.025	5022
887.149	4812
887.274	4653
887.399	4580
887.523	4565
887.648	4554
887.773	4611
887.897	4755
888.021	4759
888.146	4656
888.27	4774
888.395	4850
888.519	4793
888.643	4797
888.767	4843
888.891	4634
889.015	4630
889.139	4653
889.263	4607
889.387	4771
889.511	4816
889.635	4786
889.759	4611
889.883	4691
890.006	4767
890.13	4797
890.254	4607
890.377	4694
890.501	4500
890.624	4527
890.748	4607
890.871	4504
890.995	4413
891.118	4398
891.241	4531
891.364	4535
891.488	4675
891.611	4516
891.734	4527
891.857	4550
891.98	4561
892.103	4653
892.226	4569
892.349	4519
892.471	4432
892.594	4569
892.717	4565
892.839	4535
892.962	4577
893.085	4637
893.207	4603
893.33	4451
893.452	4504
893.575	4664
893.697	4611
893.819	4809
893.941	4843
894.064	4774
894.186	4542
894.308	4569
894.43	4706
894.552	4809
894.674	4782
894.796	4577
894.918	4584
895.04	4554
895.161	4710
895.283	4641
895.405	4626
895.526	4588
895.648	4679
895.769	4733
895.891	4691
896.012	4767
896.134	4748
896.255	4679
896.376	4653
896.498	4649
896.619	4637
896.74	4596
896.861	4664
896.982	4911
897.103	5094
897.224	4831
897.345	4740
897.466	4675
897.587	4721
897.708	4854
897.828	4805
897.949	4634
898.07	4535
898.19	4668
898.311	4828
898.431	4615
898.552	4717
898.672	4790
898.792	4801
898.913	4691
899.033	4603
899.153	4508
899.273	4421
899.393	4500
899.513	4523
899.633	4519
899.753	4535
899.873	4474
899.993	4618
900.113	4538
900.232	4588
900.352	4519
900.472	4481
900.591	4390
900.711	4489
900.83	4462
900.95	4618
901.069	4653
901.189	4542
901.308	4333
901.427	4287
901.546	4394
901.665	4462
901.784	4493
901.904	4398
902.023	4329
902.141	4211
902.26	4166
902.379	4337
902.498	4253
902.617	4185
902.735	4386
902.854	4356
902.973	4371
903.091	4181
903.21	4215
903.328	4284
903.446	4291
903.565	4249
903.683	4333
903.801	4272
903.919	4371
904.038	4428
904.156	4306
904.274	4409
904.392	4398
904.51	4394
904.627	4421
904.745	4611
904.863	4653
904.981	4383
905.098	4295
905.216	4371
905.334	4443
905.451	4470
905.569	4459
905.686	4573
905.803	4558
905.921	4417
906.038	4493
906.155	4447
906.272	4360
906.389	4436
906.506	4348
906.623	4375
906.74	4428
906.857	4291
906.974	4390
907.091	4535
907.208	4687
907.324	4550
907.441	4481
907.557	4360
907.674	4306
907.79	4337
907.907	4421
908.023	4462
908.139	4493
908.256	4432
908.372	4462
908.488	4413
908.604	4341
908.72	4333
908.836	4371
908.952	4360
909.068	4413
909.184	4626
909.3	4462
909.415	4577
909.531	4538
909.647	4363
909.762	4367
909.878	4371
909.993	4428
910.108	4413
910.224	4424
910.339	4470
910.454	4333
910.57	4329
910.685	4295
910.8	4611
910.915	4565
911.03	4497
911.145	4329
911.259	4306
911.374	4371
911.489	4303
911.604	4238
911.718	4162
911.833	4185
911.947	4063
912.062	4002
912.176	4215
912.291	4234
912.405	4234
912.519	4455
912.633	4531
912.748	4379
912.862	4265
912.976	4185
913.09	4048
913.204	4181
913.318	4257
913.431	4352
913.545	4341
913.659	4398
913.772	4367
913.886	4249
914	4223
914.113	4348
914.226	4447
914.34	4398
914.453	4249
914.566	4428
914.68	4337
914.793	4322
914.906	4192
915.019	4124
915.132	4063
915.245	4207
915.358	4188
915.47	4242
915.583	4257
915.696	4310
915.809	4428
915.921	4386
916.034	4265
916.146	4280
916.259	4242
916.371	4421
916.483	4329
916.595	4246
916.708	4280
916.82	4322
916.932	4318
917.044	4318
917.156	4303
917.268	4204
917.38	4257
917.491	4238
917.603	4363
917.715	4409
917.826	4394
917.938	4360
918.049	4223
918.161	4466
918.272	4504
918.384	4561
918.495	4440
918.606	4242
918.717	4242
918.828	4310
918.939	4390
919.05	4261
919.161	4333
919.272	4116
919.383	4196
919.494	4489
919.604	4615
919.715	4424
919.826	4306
919.936	4398
920.047	4565
920.157	4440
920.267	4656
920.378	4550
920.488	4497
920.598	4710
920.708	4873
920.818	4725
920.928	4736
921.038	4919
921.148	4904
921.258	4599
921.368	4577
921.477	4508
921.587	4466
921.697	4363
921.806	4546
921.916	4424
922.025	4257
922.134	4280
922.244	4230
922.353	4360
922.462	4204
922.571	4105
922.68	3994
922.789	3964
922.898	4059
923.007	4002
923.116	4143
923.224	4055
923.333	4078
923.442	3964
923.55	3941
923.659	4017
923.767	4101
923.876	4002
923.984	4150
924.092	4021
924.201	4025
924.309	4086
924.417	4093
924.525	4055
924.633	4120
924.741	5006
924.849	3892
924.956	4147
925.064	3934
925.172	3899
925.279	3918
925.387	4025
925.494	4032
925.602	4200
925.709	4177
925.816	4006
925.924	4128
926.031	4223
926.138	4112
926.245	4204
926.352	4097
926.459	4246
926.566	4284
926.673	4169
926.779	4044
926.886	4036
926.993	3956
927.099	3907
927.206	3998
927.312	3937
927.419	4093
927.525	4025
927.631	4059
927.737	3983
927.843	3934
927.95	3869
928.056	3968
928.162	3983
928.267	4071
928.373	4584
928.479	4090
928.585	3915
928.69	4006
928.796	4059
928.901	3991
929.007	3850
929.112	3975
929.218	3972
929.323	3956
929.428	3888
929.533	4090
929.638	3956
929.743	3922
929.848	4029
929.953	3983
930.058	3945
930.163	3740
930.267	3793
930.372	3983
930.477	3816
930.581	4048
930.685	3979
930.79	3831
930.894	3857
930.998	3873
931.103	3998
931.207	3720
931.311	3656
931.415	3701
931.519	3549
931.623	3572
