Data from test_V78500241_927.txt Node
Date: Fri Mar 25 16:55:26 CST 2022
User: usil
Spectrometer: V785-0024
Trigger mode: 0
Integration Time (sec): 4.000000E-1
Scans to average: 1
Nonlinearity correction enabled: false
Boxcar width: 0
Storing dark spectrum: false
XAxis mode: Wavelengths
Number of Pixels in Spectrum: 1024
>>>>>Begin Spectral Data<<<<<
801.071	8062
801.214	8008
801.356	7887
801.499	7909
801.641	7803
801.783	7894
801.926	7978
802.068	7936
802.211	7967
802.353	7951
802.496	7898
802.638	7906
802.78	7875
802.923	7963
803.065	7947
803.208	7963
803.35	8043
803.492	8107
803.635	8168
803.777	8062
803.919	8195
804.061	8412
804.204	8168
804.346	8103
804.488	8020
804.63	8046
804.773	8069
804.915	8084
805.057	8271
805.199	8225
805.341	8233
805.483	8320
805.626	8164
805.768	8134
805.91	8317
806.052	8267
806.194	8092
806.336	8324
806.478	8092
806.62	8062
806.762	8107
806.904	8290
807.046	8495
807.188	8377
807.33	8324
807.472	8362
807.614	8221
807.756	8142
807.898	8008
808.04	7883
808.182	7940
808.324	7963
808.465	7974
808.607	8043
808.749	8043
808.891	8210
809.033	8328
809.174	8210
809.316	8100
809.458	8035
809.6	7974
809.741	8065
809.883	8088
810.025	8119
810.166	8073
810.308	8069
810.45	8031
810.591	7951
810.733	7769
810.875	7677
811.016	7567
811.158	7533
811.299	7647
811.441	7742
811.582	7689
811.724	7559
811.865	7616
812.007	7677
812.148	7605
812.29	7639
812.431	7734
812.573	7841
812.714	8031
812.855	8172
812.997	8237
813.138	8286
813.279	8187
813.421	8164
813.562	8050
813.703	7849
813.845	7788
813.986	7559
814.127	7285
814.268	7274
814.41	7187
814.551	7095
814.692	7156
814.833	7031
814.974	7213
815.115	7110
815.256	7031
815.397	7008
815.539	6932
815.68	6878
815.821	6795
815.962	6848
816.103	6867
816.244	6741
816.385	6681
816.526	6631
816.666	6544
816.807	6346
816.948	6441
817.089	6498
817.23	6475
817.371	6388
817.512	6429
817.653	6441
817.793	6384
817.934	6429
818.075	6467
818.216	6437
818.356	6410
818.497	6270
818.638	6083
818.778	6194
818.919	6148
819.06	6178
819.2	6281
819.341	6315
819.481	6433
819.622	6502
819.762	6776
819.903	6692
820.043	6662
820.184	6582
820.324	6582
820.465	6715
820.605	6753
820.746	6662
820.886	6570
821.026	6711
821.167	6688
821.307	6818
821.447	6760
821.588	6654
821.728	6623
821.868	6540
822.008	6342
822.149	6384
822.289	6395
822.429	6175
822.569	6117
822.709	6129
822.849	5920
822.99	5950
823.13	5969
823.27	5965
823.41	5767
823.55	5817
823.69	5764
823.83	5802
823.97	5672
824.11	5543
824.25	5547
824.389	5573
824.529	5581
824.669	5516
824.809	5592
824.949	5695
825.089	5608
825.228	5551
825.368	5387
825.508	5372
825.648	5349
825.787	5402
825.927	5387
826.067	5311
826.206	5337
826.346	5421
826.485	5433
826.625	5410
826.765	5551
826.904	5516
827.044	5246
827.183	5261
827.323	5105
827.462	5265
827.601	5227
827.741	5277
827.88	5220
828.02	5136
828.159	5269
828.298	5292
828.437	5448
828.577	5337
828.716	5516
828.855	5334
828.994	5242
829.134	5109
829.273	5174
829.412	5128
829.551	5185
829.69	5193
829.829	5261
829.968	5417
830.107	5299
830.246	5303
830.385	5162
830.524	5189
830.663	5086
830.802	5010
830.941	4900
831.08	4877
831.219	5010
831.357	4991
831.496	5174
831.635	4923
831.774	4881
831.913	4843
832.051	4759
832.19	4755
832.329	4850
832.467	4740
832.606	4675
832.744	4782
832.883	4774
833.022	4694
833.16	4828
833.299	4877
833.437	4831
833.576	4820
833.714	4858
833.852	4854
833.991	4919
834.129	4980
834.267	4991
834.406	4980
834.544	4999
834.682	4999
834.821	4976
834.959	5197
835.097	4972
835.235	5181
835.373	5090
835.511	5060
835.65	5010
835.788	5090
835.926	4911
836.064	4915
836.202	4938
836.34	5204
836.478	5258
836.615	5094
836.753	5296
836.891	5303
837.029	5254
837.167	5197
837.305	5147
837.443	5128
837.58	5090
837.718	5204
837.856	5220
837.993	5136
838.131	5193
838.269	5201
838.406	5216
838.544	5178
838.681	5048
838.819	4995
838.956	4892
839.094	4949
839.231	4980
839.369	5117
839.506	5448
839.643	5273
839.781	5010
839.918	5086
840.055	5071
840.193	5075
840.33	5075
840.467	5113
840.604	5227
840.742	5463
840.879	5105
841.016	5056
841.153	5181
841.29	5364
841.427	5357
841.564	5330
841.701	5337
841.838	5303
841.975	5250
842.112	5296
842.249	5140
842.385	5140
842.522	5296
842.659	5227
842.796	5136
842.933	5208
843.069	5140
843.206	5159
843.343	5288
843.479	5239
843.616	5269
843.752	5048
843.889	5025
844.025	5246
844.162	5025
844.298	5269
844.435	5136
844.571	5037
844.708	5220
844.844	5387
844.98	5284
845.117	5376
845.253	5166
845.389	5067
845.525	5155
845.661	5147
845.798	5025
845.934	5189
846.07	5064
846.206	5189
846.342	5311
846.478	5185
846.614	5048
846.75	4995
846.886	4927
847.022	5147
847.158	5025
847.294	5098
847.429	5121
847.565	5071
847.701	5372
847.837	4854
847.972	4812
848.108	4953
848.244	4961
848.379	4786
848.515	4733
848.65	4721
848.786	4774
848.921	4771
849.057	4904
849.192	4889
849.328	4809
849.463	4885
849.598	4755
849.734	4812
849.869	4664
850.004	4588
850.14	4687
850.275	4630
850.41	4542
850.545	4599
850.68	4596
850.815	4626
850.95	4626
851.085	4824
851.22	4752
851.355	4653
851.49	4641
851.625	4607
851.76	4645
851.895	4592
852.03	4546
852.165	4702
852.299	4729
852.434	4835
852.569	4733
852.703	4755
852.838	4847
852.973	4934
853.107	4927
853.242	4771
853.376	4664
853.511	4546
853.645	4527
853.78	4843
853.914	4725
854.048	4687
854.183	4653
854.317	4679
854.451	4850
854.585	4630
854.72	4649
854.854	4763
854.988	4630
855.122	4622
855.256	4542
855.39	4691
855.524	4797
855.658	4714
855.792	4679
855.926	4778
856.06	4774
856.194	4782
856.327	4702
856.461	4626
856.595	4637
856.729	4622
856.862	4767
856.996	4710
857.13	4744
857.263	4782
857.397	4820
857.53	4668
857.664	4744
857.797	4748
857.931	4801
858.064	4729
858.197	4755
858.331	4653
858.464	4592
858.597	4550
858.731	4634
858.864	4626
858.997	4580
859.13	4634
859.263	4630
859.396	4672
859.529	4653
859.662	4569
859.795	4504
859.928	4656
860.061	4710
860.194	4763
860.327	4634
860.46	4558
860.592	4694
860.725	4733
860.858	4725
860.99	4645
861.123	4523
861.256	4512
861.388	4615
861.521	5147
861.653	4451
861.786	4447
861.918	4462
862.05	4504
862.183	4546
862.315	4607
862.447	4672
862.58	4588
862.712	4417
862.844	4348
862.976	4474
863.108	4421
863.24	4752
863.372	4352
863.504	4386
863.636	4383
863.768	4554
863.9	4447
864.032	4375
864.164	4402
864.296	4485
864.428	4588
864.559	4558
864.691	4569
864.823	4485
864.954	4470
865.086	4489
865.217	4485
865.349	4409
865.48	4447
865.612	4485
865.743	4607
865.875	4455
866.006	4447
866.137	4455
866.269	4451
866.4	4405
866.531	4398
866.662	4390
866.793	4386
866.924	4413
867.055	4474
867.186	4443
867.317	4413
867.448	4363
867.579	4398
867.71	4398
867.841	4295
867.972	4432
868.103	4474
868.233	4455
868.364	4398
868.495	4474
868.625	4702
868.756	4748
868.886	4542
869.017	4626
869.147	4725
869.278	4824
869.408	4668
869.539	4634
869.669	4733
869.799	4698
869.929	4759
870.06	4733
870.19	4961
870.32	4934
870.45	4915
870.58	5029
870.71	5067
870.84	5117
870.97	4923
871.1	4923
871.23	5162
871.36	5128
871.489	5033
871.619	5094
871.749	5083
871.879	5166
872.008	5128
872.138	4995
872.267	5003
872.397	4900
872.526	4793
872.656	4729
872.785	4816
872.915	4987
873.044	5025
873.173	4942
873.303	4961
873.432	4946
873.561	4900
873.69	4862
873.819	4824
873.948	4908
874.077	4850
874.206	4744
874.335	4786
874.464	4934
874.593	5075
874.722	4934
874.851	5083
874.979	5048
875.108	5003
875.237	4927
875.365	4866
875.494	4862
875.623	4938
875.751	4816
875.88	4858
876.008	4968
876.136	5098
876.265	5159
876.393	5337
876.521	5258
876.65	5166
876.778	5121
876.906	5086
877.034	5022
877.162	5048
877.29	4961
877.418	5025
877.546	5064
877.674	5022
877.802	5014
877.93	5033
878.058	4862
878.185	4797
878.313	4965
878.441	4972
878.568	4786
878.696	4873
878.824	4930
878.951	4961
879.079	5124
879.206	5246
879.333	5090
879.461	4972
879.588	5003
879.715	5071
879.842	5239
879.97	5006
880.097	4782
880.224	4782
880.351	4812
880.478	4786
880.605	4740
880.732	4801
880.859	5090
880.986	4911
881.112	4927
881.239	4767
881.366	4694
881.493	4565
881.619	4611
881.746	4630
881.872	4630
881.999	4611
882.125	4687
882.252	4771
882.378	4820
882.505	4946
882.631	4843
882.757	4702
882.883	4740
883.01	4672
883.136	4634
883.262	4599
883.388	4615
883.514	4790
883.64	4790
883.766	4774
883.892	4675
884.018	4710
884.143	4858
884.269	4972
884.395	4687
884.52	4607
884.646	4664
884.772	4523
884.897	4573
885.023	4691
885.148	4774
885.274	4828
885.399	4801
885.524	4729
885.65	4679
885.775	4767
885.9	4656
886.025	4828
886.15	4812
886.275	4691
886.4	4645
886.525	4683
886.65	4691
886.775	4714
886.9	4927
887.025	5006
887.149	4782
887.274	4675
887.399	4626
887.523	4611
887.648	4542
887.773	4584
887.897	4809
888.021	4744
888.146	4649
888.27	4797
888.395	4877
888.519	4744
888.643	4805
888.767	4801
888.891	4672
889.015	4580
889.139	4592
889.263	4607
889.387	4755
889.511	4866
889.635	4774
889.759	4683
889.883	4679
890.006	4740
890.13	4816
890.254	4615
890.377	4626
890.501	4504
890.624	4542
890.748	4611
890.871	4500
890.995	4451
891.118	4409
891.241	4516
891.364	4542
891.488	4645
891.611	4512
891.734	4512
891.857	4561
891.98	4554
892.103	4641
892.226	4603
892.349	4504
892.471	4424
892.594	4531
892.717	4607
892.839	4573
892.962	4607
893.085	4630
893.207	4611
893.33	4500
893.452	4508
893.575	4679
893.697	4607
893.819	4759
893.941	4839
894.064	4790
894.186	4565
894.308	4550
894.43	4752
894.552	4809
894.674	4755
894.796	4493
894.918	4554
895.04	4603
895.161	4668
895.283	4599
895.405	4584
895.526	4599
895.648	4714
895.769	4702
895.891	4698
896.012	4706
896.134	4706
896.255	4641
896.376	4622
896.498	4577
896.619	4717
896.74	4599
896.861	4611
896.982	4942
897.103	5083
897.224	4843
897.345	4733
897.466	4675
897.587	4771
897.708	4828
897.828	4774
897.949	4687
898.07	4550
898.19	4637
898.311	4805
898.431	4637
898.552	4706
898.672	4767
898.792	4793
898.913	4725
899.033	4607
899.153	4504
899.273	4440
899.393	4485
899.513	4497
899.633	4512
899.753	4561
899.873	4493
899.993	4607
900.113	4592
900.232	4565
900.352	4531
900.472	4542
900.591	4390
900.711	4493
900.83	4405
900.95	4615
901.069	4694
901.189	4519
901.308	4394
901.427	4360
901.546	4383
901.665	4447
901.784	4478
901.904	4447
902.023	4352
902.141	4192
902.26	4143
902.379	4287
902.498	4257
902.617	4223
902.735	4394
902.854	4386
902.973	4310
903.091	4219
903.21	4177
903.328	4303
903.446	4253
903.565	4284
903.683	4333
903.801	4253
903.919	4394
904.038	4428
904.156	4280
904.274	4428
904.392	4379
904.51	4424
904.627	4436
904.745	4584
904.863	4611
904.981	4421
905.098	4299
905.216	4337
905.334	4481
905.451	4421
905.569	4386
905.686	4584
905.803	4588
905.921	4409
906.038	4512
906.155	4443
906.272	4409
906.389	4455
906.506	4348
906.623	4333
906.74	4356
906.857	4337
906.974	4344
907.091	4580
907.208	4649
907.324	4577
907.441	4478
907.557	4314
907.674	4318
907.79	4280
907.907	4363
908.023	4493
908.139	4470
908.256	4405
908.372	4478
908.488	4402
908.604	4356
908.72	4310
908.836	4371
908.952	4325
909.068	4436
909.184	4592
909.3	4485
909.415	4565
909.531	4512
909.647	4363
909.762	4379
909.878	4276
909.993	4485
910.108	4386
910.224	4436
910.339	4470
910.454	4432
910.57	4333
910.685	4318
910.8	4668
910.915	4618
911.03	4531
911.145	4287
911.259	4295
911.374	4310
911.489	4337
911.604	4322
911.718	4154
911.833	4188
911.947	4093
912.062	3987
912.176	4158
912.291	4242
912.405	4238
912.519	4470
912.633	4504
912.748	4375
912.862	4322
912.976	4143
913.09	4097
913.204	4169
913.318	4234
913.431	4341
913.545	4344
913.659	4428
913.772	4367
913.886	4234
914	4215
914.113	4333
914.226	4451
914.34	4379
914.453	4227
914.566	4398
914.68	4295
914.793	4310
914.906	4204
915.019	4078
915.132	4059
915.245	4166
915.358	4219
915.47	4238
915.583	4249
915.696	4284
915.809	4424
915.921	4405
916.034	4265
916.146	4234
916.259	4265
916.371	4352
916.483	4348
916.595	4272
916.708	4314
916.82	4306
916.932	4284
917.044	4329
917.156	4337
917.268	4192
917.38	4295
917.491	4261
917.603	4329
917.715	4421
917.826	4466
917.938	4329
918.049	4268
918.161	4371
918.272	4516
918.384	4535
918.495	4466
918.606	4310
918.717	4215
918.828	4322
918.939	4348
919.05	4249
919.161	4352
919.272	4147
919.383	4200
919.494	4440
919.604	4588
919.715	4371
919.826	4386
919.936	4421
920.047	4523
920.157	4504
920.267	4683
920.378	4500
920.488	4523
920.598	4702
920.708	4885
920.818	4778
920.928	4748
921.038	4885
921.148	4934
921.258	4641
921.368	4603
921.477	4421
921.587	4500
921.697	4383
921.806	4554
921.916	4386
922.025	4211
922.134	4223
922.244	4207
922.353	4322
922.462	4166
922.571	4143
922.68	3975
922.789	3991
922.898	4017
923.007	3998
923.116	4101
923.224	4086
923.333	4093
923.442	3945
923.55	3994
923.659	4044
923.767	4055
923.876	3953
923.984	4105
924.092	3968
924.201	4074
924.309	4093
924.417	4059
924.525	4051
924.633	4120
924.741	4965
924.849	3907
924.956	4109
925.064	3975
925.172	3880
925.279	3915
925.387	4059
925.494	3972
925.602	4204
925.709	4166
925.816	3994
925.924	4116
926.031	4204
926.138	4158
926.245	4223
926.352	4097
926.459	4238
926.566	4284
926.673	4120
926.779	4067
926.886	4048
926.993	3956
927.099	3956
927.206	3903
927.312	3979
927.419	4032
927.525	3987
927.631	4063
927.737	3975
927.843	3953
927.95	3835
928.056	3968
928.162	3983
928.267	4067
928.373	4592
928.479	4135
928.585	3857
928.69	3987
928.796	4086
928.901	3987
929.007	3827
929.112	4013
929.218	3949
929.323	3911
929.428	3949
929.533	4101
929.638	3876
929.743	3903
929.848	4055
929.953	4017
930.058	3911
930.163	3747
930.267	3835
930.372	3945
930.477	3793
930.581	4074
930.685	3945
930.79	3865
930.894	3884
930.998	3884
931.103	4029
931.207	3663
931.311	3679
931.415	3675
931.519	3534
931.623	3526
