Data from test_V78500241_268.txt Node
Date: Fri Mar 25 16:50:51 CST 2022
User: usil
Spectrometer: V785-0024
Trigger mode: 0
Integration Time (sec): 4.000000E-1
Scans to average: 1
Nonlinearity correction enabled: false
Boxcar width: 0
Storing dark spectrum: false
XAxis mode: Wavelengths
Number of Pixels in Spectrum: 1024
>>>>>Begin Spectral Data<<<<<
801.071	8103
801.214	8046
801.356	7856
801.499	7860
801.641	7788
801.783	7890
801.926	7974
802.068	8005
802.211	7909
802.353	8065
802.496	7906
802.638	7955
802.78	7978
802.923	7879
803.065	7833
803.208	7845
803.35	7936
803.492	8054
803.635	8119
803.777	8046
803.919	8149
804.061	8415
804.204	8126
804.346	8126
804.488	7921
804.63	8134
804.773	8001
804.915	8195
805.057	8271
805.199	8145
805.341	8191
805.483	8279
805.626	8183
805.768	8031
805.91	8161
806.052	8145
806.194	8069
806.336	8252
806.478	8115
806.62	8084
806.762	8096
806.904	8183
807.046	8431
807.188	8351
807.33	8221
807.472	8328
807.614	8077
807.756	8084
807.898	8005
808.04	7811
808.182	7860
808.324	7868
808.465	7959
808.607	8069
808.749	8142
808.891	8180
809.033	8301
809.174	8164
809.316	8058
809.458	8092
809.6	7951
809.741	8020
809.883	8031
810.025	8084
810.166	8054
810.308	8005
810.45	8031
810.591	7856
810.733	7753
810.875	7658
811.016	7510
811.158	7441
811.299	7613
811.441	7731
811.582	7643
811.724	7548
811.865	7518
812.007	7651
812.148	7586
812.29	7582
812.431	7761
812.573	7917
812.714	7932
812.855	8088
812.997	8187
813.138	8347
813.279	8168
813.421	8115
813.562	8027
813.703	7871
813.845	7674
813.986	7384
814.127	7240
814.268	7221
814.41	7198
814.551	7202
814.692	7107
814.833	7012
814.974	7103
815.115	7076
815.256	6901
815.397	6932
815.539	6928
815.68	6741
815.821	6768
815.962	6867
816.103	6814
816.244	6711
816.385	6620
816.526	6616
816.666	6559
816.807	6327
816.948	6448
817.089	6448
817.23	6448
817.371	6429
817.512	6399
817.653	6323
817.793	6331
817.934	6380
818.075	6456
818.216	6410
818.356	6376
818.497	6220
818.638	6117
818.778	6098
818.919	6098
819.06	6102
819.2	6327
819.341	6342
819.481	6395
819.622	6532
819.762	6715
819.903	6677
820.043	6597
820.184	6490
820.324	6585
820.465	6612
820.605	6726
820.746	6570
820.886	6517
821.026	6646
821.167	6707
821.307	6818
821.447	6711
821.588	6631
821.728	6551
821.868	6460
822.008	6296
822.149	6357
822.289	6319
822.429	6220
822.569	6038
822.709	6148
822.849	5897
822.99	5851
823.13	5897
823.27	5935
823.41	5790
823.55	5813
823.69	5756
823.83	5718
823.97	5680
824.11	5486
824.25	5524
824.389	5581
824.529	5623
824.669	5516
824.809	5619
824.949	5649
825.089	5581
825.228	5608
825.368	5360
825.508	5360
825.648	5292
825.787	5395
825.927	5448
826.067	5311
826.206	5307
826.346	5315
826.485	5497
826.625	5417
826.765	5562
826.904	5486
827.044	5280
827.183	5178
827.323	5124
827.462	5284
827.601	5204
827.741	5162
827.88	5201
828.02	5124
828.159	5204
828.298	5284
828.437	5322
828.577	5277
828.716	5471
828.855	5357
828.994	5151
829.134	5166
829.273	5204
829.412	5159
829.551	5132
829.69	5109
829.829	5246
829.968	5372
830.107	5269
830.246	5208
830.385	5189
830.524	5094
830.663	5102
830.802	4999
830.941	4938
831.08	4904
831.219	4999
831.357	4987
831.496	5140
831.635	4908
831.774	4816
831.913	4828
832.051	4725
832.19	4767
832.329	4870
832.467	4755
832.606	4634
832.744	4679
832.883	4790
833.022	4733
833.16	4824
833.299	4767
833.437	4809
833.576	4889
833.714	4915
833.852	4919
833.991	4919
834.129	4889
834.267	4972
834.406	4889
834.544	4972
834.682	5003
834.821	4938
834.959	5223
835.097	5029
835.235	5143
835.373	5075
835.511	5090
835.65	5048
835.788	5037
835.926	4923
836.064	4908
836.202	4957
836.34	5174
836.478	5269
836.615	5143
836.753	5280
836.891	5277
837.029	5227
837.167	5220
837.305	5121
837.443	5166
837.58	5105
837.718	5265
837.856	5197
837.993	5159
838.131	5265
838.269	5246
838.406	5254
838.544	5204
838.681	5048
838.819	4980
838.956	4904
839.094	4930
839.231	4942
839.369	5083
839.506	5395
839.643	5303
839.781	5060
839.918	5014
840.055	5143
840.193	5098
840.33	5086
840.467	5155
840.604	5162
840.742	5455
840.879	5117
841.016	5117
841.153	5181
841.29	5357
841.427	5360
841.564	5303
841.701	5277
841.838	5288
841.975	5231
842.112	5269
842.249	5174
842.385	5113
842.522	5292
842.659	5170
842.796	5128
842.933	5193
843.069	5136
843.206	5170
843.343	5296
843.479	5220
843.616	5265
843.752	5048
843.889	5006
844.025	5235
844.162	5029
844.298	5258
844.435	5090
844.571	5029
844.708	5212
844.844	5334
844.98	5345
845.117	5353
845.253	5159
845.389	5105
845.525	5162
845.661	5132
845.798	5102
845.934	5098
846.07	5025
846.206	5246
846.342	5280
846.478	5147
846.614	5029
846.75	4991
846.886	4927
847.022	5151
847.158	5056
847.294	5105
847.429	5109
847.565	5064
847.701	5372
847.837	4881
847.972	4839
848.108	4934
848.244	4980
848.379	4801
848.515	4740
848.65	4793
848.786	4774
848.921	4812
849.057	4843
849.192	4904
849.328	4870
849.463	4873
849.598	4782
849.734	4755
849.869	4672
850.004	4603
850.14	4694
850.275	4573
850.41	4535
850.545	4538
850.68	4660
850.815	4660
850.95	4668
851.085	4885
851.22	4767
851.355	4660
851.49	4592
851.625	4637
851.76	4645
851.895	4634
852.03	4550
852.165	4691
852.299	4736
852.434	4771
852.569	4774
852.703	4782
852.838	4900
852.973	4919
853.107	4877
853.242	4714
853.376	4653
853.511	4481
853.645	4664
853.78	4824
853.914	4710
854.048	4611
854.183	4637
854.317	4698
854.451	4854
854.585	4660
854.72	4656
854.854	4748
854.988	4611
855.122	4603
855.256	4493
855.39	4637
855.524	4812
855.658	4729
855.792	4656
855.926	4733
856.06	4752
856.194	4755
856.327	4702
856.461	4630
856.595	4641
856.729	4637
856.862	4717
856.996	4736
857.13	4710
857.263	4733
857.397	4835
857.53	4622
857.664	4706
857.797	4729
857.931	4812
858.064	4675
858.197	4759
858.331	4634
858.464	4599
858.597	4527
858.731	4626
858.864	4641
858.997	4637
859.13	4634
859.263	4634
859.396	4641
859.529	4573
859.662	4596
859.795	4550
859.928	4630
860.061	4801
860.194	4793
860.327	4596
860.46	4588
860.592	4725
860.725	4687
860.858	4767
860.99	4603
861.123	4584
861.256	4523
861.388	4622
861.521	5414
861.653	4535
861.786	4447
861.918	4474
862.05	4531
862.183	4531
862.315	4626
862.447	4653
862.58	4565
862.712	4379
862.844	4310
862.976	4443
863.108	4451
863.24	4892
863.372	4375
863.504	4428
863.636	4432
863.768	4497
863.9	4421
864.032	4341
864.164	4417
864.296	4493
864.428	4588
864.559	4569
864.691	4550
864.823	4508
864.954	4538
865.086	4531
865.217	4497
865.349	4447
865.48	4481
865.612	4470
865.743	4641
865.875	4485
866.006	4421
866.137	4462
866.269	4519
866.4	4421
866.531	4394
866.662	4375
866.793	4405
866.924	4367
867.055	4489
867.186	4470
867.317	4462
867.448	4398
867.579	4375
867.71	4371
867.841	4409
867.972	4500
868.103	4466
868.233	4440
868.364	4447
868.495	4478
868.625	4694
868.756	4801
868.886	4603
869.017	4645
869.147	4820
869.278	4767
869.408	4710
869.539	4637
869.669	4729
869.799	4679
869.929	4812
870.06	4714
870.19	4980
870.32	4877
870.45	4949
870.58	5029
870.71	5071
870.84	5094
870.97	4919
871.1	4889
871.23	5113
871.36	5124
871.489	5022
871.619	5086
871.749	5048
871.879	5155
872.008	5201
872.138	5079
872.267	5037
872.397	4816
872.526	4824
872.656	4736
872.785	4812
872.915	4953
873.044	4991
873.173	4911
873.303	4965
873.432	4953
873.561	4942
873.69	4866
873.819	4889
873.948	4900
874.077	4793
874.206	4740
874.335	4824
874.464	4949
874.593	5029
874.722	4968
874.851	5075
874.979	5048
875.108	5041
875.237	4930
875.365	4900
875.494	4957
875.623	4980
875.751	4824
875.88	4889
876.008	4976
876.136	5090
876.265	5185
876.393	5296
876.521	5235
876.65	5147
876.778	5159
876.906	5094
877.034	5006
877.162	5045
877.29	4965
877.418	5060
877.546	5086
877.674	5056
877.802	5006
877.93	4991
878.058	4919
878.185	4839
878.313	4946
878.441	4980
878.568	4771
878.696	4889
878.824	4980
878.951	5018
879.079	5113
879.206	5277
879.333	5124
879.461	4980
879.588	5014
879.715	5124
879.842	5189
879.97	4980
880.097	4809
880.224	4763
880.351	4790
880.478	4877
880.605	4782
880.732	4801
880.859	5060
880.986	4930
881.112	4930
881.239	4786
881.366	4683
881.493	4634
881.619	4596
881.746	4626
881.872	4607
881.999	4634
882.125	4668
882.252	4805
882.378	4835
882.505	4984
882.631	4812
882.757	4721
882.883	4744
883.01	4744
883.136	4668
883.262	4584
883.388	4584
883.514	4854
883.64	4892
883.766	4778
883.892	4675
884.018	4744
884.143	4908
884.269	5029
884.395	4660
884.52	4630
884.646	4672
884.772	4558
884.897	4542
885.023	4668
885.148	4778
885.274	4870
885.399	4793
885.524	4717
885.65	4714
885.775	4725
885.9	4683
886.025	4866
886.15	4771
886.275	4729
886.4	4672
886.525	4706
886.65	4687
886.775	4675
886.9	4900
887.025	5006
887.149	4809
887.274	4675
887.399	4596
887.523	4615
887.648	4611
887.773	4588
887.897	4755
888.021	4744
888.146	4706
888.27	4854
888.395	4900
888.519	4809
888.643	4793
888.767	4850
888.891	4653
889.015	4523
889.139	4683
889.263	4611
889.387	4778
889.511	4858
889.635	4835
889.759	4596
889.883	4645
890.006	4771
890.13	4831
890.254	4618
890.377	4759
890.501	4584
890.624	4531
890.748	4634
890.871	4508
890.995	4421
891.118	4402
891.241	4500
891.364	4554
891.488	4618
891.611	4478
891.734	4523
891.857	4649
891.98	4565
892.103	4618
892.226	4637
892.349	4538
892.471	4455
892.594	4523
892.717	4615
892.839	4592
892.962	4630
893.085	4672
893.207	4615
893.33	4478
893.452	4546
893.575	4645
893.697	4577
893.819	4793
893.941	4816
894.064	4744
894.186	4596
894.308	4580
894.43	4710
894.552	4835
894.674	4771
894.796	4558
894.918	4618
895.04	4565
895.161	4687
895.283	4668
895.405	4580
895.526	4634
895.648	4706
895.769	4691
895.891	4740
896.012	4790
896.134	4714
896.255	4672
896.376	4603
896.498	4645
896.619	4687
896.74	4592
896.861	4656
896.982	4961
897.103	5094
897.224	4812
897.345	4744
897.466	4672
897.587	4683
897.708	4801
897.828	4790
897.949	4675
898.07	4577
898.19	4679
898.311	4866
898.431	4679
898.552	4740
898.672	4866
898.792	4824
898.913	4729
899.033	4656
899.153	4561
899.273	4405
899.393	4459
899.513	4504
899.633	4512
899.753	4546
899.873	4573
899.993	4588
900.113	4512
900.232	4618
900.352	4523
900.472	4504
900.591	4383
900.711	4481
900.83	4459
900.95	4622
901.069	4687
901.189	4493
901.308	4390
901.427	4333
901.546	4409
901.665	4481
901.784	4516
901.904	4417
902.023	4390
902.141	4223
902.26	4166
902.379	4249
902.498	4261
902.617	4234
902.735	4371
902.854	4390
902.973	4371
903.091	4242
903.21	4181
903.328	4337
903.446	4257
903.565	4257
903.683	4367
903.801	4268
903.919	4409
904.038	4474
904.156	4352
904.274	4432
904.392	4394
904.51	4413
904.627	4493
904.745	4569
904.863	4618
904.981	4451
905.098	4276
905.216	4383
905.334	4455
905.451	4466
905.569	4478
905.686	4497
905.803	4489
905.921	4436
906.038	4569
906.155	4443
906.272	4367
906.389	4455
906.506	4367
906.623	4386
906.74	4390
906.857	4333
906.974	4344
907.091	4565
907.208	4626
907.324	4596
907.441	4523
907.557	4333
907.674	4325
907.79	4314
907.907	4379
908.023	4474
908.139	4512
908.256	4398
908.372	4485
908.488	4443
908.604	4287
908.72	4291
908.836	4402
908.952	4390
909.068	4451
909.184	4577
909.3	4481
909.415	4603
909.531	4554
909.647	4398
909.762	4348
909.878	4383
909.993	4462
910.108	4409
910.224	4390
910.339	4493
910.454	4428
910.57	4390
910.685	4352
910.8	4668
910.915	4592
911.03	4497
911.145	4398
911.259	4402
911.374	4360
911.489	4344
911.604	4192
911.718	4173
911.833	4211
911.947	4131
912.062	4021
912.176	4227
912.291	4249
912.405	4230
912.519	4504
912.633	4497
912.748	4417
912.862	4291
912.976	4242
913.09	4090
913.204	4162
913.318	4230
913.431	4383
913.545	4390
913.659	4383
913.772	4356
913.886	4227
914	4207
914.113	4405
914.226	4451
914.34	4367
914.453	4238
914.566	4421
914.68	4310
914.793	4295
914.906	4139
915.019	4124
915.132	4082
915.245	4158
915.358	4253
915.47	4207
915.583	4291
915.696	4303
915.809	4440
915.921	4386
916.034	4306
916.146	4238
916.259	4234
916.371	4409
916.483	4352
916.595	4265
916.708	4360
916.82	4299
916.932	4352
917.044	4333
917.156	4337
917.268	4261
917.38	4291
917.491	4200
917.603	4329
917.715	4413
917.826	4417
917.938	4398
918.049	4253
918.161	4417
918.272	4558
918.384	4546
918.495	4462
918.606	4333
918.717	4295
918.828	4394
918.939	4386
919.05	4261
919.161	4314
919.272	4173
919.383	4249
919.494	4493
919.604	4592
919.715	4455
919.826	4367
919.936	4367
920.047	4519
920.157	4497
920.267	4740
920.378	4550
920.488	4519
920.598	4717
920.708	4930
920.818	4752
920.928	4740
921.038	4919
921.148	4915
921.258	4664
921.368	4523
921.477	4478
921.587	4504
921.697	4398
921.806	4588
921.916	4428
922.025	4242
922.134	4280
922.244	4196
922.353	4344
922.462	4139
922.571	4154
922.68	4021
922.789	3956
922.898	4017
923.007	3975
923.116	4078
923.224	4097
923.333	4101
923.442	3937
923.55	4006
923.659	3998
923.767	4124
923.876	4048
923.984	4112
924.092	3975
924.201	4074
924.309	4109
924.417	4139
924.525	4078
924.633	4078
924.741	5060
924.849	3937
924.956	4120
925.064	3983
925.172	3915
925.279	3987
925.387	4029
925.494	4074
925.602	4249
925.709	4207
925.816	4021
925.924	4093
926.031	4265
926.138	4162
926.245	4230
926.352	4109
926.459	4265
926.566	4299
926.673	4169
926.779	4124
926.886	4150
926.993	3979
927.099	3941
927.206	3968
927.312	3956
927.419	4059
927.525	4032
927.631	4086
927.737	3998
927.843	3975
927.95	3842
928.056	3945
928.162	3987
928.267	4093
928.373	4725
928.479	4082
928.585	3880
928.69	4036
928.796	4097
928.901	3994
929.007	3816
929.112	3987
929.218	3956
929.323	3975
929.428	3960
929.533	4101
929.638	3892
929.743	3983
929.848	4109
929.953	4006
930.058	3949
930.163	3785
930.267	3819
930.372	3968
930.477	3816
930.581	4086
930.685	3926
930.79	3861
930.894	3892
930.998	3861
931.103	4063
931.207	3701
931.311	3682
931.415	3644
931.519	3515
931.623	3591
