Data from test_V78500241_1960.txt Node
Date: Fri Mar 25 17:02:37 CST 2022
User: usil
Spectrometer: V785-0024
Trigger mode: 0
Integration Time (sec): 4.000000E-1
Scans to average: 1
Nonlinearity correction enabled: false
Boxcar width: 0
Storing dark spectrum: false
XAxis mode: Wavelengths
Number of Pixels in Spectrum: 1024
>>>>>Begin Spectral Data<<<<<
801.071	7959
801.214	7982
801.356	7890
801.499	7795
801.641	7799
801.783	7784
801.926	7932
802.068	7944
802.211	7940
802.353	8008
802.496	7849
802.638	7894
802.78	7902
802.923	7902
803.065	7868
803.208	7799
803.35	7951
803.492	8100
803.635	8119
803.777	8027
803.919	8081
804.061	8385
804.204	8077
804.346	8046
804.488	7959
804.63	8073
804.773	7982
804.915	8073
805.057	8393
805.199	8202
805.341	8191
805.483	8267
805.626	8111
805.768	8145
805.91	8176
806.052	8240
806.194	8062
806.336	8267
806.478	8084
806.62	8069
806.762	8088
806.904	8290
807.046	8446
807.188	8404
807.33	8298
807.472	8309
807.614	8176
807.756	8126
807.898	8058
808.04	7894
808.182	7898
808.324	7887
808.465	7860
808.607	8046
808.749	8126
808.891	8202
809.033	8221
809.174	8240
809.316	8077
809.458	8031
809.6	8012
809.741	8069
809.883	8100
810.025	8054
810.166	8035
810.308	8012
810.45	7989
810.591	7784
810.733	7647
810.875	7666
811.016	7495
811.158	7510
811.299	7571
811.441	7696
811.582	7601
811.724	7582
811.865	7487
812.007	7540
812.148	7582
812.29	7586
812.431	7704
812.573	7868
812.714	7978
812.855	8142
812.997	8168
813.138	8290
813.279	8195
813.421	8058
813.562	8001
813.703	7871
813.845	7772
813.986	7434
814.127	7228
814.268	7259
814.41	7137
814.551	7190
814.692	7255
814.833	7129
814.974	7145
815.115	7129
815.256	6981
815.397	6909
815.539	6939
815.68	6844
815.821	6741
815.962	6863
816.103	6787
816.244	6673
816.385	6570
816.526	6620
816.666	6464
816.807	6334
816.948	6426
817.089	6517
817.23	6403
817.371	6380
817.512	6289
817.653	6357
817.793	6350
817.934	6448
818.075	6426
818.216	6437
818.356	6414
818.497	6243
818.638	6117
818.778	6136
818.919	6106
819.06	6125
819.2	6331
819.341	6281
819.481	6327
819.622	6559
819.762	6677
819.903	6719
820.043	6627
820.184	6589
820.324	6578
820.465	6738
820.605	6677
820.746	6669
820.886	6486
821.026	6681
821.167	6734
821.307	6772
821.447	6719
821.588	6654
821.728	6601
821.868	6498
822.008	6323
822.149	6289
822.289	6319
822.429	6102
822.569	6095
822.709	6155
822.849	5908
822.99	5897
823.13	5904
823.27	5920
823.41	5752
823.55	5729
823.69	5760
823.83	5775
823.97	5596
824.11	5486
824.25	5459
824.389	5524
824.529	5551
824.669	5459
824.809	5661
824.949	5608
825.089	5589
825.228	5509
825.368	5436
825.508	5326
825.648	5311
825.787	5406
825.927	5387
826.067	5318
826.206	5303
826.346	5368
826.485	5425
826.625	5406
826.765	5516
826.904	5444
827.044	5239
827.183	5189
827.323	5109
827.462	5212
827.601	5170
827.741	5193
827.88	5178
828.02	5109
828.159	5189
828.298	5296
828.437	5345
828.577	5246
828.716	5455
828.855	5288
828.994	5170
829.134	5128
829.273	5170
829.412	5090
829.551	5136
829.69	5204
829.829	5242
829.968	5337
830.107	5250
830.246	5280
830.385	5155
830.524	5132
830.663	5094
830.802	4942
830.941	4858
831.08	4900
831.219	4980
831.357	4923
831.496	5155
831.635	4896
831.774	4835
831.913	4866
832.051	4691
832.19	4786
832.329	4858
832.467	4698
832.606	4626
832.744	4717
832.883	4710
833.022	4706
833.16	4782
833.299	4835
833.437	4790
833.576	4847
833.714	4828
833.852	4877
833.991	4892
834.129	4972
834.267	4976
834.406	4930
834.544	4934
834.682	4965
834.821	4942
834.959	5128
835.097	5022
835.235	5147
835.373	4991
835.511	5064
835.65	5006
835.788	5003
835.926	4911
836.064	4854
836.202	4873
836.34	5128
836.478	5212
836.615	5128
836.753	5223
836.891	5265
837.029	5292
837.167	5132
837.305	5155
837.443	5117
837.58	5067
837.718	5208
837.856	5201
837.993	5143
838.131	5197
838.269	5208
838.406	5166
838.544	5159
838.681	5064
838.819	5006
838.956	4866
839.094	4854
839.231	4965
839.369	5086
839.506	5448
839.643	5227
839.781	5052
839.918	5014
840.055	5098
840.193	5064
840.33	5113
840.467	5140
840.604	5178
840.742	5467
840.879	5086
841.016	5136
841.153	5132
841.29	5372
841.427	5311
841.564	5318
841.701	5341
841.838	5216
841.975	5208
842.112	5208
842.249	5105
842.385	5064
842.522	5296
842.659	5185
842.796	5159
842.933	5185
843.069	5185
843.206	5132
843.343	5357
843.479	5239
843.616	5261
843.752	5052
843.889	4965
844.025	5181
844.162	5041
844.298	5193
844.435	5064
844.571	5010
844.708	5197
844.844	5258
844.98	5334
845.117	5265
845.253	5140
845.389	5048
845.525	5113
845.661	5124
845.798	5029
845.934	5124
846.07	5041
846.206	5155
846.342	5258
846.478	5147
846.614	5041
846.75	4942
846.886	4885
847.022	5162
847.158	4987
847.294	5056
847.429	5098
847.565	5060
847.701	5284
847.837	4873
847.972	4774
848.108	4896
848.244	4850
848.379	4702
848.515	4660
848.65	4702
848.786	4729
848.921	4759
849.057	4843
849.192	4847
849.328	4866
849.463	4847
849.598	4744
849.734	4698
849.869	4710
850.004	4622
850.14	4706
850.275	4618
850.41	4516
850.545	4523
850.68	4645
850.815	4573
850.95	4649
851.085	4873
851.22	4774
851.355	4668
851.49	4599
851.625	4664
851.76	4611
851.895	4512
852.03	4561
852.165	4656
852.299	4675
852.434	4736
852.569	4733
852.703	4759
852.838	4828
852.973	4957
853.107	4862
853.242	4733
853.376	4694
853.511	4538
853.645	4626
853.78	4801
853.914	4694
854.048	4672
854.183	4603
854.317	4664
854.451	4866
854.585	4615
854.72	4660
854.854	4721
854.988	4630
855.122	4599
855.256	4497
855.39	4611
855.524	4809
855.658	4714
855.792	4717
855.926	4740
856.06	4740
856.194	4763
856.327	4664
856.461	4584
856.595	4645
856.729	4645
856.862	4725
856.996	4717
857.13	4748
857.263	4736
857.397	4771
857.53	4645
857.664	4717
857.797	4763
857.931	4774
858.064	4714
858.197	4717
858.331	4660
858.464	4626
858.597	4500
858.731	4618
858.864	4607
858.997	4611
859.13	4637
859.263	4672
859.396	4630
859.529	4649
859.662	4577
859.795	4561
859.928	4660
860.061	4736
860.194	4755
860.327	4546
860.46	4516
860.592	4675
860.725	4698
860.858	4748
860.99	4584
861.123	4462
861.256	4527
861.388	4577
861.521	5258
861.653	4500
861.786	4466
861.918	4424
862.05	4497
862.183	4565
862.315	4592
862.447	4603
862.58	4516
862.712	4436
862.844	4310
862.976	4493
863.108	4428
863.24	4809
863.372	4322
863.504	4436
863.636	4348
863.768	4481
863.9	4405
864.032	4371
864.164	4405
864.296	4443
864.428	4554
864.559	4535
864.691	4554
864.823	4474
864.954	4542
865.086	4466
865.217	4474
865.349	4459
865.48	4428
865.612	4470
865.743	4592
865.875	4436
866.006	4440
866.137	4462
866.269	4421
866.4	4383
866.531	4428
866.662	4409
866.793	4383
866.924	4428
867.055	4508
867.186	4402
867.317	4470
867.448	4379
867.579	4367
867.71	4390
867.841	4314
867.972	4462
868.103	4462
868.233	4440
868.364	4417
868.495	4451
868.625	4660
868.756	4752
868.886	4565
869.017	4634
869.147	4706
869.278	4759
869.408	4668
869.539	4637
869.669	4706
869.799	4675
869.929	4767
870.06	4782
870.19	4972
870.32	4915
870.45	4889
870.58	5018
870.71	5117
870.84	5056
870.97	4930
871.1	4896
871.23	5147
871.36	5102
871.489	5003
871.619	5094
871.749	5098
871.879	5128
872.008	5159
872.138	5064
872.267	4946
872.397	4854
872.526	4831
872.656	4717
872.785	4812
872.915	4976
873.044	5014
873.173	4923
873.303	4968
873.432	4930
873.561	4934
873.69	4866
873.819	4824
873.948	4904
874.077	4809
874.206	4702
874.335	4782
874.464	4919
874.593	5022
874.722	4930
874.851	5071
874.979	5045
875.108	5045
875.237	4870
875.365	4881
875.494	4942
875.623	4934
875.751	4828
875.88	4873
876.008	4965
876.136	5022
876.265	5197
876.393	5303
876.521	5288
876.65	5223
876.778	5166
876.906	5086
877.034	4984
877.162	5029
877.29	5014
877.418	5048
877.546	4995
877.674	5048
877.802	5003
877.93	5045
878.058	4934
878.185	4858
878.313	4946
878.441	4961
878.568	4771
878.696	4892
878.824	4930
878.951	4984
879.079	5075
879.206	5311
879.333	5083
879.461	4991
879.588	4999
879.715	5136
879.842	5235
879.97	5037
880.097	4805
880.224	4793
880.351	4714
880.478	4774
880.605	4793
880.732	4805
880.859	5102
880.986	4896
881.112	4889
881.239	4786
881.366	4664
881.493	4588
881.619	4550
881.746	4656
881.872	4660
881.999	4664
882.125	4668
882.252	4710
882.378	4805
882.505	4934
882.631	4763
882.757	4660
882.883	4744
883.01	4672
883.136	4672
883.262	4603
883.388	4596
883.514	4858
883.64	4892
883.766	4752
883.892	4660
884.018	4714
884.143	4858
884.269	5018
884.395	4634
884.52	4618
884.646	4580
884.772	4519
884.897	4538
885.023	4653
885.148	4805
885.274	4824
885.399	4843
885.524	4740
885.65	4679
885.775	4736
885.9	4694
886.025	4797
886.15	4801
886.275	4721
886.4	4656
886.525	4675
886.65	4702
886.775	4668
886.9	4896
887.025	5018
887.149	4767
887.274	4672
887.399	4538
887.523	4561
887.648	4603
887.773	4573
887.897	4744
888.021	4767
888.146	4664
888.27	4736
888.395	4877
888.519	4797
888.643	4805
888.767	4767
888.891	4634
889.015	4603
889.139	4588
889.263	4596
889.387	4748
889.511	4812
889.635	4767
889.759	4607
889.883	4660
890.006	4763
890.13	4809
890.254	4592
890.377	4694
890.501	4516
890.624	4500
890.748	4634
890.871	4500
890.995	4436
891.118	4383
891.241	4554
891.364	4542
891.488	4656
891.611	4561
891.734	4531
891.857	4569
891.98	4512
892.103	4603
892.226	4580
892.349	4508
892.471	4436
892.594	4516
892.717	4641
892.839	4569
892.962	4573
893.085	4630
893.207	4618
893.33	4432
893.452	4550
893.575	4656
893.697	4603
893.819	4778
893.941	4797
894.064	4809
894.186	4546
894.308	4588
894.43	4755
894.552	4873
894.674	4740
894.796	4573
894.918	4596
895.04	4542
895.161	4714
895.283	4660
895.405	4622
895.526	4664
895.648	4653
895.769	4649
895.891	4729
896.012	4736
896.134	4725
896.255	4656
896.376	4637
896.498	4622
896.619	4687
896.74	4630
896.861	4611
896.982	4900
897.103	5056
897.224	4801
897.345	4805
897.466	4649
897.587	4698
897.708	4877
897.828	4786
897.949	4599
898.07	4588
898.19	4653
898.311	4771
898.431	4679
898.552	4683
898.672	4858
898.792	4843
898.913	4721
899.033	4656
899.153	4504
899.273	4424
899.393	4489
899.513	4508
899.633	4523
899.753	4523
899.873	4561
899.993	4607
900.113	4558
900.232	4607
900.352	4565
900.472	4470
900.591	4402
900.711	4474
900.83	4409
900.95	4558
901.069	4725
901.189	4546
901.308	4360
901.427	4310
901.546	4413
901.665	4432
901.784	4531
901.904	4360
902.023	4329
902.141	4211
902.26	4200
902.379	4268
902.498	4249
902.617	4207
902.735	4398
902.854	4459
902.973	4367
903.091	4223
903.21	4219
903.328	4303
903.446	4280
903.565	4261
903.683	4322
903.801	4295
903.919	4352
904.038	4421
904.156	4303
904.274	4424
904.392	4386
904.51	4440
904.627	4481
904.745	4596
904.863	4649
904.981	4474
905.098	4295
905.216	4386
905.334	4474
905.451	4402
905.569	4421
905.686	4523
905.803	4565
905.921	4405
906.038	4550
906.155	4466
906.272	4386
906.389	4443
906.506	4337
906.623	4360
906.74	4383
906.857	4299
906.974	4402
907.091	4519
907.208	4641
907.324	4580
907.441	4489
907.557	4352
907.674	4344
907.79	4360
907.907	4390
908.023	4508
908.139	4497
908.256	4424
908.372	4447
908.488	4409
908.604	4352
908.72	4284
908.836	4352
908.952	4322
909.068	4402
909.184	4588
909.3	4470
909.415	4588
909.531	4527
909.647	4390
909.762	4363
909.878	4363
909.993	4459
910.108	4436
910.224	4398
910.339	4500
910.454	4352
910.57	4375
910.685	4333
910.8	4675
910.915	4573
911.03	4508
911.145	4291
911.259	4318
911.374	4363
911.489	4318
911.604	4230
911.718	4200
911.833	4188
911.947	4013
912.062	4063
912.176	4211
912.291	4238
912.405	4238
912.519	4485
912.633	4489
912.748	4375
912.862	4303
912.976	4215
913.09	4105
913.204	4181
913.318	4276
913.431	4367
913.545	4356
913.659	4447
913.772	4386
913.886	4234
914	4223
914.113	4348
914.226	4443
914.34	4398
914.453	4219
914.566	4417
914.68	4291
914.793	4322
914.906	4150
915.019	4093
915.132	4086
915.245	4158
915.358	4230
915.47	4223
915.583	4276
915.696	4284
915.809	4424
915.921	4409
916.034	4299
916.146	4223
916.259	4238
916.371	4356
916.483	4344
916.595	4242
916.708	4318
916.82	4344
916.932	4303
917.044	4295
917.156	4337
917.268	4200
917.38	4272
917.491	4280
917.603	4344
917.715	4421
917.826	4443
917.938	4352
918.049	4219
918.161	4363
918.272	4531
918.384	4542
918.495	4474
918.606	4287
918.717	4238
918.828	4341
918.939	4379
919.05	4238
919.161	4314
919.272	4158
919.383	4223
919.494	4466
919.604	4634
919.715	4481
919.826	4341
919.936	4379
920.047	4516
920.157	4493
920.267	4691
920.378	4519
920.488	4508
920.598	4664
920.708	4866
920.818	4721
920.928	4767
921.038	4904
921.148	4927
921.258	4596
921.368	4558
921.477	4542
921.587	4428
921.697	4402
921.806	4580
921.916	4402
922.025	4246
922.134	4242
922.244	4215
922.353	4367
922.462	4181
922.571	4109
922.68	4051
922.789	3975
922.898	4002
923.007	4006
923.116	4059
923.224	4082
923.333	4032
923.442	3945
923.55	3945
923.659	4029
923.767	4112
923.876	3983
923.984	4105
924.092	3983
924.201	4093
924.309	4055
924.417	4116
924.525	4071
924.633	4135
924.741	5079
924.849	3930
924.956	4116
925.064	3937
925.172	3907
925.279	3968
925.387	4021
925.494	4032
925.602	4188
925.709	4181
925.816	4017
925.924	4124
926.031	4253
926.138	4185
926.245	4173
926.352	4105
926.459	4272
926.566	4356
926.673	4177
926.779	4105
926.886	4063
926.993	3987
927.099	3991
927.206	3930
927.312	3956
927.419	4071
927.525	4059
927.631	4090
927.737	3953
927.843	3956
927.95	3865
928.056	3956
928.162	3960
928.267	4025
928.373	4580
928.479	4116
928.585	3884
928.69	4036
928.796	4036
928.901	3968
929.007	3846
929.112	4021
929.218	3926
929.323	3941
929.428	3911
929.533	4086
929.638	3896
929.743	3983
929.848	4059
929.953	4029
930.058	3922
930.163	3816
930.267	3812
930.372	3991
930.477	3808
930.581	4097
930.685	3941
930.79	3800
930.894	3880
930.998	3842
931.103	4029
931.207	3652
931.311	3686
931.415	3641
931.519	3515
931.623	3542
