Data from test_V78500241_454.txt Node
Date: Fri Mar 25 16:52:09 CST 2022
User: usil
Spectrometer: V785-0024
Trigger mode: 0
Integration Time (sec): 4.000000E-1
Scans to average: 1
Nonlinearity correction enabled: false
Boxcar width: 0
Storing dark spectrum: false
XAxis mode: Wavelengths
Number of Pixels in Spectrum: 1024
>>>>>Begin Spectral Data<<<<<
801.071	8111
801.214	8016
801.356	7932
801.499	7963
801.641	7818
801.783	7890
801.926	8043
802.068	8012
802.211	8027
802.353	7993
802.496	7830
802.638	7890
802.78	7906
802.923	7875
803.065	7913
803.208	7890
803.35	7925
803.492	7978
803.635	8168
803.777	7978
803.919	8107
804.061	8408
804.204	8073
804.346	8027
804.488	7921
804.63	8065
804.773	8065
804.915	8073
805.057	8351
805.199	8229
805.341	8191
805.483	8256
805.626	8191
805.768	8081
805.91	8103
806.052	8183
806.194	8050
806.336	8343
806.478	8142
806.62	8157
806.762	8149
806.904	8233
807.046	8415
807.188	8358
807.33	8343
807.472	8263
807.614	8157
807.756	8164
807.898	8005
808.04	7890
808.182	7967
808.324	7963
808.465	7963
808.607	8084
808.749	8046
808.891	8172
809.033	8244
809.174	8252
809.316	8088
809.458	8054
809.6	8005
809.741	8046
809.883	8020
810.025	8130
810.166	8081
810.308	8046
810.45	7993
810.591	7864
810.733	7769
810.875	7696
811.016	7540
811.158	7567
811.299	7685
811.441	7788
811.582	7746
811.724	7620
811.865	7552
812.007	7734
812.148	7616
812.29	7670
812.431	7742
812.573	7906
812.714	7982
812.855	8172
812.997	8225
813.138	8286
813.279	8210
813.421	8172
813.562	8115
813.703	7967
813.845	7822
813.986	7537
814.127	7346
814.268	7206
814.41	7190
814.551	7194
814.692	7255
814.833	7080
814.974	7129
815.115	7118
815.256	6977
815.397	6875
815.539	6928
815.68	6814
815.821	6783
815.962	6890
816.103	6886
816.244	6745
816.385	6608
816.526	6585
816.666	6494
816.807	6327
816.948	6456
817.089	6498
817.23	6475
817.371	6353
817.512	6403
817.653	6445
817.793	6365
817.934	6460
818.075	6486
818.216	6452
818.356	6452
818.497	6243
818.638	6133
818.778	6216
818.919	6133
819.06	6144
819.2	6273
819.341	6334
819.481	6342
819.622	6540
819.762	6745
819.903	6684
820.043	6597
820.184	6627
820.324	6540
820.465	6642
820.605	6692
820.746	6650
820.886	6502
821.026	6707
821.167	6715
821.307	6875
821.447	6749
821.588	6635
821.728	6555
821.868	6475
822.008	6372
822.149	6410
822.289	6380
822.429	6194
822.569	6087
822.709	6098
822.849	5927
822.99	5942
823.13	5935
823.27	5935
823.41	5775
823.55	5771
823.69	5775
823.83	5786
823.97	5661
824.11	5558
824.25	5490
824.389	5577
824.529	5570
824.669	5520
824.809	5657
824.949	5630
825.089	5543
825.228	5535
825.368	5372
825.508	5303
825.648	5341
825.787	5337
825.927	5410
826.067	5360
826.206	5303
826.346	5372
826.485	5455
826.625	5429
826.765	5532
826.904	5448
827.044	5269
827.183	5193
827.323	5060
827.462	5307
827.601	5197
827.741	5193
827.88	5254
828.02	5109
828.159	5227
828.298	5303
828.437	5315
828.577	5315
828.716	5455
828.855	5292
828.994	5166
829.134	5147
829.273	5280
829.412	5132
829.551	5147
829.69	5140
829.829	5277
829.968	5299
830.107	5269
830.246	5273
830.385	5197
830.524	5162
830.663	5083
830.802	4991
830.941	4889
831.08	4908
831.219	5041
831.357	4946
831.496	5170
831.635	4957
831.774	4896
831.913	4877
832.051	4725
832.19	4759
832.329	4919
832.467	4653
832.606	4641
832.744	4706
832.883	4736
833.022	4778
833.16	4782
833.299	4835
833.437	4824
833.576	4847
833.714	4843
833.852	4889
833.991	4881
834.129	4991
834.267	4984
834.406	4896
834.544	4961
834.682	4980
834.821	4980
834.959	5201
835.097	4999
835.235	5170
835.373	5048
835.511	5056
835.65	5045
835.788	5052
835.926	4866
836.064	4927
836.202	4919
836.34	5136
836.478	5292
836.615	5155
836.753	5239
836.891	5273
837.029	5246
837.167	5193
837.305	5170
837.443	5181
837.58	5113
837.718	5242
837.856	5155
837.993	5151
838.131	5216
838.269	5216
838.406	5208
838.544	5185
838.681	5056
838.819	5037
838.956	4938
839.094	4885
839.231	4999
839.369	5128
839.506	5383
839.643	5220
839.781	5105
839.918	5079
840.055	5067
840.193	5098
840.33	5109
840.467	5178
840.604	5204
840.742	5452
840.879	5041
841.016	5147
841.153	5132
841.29	5345
841.427	5357
841.564	5322
841.701	5360
841.838	5288
841.975	5231
842.112	5269
842.249	5140
842.385	5067
842.522	5318
842.659	5197
842.796	5128
842.933	5193
843.069	5166
843.206	5162
843.343	5322
843.479	5239
843.616	5296
843.752	5067
843.889	4987
844.025	5178
844.162	5025
844.298	5181
844.435	5109
844.571	5056
844.708	5227
844.844	5284
844.98	5364
845.117	5288
845.253	5151
845.389	5098
845.525	5166
845.661	5128
845.798	5105
845.934	5147
846.07	5109
846.206	5216
846.342	5269
846.478	5185
846.614	5079
846.75	4995
846.886	4965
847.022	5098
847.158	5022
847.294	5083
847.429	5102
847.565	5094
847.701	5303
847.837	4801
847.972	4809
848.108	4961
848.244	4957
848.379	4763
848.515	4755
848.65	4748
848.786	4706
848.921	4812
849.057	4862
849.192	4911
849.328	4824
849.463	4824
849.598	4786
849.734	4748
849.869	4694
850.004	4645
850.14	4672
850.275	4641
850.41	4554
850.545	4588
850.68	4649
850.815	4607
850.95	4634
851.085	4839
851.22	4748
851.355	4641
851.49	4584
851.625	4630
851.76	4603
851.895	4607
852.03	4535
852.165	4645
852.299	4717
852.434	4820
852.569	4736
852.703	4759
852.838	4847
852.973	4965
853.107	4881
853.242	4786
853.376	4675
853.511	4588
853.645	4615
853.78	4831
853.914	4694
854.048	4683
854.183	4649
854.317	4687
854.451	4793
854.585	4721
854.72	4637
854.854	4771
854.988	4603
855.122	4656
855.256	4519
855.39	4698
855.524	4797
855.658	4748
855.792	4736
855.926	4801
856.06	4778
856.194	4805
856.327	4679
856.461	4622
856.595	4577
856.729	4645
856.862	4744
856.996	4664
857.13	4717
857.263	4744
857.397	4793
857.53	4668
857.664	4721
857.797	4725
857.931	4782
858.064	4691
858.197	4748
858.331	4675
858.464	4634
858.597	4565
858.731	4630
858.864	4634
858.997	4596
859.13	4717
859.263	4626
859.396	4721
859.529	4577
859.662	4565
859.795	4569
859.928	4615
860.061	4763
860.194	4763
860.327	4596
860.46	4527
860.592	4668
860.725	4710
860.858	4698
860.99	4599
861.123	4508
861.256	4504
861.388	4626
861.521	5429
861.653	4459
861.786	4436
861.918	4478
862.05	4493
862.183	4550
862.315	4653
862.447	4622
862.58	4569
862.712	4337
862.844	4360
862.976	4519
863.108	4413
863.24	4797
863.372	4348
863.504	4432
863.636	4405
863.768	4455
863.9	4417
864.032	4337
864.164	4398
864.296	4508
864.428	4497
864.559	4561
864.691	4519
864.823	4489
864.954	4516
865.086	4573
865.217	4466
865.349	4462
865.48	4451
865.612	4535
865.743	4588
865.875	4462
866.006	4428
866.137	4443
866.269	4440
866.4	4432
866.531	4440
866.662	4379
866.793	4413
866.924	4398
867.055	4519
867.186	4504
867.317	4390
867.448	4356
867.579	4413
867.71	4394
867.841	4390
867.972	4440
868.103	4470
868.233	4462
868.364	4504
868.495	4459
868.625	4725
868.756	4786
868.886	4588
869.017	4611
869.147	4835
869.278	4774
869.408	4706
869.539	4592
869.669	4736
869.799	4675
869.929	4752
870.06	4717
870.19	4987
870.32	4934
870.45	4923
870.58	5045
870.71	5079
870.84	5079
870.97	4976
871.1	4938
871.23	5151
871.36	5151
871.489	5018
871.619	5067
871.749	5079
871.879	5136
872.008	5197
872.138	5094
872.267	4968
872.397	4870
872.526	4824
872.656	4729
872.785	4809
872.915	5022
873.044	5060
873.173	4934
873.303	4972
873.432	4968
873.561	4908
873.69	4870
873.819	4904
873.948	4911
874.077	4812
874.206	4763
874.335	4763
874.464	4908
874.593	5098
874.722	4957
874.851	5086
874.979	5067
875.108	5075
875.237	4919
875.365	4877
875.494	4911
875.623	4976
875.751	4843
875.88	4900
876.008	4972
876.136	5018
876.265	5220
876.393	5376
876.521	5227
876.65	5212
876.778	5193
876.906	5067
877.034	5041
877.162	5075
877.29	5010
877.418	5113
877.546	5064
877.674	5060
877.802	5048
877.93	4984
878.058	4930
878.185	4892
878.313	4949
878.441	4927
878.568	4831
878.696	4885
878.824	4965
878.951	4995
879.079	5090
879.206	5296
879.333	5124
879.461	4965
879.588	4987
879.715	5143
879.842	5273
879.97	4987
880.097	4809
880.224	4778
880.351	4809
880.478	4877
880.605	4816
880.732	4774
880.859	5056
880.986	4877
881.112	4938
881.239	4782
881.366	4641
881.493	4615
881.619	4653
881.746	4607
881.872	4653
881.999	4664
882.125	4767
882.252	4793
882.378	4816
882.505	4949
882.631	4824
882.757	4664
882.883	4721
883.01	4744
883.136	4672
883.262	4596
883.388	4656
883.514	4793
883.64	4892
883.766	4850
883.892	4683
884.018	4710
884.143	4927
884.269	5033
884.395	4626
884.52	4645
884.646	4637
884.772	4550
884.897	4615
885.023	4691
885.148	4771
885.274	4900
885.399	4805
885.524	4702
885.65	4755
885.775	4733
885.9	4698
886.025	4866
886.15	4809
886.275	4721
886.4	4660
886.525	4691
886.65	4717
886.775	4717
886.9	4915
887.025	5025
887.149	4790
887.274	4630
887.399	4649
887.523	4664
887.648	4550
887.773	4577
887.897	4744
888.021	4801
888.146	4687
888.27	4805
888.395	4911
888.519	4793
888.643	4854
888.767	4858
888.891	4740
889.015	4599
889.139	4660
889.263	4641
889.387	4752
889.511	4858
889.635	4790
889.759	4630
889.883	4717
890.006	4706
890.13	4831
890.254	4645
890.377	4683
890.501	4558
890.624	4531
890.748	4637
890.871	4542
890.995	4443
891.118	4409
891.241	4519
891.364	4535
891.488	4615
891.611	4535
891.734	4523
891.857	4573
891.98	4554
892.103	4634
892.226	4672
892.349	4527
892.471	4424
892.594	4554
892.717	4592
892.839	4592
892.962	4630
893.085	4702
893.207	4599
893.33	4466
893.452	4584
893.575	4634
893.697	4641
893.819	4790
893.941	4828
894.064	4801
894.186	4599
894.308	4558
894.43	4694
894.552	4805
894.674	4786
894.796	4527
894.918	4611
895.04	4565
895.161	4706
895.283	4649
895.405	4599
895.526	4645
895.648	4759
895.769	4725
895.891	4714
896.012	4702
896.134	4729
896.255	4675
896.376	4641
896.498	4653
896.619	4687
896.74	4580
896.861	4645
896.982	4892
897.103	5128
897.224	4831
897.345	4744
897.466	4683
897.587	4725
897.708	4847
897.828	4786
897.949	4622
898.07	4550
898.19	4660
898.311	4843
898.431	4653
898.552	4729
898.672	4820
898.792	4824
898.913	4763
899.033	4588
899.153	4550
899.273	4424
899.393	4546
899.513	4512
899.633	4519
899.753	4565
899.873	4481
899.993	4630
900.113	4550
900.232	4592
900.352	4546
900.472	4478
900.591	4398
900.711	4531
900.83	4409
900.95	4584
901.069	4641
901.189	4577
901.308	4341
901.427	4325
901.546	4325
901.665	4466
901.784	4542
901.904	4443
902.023	4333
902.141	4173
902.26	4135
902.379	4329
902.498	4291
902.617	4219
902.735	4379
902.854	4371
902.973	4371
903.091	4249
903.21	4284
903.328	4284
903.446	4276
903.565	4268
903.683	4360
903.801	4303
903.919	4394
904.038	4432
904.156	4337
904.274	4436
904.392	4352
904.51	4443
904.627	4455
904.745	4641
904.863	4622
904.981	4375
905.098	4299
905.216	4341
905.334	4451
905.451	4500
905.569	4451
905.686	4542
905.803	4569
905.921	4417
906.038	4573
906.155	4489
906.272	4367
906.389	4478
906.506	4341
906.623	4363
906.74	4402
906.857	4333
906.974	4371
907.091	4603
907.208	4664
907.324	4588
907.441	4500
907.557	4367
907.674	4367
907.79	4295
907.907	4405
908.023	4481
908.139	4447
908.256	4421
908.372	4455
908.488	4481
908.604	4344
908.72	4303
908.836	4375
908.952	4394
909.068	4409
909.184	4542
909.3	4493
909.415	4626
909.531	4523
909.647	4337
909.762	4341
909.878	4371
909.993	4481
910.108	4432
910.224	4402
910.339	4474
910.454	4383
910.57	4413
910.685	4314
910.8	4733
910.915	4618
911.03	4508
911.145	4352
911.259	4318
911.374	4371
911.489	4325
911.604	4257
911.718	4173
911.833	4219
911.947	4093
912.062	4032
912.176	4234
912.291	4280
912.405	4265
912.519	4459
912.633	4519
912.748	4348
912.862	4280
912.976	4181
913.09	4109
913.204	4162
913.318	4287
913.431	4405
913.545	4325
913.659	4474
913.772	4325
913.886	4287
914	4249
914.113	4428
914.226	4421
914.34	4402
914.453	4257
914.566	4405
914.68	4310
914.793	4314
914.906	4154
915.019	4150
915.132	4082
915.245	4188
915.358	4246
915.47	4219
915.583	4299
915.696	4303
915.809	4447
915.921	4459
916.034	4276
916.146	4261
916.259	4238
916.371	4363
916.483	4318
916.595	4230
916.708	4280
916.82	4314
916.932	4287
917.044	4344
917.156	4352
917.268	4234
917.38	4284
917.491	4272
917.603	4371
917.715	4451
917.826	4451
917.938	4341
918.049	4276
918.161	4371
918.272	4584
918.384	4546
918.495	4478
918.606	4337
918.717	4287
918.828	4314
918.939	4360
919.05	4280
919.161	4287
919.272	4143
919.383	4280
919.494	4428
919.604	4660
919.715	4455
919.826	4325
919.936	4379
920.047	4535
920.157	4481
920.267	4649
920.378	4531
920.488	4508
920.598	4714
920.708	4919
920.818	4774
920.928	4733
921.038	4938
921.148	4900
921.258	4656
921.368	4588
921.477	4523
921.587	4462
921.697	4386
921.806	4546
921.916	4455
922.025	4261
922.134	4284
922.244	4219
922.353	4322
922.462	4150
922.571	4158
922.68	4032
922.789	3953
922.898	3991
923.007	3998
923.116	4078
923.224	4097
923.333	4082
923.442	4040
923.55	3975
923.659	4021
923.767	4093
923.876	4044
923.984	4143
924.092	3998
924.201	4112
924.309	4051
924.417	4124
924.525	4048
924.633	4120
924.741	5052
924.849	3934
924.956	4120
925.064	3998
925.172	3899
925.279	3975
925.387	4051
925.494	4063
925.602	4230
925.709	4154
925.816	4044
925.924	4147
926.031	4223
926.138	4166
926.245	4215
926.352	4120
926.459	4280
926.566	4322
926.673	4169
926.779	4006
926.886	4116
926.993	3979
927.099	3975
927.206	3945
927.312	3964
927.419	4071
927.525	4029
927.631	4101
927.737	3975
927.843	3968
927.95	3808
928.056	3968
928.162	4002
928.267	4036
928.373	4660
928.479	4105
928.585	3846
928.69	4032
928.796	4063
928.901	4002
929.007	3846
929.112	3994
929.218	3953
929.323	3934
929.428	3941
929.533	4154
929.638	3896
929.743	3945
929.848	4017
929.953	4025
930.058	3960
930.163	3762
930.267	3865
930.372	3972
930.477	3804
930.581	4090
930.685	3979
930.79	3854
930.894	3918
930.998	3857
931.103	4067
931.207	3717
931.311	3705
931.415	3652
931.519	3519
931.623	3553
