Data from test_V78500241_2406.txt Node
Date: Fri Mar 25 17:05:43 CST 2022
User: usil
Spectrometer: V785-0024
Trigger mode: 0
Integration Time (sec): 4.000000E-1
Scans to average: 1
Nonlinearity correction enabled: false
Boxcar width: 0
Storing dark spectrum: false
XAxis mode: Wavelengths
Number of Pixels in Spectrum: 1024
>>>>>Begin Spectral Data<<<<<
801.071	8024
801.214	8016
801.356	7860
801.499	7849
801.641	7776
801.783	7822
801.926	7928
802.068	7917
802.211	7963
802.353	7993
802.496	7799
802.638	7887
802.78	7906
802.923	7982
803.065	7871
803.208	7875
803.35	7967
803.492	8157
803.635	8115
803.777	8103
803.919	8081
804.061	8454
804.204	8195
804.346	8126
804.488	7951
804.63	8043
804.773	7947
804.915	8134
805.057	8294
805.199	8183
805.341	8195
805.483	8237
805.626	8221
805.768	8180
805.91	8244
806.052	8168
806.194	8081
806.336	8324
806.478	8084
806.62	8027
806.762	8153
806.904	8275
807.046	8434
807.188	8374
807.33	8233
807.472	8305
807.614	8142
807.756	8123
807.898	7989
808.04	7875
808.182	7928
808.324	7856
808.465	7906
808.607	8024
808.749	8103
808.891	8252
809.033	8358
809.174	8214
809.316	8031
809.458	8115
809.6	8024
809.741	7993
809.883	8050
810.025	8138
810.166	8054
810.308	7947
810.45	8050
810.591	7871
810.733	7765
810.875	7613
811.016	7533
811.158	7453
811.299	7514
811.441	7761
811.582	7651
811.724	7651
811.865	7559
812.007	7613
812.148	7597
812.29	7700
812.431	7761
812.573	7913
812.714	8024
812.855	8119
812.997	8225
813.138	8328
813.279	8138
813.421	8073
813.562	7970
813.703	7868
813.845	7753
813.986	7411
814.127	7263
814.268	7240
814.41	7232
814.551	7179
814.692	7168
814.833	7095
814.974	7091
815.115	7156
815.256	6947
815.397	6886
815.539	6916
815.68	6829
815.821	6741
815.962	6871
816.103	6802
816.244	6783
816.385	6665
816.526	6627
816.666	6483
816.807	6308
816.948	6410
817.089	6486
817.23	6471
817.371	6361
817.512	6353
817.653	6391
817.793	6281
817.934	6418
818.075	6452
818.216	6388
818.356	6376
818.497	6220
818.638	6129
818.778	6098
818.919	6114
819.06	6178
819.2	6334
819.341	6331
819.481	6391
819.622	6555
819.762	6719
819.903	6745
820.043	6684
820.184	6574
820.324	6578
820.465	6700
820.605	6669
820.746	6692
820.886	6578
821.026	6639
821.167	6722
821.307	6795
821.447	6795
821.588	6639
821.728	6578
821.868	6536
822.008	6380
822.149	6300
822.289	6361
822.429	6167
822.569	6091
822.709	6121
822.849	5908
822.99	5904
823.13	5958
823.27	5954
823.41	5859
823.55	5779
823.69	5741
823.83	5760
823.97	5646
824.11	5524
824.25	5478
824.389	5547
824.529	5551
824.669	5539
824.809	5623
824.949	5707
825.089	5573
825.228	5592
825.368	5429
825.508	5372
825.648	5322
825.787	5376
825.927	5398
826.067	5353
826.206	5280
826.346	5372
826.485	5440
826.625	5383
826.765	5528
826.904	5512
827.044	5235
827.183	5239
827.323	5109
827.462	5231
827.601	5155
827.741	5185
827.88	5258
828.02	5143
828.159	5288
828.298	5299
828.437	5322
828.577	5277
828.716	5486
828.855	5311
828.994	5178
829.134	5143
829.273	5162
829.412	5128
829.551	5128
829.69	5178
829.829	5239
829.968	5452
830.107	5258
830.246	5235
830.385	5170
830.524	5124
830.663	5067
830.802	4980
830.941	4839
831.08	4892
831.219	4984
831.357	4908
831.496	5128
831.635	4896
831.774	4858
831.913	4885
832.051	4752
832.19	4759
832.329	4816
832.467	4664
832.606	4660
832.744	4698
832.883	4721
833.022	4733
833.16	4812
833.299	4816
833.437	4828
833.576	4831
833.714	4854
833.852	4847
833.991	4915
834.129	4991
834.267	4972
834.406	4881
834.544	4980
834.682	4976
834.821	4927
834.959	5151
835.097	4957
835.235	5155
835.373	5098
835.511	5094
835.65	5090
835.788	4999
835.926	4930
836.064	4870
836.202	4934
836.34	5159
836.478	5231
836.615	5094
836.753	5258
836.891	5235
837.029	5288
837.167	5216
837.305	5151
837.443	5166
837.58	5041
837.718	5201
837.856	5223
837.993	5132
838.131	5254
838.269	5223
838.406	5174
838.544	5250
838.681	4995
838.819	5041
838.956	4870
839.094	4892
839.231	4976
839.369	5132
839.506	5459
839.643	5227
839.781	5102
839.918	5025
840.055	5109
840.193	5151
840.33	5098
840.467	5136
840.604	5220
840.742	5452
840.879	5094
841.016	5064
841.153	5170
841.29	5334
841.427	5296
841.564	5318
841.701	5360
841.838	5273
841.975	5216
842.112	5292
842.249	5136
842.385	5159
842.522	5315
842.659	5159
842.796	5117
842.933	5212
843.069	5128
843.206	5140
843.343	5284
843.479	5250
843.616	5239
843.752	5045
843.889	5037
844.025	5250
844.162	5014
844.298	5204
844.435	5094
844.571	5075
844.708	5197
844.844	5303
844.98	5337
845.117	5299
845.253	5132
845.389	5083
845.525	5151
845.661	5143
845.798	5018
845.934	5147
846.07	5071
846.206	5166
846.342	5250
846.478	5178
846.614	4976
846.75	4946
846.886	4934
847.022	5143
847.158	5025
847.294	5003
847.429	5033
847.565	5064
847.701	5334
847.837	4816
847.972	4793
848.108	4942
848.244	4946
848.379	4752
848.515	4714
848.65	4729
848.786	4752
848.921	4744
849.057	4862
849.192	4923
849.328	4824
849.463	4881
849.598	4835
849.734	4740
849.869	4698
850.004	4634
850.14	4717
850.275	4656
850.41	4546
850.545	4558
850.68	4649
850.815	4618
850.95	4645
851.085	4854
851.22	4778
851.355	4630
851.49	4630
851.625	4645
851.76	4653
851.895	4584
852.03	4531
852.165	4672
852.299	4752
852.434	4748
852.569	4759
852.703	4778
852.838	4820
852.973	4908
853.107	4911
853.242	4778
853.376	4622
853.511	4550
853.645	4603
853.78	4786
853.914	4714
854.048	4679
854.183	4668
854.317	4679
854.451	4866
854.585	4672
854.72	4630
854.854	4771
854.988	4592
855.122	4618
855.256	4558
855.39	4691
855.524	4820
855.658	4710
855.792	4679
855.926	4710
856.06	4786
856.194	4782
856.327	4717
856.461	4611
856.595	4584
856.729	4603
856.862	4714
856.996	4668
857.13	4668
857.263	4774
857.397	4721
857.53	4653
857.664	4748
857.797	4755
857.931	4778
858.064	4675
858.197	4771
858.331	4645
858.464	4603
858.597	4527
858.731	4668
858.864	4580
858.997	4607
859.13	4668
859.263	4683
859.396	4736
859.529	4561
859.662	4569
859.795	4508
859.928	4615
860.061	4748
860.194	4778
860.327	4615
860.46	4538
860.592	4702
860.725	4736
860.858	4736
860.99	4596
861.123	4546
861.256	4569
861.388	4618
861.521	5341
861.653	4436
861.786	4474
861.918	4485
862.05	4500
862.183	4584
862.315	4626
862.447	4622
862.58	4531
862.712	4421
862.844	4314
862.976	4481
863.108	4474
863.24	4778
863.372	4341
863.504	4386
863.636	4436
863.768	4497
863.9	4462
864.032	4421
864.164	4443
864.296	4489
864.428	4558
864.559	4577
864.691	4535
864.823	4538
864.954	4493
865.086	4554
865.217	4417
865.349	4402
865.48	4485
865.612	4489
865.743	4615
865.875	4462
866.006	4398
866.137	4466
866.269	4413
866.4	4470
866.531	4466
866.662	4417
866.793	4421
866.924	4402
867.055	4462
867.186	4512
867.317	4424
867.448	4333
867.579	4398
867.71	4379
867.841	4394
867.972	4474
868.103	4474
868.233	4466
868.364	4443
868.495	4478
868.625	4660
868.756	4759
868.886	4584
869.017	4645
869.147	4755
869.278	4801
869.408	4615
869.539	4664
869.669	4736
869.799	4641
869.929	4729
870.06	4717
870.19	4896
870.32	4923
870.45	4957
870.58	5014
870.71	5071
870.84	5041
870.97	4923
871.1	4870
871.23	5132
871.36	5147
871.489	5067
871.619	5079
871.749	5113
871.879	5121
872.008	5181
872.138	5003
872.267	4934
872.397	4824
872.526	4831
872.656	4752
872.785	4831
872.915	4946
873.044	5071
873.173	4919
873.303	4942
873.432	4946
873.561	4987
873.69	4843
873.819	4873
873.948	4904
874.077	4835
874.206	4786
874.335	4771
874.464	4961
874.593	5025
874.722	5018
874.851	5102
874.979	5086
875.108	5041
875.237	4885
875.365	4828
875.494	4919
875.623	4968
875.751	4824
875.88	4873
876.008	4961
876.136	5025
876.265	5166
876.393	5315
876.521	5277
876.65	5220
876.778	5124
876.906	5045
877.034	5014
877.162	5033
877.29	4957
877.418	5075
877.546	5083
877.674	5056
877.802	5018
877.93	5003
878.058	4934
878.185	4870
878.313	4946
878.441	4984
878.568	4835
878.696	4824
878.824	4965
878.951	5029
879.079	5128
879.206	5265
879.333	5102
879.461	5033
879.588	4999
879.715	5086
879.842	5261
879.97	5029
880.097	4793
880.224	4767
880.351	4843
880.478	4820
880.605	4759
880.732	4774
880.859	5159
880.986	4877
881.112	4930
881.239	4752
881.366	4694
881.493	4592
881.619	4561
881.746	4611
881.872	4664
881.999	4664
882.125	4656
882.252	4801
882.378	4820
882.505	4930
882.631	4797
882.757	4691
882.883	4740
883.01	4725
883.136	4630
883.262	4596
883.388	4588
883.514	4816
883.64	4866
883.766	4809
883.892	4683
884.018	4729
884.143	4892
884.269	4999
884.395	4637
884.52	4630
884.646	4668
884.772	4588
884.897	4542
885.023	4645
885.148	4809
885.274	4862
885.399	4786
885.524	4679
885.65	4656
885.775	4717
885.9	4675
886.025	4839
886.15	4816
886.275	4725
886.4	4664
886.525	4710
886.65	4668
886.775	4748
886.9	4896
887.025	5025
887.149	4782
887.274	4687
887.399	4596
887.523	4645
887.648	4516
887.773	4596
887.897	4733
888.021	4820
888.146	4706
888.27	4786
888.395	4919
888.519	4786
888.643	4809
888.767	4824
888.891	4725
889.015	4596
889.139	4634
889.263	4592
889.387	4740
889.511	4854
889.635	4801
889.759	4641
889.883	4634
890.006	4675
890.13	4824
890.254	4584
890.377	4645
890.501	4550
890.624	4523
890.748	4679
890.871	4493
890.995	4462
891.118	4371
891.241	4558
891.364	4478
891.488	4660
891.611	4493
891.734	4523
891.857	4618
891.98	4527
892.103	4653
892.226	4592
892.349	4512
892.471	4462
892.594	4542
892.717	4561
892.839	4554
892.962	4592
893.085	4653
893.207	4596
893.33	4451
893.452	4535
893.575	4702
893.697	4592
893.819	4835
893.941	4824
894.064	4805
894.186	4592
894.308	4569
894.43	4748
894.552	4805
894.674	4714
894.796	4618
894.918	4573
895.04	4577
895.161	4733
895.283	4668
895.405	4607
895.526	4615
895.648	4683
895.769	4714
895.891	4729
896.012	4721
896.134	4771
896.255	4672
896.376	4603
896.498	4618
896.619	4691
896.74	4599
896.861	4611
896.982	4942
897.103	5136
897.224	4862
897.345	4748
897.466	4679
897.587	4740
897.708	4908
897.828	4763
897.949	4637
898.07	4569
898.19	4607
898.311	4786
898.431	4672
898.552	4710
898.672	4828
898.792	4790
898.913	4744
899.033	4603
899.153	4535
899.273	4405
899.393	4497
899.513	4512
899.633	4538
899.753	4516
899.873	4519
899.993	4519
900.113	4546
900.232	4596
900.352	4558
900.472	4493
900.591	4405
900.711	4519
900.83	4459
900.95	4618
901.069	4675
901.189	4592
901.308	4375
901.427	4344
901.546	4375
901.665	4443
901.784	4531
901.904	4394
902.023	4322
902.141	4112
902.26	4150
902.379	4284
902.498	4211
902.617	4215
902.735	4352
902.854	4371
902.973	4363
903.091	4147
903.21	4219
903.328	4268
903.446	4314
903.565	4246
903.683	4310
903.801	4246
903.919	4398
904.038	4436
904.156	4306
904.274	4451
904.392	4386
904.51	4409
904.627	4436
904.745	4569
904.863	4599
904.981	4386
905.098	4318
905.216	4356
905.334	4424
905.451	4459
905.569	4398
905.686	4516
905.803	4516
905.921	4432
906.038	4493
906.155	4519
906.272	4409
906.389	4447
906.506	4344
906.623	4333
906.74	4386
906.857	4303
906.974	4379
907.091	4523
907.208	4672
907.324	4626
907.441	4474
907.557	4329
907.674	4356
907.79	4291
907.907	4344
908.023	4436
908.139	4455
908.256	4424
908.372	4493
908.488	4421
908.604	4318
908.72	4337
908.836	4348
908.952	4363
909.068	4462
909.184	4592
909.3	4481
909.415	4603
909.531	4588
909.647	4348
909.762	4386
909.878	4329
909.993	4417
910.108	4447
910.224	4390
910.339	4504
910.454	4375
910.57	4363
910.685	4276
910.8	4660
910.915	4615
911.03	4500
911.145	4299
911.259	4310
911.374	4379
911.489	4322
911.604	4325
911.718	4200
911.833	4211
911.947	4128
912.062	4044
912.176	4200
912.291	4242
912.405	4242
912.519	4451
912.633	4500
912.748	4333
912.862	4318
912.976	4200
913.09	4101
913.204	4177
913.318	4295
913.431	4352
913.545	4428
913.659	4424
913.772	4379
913.886	4249
914	4238
914.113	4356
914.226	4405
914.34	4417
914.453	4234
914.566	4421
914.68	4329
914.793	4390
914.906	4131
915.019	4063
915.132	4097
915.245	4143
915.358	4192
915.47	4253
915.583	4287
915.696	4329
915.809	4424
915.921	4432
916.034	4242
916.146	4238
916.259	4215
916.371	4379
916.483	4333
916.595	4249
916.708	4333
916.82	4348
916.932	4318
917.044	4329
917.156	4287
917.268	4284
917.38	4314
917.491	4246
917.603	4337
917.715	4424
917.826	4436
917.938	4306
918.049	4253
918.161	4398
918.272	4512
918.384	4500
918.495	4459
918.606	4295
918.717	4230
918.828	4318
918.939	4333
919.05	4249
919.161	4303
919.272	4101
919.383	4223
919.494	4402
919.604	4622
919.715	4402
919.826	4344
919.936	4398
920.047	4546
920.157	4512
920.267	4649
920.378	4592
920.488	4512
920.598	4706
920.708	4938
920.818	4721
920.928	4767
921.038	4968
921.148	4942
921.258	4656
921.368	4569
921.477	4485
921.587	4470
921.697	4352
921.806	4577
921.916	4462
922.025	4280
922.134	4287
922.244	4211
922.353	4344
922.462	4185
922.571	4131
922.68	4040
922.789	3972
922.898	4074
923.007	3991
923.116	4109
923.224	4074
923.333	4166
923.442	4017
923.55	3945
923.659	4021
923.767	4093
923.876	4051
923.984	4063
924.092	4002
924.201	4078
924.309	4112
924.417	4139
924.525	4078
924.633	4090
924.741	5022
924.849	3903
924.956	4109
925.064	3941
925.172	3888
925.279	3945
925.387	4067
925.494	4059
925.602	4204
925.709	4181
925.816	4048
925.924	4116
926.031	4234
926.138	4154
926.245	4211
926.352	4109
926.459	4268
926.566	4314
926.673	4162
926.779	4097
926.886	4071
926.993	4002
927.099	3907
927.206	3922
927.312	3960
927.419	4063
927.525	4032
927.631	4109
927.737	3930
927.843	3899
927.95	3880
928.056	3945
928.162	4017
928.267	4036
928.373	4687
928.479	4150
928.585	3888
928.69	4010
928.796	4051
928.901	3945
929.007	3850
929.112	3994
929.218	3953
929.323	3949
929.428	3922
929.533	4040
929.638	3937
929.743	3907
929.848	4059
929.953	4029
930.058	3972
930.163	3755
930.267	3800
930.372	4013
930.477	3804
930.581	4086
930.685	3915
930.79	3823
930.894	3903
930.998	3865
931.103	4025
931.207	3728
931.311	3713
931.415	3740
931.519	3530
931.623	3564
