Data from test_V78500241_2582.txt Node
Date: Fri Mar 25 17:06:57 CST 2022
User: usil
Spectrometer: V785-0024
Trigger mode: 0
Integration Time (sec): 4.000000E-1
Scans to average: 1
Nonlinearity correction enabled: false
Boxcar width: 0
Storing dark spectrum: false
XAxis mode: Wavelengths
Number of Pixels in Spectrum: 1024
>>>>>Begin Spectral Data<<<<<
801.071	8001
801.214	7959
801.356	7879
801.499	7883
801.641	7761
801.783	7807
801.926	7944
802.068	7932
802.211	7986
802.353	7982
802.496	7860
802.638	7868
802.78	7780
802.923	7974
803.065	7852
803.208	7898
803.35	7970
803.492	8115
803.635	8126
803.777	8069
803.919	8107
804.061	8446
804.204	8130
804.346	8054
804.488	7955
804.63	8096
804.773	8043
804.915	8092
805.057	8301
805.199	8180
805.341	8176
805.483	8252
805.626	8252
805.768	8206
805.91	8191
806.052	8180
806.194	8134
806.336	8263
806.478	8058
806.62	8073
806.762	8149
806.904	8259
807.046	8431
807.188	8313
807.33	8267
807.472	8240
807.614	8161
807.756	8157
807.898	8050
808.04	7879
808.182	7890
808.324	7822
808.465	7925
808.607	8100
808.749	8157
808.891	8221
809.033	8309
809.174	8248
809.316	8119
809.458	8054
809.6	7989
809.741	8001
809.883	7997
810.025	8092
810.166	8062
810.308	8046
810.45	7928
810.591	7860
810.733	7674
810.875	7704
811.016	7476
811.158	7415
811.299	7613
811.441	7693
811.582	7727
811.724	7540
811.865	7491
812.007	7643
812.148	7681
812.29	7651
812.431	7704
812.573	7894
812.714	7993
812.855	8119
812.997	8172
813.138	8320
813.279	8191
813.421	8069
813.562	7944
813.703	7909
813.845	7776
813.986	7445
814.127	7270
814.268	7236
814.41	7183
814.551	7137
814.692	7270
814.833	7042
814.974	7099
815.115	7107
815.256	6947
815.397	6932
815.539	7000
815.68	6837
815.821	6757
815.962	6806
816.103	6840
816.244	6760
816.385	6642
816.526	6620
816.666	6486
816.807	6315
816.948	6433
817.089	6464
817.23	6479
817.371	6429
817.512	6426
817.653	6327
817.793	6327
817.934	6376
818.075	6475
818.216	6460
818.356	6422
818.497	6243
818.638	6216
818.778	6201
818.919	6125
819.06	6152
819.2	6357
819.341	6319
819.481	6388
819.622	6601
819.762	6825
819.903	6715
820.043	6703
820.184	6616
820.324	6563
820.465	6715
820.605	6703
820.746	6715
820.886	6506
821.026	6715
821.167	6715
821.307	6787
821.447	6802
821.588	6684
821.728	6589
821.868	6475
822.008	6353
822.149	6391
822.289	6319
822.429	6155
822.569	6136
822.709	6098
822.849	5977
822.99	5920
823.13	5992
823.27	5935
823.41	5805
823.55	5817
823.69	5760
823.83	5813
823.97	5672
824.11	5524
824.25	5558
824.389	5532
824.529	5608
824.669	5539
824.809	5695
824.949	5657
825.089	5688
825.228	5551
825.368	5448
825.508	5345
825.648	5360
825.787	5364
825.927	5406
826.067	5349
826.206	5242
826.346	5349
826.485	5440
826.625	5383
826.765	5577
826.904	5478
827.044	5235
827.183	5197
827.323	5128
827.462	5220
827.601	5185
827.741	5162
827.88	5220
828.02	5143
828.159	5235
828.298	5345
828.437	5421
828.577	5284
828.716	5463
828.855	5353
828.994	5147
829.134	5132
829.273	5143
829.412	5121
829.551	5109
829.69	5155
829.829	5242
829.968	5414
830.107	5315
830.246	5280
830.385	5143
830.524	5155
830.663	5098
830.802	4999
830.941	4877
831.08	4835
831.219	4991
831.357	4991
831.496	5147
831.635	4908
831.774	4866
831.913	4828
832.051	4702
832.19	4736
832.329	4847
832.467	4706
832.606	4599
832.744	4736
832.883	4771
833.022	4748
833.16	4759
833.299	4862
833.437	4809
833.576	4828
833.714	4870
833.852	4843
833.991	4889
834.129	4968
834.267	4961
834.406	4885
834.544	4980
834.682	5018
834.821	4968
834.959	5094
835.097	5041
835.235	5109
835.373	5067
835.511	5090
835.65	4995
835.788	5014
835.926	4919
836.064	4892
836.202	4927
836.34	5128
836.478	5216
836.615	5155
836.753	5170
836.891	5296
837.029	5258
837.167	5227
837.305	5193
837.443	5155
837.58	5064
837.718	5242
837.856	5197
837.993	5151
838.131	5227
838.269	5223
838.406	5151
838.544	5181
838.681	5060
838.819	4999
838.956	4904
839.094	4885
839.231	5006
839.369	5140
839.506	5474
839.643	5284
839.781	5052
839.918	5014
840.055	5071
840.193	5105
840.33	5128
840.467	5128
840.604	5136
840.742	5455
840.879	5060
841.016	5071
841.153	5128
841.29	5349
841.427	5372
841.564	5337
841.701	5372
841.838	5269
841.975	5174
842.112	5254
842.249	5124
842.385	5105
842.522	5296
842.659	5181
842.796	5147
842.933	5181
843.069	5193
843.206	5189
843.343	5303
843.479	5250
843.616	5265
843.752	5079
843.889	4987
844.025	5242
844.162	5037
844.298	5185
844.435	5064
844.571	5064
844.708	5185
844.844	5235
844.98	5360
845.117	5334
845.253	5094
845.389	5086
845.525	5174
845.661	5124
845.798	5048
845.934	5086
846.07	5056
846.206	5181
846.342	5280
846.478	5170
846.614	4991
846.75	4976
846.886	4915
847.022	5132
847.158	5006
847.294	5045
847.429	5128
847.565	5018
847.701	5345
847.837	4889
847.972	4778
848.108	4991
848.244	4942
848.379	4763
848.515	4740
848.65	4706
848.786	4774
848.921	4733
849.057	4866
849.192	4923
849.328	4839
849.463	4862
849.598	4755
849.734	4752
849.869	4672
850.004	4649
850.14	4656
850.275	4588
850.41	4542
850.545	4535
850.68	4637
850.815	4637
850.95	4584
851.085	4881
851.22	4778
851.355	4653
851.49	4599
851.625	4588
851.76	4653
851.895	4554
852.03	4535
852.165	4675
852.299	4710
852.434	4828
852.569	4748
852.703	4793
852.838	4809
852.973	4915
853.107	4949
853.242	4717
853.376	4702
853.511	4531
853.645	4618
853.78	4763
853.914	4706
854.048	4626
854.183	4698
854.317	4721
854.451	4831
854.585	4660
854.72	4637
854.854	4717
854.988	4615
855.122	4596
855.256	4485
855.39	4664
855.524	4748
855.658	4714
855.792	4698
855.926	4694
856.06	4771
856.194	4793
856.327	4653
856.461	4596
856.595	4596
856.729	4630
856.862	4767
856.996	4664
857.13	4752
857.263	4752
857.397	4763
857.53	4694
857.664	4721
857.797	4774
857.931	4790
858.064	4679
858.197	4729
858.331	4626
858.464	4592
858.597	4512
858.731	4618
858.864	4637
858.997	4622
859.13	4626
859.263	4691
859.396	4710
859.529	4599
859.662	4592
859.795	4516
859.928	4599
860.061	4755
860.194	4767
860.327	4584
860.46	4542
860.592	4694
860.725	4752
860.858	4694
860.99	4599
861.123	4558
861.256	4531
861.388	4603
861.521	5284
861.653	4478
861.786	4500
861.918	4466
862.05	4550
862.183	4546
862.315	4569
862.447	4615
862.58	4538
862.712	4402
862.844	4367
862.976	4504
863.108	4546
863.24	4763
863.372	4337
863.504	4424
863.636	4417
863.768	4474
863.9	4462
864.032	4344
864.164	4356
864.296	4474
864.428	4542
864.559	4508
864.691	4519
864.823	4531
864.954	4516
865.086	4516
865.217	4455
865.349	4405
865.48	4443
865.612	4500
865.743	4603
865.875	4474
866.006	4413
866.137	4432
866.269	4417
866.4	4428
866.531	4436
866.662	4367
866.793	4390
866.924	4417
867.055	4500
867.186	4447
867.317	4440
867.448	4405
867.579	4421
867.71	4398
867.841	4329
867.972	4398
868.103	4466
868.233	4424
868.364	4402
868.495	4493
868.625	4679
868.756	4729
868.886	4554
869.017	4603
869.147	4782
869.278	4816
869.408	4645
869.539	4641
869.669	4729
869.799	4668
869.929	4721
870.06	4675
870.19	4999
870.32	4915
870.45	4889
870.58	5003
870.71	5132
870.84	5064
870.97	4911
871.1	4881
871.23	5151
871.36	5159
871.489	5025
871.619	5105
871.749	5048
871.879	5143
872.008	5189
872.138	5079
872.267	4942
872.397	4816
872.526	4812
872.656	4710
872.785	4820
872.915	4957
873.044	4980
873.173	4976
873.303	4972
873.432	4911
873.561	4968
873.69	4839
873.819	4854
873.948	4847
874.077	4805
874.206	4736
874.335	4774
874.464	4885
874.593	5025
874.722	4965
874.851	5098
874.979	5067
875.108	5045
875.237	4919
875.365	4892
875.494	4889
875.623	5048
875.751	4801
875.88	4843
876.008	4949
876.136	4995
876.265	5189
876.393	5341
876.521	5269
876.65	5204
876.778	5162
876.906	5029
877.034	5010
877.162	5010
877.29	4957
877.418	5048
877.546	5033
877.674	5033
877.802	5060
877.93	5029
878.058	4942
878.185	4892
878.313	4991
878.441	4942
878.568	4831
878.696	4858
878.824	4953
878.951	5033
879.079	5193
879.206	5303
879.333	5113
879.461	4999
879.588	4972
879.715	5109
879.842	5261
879.97	5060
880.097	4793
880.224	4790
880.351	4778
880.478	4873
880.605	4858
880.732	4839
880.859	5143
880.986	4896
881.112	4976
881.239	4793
881.366	4771
881.493	4649
881.619	4618
881.746	4645
881.872	4649
881.999	4736
882.125	4740
882.252	4831
882.378	4828
882.505	4968
882.631	4854
882.757	4752
882.883	4828
883.01	4759
883.136	4675
883.262	4668
883.388	4698
883.514	4816
883.64	4919
883.766	4862
883.892	4736
884.018	4763
884.143	4930
884.269	5064
884.395	4698
884.52	4672
884.646	4725
884.772	4622
884.897	4607
885.023	4714
885.148	4816
885.274	4889
885.399	4828
885.524	4717
885.65	4778
885.775	4752
885.9	4748
886.025	4862
886.15	4850
886.275	4748
886.4	4721
886.525	4778
886.65	4721
886.775	4752
886.9	4957
887.025	5090
887.149	4847
887.274	4672
887.399	4687
887.523	4645
887.648	4622
887.773	4634
887.897	4801
888.021	4820
888.146	4759
888.27	4862
888.395	4881
888.519	4786
888.643	4843
888.767	4896
888.891	4748
889.015	4672
889.139	4664
889.263	4687
889.387	4793
889.511	4881
889.635	4786
889.759	4649
889.883	4637
890.006	4767
890.13	4866
890.254	4660
890.377	4714
890.501	4596
890.624	4542
890.748	4660
890.871	4542
890.995	4500
891.118	4451
891.241	4599
891.364	4558
891.488	4664
891.611	4550
891.734	4577
891.857	4626
891.98	4588
892.103	4687
892.226	4634
892.349	4573
892.471	4455
892.594	4569
892.717	4660
892.839	4592
892.962	4626
893.085	4668
893.207	4611
893.33	4531
893.452	4546
893.575	4687
893.697	4656
893.819	4797
893.941	4847
894.064	4801
894.186	4618
894.308	4565
894.43	4744
894.552	4835
894.674	4820
894.796	4584
894.918	4634
895.04	4611
895.161	4767
895.283	4702
895.405	4618
895.526	4675
895.648	4721
895.769	4729
895.891	4786
896.012	4771
896.134	4790
896.255	4694
896.376	4679
896.498	4656
896.619	4729
896.74	4675
896.861	4675
896.982	4923
897.103	5147
897.224	4850
897.345	4725
897.466	4679
897.587	4755
897.708	4915
897.828	4797
897.949	4702
898.07	4588
898.19	4691
898.311	4824
898.431	4725
898.552	4763
898.672	4892
898.792	4885
898.913	4793
899.033	4675
899.153	4519
899.273	4451
899.393	4493
899.513	4588
899.633	4538
899.753	4584
899.873	4542
899.993	4573
900.113	4554
900.232	4622
900.352	4611
900.472	4516
900.591	4478
900.711	4535
900.83	4462
900.95	4664
901.069	4717
901.189	4584
901.308	4413
901.427	4375
901.546	4402
901.665	4519
901.784	4565
901.904	4402
902.023	4375
902.141	4204
902.26	4177
902.379	4318
902.498	4291
902.617	4268
902.735	4371
902.854	4443
902.973	4383
903.091	4246
903.21	4265
903.328	4333
903.446	4325
903.565	4291
903.683	4356
903.801	4314
903.919	4455
904.038	4466
904.156	4344
904.274	4424
904.392	4474
904.51	4451
904.627	4550
904.745	4584
904.863	4656
904.981	4417
905.098	4329
905.216	4436
905.334	4417
905.451	4455
905.569	4451
905.686	4580
905.803	4588
905.921	4447
906.038	4573
906.155	4531
906.272	4413
906.389	4527
906.506	4421
906.623	4371
906.74	4379
906.857	4310
906.974	4348
907.091	4584
907.208	4683
907.324	4599
907.441	4542
907.557	4375
907.674	4383
907.79	4295
907.907	4386
908.023	4542
908.139	4516
908.256	4459
908.372	4504
908.488	4489
908.604	4383
908.72	4409
908.836	4451
908.952	4398
909.068	4440
909.184	4596
909.3	4516
909.415	4634
909.531	4592
909.647	4421
909.762	4447
909.878	4394
909.993	4432
910.108	4459
910.224	4451
910.339	4485
910.454	4440
910.57	4394
910.685	4314
910.8	4698
910.915	4626
911.03	4535
911.145	4322
911.259	4337
911.374	4428
911.489	4325
911.604	4280
911.718	4166
911.833	4242
911.947	4101
912.062	4021
912.176	4268
912.291	4295
912.405	4272
912.519	4523
912.633	4538
912.748	4432
912.862	4341
912.976	4249
913.09	4109
913.204	4192
913.318	4253
913.431	4386
913.545	4348
913.659	4485
913.772	4421
913.886	4303
914	4223
914.113	4363
914.226	4436
914.34	4443
914.453	4261
914.566	4409
914.68	4325
914.793	4428
914.906	4227
915.019	4154
915.132	4135
915.245	4185
915.358	4234
915.47	4291
915.583	4291
915.696	4360
915.809	4424
915.921	4462
916.034	4261
916.146	4325
916.259	4234
916.371	4402
916.483	4390
916.595	4306
916.708	4344
916.82	4322
916.932	4348
917.044	4360
917.156	4371
917.268	4276
917.38	4306
917.491	4314
917.603	4383
917.715	4424
917.826	4459
917.938	4405
918.049	4265
918.161	4398
918.272	4580
918.384	4550
918.495	4493
918.606	4344
918.717	4246
918.828	4348
918.939	4375
919.05	4287
919.161	4329
919.272	4135
919.383	4272
919.494	4413
919.604	4641
919.715	4462
919.826	4386
919.936	4432
920.047	4561
920.157	4527
920.267	4733
920.378	4523
920.488	4535
920.598	4774
920.708	4896
920.818	4790
920.928	4793
921.038	4946
921.148	4942
921.258	4649
921.368	4546
921.477	4485
921.587	4455
921.697	4428
921.806	4622
921.916	4421
922.025	4337
922.134	4306
922.244	4246
922.353	4318
922.462	4173
922.571	4147
922.68	4025
922.789	4021
922.898	4101
923.007	4006
923.116	4128
923.224	4078
923.333	4086
923.442	4063
923.55	3956
923.659	4063
923.767	4154
923.876	4048
923.984	4135
924.092	3983
924.201	4120
924.309	4162
924.417	4131
924.525	4051
924.633	4128
924.741	5113
924.849	3926
924.956	4173
925.064	3983
925.172	3907
925.279	3994
925.387	4067
925.494	4036
925.602	4230
925.709	4173
925.816	4097
925.924	4131
926.031	4303
926.138	4192
926.245	4207
926.352	4105
926.459	4287
926.566	4272
926.673	4204
926.779	4086
926.886	4128
926.993	4032
927.099	4002
927.206	3960
927.312	3975
927.419	4097
927.525	4097
927.631	4101
927.737	3991
927.843	3998
927.95	3865
928.056	4013
928.162	3960
928.267	4101
928.373	4603
928.479	4143
928.585	3896
928.69	4105
928.796	4093
928.901	3991
929.007	3903
929.112	4040
929.218	3998
929.323	3991
929.428	3945
929.533	4120
929.638	3964
929.743	3964
929.848	4044
929.953	4010
930.058	3956
930.163	3827
930.267	3846
930.372	3972
930.477	3819
930.581	4109
930.685	3987
930.79	3865
930.894	3903
930.998	3896
931.103	4067
931.207	3671
931.311	3713
931.415	3682
931.519	3538
931.623	3599
