Data from test_V78500241_1013.txt Node
Date: Fri Mar 25 16:56:02 CST 2022
User: usil
Spectrometer: V785-0024
Trigger mode: 0
Integration Time (sec): 4.000000E-1
Scans to average: 1
Nonlinearity correction enabled: false
Boxcar width: 0
Storing dark spectrum: false
XAxis mode: Wavelengths
Number of Pixels in Spectrum: 1024
>>>>>Begin Spectral Data<<<<<
801.071	8027
801.214	8050
801.356	7902
801.499	7856
801.641	7841
801.783	7830
801.926	7936
802.068	7963
802.211	7898
802.353	7917
802.496	7822
802.638	7909
802.78	7875
802.923	7982
803.065	7856
803.208	7890
803.35	8043
803.492	8115
803.635	8191
803.777	8084
803.919	8168
804.061	8511
804.204	8119
804.346	8005
804.488	7909
804.63	8123
804.773	8027
804.915	8081
805.057	8366
805.199	8202
805.341	8248
805.483	8244
805.626	8130
805.768	8119
805.91	8240
806.052	8214
806.194	8077
806.336	8275
806.478	8107
806.62	7970
806.762	8161
806.904	8294
807.046	8400
807.188	8313
807.33	8282
807.472	8415
807.614	8183
807.756	8092
807.898	7986
808.04	7906
808.182	7932
808.324	7974
808.465	7921
808.607	8065
808.749	8058
808.891	8237
809.033	8286
809.174	8164
809.316	8043
809.458	7993
809.6	8035
809.741	8069
809.883	8077
810.025	8107
810.166	8039
810.308	8016
810.45	8100
810.591	7940
810.733	7655
810.875	7666
811.016	7540
811.158	7480
811.299	7609
811.441	7719
811.582	7685
811.724	7578
811.865	7506
812.007	7544
812.148	7571
812.29	7620
812.431	7780
812.573	7894
812.714	7967
812.855	8092
812.997	8180
813.138	8324
813.279	8195
813.421	8073
813.562	8046
813.703	7860
813.845	7776
813.986	7521
814.127	7346
814.268	7259
814.41	7217
814.551	7065
814.692	7217
814.833	7099
814.974	7042
815.115	7171
815.256	6993
815.397	6924
815.539	6913
815.68	6802
815.821	6730
815.962	6871
816.103	6821
816.244	6772
816.385	6654
816.526	6684
816.666	6536
816.807	6334
816.948	6441
817.089	6521
817.23	6456
817.371	6403
817.512	6376
817.653	6479
817.793	6414
817.934	6460
818.075	6414
818.216	6475
818.356	6403
818.497	6243
818.638	6129
818.778	6152
818.919	6136
819.06	6163
819.2	6277
819.341	6327
819.481	6292
819.622	6513
819.762	6700
819.903	6696
820.043	6616
820.184	6589
820.324	6589
820.465	6665
820.605	6627
820.746	6627
820.886	6460
821.026	6700
821.167	6681
821.307	6757
821.447	6795
821.588	6646
821.728	6574
821.868	6517
822.008	6395
822.149	6308
822.289	6353
822.429	6155
822.569	6068
822.709	6133
822.849	5946
822.99	5954
823.13	5984
823.27	5931
823.41	5745
823.55	5790
823.69	5832
823.83	5840
823.97	5646
824.11	5558
824.25	5509
824.389	5581
824.529	5585
824.669	5501
824.809	5611
824.949	5703
825.089	5627
825.228	5516
825.368	5433
825.508	5368
825.648	5318
825.787	5379
825.927	5402
826.067	5307
826.206	5326
826.346	5372
826.485	5383
826.625	5402
826.765	5539
826.904	5463
827.044	5239
827.183	5140
827.323	5109
827.462	5265
827.601	5189
827.741	5212
827.88	5197
828.02	5162
828.159	5197
828.298	5254
828.437	5315
828.577	5311
828.716	5471
828.855	5349
828.994	5197
829.134	5128
829.273	5204
829.412	5181
829.551	5109
829.69	5128
829.829	5227
829.968	5360
830.107	5288
830.246	5353
830.385	5178
830.524	5143
830.663	5052
830.802	4987
830.941	4896
831.08	4896
831.219	4968
831.357	5033
831.496	5166
831.635	4942
831.774	4866
831.913	4835
832.051	4752
832.19	4740
832.329	4831
832.467	4698
832.606	4668
832.744	4771
832.883	4736
833.022	4752
833.16	4793
833.299	4824
833.437	4805
833.576	4847
833.714	4839
833.852	4850
833.991	4877
834.129	4972
834.267	4965
834.406	4953
834.544	4987
834.682	4991
834.821	4972
834.959	5113
835.097	4976
835.235	5124
835.373	5094
835.511	5128
835.65	5060
835.788	5033
835.926	4873
836.064	4915
836.202	4984
836.34	5170
836.478	5258
836.615	5178
836.753	5197
836.891	5280
837.029	5258
837.167	5220
837.305	5170
837.443	5159
837.58	5128
837.718	5250
837.856	5159
837.993	5151
838.131	5220
838.269	5181
838.406	5216
838.544	5208
838.681	5071
838.819	4999
838.956	4885
839.094	4923
839.231	4957
839.369	5064
839.506	5417
839.643	5265
839.781	5064
839.918	5014
840.055	5117
840.193	5105
840.33	5071
840.467	5132
840.604	5189
840.742	5417
840.879	5075
841.016	5067
841.153	5124
841.29	5345
841.427	5337
841.564	5337
841.701	5341
841.838	5334
841.975	5273
842.112	5284
842.249	5098
842.385	5136
842.522	5345
842.659	5140
842.796	5185
842.933	5220
843.069	5159
843.206	5155
843.343	5296
843.479	5212
843.616	5235
843.752	4995
843.889	4999
844.025	5212
844.162	4991
844.298	5181
844.435	5098
844.571	5022
844.708	5223
844.844	5315
844.98	5357
845.117	5334
845.253	5124
845.389	5052
845.525	5105
845.661	5181
845.798	5064
845.934	5140
846.07	5048
846.206	5140
846.342	5307
846.478	5178
846.614	5052
846.75	4896
846.886	4934
847.022	5102
847.158	5029
847.294	5064
847.429	5094
847.565	5003
847.701	5307
847.837	4828
847.972	4805
848.108	4968
848.244	4938
848.379	4763
848.515	4733
848.65	4736
848.786	4778
848.921	4759
849.057	4847
849.192	4908
849.328	4820
849.463	4809
849.598	4782
849.734	4767
849.869	4683
850.004	4618
850.14	4679
850.275	4630
850.41	4561
850.545	4523
850.68	4653
850.815	4675
850.95	4615
851.085	4839
851.22	4790
851.355	4706
851.49	4698
851.625	4611
851.76	4672
851.895	4637
852.03	4573
852.165	4668
852.299	4763
852.434	4873
852.569	4748
852.703	4820
852.838	4767
852.973	4953
853.107	4972
853.242	4771
853.376	4710
853.511	4546
853.645	4656
853.78	4820
853.914	4771
854.048	4714
854.183	4691
854.317	4755
854.451	4847
854.585	4702
854.72	4668
854.854	4774
854.988	4649
855.122	4675
855.256	4512
855.39	4694
855.524	4862
855.658	4748
855.792	4774
855.926	4782
856.06	4793
856.194	4850
856.327	4729
856.461	4618
856.595	4656
856.729	4645
856.862	4793
856.996	4717
857.13	4748
857.263	4778
857.397	4782
857.53	4683
857.664	4805
857.797	4824
857.931	4835
858.064	4717
858.197	4782
858.331	4672
858.464	4656
858.597	4550
858.731	4611
858.864	4672
858.997	4615
859.13	4675
859.263	4694
859.396	4744
859.529	4615
859.662	4592
859.795	4531
859.928	4656
860.061	4752
860.194	4763
860.327	4645
860.46	4592
860.592	4721
860.725	4763
860.858	4733
860.99	4634
861.123	4584
861.256	4535
861.388	4679
861.521	5299
861.653	4527
861.786	4481
861.918	4489
862.05	4558
862.183	4542
862.315	4618
862.447	4622
862.58	4607
862.712	4394
862.844	4375
862.976	4478
863.108	4447
863.24	4942
863.372	4371
863.504	4421
863.636	4440
863.768	4527
863.9	4485
864.032	4394
864.164	4455
864.296	4474
864.428	4519
864.559	4615
864.691	4603
864.823	4523
864.954	4512
865.086	4516
865.217	4481
865.349	4451
865.48	4489
865.612	4478
865.743	4664
865.875	4459
866.006	4436
866.137	4508
866.269	4466
866.4	4455
866.531	4451
866.662	4432
866.793	4417
866.924	4421
867.055	4493
867.186	4447
867.317	4466
867.448	4367
867.579	4379
867.71	4394
867.841	4409
867.972	4485
868.103	4440
868.233	4424
868.364	4466
868.495	4538
868.625	4653
868.756	4824
868.886	4596
869.017	4618
869.147	4828
869.278	4809
869.408	4672
869.539	4645
869.669	4702
869.799	4691
869.929	4816
870.06	4778
870.19	4976
870.32	4946
870.45	4923
870.58	5048
870.71	5136
870.84	5094
870.97	4949
871.1	4881
871.23	5132
871.36	5147
871.489	5098
871.619	5094
871.749	5128
871.879	5105
872.008	5223
872.138	5079
872.267	4972
872.397	4831
872.526	4847
872.656	4759
872.785	4805
872.915	4987
873.044	5060
873.173	4942
873.303	4972
873.432	4953
873.561	4942
873.69	4961
873.819	4911
873.948	4965
874.077	4835
874.206	4805
874.335	4847
874.464	4972
874.593	5102
874.722	4984
874.851	5079
874.979	5090
875.108	5060
875.237	4938
875.365	4911
875.494	4908
875.623	5025
875.751	4915
875.88	4934
876.008	4965
876.136	5041
876.265	5216
876.393	5357
876.521	5204
876.65	5246
876.778	5128
876.906	5098
877.034	4968
877.162	5048
877.29	4999
877.418	5098
877.546	5098
877.674	5045
877.802	5090
877.93	5033
878.058	4900
878.185	4854
878.313	4938
878.441	4987
878.568	4881
878.696	4877
878.824	4976
878.951	5079
879.079	5159
879.206	5307
879.333	5094
879.461	5045
879.588	5048
879.715	5090
879.842	5239
879.97	5018
880.097	4812
880.224	4755
880.351	4847
880.478	4873
880.605	4809
880.732	4809
880.859	5121
880.986	4961
881.112	4911
881.239	4812
881.366	4725
881.493	4653
881.619	4603
881.746	4694
881.872	4675
881.999	4675
882.125	4698
882.252	4805
882.378	4904
882.505	4976
882.631	4828
882.757	4683
882.883	4748
883.01	4714
883.136	4717
883.262	4573
883.388	4637
883.514	4824
883.64	4892
883.766	4820
883.892	4752
884.018	4778
884.143	4904
884.269	5006
884.395	4725
884.52	4618
884.646	4653
884.772	4584
884.897	4527
885.023	4607
885.148	4843
885.274	4881
885.399	4793
885.524	4744
885.65	4706
885.775	4774
885.9	4714
886.025	4812
886.15	4809
886.275	4717
886.4	4637
886.525	4786
886.65	4649
886.775	4668
886.9	4896
887.025	5071
887.149	4866
887.274	4687
887.399	4615
887.523	4641
887.648	4596
887.773	4599
887.897	4782
888.021	4786
888.146	4675
888.27	4839
888.395	4953
888.519	4854
888.643	4828
888.767	4820
888.891	4691
889.015	4603
889.139	4641
889.263	4622
889.387	4805
889.511	4930
889.635	4763
889.759	4691
889.883	4653
890.006	4771
890.13	4873
890.254	4615
890.377	4660
890.501	4569
890.624	4542
890.748	4588
890.871	4527
890.995	4424
891.118	4405
891.241	4554
891.364	4538
891.488	4694
891.611	4489
891.734	4527
891.857	4668
891.98	4550
892.103	4664
892.226	4588
892.349	4588
892.471	4447
892.594	4592
892.717	4588
892.839	4599
892.962	4569
893.085	4672
893.207	4611
893.33	4489
893.452	4519
893.575	4714
893.697	4607
893.819	4831
893.941	4835
894.064	4812
894.186	4573
894.308	4580
894.43	4767
894.552	4835
894.674	4778
894.796	4611
894.918	4592
895.04	4554
895.161	4714
895.283	4714
895.405	4592
895.526	4584
895.648	4702
895.769	4691
895.891	4733
896.012	4698
896.134	4714
896.255	4656
896.376	4618
896.498	4584
896.619	4634
896.74	4630
896.861	4702
896.982	4946
897.103	5079
897.224	4854
897.345	4782
897.466	4672
897.587	4687
897.708	4843
897.828	4801
897.949	4714
898.07	4615
898.19	4660
898.311	4843
898.431	4649
898.552	4725
898.672	4767
898.792	4763
898.913	4744
899.033	4630
899.153	4565
899.273	4432
899.393	4462
899.513	4538
899.633	4542
899.753	4573
899.873	4470
899.993	4561
900.113	4554
900.232	4565
900.352	4554
900.472	4550
900.591	4417
900.711	4466
900.83	4436
900.95	4577
901.069	4740
901.189	4565
901.308	4405
901.427	4371
901.546	4379
901.665	4519
901.784	4554
901.904	4383
902.023	4303
902.141	4181
902.26	4188
902.379	4299
902.498	4242
902.617	4280
902.735	4390
902.854	4409
902.973	4402
903.091	4227
903.21	4253
903.328	4329
903.446	4287
903.565	4242
903.683	4367
903.801	4303
903.919	4417
904.038	4405
904.156	4322
904.274	4466
904.392	4398
904.51	4474
904.627	4497
904.745	4565
904.863	4645
904.981	4402
905.098	4322
905.216	4341
905.334	4459
905.451	4459
905.569	4459
905.686	4535
905.803	4546
905.921	4432
906.038	4550
906.155	4512
906.272	4424
906.389	4462
906.506	4398
906.623	4367
906.74	4402
906.857	4303
906.974	4413
907.091	4603
907.208	4656
907.324	4664
907.441	4489
907.557	4383
907.674	4360
907.79	4303
907.907	4394
908.023	4535
908.139	4523
908.256	4443
908.372	4432
908.488	4440
908.604	4375
908.72	4341
908.836	4409
908.952	4383
909.068	4470
909.184	4565
909.3	4512
909.415	4630
909.531	4558
909.647	4329
909.762	4367
909.878	4322
909.993	4440
910.108	4405
910.224	4428
910.339	4485
910.454	4443
910.57	4363
910.685	4310
910.8	4615
910.915	4626
911.03	4493
911.145	4306
911.259	4333
911.374	4371
911.489	4287
911.604	4284
911.718	4207
911.833	4223
911.947	4078
912.062	4040
912.176	4185
912.291	4242
912.405	4227
912.519	4459
912.633	4485
912.748	4375
912.862	4329
912.976	4215
913.09	4143
913.204	4143
913.318	4268
913.431	4375
913.545	4371
913.659	4409
913.772	4398
913.886	4257
914	4223
914.113	4356
914.226	4413
914.34	4417
914.453	4249
914.566	4466
914.68	4318
914.793	4325
914.906	4147
915.019	4116
915.132	4078
915.245	4219
915.358	4185
915.47	4242
915.583	4242
915.696	4337
915.809	4417
915.921	4413
916.034	4246
916.146	4249
916.259	4249
916.371	4383
916.483	4371
916.595	4280
916.708	4306
916.82	4360
916.932	4325
917.044	4379
917.156	4325
917.268	4211
917.38	4325
917.491	4265
917.603	4398
917.715	4394
917.826	4398
917.938	4379
918.049	4238
918.161	4383
918.272	4565
918.384	4561
918.495	4478
918.606	4261
918.717	4242
918.828	4363
918.939	4367
919.05	4215
919.161	4325
919.272	4154
919.383	4246
919.494	4432
919.604	4615
919.715	4432
919.826	4356
919.936	4398
920.047	4527
920.157	4470
920.267	4710
920.378	4508
920.488	4497
920.598	4694
920.708	4866
920.818	4721
920.928	4752
921.038	4972
921.148	4938
921.258	4603
921.368	4580
921.477	4470
921.587	4470
921.697	4375
921.806	4546
921.916	4424
922.025	4272
922.134	4261
922.244	4249
922.353	4348
922.462	4196
922.571	4177
922.68	3960
922.789	3972
922.898	4067
923.007	3968
923.116	4150
923.224	4032
923.333	4093
923.442	3979
923.55	4002
923.659	4040
923.767	4093
923.876	3975
923.984	4135
924.092	3987
924.201	4101
924.309	4067
924.417	4120
924.525	4040
924.633	4154
924.741	5079
924.849	3945
924.956	4135
925.064	3964
925.172	3884
925.279	3987
925.387	4097
925.494	4044
925.602	4238
925.709	4223
925.816	4055
925.924	4147
926.031	4242
926.138	4162
926.245	4139
926.352	4131
926.459	4268
926.566	4261
926.673	4181
926.779	4097
926.886	4071
926.993	3998
927.099	3960
927.206	3949
927.312	3983
927.419	4067
927.525	4017
927.631	4063
927.737	3945
927.843	3994
927.95	3857
928.056	3945
928.162	3994
928.267	4074
928.373	4687
928.479	4139
928.585	3934
928.69	3998
928.796	4093
928.901	4025
929.007	3861
929.112	3975
929.218	3975
929.323	3949
929.428	3926
929.533	4078
929.638	3941
929.743	3953
929.848	4029
929.953	3979
930.058	3922
930.163	3736
930.267	3831
930.372	3937
930.477	3785
930.581	4063
930.685	3949
930.79	3827
930.894	3907
930.998	3816
931.103	3991
931.207	3736
931.311	3709
931.415	3698
931.519	3553
931.623	3530
