Data from test_V78500241_1741.txt Node
Date: Fri Mar 25 17:01:06 CST 2022
User: usil
Spectrometer: V785-0024
Trigger mode: 0
Integration Time (sec): 4.000000E-1
Scans to average: 1
Nonlinearity correction enabled: false
Boxcar width: 0
Storing dark spectrum: false
XAxis mode: Wavelengths
Number of Pixels in Spectrum: 1024
>>>>>Begin Spectral Data<<<<<
801.071	8046
801.214	7986
801.356	7807
801.499	7776
801.641	7715
801.783	7746
801.926	8024
802.068	7871
802.211	7986
802.353	8008
802.496	7898
802.638	7871
802.78	7864
802.923	7879
803.065	7879
803.208	7845
803.35	8001
803.492	8024
803.635	8199
803.777	7997
803.919	8164
804.061	8377
804.204	8138
804.346	8054
804.488	7967
804.63	8046
804.773	8031
804.915	8050
805.057	8259
805.199	8221
805.341	8187
805.483	8214
805.626	8161
805.768	8168
805.91	8183
806.052	8202
806.194	8065
806.336	8214
806.478	8031
806.62	8020
806.762	8145
806.904	8210
807.046	8450
807.188	8370
807.33	8313
807.472	8317
807.614	8172
807.756	8081
807.898	8027
808.04	7868
808.182	7864
808.324	7898
808.465	7833
808.607	8058
808.749	8168
808.891	8191
809.033	8263
809.174	8218
809.316	7970
809.458	8058
809.6	7970
809.741	7974
809.883	8016
810.025	8050
810.166	8077
810.308	8001
810.45	7989
810.591	7917
810.733	7693
810.875	7670
811.016	7480
811.158	7403
811.299	7544
811.441	7685
811.582	7658
811.724	7586
811.865	7567
812.007	7552
812.148	7559
812.29	7586
812.431	7769
812.573	7841
812.714	7978
812.855	8058
812.997	8142
813.138	8279
813.279	8149
813.421	8065
813.562	7967
813.703	7849
813.845	7700
813.986	7373
814.127	7225
814.268	7221
814.41	7206
814.551	7110
814.692	7217
814.833	7023
814.974	7160
815.115	7156
815.256	6958
815.397	6928
815.539	6932
815.68	6856
815.821	6760
815.962	6798
816.103	6829
816.244	6688
816.385	6662
816.526	6623
816.666	6486
816.807	6285
816.948	6380
817.089	6399
817.23	6426
817.371	6334
817.512	6391
817.653	6376
817.793	6391
817.934	6410
818.075	6479
818.216	6407
818.356	6422
818.497	6178
818.638	6072
818.778	6133
818.919	6117
819.06	6117
819.2	6350
819.341	6323
819.481	6391
819.622	6494
819.762	6696
819.903	6650
820.043	6604
820.184	6604
820.324	6604
820.465	6684
820.605	6665
820.746	6627
820.886	6456
821.026	6669
821.167	6722
821.307	6798
821.447	6764
821.588	6669
821.728	6551
821.868	6479
822.008	6281
822.149	6369
822.289	6296
822.429	6095
822.569	6087
822.709	6068
822.849	5885
822.99	5977
823.13	5958
823.27	5946
823.41	5752
823.55	5794
823.69	5786
823.83	5737
823.97	5649
824.11	5509
824.25	5509
824.389	5562
824.529	5554
824.669	5551
824.809	5684
824.949	5642
825.089	5570
825.228	5532
825.368	5334
825.508	5311
825.648	5303
825.787	5364
825.927	5383
826.067	5299
826.206	5269
826.346	5337
826.485	5425
826.625	5387
826.765	5543
826.904	5520
827.044	5197
827.183	5181
827.323	5098
827.462	5227
827.601	5121
827.741	5261
827.88	5170
828.02	5090
828.159	5201
828.298	5269
828.437	5311
828.577	5269
828.716	5467
828.855	5334
828.994	5166
829.134	5090
829.273	5204
829.412	5143
829.551	5121
829.69	5162
829.829	5201
829.968	5376
830.107	5269
830.246	5303
830.385	5136
830.524	5132
830.663	5064
830.802	4980
830.941	4900
831.08	4850
831.219	5003
831.357	4976
831.496	5098
831.635	4900
831.774	4805
831.913	4835
832.051	4755
832.19	4710
832.329	4850
832.467	4679
832.606	4603
832.744	4717
832.883	4679
833.022	4691
833.16	4752
833.299	4828
833.437	4816
833.576	4782
833.714	4866
833.852	4885
833.991	4873
834.129	4915
834.267	4908
834.406	4904
834.544	4980
834.682	4987
834.821	4961
834.959	5113
835.097	4984
835.235	5109
835.373	4999
835.511	5086
835.65	5022
835.788	5048
835.926	4934
836.064	4854
836.202	4908
836.34	5132
836.478	5227
836.615	5151
836.753	5212
836.891	5231
837.029	5223
837.167	5178
837.305	5143
837.443	5136
837.58	5086
837.718	5204
837.856	5162
837.993	5098
838.131	5204
838.269	5239
838.406	5235
838.544	5147
838.681	5060
838.819	5006
838.956	4889
839.094	4877
839.231	4942
839.369	5064
839.506	5402
839.643	5258
839.781	5075
839.918	5018
840.055	5071
840.193	5098
840.33	5071
840.467	5102
840.604	5151
840.742	5425
840.879	5083
841.016	5071
841.153	5128
841.29	5334
841.427	5273
841.564	5341
841.701	5322
841.838	5311
841.975	5216
842.112	5258
842.249	5143
842.385	5143
842.522	5345
842.659	5181
842.796	5136
842.933	5162
843.069	5159
843.206	5098
843.343	5296
843.479	5261
843.616	5288
843.752	5048
843.889	4991
844.025	5208
844.162	5041
844.298	5189
844.435	5071
844.571	5033
844.708	5212
844.844	5265
844.98	5322
845.117	5273
845.253	5105
845.389	5056
845.525	5181
845.661	5121
845.798	5045
845.934	5143
846.07	5022
846.206	5189
846.342	5311
846.478	5155
846.614	5048
846.75	4953
846.886	4953
847.022	5121
847.158	5022
847.294	5071
847.429	5086
847.565	5086
847.701	5307
847.837	4870
847.972	4809
848.108	4911
848.244	4896
848.379	4801
848.515	4714
848.65	4672
848.786	4687
848.921	4771
849.057	4839
849.192	4854
849.328	4786
849.463	4831
849.598	4763
849.734	4733
849.869	4649
850.004	4634
850.14	4653
850.275	4607
850.41	4500
850.545	4565
850.68	4592
850.815	4634
850.95	4607
851.085	4850
851.22	4717
851.355	4740
851.49	4637
851.625	4615
851.76	4607
851.895	4519
852.03	4531
852.165	4637
852.299	4744
852.434	4797
852.569	4725
852.703	4729
852.838	4812
852.973	4953
853.107	4965
853.242	4786
853.376	4694
853.511	4512
853.645	4603
853.78	4824
853.914	4675
854.048	4691
854.183	4660
854.317	4664
854.451	4847
854.585	4725
854.72	4641
854.854	4748
854.988	4573
855.122	4596
855.256	4538
855.39	4656
855.524	4786
855.658	4721
855.792	4672
855.926	4717
856.06	4771
856.194	4820
856.327	4649
856.461	4653
856.595	4622
856.729	4580
856.862	4752
856.996	4683
857.13	4714
857.263	4752
857.397	4812
857.53	4630
857.664	4683
857.797	4805
857.931	4771
858.064	4664
858.197	4748
858.331	4645
858.464	4599
858.597	4546
858.731	4668
858.864	4660
858.997	4569
859.13	4607
859.263	4649
859.396	4733
859.529	4588
859.662	4531
859.795	4512
859.928	4618
860.061	4694
860.194	4763
860.327	4599
860.46	4580
860.592	4691
860.725	4706
860.858	4725
860.99	4584
861.123	4504
861.256	4489
861.388	4599
861.521	5337
861.653	4500
861.786	4466
861.918	4443
862.05	4493
862.183	4558
862.315	4577
862.447	4618
862.58	4542
862.712	4417
862.844	4337
862.976	4493
863.108	4455
863.24	4854
863.372	4318
863.504	4398
863.636	4409
863.768	4436
863.9	4409
864.032	4344
864.164	4424
864.296	4459
864.428	4519
864.559	4527
864.691	4523
864.823	4516
864.954	4512
865.086	4443
865.217	4462
865.349	4413
865.48	4451
865.612	4489
865.743	4584
865.875	4470
866.006	4443
866.137	4440
866.269	4409
866.4	4402
866.531	4436
866.662	4390
866.793	4421
866.924	4413
867.055	4516
867.186	4462
867.317	4432
867.448	4394
867.579	4398
867.71	4371
867.841	4303
867.972	4466
868.103	4481
868.233	4424
868.364	4447
868.495	4523
868.625	4634
868.756	4748
868.886	4554
869.017	4580
869.147	4736
869.278	4797
869.408	4702
869.539	4622
869.669	4687
869.799	4645
869.929	4755
870.06	4752
870.19	4972
870.32	4923
870.45	4911
870.58	5022
870.71	5045
870.84	5048
870.97	4965
871.1	4877
871.23	5147
871.36	5086
871.489	4984
871.619	5067
871.749	5067
871.879	5140
872.008	5143
872.138	5037
872.267	4961
872.397	4870
872.526	4820
872.656	4691
872.785	4820
872.915	4949
873.044	5048
873.173	4938
873.303	4991
873.432	4927
873.561	4927
873.69	4828
873.819	4824
873.948	4923
874.077	4809
874.206	4790
874.335	4793
874.464	4930
874.593	5025
874.722	4934
874.851	5086
874.979	5098
875.108	5003
875.237	4896
875.365	4889
875.494	4881
875.623	4984
875.751	4774
875.88	4908
876.008	4991
876.136	5041
876.265	5185
876.393	5360
876.521	5246
876.65	5185
876.778	5151
876.906	5048
877.034	5022
877.162	5060
877.29	5029
877.418	5041
877.546	5029
877.674	5041
877.802	4972
877.93	5006
878.058	4904
878.185	4885
878.313	4961
878.441	4968
878.568	4786
878.696	4839
878.824	4968
878.951	4980
879.079	5109
879.206	5242
879.333	5033
879.461	4987
879.588	4972
879.715	5064
879.842	5220
879.97	4968
880.097	4763
880.224	4740
880.351	4748
880.478	4835
880.605	4774
880.732	4767
880.859	5079
880.986	4896
881.112	4850
881.239	4755
881.366	4641
881.493	4569
881.619	4535
881.746	4641
881.872	4637
881.999	4672
882.125	4748
882.252	4782
882.378	4824
882.505	4991
882.631	4812
882.757	4702
882.883	4778
883.01	4744
883.136	4653
883.262	4584
883.388	4615
883.514	4812
883.64	4816
883.766	4816
883.892	4683
884.018	4733
884.143	4873
884.269	5006
884.395	4714
884.52	4641
884.646	4672
884.772	4596
884.897	4565
885.023	4683
885.148	4790
885.274	4877
885.399	4755
885.524	4725
885.65	4729
885.775	4755
885.9	4702
886.025	4839
886.15	4778
886.275	4721
886.4	4660
886.525	4733
886.65	4668
886.775	4672
886.9	4881
887.025	5025
887.149	4767
887.274	4634
887.399	4603
887.523	4592
887.648	4603
887.773	4607
887.897	4771
888.021	4748
888.146	4672
888.27	4797
888.395	4919
888.519	4839
888.643	4847
888.767	4824
888.891	4656
889.015	4599
889.139	4656
889.263	4630
889.387	4774
889.511	4862
889.635	4736
889.759	4637
889.883	4687
890.006	4755
890.13	4797
890.254	4634
890.377	4698
890.501	4569
890.624	4508
890.748	4668
890.871	4504
890.995	4428
891.118	4379
891.241	4538
891.364	4523
891.488	4615
891.611	4489
891.734	4493
891.857	4577
891.98	4561
892.103	4607
892.226	4580
892.349	4519
892.471	4417
892.594	4535
892.717	4615
892.839	4558
892.962	4607
893.085	4599
893.207	4535
893.33	4451
893.452	4527
893.575	4664
893.697	4599
893.819	4759
893.941	4828
894.064	4733
894.186	4558
894.308	4569
894.43	4721
894.552	4805
894.674	4752
894.796	4535
894.918	4599
895.04	4546
895.161	4714
895.283	4634
895.405	4592
895.526	4584
895.648	4733
895.769	4672
895.891	4744
896.012	4752
896.134	4717
896.255	4683
896.376	4630
896.498	4599
896.619	4717
896.74	4607
896.861	4664
896.982	4949
897.103	5052
897.224	4847
897.345	4744
897.466	4717
897.587	4733
897.708	4820
897.828	4755
897.949	4675
898.07	4561
898.19	4649
898.311	4786
898.431	4641
898.552	4698
898.672	4797
898.792	4801
898.913	4679
899.033	4618
899.153	4504
899.273	4428
899.393	4474
899.513	4497
899.633	4516
899.753	4519
899.873	4504
899.993	4561
900.113	4565
900.232	4554
900.352	4550
900.472	4474
900.591	4386
900.711	4451
900.83	4443
900.95	4554
901.069	4660
901.189	4546
901.308	4341
901.427	4299
901.546	4386
901.665	4478
901.784	4516
901.904	4348
902.023	4314
902.141	4242
902.26	4166
902.379	4318
902.498	4207
902.617	4158
902.735	4360
902.854	4367
902.973	4383
903.091	4185
903.21	4242
903.328	4303
903.446	4265
903.565	4246
903.683	4344
903.801	4299
903.919	4379
904.038	4451
904.156	4291
904.274	4428
904.392	4421
904.51	4344
904.627	4440
904.745	4550
904.863	4630
904.981	4390
905.098	4322
905.216	4363
905.334	4390
905.451	4440
905.569	4478
905.686	4478
905.803	4596
905.921	4451
906.038	4607
906.155	4443
906.272	4402
906.389	4466
906.506	4303
906.623	4383
906.74	4405
906.857	4329
906.974	4379
907.091	4554
907.208	4702
907.324	4561
907.441	4497
907.557	4375
907.674	4287
907.79	4337
907.907	4333
908.023	4493
908.139	4462
908.256	4432
908.372	4443
908.488	4424
908.604	4329
908.72	4337
908.836	4383
908.952	4348
909.068	4402
909.184	4558
909.3	4504
909.415	4550
909.531	4550
909.647	4348
909.762	4337
909.878	4333
909.993	4428
910.108	4436
910.224	4402
910.339	4493
910.454	4417
910.57	4352
910.685	4329
910.8	4641
910.915	4599
911.03	4447
911.145	4337
911.259	4299
911.374	4390
911.489	4295
911.604	4295
911.718	4150
911.833	4246
911.947	4116
912.062	4036
912.176	4215
912.291	4249
912.405	4246
912.519	4443
912.633	4493
912.748	4421
912.862	4303
912.976	4196
913.09	4124
913.204	4150
913.318	4246
913.431	4348
913.545	4341
913.659	4459
913.772	4348
913.886	4234
914	4200
914.113	4356
914.226	4405
914.34	4398
914.453	4242
914.566	4424
914.68	4291
914.793	4352
914.906	4181
915.019	4162
915.132	4086
915.245	4150
915.358	4207
915.47	4249
915.583	4272
915.696	4337
915.809	4383
915.921	4428
916.034	4246
916.146	4200
916.259	4204
916.371	4371
916.483	4352
916.595	4291
916.708	4314
916.82	4356
916.932	4322
917.044	4337
917.156	4375
917.268	4242
917.38	4287
917.491	4291
917.603	4318
917.715	4405
917.826	4443
917.938	4291
918.049	4223
918.161	4371
918.272	4527
918.384	4542
918.495	4459
918.606	4299
918.717	4230
918.828	4379
918.939	4337
919.05	4291
919.161	4352
919.272	4154
919.383	4230
919.494	4455
919.604	4573
919.715	4417
919.826	4344
919.936	4379
920.047	4535
920.157	4542
920.267	4687
920.378	4558
920.488	4519
920.598	4759
920.708	4850
920.818	4793
920.928	4782
921.038	4953
921.148	4949
921.258	4603
921.368	4519
921.477	4538
921.587	4413
921.697	4371
921.806	4535
921.916	4386
922.025	4265
922.134	4242
922.244	4211
922.353	4337
922.462	4181
922.571	4135
922.68	3979
922.789	3937
922.898	4036
923.007	3987
923.116	4090
923.224	4078
923.333	4025
923.442	4002
923.55	3949
923.659	4002
923.767	4101
923.876	4002
923.984	4128
924.092	4006
924.201	4063
924.309	4086
924.417	4112
924.525	4055
924.633	4071
924.741	4915
924.849	3926
924.956	4135
925.064	3956
925.172	3911
925.279	3922
925.387	4036
925.494	4025
925.602	4181
925.709	4166
925.816	4048
925.924	4154
926.031	4234
926.138	4207
926.245	4207
926.352	4078
926.459	4230
926.566	4291
926.673	4158
926.779	4071
926.886	4067
926.993	3983
927.099	3926
927.206	3918
927.312	3960
927.419	4051
927.525	4025
927.631	4082
927.737	3945
927.843	3899
927.95	3861
928.056	3960
928.162	4025
928.267	4071
928.373	4672
928.479	4112
928.585	3861
928.69	4048
928.796	4074
928.901	3972
929.007	3854
929.112	4010
929.218	3918
929.323	3987
929.428	3945
929.533	4105
929.638	3918
929.743	3953
929.848	4059
929.953	3956
930.058	3918
930.163	3747
930.267	3797
930.372	3949
930.477	3857
930.581	4059
930.685	3968
930.79	3797
930.894	3873
930.998	3808
931.103	4044
931.207	3724
931.311	3720
931.415	3690
931.519	3515
931.623	3542
