Data from test_V78500241_1769.txt Node
Date: Fri Mar 25 17:01:18 CST 2022
User: usil
Spectrometer: V785-0024
Trigger mode: 0
Integration Time (sec): 4.000000E-1
Scans to average: 1
Nonlinearity correction enabled: false
Boxcar width: 0
Storing dark spectrum: false
XAxis mode: Wavelengths
Number of Pixels in Spectrum: 1024
>>>>>Begin Spectral Data<<<<<
801.071	7955
801.214	8012
801.356	7818
801.499	7871
801.641	7757
801.783	7822
801.926	7932
802.068	7875
802.211	7982
802.353	8039
802.496	7849
802.638	7845
802.78	7887
802.923	7890
803.065	7849
803.208	7830
803.35	7955
803.492	8054
803.635	8183
803.777	7974
803.919	8142
804.061	8476
804.204	8126
804.346	8054
804.488	7890
804.63	8062
804.773	7974
804.915	8100
805.057	8248
805.199	8138
805.341	8199
805.483	8294
805.626	8145
805.768	8149
805.91	8210
806.052	8168
806.194	8183
806.336	8290
806.478	8130
806.62	8050
806.762	8149
806.904	8336
807.046	8556
807.188	8332
807.33	8309
807.472	8290
807.614	8164
807.756	8111
807.898	7967
808.04	7898
808.182	7959
808.324	7807
808.465	7944
808.607	8081
808.749	8111
808.891	8172
809.033	8271
809.174	8191
809.316	8073
809.458	8050
809.6	7967
809.741	8084
809.883	8039
810.025	8145
810.166	8046
810.308	7989
810.45	8005
810.591	7856
810.733	7780
810.875	7632
811.016	7525
811.158	7472
811.299	7578
811.441	7674
811.582	7662
811.724	7582
811.865	7556
812.007	7586
812.148	7628
812.29	7601
812.431	7776
812.573	7856
812.714	8001
812.855	8126
812.997	8176
813.138	8286
813.279	8180
813.421	8187
813.562	7982
813.703	7811
813.845	7700
813.986	7422
814.127	7228
814.268	7240
814.41	7126
814.551	7133
814.692	7171
814.833	7095
814.974	7050
815.115	7168
815.256	6939
815.397	6973
815.539	6916
815.68	6867
815.821	6719
815.962	6818
816.103	6837
816.244	6673
816.385	6585
816.526	6570
816.666	6490
816.807	6323
816.948	6426
817.089	6429
817.23	6479
817.371	6414
817.512	6410
817.653	6391
817.793	6331
817.934	6361
818.075	6445
818.216	6429
818.356	6433
818.497	6251
818.638	6121
818.778	6133
818.919	6087
819.06	6152
819.2	6296
819.341	6296
819.481	6380
819.622	6547
819.762	6684
819.903	6692
820.043	6585
820.184	6563
820.324	6585
820.465	6681
820.605	6639
820.746	6658
820.886	6555
821.026	6654
821.167	6681
821.307	6779
821.447	6745
821.588	6635
821.728	6585
821.868	6525
822.008	6388
822.149	6331
822.289	6361
822.429	6167
822.569	6038
822.709	6053
822.849	5874
822.99	5885
823.13	5908
823.27	5939
823.41	5805
823.55	5798
823.69	5783
823.83	5760
823.97	5623
824.11	5478
824.25	5528
824.389	5604
824.529	5592
824.669	5478
824.809	5611
824.949	5672
825.089	5611
825.228	5516
825.368	5368
825.508	5360
825.648	5357
825.787	5376
825.927	5383
826.067	5303
826.206	5280
826.346	5395
826.485	5433
826.625	5410
826.765	5516
826.904	5516
827.044	5258
827.183	5178
827.323	5117
827.462	5181
827.601	5178
827.741	5178
827.88	5208
828.02	5109
828.159	5303
828.298	5349
828.437	5357
828.577	5265
828.716	5501
828.855	5292
828.994	5197
829.134	5155
829.273	5185
829.412	5132
829.551	5147
829.69	5208
829.829	5212
829.968	5326
830.107	5288
830.246	5242
830.385	5143
830.524	5136
830.663	5052
830.802	4976
830.941	4896
831.08	4881
831.219	5010
831.357	4946
831.496	5124
831.635	4877
831.774	4850
831.913	4843
832.051	4672
832.19	4759
832.329	4835
832.467	4729
832.606	4615
832.744	4767
832.883	4721
833.022	4710
833.16	4786
833.299	4824
833.437	4816
833.576	4763
833.714	4858
833.852	4854
833.991	4873
834.129	4923
834.267	4892
834.406	4904
834.544	4961
834.682	4968
834.821	4984
834.959	5151
835.097	4957
835.235	5128
835.373	5151
835.511	5109
835.65	5067
835.788	5006
835.926	4915
836.064	4850
836.202	4957
836.34	5136
836.478	5204
836.615	5105
836.753	5170
836.891	5254
837.029	5159
837.167	5178
837.305	5174
837.443	5185
837.58	5048
837.718	5261
837.856	5162
837.993	5136
838.131	5220
838.269	5178
838.406	5181
838.544	5162
838.681	4968
838.819	4991
838.956	4934
839.094	4881
839.231	4995
839.369	5045
839.506	5429
839.643	5254
839.781	5029
839.918	4980
840.055	5098
840.193	5052
840.33	5041
840.467	5124
840.604	5189
840.742	5417
840.879	5022
841.016	5113
841.153	5121
841.29	5357
841.427	5337
841.564	5280
841.701	5299
841.838	5284
841.975	5231
842.112	5189
842.249	5166
842.385	5113
842.522	5303
842.659	5197
842.796	5086
842.933	5178
843.069	5159
843.206	5162
843.343	5273
843.479	5223
843.616	5269
843.752	5022
843.889	4999
844.025	5216
844.162	5029
844.298	5185
844.435	5083
844.571	5071
844.708	5220
844.844	5341
844.98	5311
845.117	5239
845.253	5136
845.389	5064
845.525	5136
845.661	5128
845.798	4984
845.934	5155
846.07	4999
846.206	5220
846.342	5315
846.478	5140
846.614	4984
846.75	4949
846.886	4904
847.022	5117
847.158	4984
847.294	5071
847.429	5117
847.565	5052
847.701	5334
847.837	4824
847.972	4847
848.108	4957
848.244	4961
848.379	4767
848.515	4710
848.65	4755
848.786	4710
848.921	4771
849.057	4843
849.192	4862
849.328	4839
849.463	4885
849.598	4763
849.734	4721
849.869	4691
850.004	4637
850.14	4637
850.275	4577
850.41	4516
850.545	4554
850.68	4573
850.815	4649
850.95	4603
851.085	4797
851.22	4744
851.355	4645
851.49	4554
851.625	4634
851.76	4641
851.895	4542
852.03	4538
852.165	4626
852.299	4694
852.434	4809
852.569	4786
852.703	4782
852.838	4866
852.973	4976
853.107	4892
853.242	4698
853.376	4634
853.511	4554
853.645	4592
853.78	4786
853.914	4672
854.048	4668
854.183	4637
854.317	4725
854.451	4850
854.585	4634
854.72	4599
854.854	4733
854.988	4660
855.122	4634
855.256	4535
855.39	4664
855.524	4763
855.658	4653
855.792	4714
855.926	4725
856.06	4736
856.194	4793
856.327	4687
856.461	4611
856.595	4584
856.729	4637
856.862	4774
856.996	4687
857.13	4782
857.263	4752
857.397	4805
857.53	4664
857.664	4748
857.797	4782
857.931	4771
858.064	4725
858.197	4725
858.331	4615
858.464	4611
858.597	4531
858.731	4641
858.864	4637
858.997	4588
859.13	4603
859.263	4660
859.396	4691
859.529	4577
859.662	4577
859.795	4523
859.928	4637
860.061	4755
860.194	4725
860.327	4584
860.46	4554
860.592	4683
860.725	4733
860.858	4721
860.99	4561
861.123	4497
861.256	4523
861.388	4603
861.521	5261
861.653	4508
861.786	4417
861.918	4432
862.05	4531
862.183	4580
862.315	4584
862.447	4622
862.58	4546
862.712	4421
862.844	4413
862.976	4424
863.108	4459
863.24	4866
863.372	4337
863.504	4428
863.636	4394
863.768	4512
863.9	4443
864.032	4337
864.164	4424
864.296	4462
864.428	4519
864.559	4573
864.691	4561
864.823	4478
864.954	4443
865.086	4474
865.217	4459
865.349	4413
865.48	4405
865.612	4500
865.743	4645
865.875	4485
866.006	4443
866.137	4470
866.269	4481
866.4	4440
866.531	4451
866.662	4383
866.793	4402
866.924	4459
867.055	4489
867.186	4466
867.317	4413
867.448	4337
867.579	4367
867.71	4371
867.841	4352
867.972	4447
868.103	4462
868.233	4443
868.364	4466
868.495	4504
868.625	4634
868.756	4771
868.886	4512
869.017	4637
869.147	4774
869.278	4748
869.408	4687
869.539	4611
869.669	4721
869.799	4611
869.929	4740
870.06	4694
870.19	4976
870.32	4946
870.45	4908
870.58	5010
870.71	5071
870.84	5105
870.97	4923
871.1	4892
871.23	5197
871.36	5121
871.489	5037
871.619	5033
871.749	5121
871.879	5117
872.008	5239
872.138	5067
872.267	4961
872.397	4885
872.526	4812
872.656	4729
872.785	4763
872.915	4976
873.044	5045
873.173	4938
873.303	4927
873.432	4938
873.561	4984
873.69	4866
873.819	4919
873.948	4911
874.077	4862
874.206	4767
874.335	4828
874.464	4934
874.593	5029
874.722	4949
874.851	5075
874.979	5041
875.108	5048
875.237	4957
875.365	4854
875.494	4911
875.623	4999
875.751	4843
875.88	4820
876.008	4976
876.136	5041
876.265	5208
876.393	5307
876.521	5239
876.65	5231
876.778	5121
876.906	5067
877.034	5037
877.162	5083
877.29	4946
877.418	5010
877.546	5083
877.674	5029
877.802	5075
877.93	4999
878.058	4949
878.185	4892
878.313	4953
878.441	4934
878.568	4801
878.696	4900
878.824	4999
878.951	4965
879.079	5170
879.206	5273
879.333	5109
879.461	5014
879.588	5029
879.715	5075
879.842	5185
879.97	5010
880.097	4744
880.224	4778
880.351	4809
880.478	4839
880.605	4797
880.732	4774
880.859	5094
880.986	4854
881.112	4923
881.239	4774
881.366	4664
881.493	4607
881.619	4611
881.746	4679
881.872	4641
881.999	4687
882.125	4637
882.252	4816
882.378	4805
882.505	4961
882.631	4778
882.757	4626
882.883	4694
883.01	4679
883.136	4675
883.262	4622
883.388	4618
883.514	4812
883.64	4900
883.766	4809
883.892	4626
884.018	4733
884.143	4854
884.269	4984
884.395	4660
884.52	4626
884.646	4656
884.772	4618
884.897	4580
885.023	4618
885.148	4809
885.274	4828
885.399	4763
885.524	4714
885.65	4694
885.775	4771
885.9	4725
886.025	4847
886.15	4801
886.275	4668
886.4	4660
886.525	4691
886.65	4706
886.775	4717
886.9	4942
887.025	4991
887.149	4854
887.274	4645
887.399	4577
887.523	4599
887.648	4592
887.773	4622
887.897	4790
888.021	4778
888.146	4653
888.27	4805
888.395	4911
888.519	4820
888.643	4755
888.767	4820
888.891	4664
889.015	4588
889.139	4580
889.263	4599
889.387	4793
889.511	4866
889.635	4805
889.759	4615
889.883	4702
890.006	4736
890.13	4816
890.254	4649
890.377	4645
890.501	4516
890.624	4538
890.748	4653
890.871	4500
890.995	4428
891.118	4367
891.241	4546
891.364	4538
891.488	4630
891.611	4519
891.734	4554
891.857	4630
891.98	4558
892.103	4649
892.226	4603
892.349	4535
892.471	4432
892.594	4561
892.717	4611
892.839	4535
892.962	4599
893.085	4687
893.207	4615
893.33	4481
893.452	4489
893.575	4637
893.697	4607
893.819	4812
893.941	4831
894.064	4740
894.186	4596
894.308	4554
894.43	4683
894.552	4797
894.674	4740
894.796	4569
894.918	4577
895.04	4546
895.161	4725
895.283	4675
895.405	4584
895.526	4618
895.648	4683
895.769	4668
895.891	4729
896.012	4752
896.134	4733
896.255	4672
896.376	4607
896.498	4634
896.619	4698
896.74	4637
896.861	4656
896.982	4870
897.103	5105
897.224	4809
897.345	4767
897.466	4687
897.587	4763
897.708	4847
897.828	4729
897.949	4687
898.07	4580
898.19	4603
898.311	4824
898.431	4687
898.552	4717
898.672	4782
898.792	4801
898.913	4710
899.033	4618
899.153	4504
899.273	4428
899.393	4546
899.513	4504
899.633	4523
899.753	4546
899.873	4546
899.993	4615
900.113	4558
900.232	4565
900.352	4535
900.472	4508
900.591	4402
900.711	4508
900.83	4436
900.95	4649
901.069	4656
901.189	4497
901.308	4363
901.427	4352
901.546	4344
901.665	4451
901.784	4489
901.904	4440
902.023	4325
902.141	4181
902.26	4173
902.379	4306
902.498	4223
902.617	4287
902.735	4421
902.854	4398
902.973	4394
903.091	4230
903.21	4188
903.328	4261
903.446	4303
903.565	4322
903.683	4280
903.801	4268
903.919	4390
904.038	4432
904.156	4325
904.274	4402
904.392	4432
904.51	4440
904.627	4462
904.745	4584
904.863	4637
904.981	4421
905.098	4360
905.216	4348
905.334	4428
905.451	4462
905.569	4402
905.686	4584
905.803	4580
905.921	4459
906.038	4577
906.155	4508
906.272	4386
906.389	4474
906.506	4303
906.623	4348
906.74	4394
906.857	4325
906.974	4367
907.091	4561
907.208	4649
907.324	4565
907.441	4466
907.557	4352
907.674	4363
907.79	4299
907.907	4344
908.023	4443
908.139	4508
908.256	4466
908.372	4432
908.488	4481
908.604	4341
908.72	4322
908.836	4394
908.952	4356
909.068	4440
909.184	4573
909.3	4459
909.415	4580
909.531	4577
909.647	4367
909.762	4352
909.878	4371
909.993	4424
910.108	4413
910.224	4371
910.339	4500
910.454	4405
910.57	4413
910.685	4287
910.8	4611
910.915	4607
911.03	4493
911.145	4322
911.259	4325
911.374	4337
911.489	4314
911.604	4303
911.718	4188
911.833	4211
911.947	4093
912.062	4044
912.176	4223
912.291	4249
912.405	4219
912.519	4424
912.633	4504
912.748	4348
912.862	4272
912.976	4204
913.09	4105
913.204	4173
913.318	4257
913.431	4348
913.545	4360
913.659	4432
913.772	4356
913.886	4287
914	4227
914.113	4386
914.226	4447
914.34	4390
914.453	4253
914.566	4432
914.68	4253
914.793	4284
914.906	4143
915.019	4116
915.132	4074
915.245	4131
915.358	4200
915.47	4242
915.583	4291
915.696	4295
915.809	4390
915.921	4417
916.034	4227
916.146	4249
916.259	4196
916.371	4375
916.483	4383
916.595	4253
916.708	4352
916.82	4325
916.932	4325
917.044	4333
917.156	4371
917.268	4200
917.38	4280
917.491	4276
917.603	4329
917.715	4413
917.826	4424
917.938	4310
918.049	4223
918.161	4405
918.272	4538
918.384	4527
918.495	4470
918.606	4303
918.717	4230
918.828	4318
918.939	4379
919.05	4249
919.161	4344
919.272	4109
919.383	4207
919.494	4417
919.604	4626
919.715	4462
919.826	4360
919.936	4386
920.047	4508
920.157	4523
920.267	4717
920.378	4550
920.488	4493
920.598	4721
920.708	4900
920.818	4698
920.928	4786
921.038	4961
921.148	4923
921.258	4626
921.368	4558
921.477	4508
921.587	4466
921.697	4417
921.806	4558
921.916	4443
922.025	4276
922.134	4291
922.244	4192
922.353	4375
922.462	4169
922.571	4101
922.68	3968
922.789	4010
922.898	4059
923.007	3983
923.116	4150
923.224	4044
923.333	4055
923.442	3983
923.55	3918
923.659	4010
923.767	4078
923.876	3991
923.984	4063
924.092	3979
924.201	4071
924.309	4105
924.417	4074
924.525	4044
924.633	4109
924.741	5003
924.849	3926
924.956	4109
925.064	3934
925.172	3911
925.279	3994
925.387	4067
925.494	4044
925.602	4188
925.709	4147
925.816	4086
925.924	4097
926.031	4211
926.138	4181
926.245	4173
926.352	4105
926.459	4238
926.566	4303
926.673	4147
926.779	4093
926.886	4093
926.993	3987
927.099	3956
927.206	3956
927.312	3934
927.419	4074
927.525	4002
927.631	4063
927.737	3949
927.843	3949
927.95	3854
928.056	3945
928.162	4006
928.267	4090
928.373	4554
928.479	4101
928.585	3911
928.69	4029
928.796	4036
928.901	3975
929.007	3842
929.112	4059
929.218	4006
929.323	3945
929.428	3892
929.533	4086
929.638	3892
929.743	3998
929.848	4044
929.953	3991
930.058	3953
930.163	3816
930.267	3846
930.372	4002
930.477	3827
930.581	4044
930.685	3972
930.79	3854
930.894	3896
930.998	3861
931.103	4021
931.207	3720
931.311	3717
931.415	3633
931.519	3523
931.623	3530
