Data from test_V78500241_1300.txt Node
Date: Fri Mar 25 16:58:02 CST 2022
User: usil
Spectrometer: V785-0024
Trigger mode: 0
Integration Time (sec): 4.000000E-1
Scans to average: 1
Nonlinearity correction enabled: false
Boxcar width: 0
Storing dark spectrum: false
XAxis mode: Wavelengths
Number of Pixels in Spectrum: 1024
>>>>>Begin Spectral Data<<<<<
801.071	8020
801.214	8043
801.356	7864
801.499	7864
801.641	7742
801.783	7807
801.926	7898
802.068	7909
802.211	7978
802.353	7967
802.496	7921
802.638	7879
802.78	7921
802.923	7974
803.065	7860
803.208	7826
803.35	7974
803.492	8073
803.635	8176
803.777	7986
803.919	8119
804.061	8442
804.204	8183
804.346	8123
804.488	7993
804.63	8149
804.773	8058
804.915	8092
805.057	8282
805.199	8180
805.341	8263
805.483	8305
805.626	8294
805.768	8115
805.91	8256
806.052	8221
806.194	8016
806.336	8309
806.478	8050
806.62	8027
806.762	8111
806.904	8271
807.046	8454
807.188	8370
807.33	8332
807.472	8256
807.614	8176
807.756	8161
807.898	8039
808.04	7890
808.182	7925
808.324	7909
808.465	7856
808.607	8058
808.749	8145
808.891	8172
809.033	8317
809.174	8218
809.316	8054
809.458	8020
809.6	7959
809.741	7967
809.883	8046
810.025	8020
810.166	8005
810.308	8027
810.45	8062
810.591	7845
810.733	7723
810.875	7647
811.016	7544
811.158	7510
811.299	7533
811.441	7708
811.582	7731
811.724	7624
811.865	7559
812.007	7575
812.148	7567
812.29	7601
812.431	7742
812.573	7879
812.714	7982
812.855	8096
812.997	8214
813.138	8286
813.279	8168
813.421	8107
813.562	7947
813.703	7902
813.845	7784
813.986	7426
814.127	7247
814.268	7247
814.41	7217
814.551	7141
814.692	7202
814.833	7072
814.974	7057
815.115	7034
815.256	6943
815.397	6897
815.539	6924
815.68	6829
815.821	6802
815.962	6890
816.103	6833
816.244	6715
816.385	6616
816.526	6604
816.666	6471
816.807	6247
816.948	6388
817.089	6467
817.23	6479
817.371	6353
817.512	6376
817.653	6338
817.793	6338
817.934	6433
818.075	6460
818.216	6338
818.356	6311
818.497	6273
818.638	6121
818.778	6186
818.919	6114
819.06	6159
819.2	6334
819.341	6338
819.481	6331
819.622	6528
819.762	6722
819.903	6700
820.043	6604
820.184	6547
820.324	6566
820.465	6673
820.605	6650
820.746	6597
820.886	6479
821.026	6688
821.167	6681
821.307	6745
821.447	6700
821.588	6673
821.728	6566
821.868	6490
822.008	6277
822.149	6395
822.289	6308
822.429	6167
822.569	6060
822.709	6117
822.849	5939
822.99	5859
823.13	5942
823.27	5950
823.41	5813
823.55	5737
823.69	5783
823.83	5809
823.97	5665
824.11	5554
824.25	5524
824.389	5512
824.529	5562
824.669	5467
824.809	5630
824.949	5638
825.089	5600
825.228	5535
825.368	5372
825.508	5322
825.648	5299
825.787	5364
825.927	5376
826.067	5273
826.206	5322
826.346	5349
826.485	5436
826.625	5406
826.765	5520
826.904	5471
827.044	5231
827.183	5193
827.323	5094
827.462	5220
827.601	5132
827.741	5166
827.88	5189
828.02	5140
828.159	5227
828.298	5288
828.437	5315
828.577	5303
828.716	5471
828.855	5307
828.994	5159
829.134	5128
829.273	5185
829.412	5193
829.551	5151
829.69	5166
829.829	5178
829.968	5364
830.107	5280
830.246	5273
830.385	5181
830.524	5121
830.663	4995
830.802	4980
830.941	4946
831.08	4866
831.219	4968
831.357	4991
831.496	5143
831.635	4889
831.774	4835
831.913	4824
832.051	4679
832.19	4710
832.329	4828
832.467	4679
832.606	4615
832.744	4683
832.883	4653
833.022	4748
833.16	4748
833.299	4790
833.437	4831
833.576	4870
833.714	4801
833.852	4831
833.991	4911
834.129	4949
834.267	4904
834.406	4911
834.544	4900
834.682	5006
834.821	4927
834.959	5140
835.097	5025
835.235	5155
835.373	5045
835.511	5064
835.65	5022
835.788	5033
835.926	4911
836.064	4873
836.202	4919
836.34	5105
836.478	5223
836.615	5086
836.753	5204
836.891	5288
837.029	5296
837.167	5166
837.305	5109
837.443	5147
837.58	5094
837.718	5208
837.856	5197
837.993	5113
838.131	5212
838.269	5174
838.406	5162
838.544	5185
838.681	5048
838.819	4961
838.956	4923
839.094	4896
839.231	4915
839.369	5018
839.506	5421
839.643	5258
839.781	5041
839.918	5067
840.055	5124
840.193	5113
840.33	5117
840.467	5098
840.604	5151
840.742	5467
840.879	5079
841.016	5094
841.153	5124
841.29	5391
841.427	5299
841.564	5326
841.701	5330
841.838	5265
841.975	5208
842.112	5277
842.249	5189
842.385	5147
842.522	5379
842.659	5124
842.796	5128
842.933	5189
843.069	5159
843.206	5113
843.343	5284
843.479	5193
843.616	5250
843.752	5003
843.889	5025
844.025	5220
844.162	4999
844.298	5189
844.435	5071
844.571	4991
844.708	5170
844.844	5292
844.98	5326
845.117	5277
845.253	5090
845.389	5025
845.525	5128
845.661	5174
845.798	4991
845.934	5102
846.07	5041
846.206	5185
846.342	5258
846.478	5132
846.614	4930
846.75	4987
846.886	4953
847.022	5105
847.158	5003
847.294	5056
847.429	5113
847.565	5083
847.701	5280
847.837	4854
847.972	4755
848.108	4908
848.244	4923
848.379	4774
848.515	4767
848.65	4649
848.786	4748
848.921	4721
849.057	4831
849.192	4919
849.328	4835
849.463	4854
849.598	4812
849.734	4755
849.869	4740
850.004	4592
850.14	4694
850.275	4599
850.41	4546
850.545	4512
850.68	4569
850.815	4664
850.95	4664
851.085	4759
851.22	4744
851.355	4615
851.49	4577
851.625	4565
851.76	4687
851.895	4500
852.03	4459
852.165	4649
852.299	4729
852.434	4771
852.569	4687
852.703	4748
852.838	4828
852.973	4900
853.107	4908
853.242	4717
853.376	4596
853.511	4542
853.645	4569
853.78	4812
853.914	4637
854.048	4683
854.183	4645
854.317	4660
854.451	4854
854.585	4668
854.72	4615
854.854	4706
854.988	4573
855.122	4603
855.256	4497
855.39	4660
855.524	4752
855.658	4744
855.792	4641
855.926	4710
856.06	4733
856.194	4771
856.327	4649
856.461	4611
856.595	4588
856.729	4573
856.862	4744
856.996	4694
857.13	4733
857.263	4801
857.397	4805
857.53	4626
857.664	4660
857.797	4786
857.931	4729
858.064	4702
858.197	4706
858.331	4630
858.464	4573
858.597	4512
858.731	4626
858.864	4584
858.997	4535
859.13	4607
859.263	4675
859.396	4679
859.529	4546
859.662	4588
859.795	4535
859.928	4637
860.061	4771
860.194	4782
860.327	4573
860.46	4577
860.592	4736
860.725	4710
860.858	4683
860.99	4596
861.123	4519
861.256	4531
861.388	4588
861.521	5193
861.653	4493
861.786	4451
861.918	4481
862.05	4527
862.183	4523
862.315	4577
862.447	4611
862.58	4542
862.712	4352
862.844	4329
862.976	4470
863.108	4474
863.24	4938
863.372	4363
863.504	4363
863.636	4421
863.768	4436
863.9	4413
864.032	4303
864.164	4409
864.296	4440
864.428	4573
864.559	4535
864.691	4519
864.823	4500
864.954	4512
865.086	4485
865.217	4402
865.349	4440
865.48	4497
865.612	4489
865.743	4580
865.875	4440
866.006	4390
866.137	4443
866.269	4394
866.4	4428
866.531	4386
866.662	4413
866.793	4333
866.924	4398
867.055	4504
867.186	4417
867.317	4344
867.448	4402
867.579	4394
867.71	4379
867.841	4386
867.972	4497
868.103	4424
868.233	4417
868.364	4455
868.495	4462
868.625	4645
868.756	4797
868.886	4481
869.017	4615
869.147	4759
869.278	4763
869.408	4664
869.539	4733
869.669	4733
869.799	4653
869.929	4733
870.06	4763
870.19	4919
870.32	4870
870.45	4972
870.58	4991
870.71	5128
870.84	5060
870.97	4904
871.1	4866
871.23	5117
871.36	5090
871.489	4987
871.619	5098
871.749	5094
871.879	5117
872.008	5151
872.138	5041
872.267	4953
872.397	4793
872.526	4828
872.656	4714
872.785	4828
872.915	4923
873.044	5006
873.173	4900
873.303	4942
873.432	4934
873.561	4896
873.69	4904
873.819	4854
873.948	4847
874.077	4786
874.206	4759
874.335	4805
874.464	4927
874.593	4984
874.722	4930
874.851	5067
874.979	5010
875.108	5048
875.237	4854
875.365	4793
875.494	4881
875.623	4968
875.751	4866
875.88	4900
876.008	5033
876.136	5022
876.265	5147
876.393	5284
876.521	5246
876.65	5227
876.778	5170
876.906	5079
877.034	5018
877.162	5029
877.29	4946
877.418	5056
877.546	5029
877.674	5052
877.802	5083
877.93	5041
878.058	4919
878.185	4858
878.313	4961
878.441	4927
878.568	4809
878.696	4847
878.824	4949
878.951	4984
879.079	5052
879.206	5258
879.333	5098
879.461	4957
879.588	5003
879.715	5113
879.842	5231
879.97	5018
880.097	4771
880.224	4721
880.351	4812
880.478	4793
880.605	4774
880.732	4801
880.859	5083
880.986	4870
881.112	4824
881.239	4733
881.366	4679
881.493	4603
881.619	4535
881.746	4645
881.872	4660
881.999	4645
882.125	4687
882.252	4816
882.378	4843
882.505	4938
882.631	4793
882.757	4694
882.883	4694
883.01	4702
883.136	4649
883.262	4531
883.388	4573
883.514	4828
883.64	4904
883.766	4824
883.892	4675
884.018	4687
884.143	4900
884.269	4999
884.395	4664
884.52	4580
884.646	4592
884.772	4596
884.897	4554
885.023	4596
885.148	4805
885.274	4839
885.399	4767
885.524	4729
885.65	4656
885.775	4725
885.9	4717
886.025	4828
886.15	4801
886.275	4752
886.4	4607
886.525	4714
886.65	4672
886.775	4607
886.9	4915
887.025	4991
887.149	4793
887.274	4649
887.399	4584
887.523	4596
887.648	4577
887.773	4580
887.897	4736
888.021	4812
888.146	4679
888.27	4801
888.395	4885
888.519	4782
888.643	4782
888.767	4828
888.891	4649
889.015	4607
889.139	4637
889.263	4569
889.387	4755
889.511	4870
889.635	4767
889.759	4607
889.883	4630
890.006	4698
890.13	4793
890.254	4615
890.377	4634
890.501	4546
890.624	4489
890.748	4615
890.871	4478
890.995	4470
891.118	4337
891.241	4459
891.364	4550
891.488	4611
891.611	4519
891.734	4573
891.857	4577
891.98	4516
892.103	4641
892.226	4558
892.349	4519
892.471	4375
892.594	4497
892.717	4611
892.839	4634
892.962	4656
893.085	4618
893.207	4573
893.33	4459
893.452	4512
893.575	4656
893.697	4603
893.819	4771
893.941	4801
894.064	4736
894.186	4554
894.308	4523
894.43	4729
894.552	4816
894.674	4710
894.796	4516
894.918	4580
895.04	4565
895.161	4649
895.283	4691
895.405	4577
895.526	4599
895.648	4683
895.769	4698
895.891	4721
896.012	4694
896.134	4733
896.255	4630
896.376	4596
896.498	4603
896.619	4675
896.74	4611
896.861	4656
896.982	4911
897.103	5064
897.224	4824
897.345	4752
897.466	4622
897.587	4714
897.708	4847
897.828	4740
897.949	4672
898.07	4611
898.19	4626
898.311	4843
898.431	4702
898.552	4725
898.672	4778
898.792	4774
898.913	4694
899.033	4577
899.153	4508
899.273	4417
899.393	4500
899.513	4516
899.633	4481
899.753	4504
899.873	4519
899.993	4523
900.113	4512
900.232	4538
900.352	4512
900.472	4459
900.591	4413
900.711	4428
900.83	4440
900.95	4596
901.069	4679
901.189	4519
901.308	4375
901.427	4306
901.546	4379
901.665	4474
901.784	4500
901.904	4352
902.023	4348
902.141	4200
902.26	4192
902.379	4310
902.498	4246
902.617	4215
902.735	4337
902.854	4402
902.973	4333
903.091	4230
903.21	4215
903.328	4291
903.446	4280
903.565	4249
903.683	4318
903.801	4257
903.919	4394
904.038	4413
904.156	4356
904.274	4440
904.392	4409
904.51	4440
904.627	4455
904.745	4588
904.863	4660
904.981	4390
905.098	4322
905.216	4341
905.334	4440
905.451	4386
905.569	4394
905.686	4497
905.803	4535
905.921	4417
906.038	4569
906.155	4523
906.272	4360
906.389	4512
906.506	4356
906.623	4379
906.74	4398
906.857	4325
906.974	4371
907.091	4523
907.208	4675
907.324	4611
907.441	4466
907.557	4379
907.674	4333
907.79	4306
907.907	4352
908.023	4443
908.139	4455
908.256	4432
908.372	4474
908.488	4443
908.604	4383
908.72	4341
908.836	4344
908.952	4394
909.068	4424
909.184	4538
909.3	4413
909.415	4527
909.531	4588
909.647	4329
909.762	4375
909.878	4329
909.993	4417
910.108	4424
910.224	4417
910.339	4478
910.454	4394
910.57	4363
910.685	4337
910.8	4615
910.915	4615
911.03	4497
911.145	4299
911.259	4352
911.374	4333
911.489	4310
911.604	4303
911.718	4158
911.833	4177
911.947	4063
912.062	4036
912.176	4207
912.291	4242
912.405	4249
912.519	4421
912.633	4489
912.748	4333
912.862	4299
912.976	4204
913.09	4040
913.204	4181
913.318	4276
913.431	4356
913.545	4341
913.659	4409
913.772	4356
913.886	4227
914	4219
914.113	4344
914.226	4451
914.34	4371
914.453	4196
914.566	4421
914.68	4261
914.793	4341
914.906	4162
915.019	4150
915.132	4093
915.245	4196
915.358	4200
915.47	4230
915.583	4276
915.696	4329
915.809	4443
915.921	4474
916.034	4276
916.146	4234
916.259	4230
916.371	4352
916.483	4337
916.595	4227
916.708	4318
916.82	4333
916.932	4306
917.044	4337
917.156	4314
917.268	4200
917.38	4276
917.491	4329
917.603	4318
917.715	4436
917.826	4402
917.938	4325
918.049	4242
918.161	4363
918.272	4527
918.384	4497
918.495	4443
918.606	4268
918.717	4207
918.828	4306
918.939	4379
919.05	4234
919.161	4306
919.272	4139
919.383	4242
919.494	4459
919.604	4573
919.715	4383
919.826	4356
919.936	4367
920.047	4504
920.157	4508
920.267	4668
920.378	4573
920.488	4500
920.598	4714
920.708	4889
920.818	4759
920.928	4755
921.038	4942
921.148	4896
921.258	4611
921.368	4550
921.477	4512
921.587	4447
921.697	4341
921.806	4512
921.916	4447
922.025	4291
922.134	4272
922.244	4192
922.353	4341
922.462	4192
922.571	4112
922.68	4010
922.789	3964
922.898	4048
923.007	3956
923.116	4116
923.224	4025
923.333	4059
923.442	3941
923.55	3964
923.659	4032
923.767	4093
923.876	4029
923.984	4143
924.092	4032
924.201	4078
924.309	4090
924.417	4128
924.525	4025
924.633	4090
924.741	4999
924.849	3850
924.956	4131
925.064	3968
925.172	3838
925.279	3918
925.387	4029
925.494	4059
925.602	4158
925.709	4173
925.816	4051
925.924	4177
926.031	4200
926.138	4188
926.245	4162
926.352	4124
926.459	4234
926.566	4268
926.673	4185
926.779	4086
926.886	4078
926.993	4006
927.099	3960
927.206	3972
927.312	3911
927.419	4071
927.525	4071
927.631	4063
927.737	3956
927.843	3968
927.95	3785
928.056	3922
928.162	3953
928.267	4063
928.373	4664
928.479	4093
928.585	3926
928.69	4025
928.796	4093
928.901	3975
929.007	3804
929.112	3998
929.218	4006
929.323	3896
929.428	3907
929.533	4063
929.638	3922
929.743	3949
929.848	4013
929.953	4017
930.058	3937
930.163	3717
930.267	3861
930.372	3949
930.477	3812
930.581	4048
930.685	3953
930.79	3827
930.894	3865
930.998	3865
931.103	3998
931.207	3724
931.311	3660
931.415	3603
931.519	3496
931.623	3557
