Data from test_V78500241_928.txt Node
Date: Fri Mar 25 16:55:27 CST 2022
User: usil
Spectrometer: V785-0024
Trigger mode: 0
Integration Time (sec): 4.000000E-1
Scans to average: 1
Nonlinearity correction enabled: false
Boxcar width: 0
Storing dark spectrum: false
XAxis mode: Wavelengths
Number of Pixels in Spectrum: 1024
>>>>>Begin Spectral Data<<<<<
801.071	8084
801.214	8027
801.356	7871
801.499	7852
801.641	7784
801.783	7803
801.926	7940
802.068	7928
802.211	7921
802.353	7951
802.496	7818
802.638	7887
802.78	7955
802.923	7947
803.065	7849
803.208	7974
803.35	8020
803.492	8111
803.635	8138
803.777	8046
803.919	8084
804.061	8423
804.204	8081
804.346	8073
804.488	8035
804.63	8100
804.773	7970
804.915	8100
805.057	8259
805.199	8176
805.341	8195
805.483	8240
805.626	8168
805.768	8115
805.91	8172
806.052	8202
806.194	8107
806.336	8275
806.478	8119
806.62	8050
806.762	8096
806.904	8275
807.046	8473
807.188	8317
807.33	8282
807.472	8374
807.614	8103
807.756	8107
807.898	7970
808.04	7967
808.182	7906
808.324	7875
808.465	7852
808.607	7970
808.749	8119
808.891	8130
809.033	8263
809.174	8252
809.316	8077
809.458	8073
809.6	7887
809.741	7978
809.883	8073
810.025	7997
810.166	8062
810.308	7974
810.45	7993
810.591	7917
810.733	7719
810.875	7624
811.016	7506
811.158	7449
811.299	7632
811.441	7715
811.582	7708
811.724	7594
811.865	7476
812.007	7590
812.148	7533
812.29	7643
812.431	7731
812.573	7879
812.714	8001
812.855	8027
812.997	8225
813.138	8355
813.279	8168
813.421	8096
813.562	8046
813.703	7879
813.845	7826
813.986	7460
814.127	7278
814.268	7259
814.41	7255
814.551	7107
814.692	7129
814.833	7046
814.974	7103
815.115	7084
815.256	7000
815.397	6939
815.539	7004
815.68	6890
815.821	6764
815.962	6882
816.103	6825
816.244	6692
816.385	6601
816.526	6627
816.666	6517
816.807	6327
816.948	6448
817.089	6502
817.23	6395
817.371	6319
817.512	6380
817.653	6384
817.793	6346
817.934	6357
818.075	6403
818.216	6471
818.356	6471
818.497	6213
818.638	6098
818.778	6114
818.919	6079
819.06	6114
819.2	6308
819.341	6323
819.481	6384
819.622	6506
819.762	6700
819.903	6696
820.043	6608
820.184	6544
820.324	6555
820.465	6658
820.605	6654
820.746	6612
820.886	6517
821.026	6570
821.167	6730
821.307	6810
821.447	6802
821.588	6627
821.728	6570
821.868	6486
822.008	6323
822.149	6418
822.289	6311
822.429	6159
822.569	6110
822.709	6159
822.849	5893
822.99	5901
823.13	5920
823.27	5866
823.41	5703
823.55	5790
823.69	5752
823.83	5783
823.97	5634
824.11	5532
824.25	5490
824.389	5528
824.529	5577
824.669	5532
824.809	5585
824.949	5665
825.089	5573
825.228	5535
825.368	5402
825.508	5345
825.648	5330
825.787	5353
825.927	5326
826.067	5296
826.206	5284
826.346	5406
826.485	5368
826.625	5360
826.765	5520
826.904	5433
827.044	5288
827.183	5174
827.323	5132
827.462	5201
827.601	5170
827.741	5208
827.88	5166
828.02	5117
828.159	5250
828.298	5296
828.437	5360
828.577	5242
828.716	5455
828.855	5341
828.994	5155
829.134	5140
829.273	5128
829.412	5147
829.551	5105
829.69	5155
829.829	5204
829.968	5364
830.107	5220
830.246	5284
830.385	5143
830.524	5181
830.663	5056
830.802	4987
830.941	4957
831.08	4877
831.219	4942
831.357	4987
831.496	5155
831.635	4972
831.774	4873
831.913	4835
832.051	4710
832.19	4729
832.329	4809
832.467	4687
832.606	4622
832.744	4687
832.883	4717
833.022	4687
833.16	4736
833.299	4793
833.437	4843
833.576	4755
833.714	4828
833.852	4881
833.991	4873
834.129	4946
834.267	4919
834.406	4934
834.544	4946
834.682	4987
834.821	4991
834.959	5170
835.097	4961
835.235	5151
835.373	5056
835.511	5071
835.65	4976
835.788	5022
835.926	4873
836.064	4866
836.202	4961
836.34	5170
836.478	5231
836.615	5159
836.753	5231
836.891	5311
837.029	5220
837.167	5201
837.305	5174
837.443	5086
837.58	5086
837.718	5250
837.856	5147
837.993	5109
838.131	5208
838.269	5189
838.406	5216
838.544	5170
838.681	5010
838.819	5056
838.956	4885
839.094	4873
839.231	4946
839.369	5067
839.506	5436
839.643	5254
839.781	5018
839.918	4987
840.055	5052
840.193	5033
840.33	5029
840.467	5140
840.604	5174
840.742	5391
840.879	5083
841.016	5143
841.153	5109
841.29	5379
841.427	5315
841.564	5288
841.701	5357
841.838	5235
841.975	5216
842.112	5239
842.249	5132
842.385	5086
842.522	5277
842.659	5170
842.796	5174
842.933	5212
843.069	5128
843.206	5147
843.343	5318
843.479	5181
843.616	5250
843.752	5045
843.889	5003
844.025	5181
844.162	4987
844.298	5166
844.435	5067
844.571	5033
844.708	5178
844.844	5269
844.98	5326
845.117	5231
845.253	5155
845.389	5041
845.525	5193
845.661	5147
845.798	5045
845.934	5136
846.07	5037
846.206	5212
846.342	5235
846.478	5166
846.614	5075
846.75	5006
846.886	4946
847.022	5113
847.158	5056
847.294	5083
847.429	5086
847.565	5022
847.701	5273
847.837	4839
847.972	4824
848.108	4927
848.244	4870
848.379	4748
848.515	4744
848.65	4744
848.786	4725
848.921	4786
849.057	4858
849.192	4885
849.328	4801
849.463	4858
849.598	4771
849.734	4786
849.869	4687
850.004	4626
850.14	4668
850.275	4607
850.41	4531
850.545	4561
850.68	4599
850.815	4622
850.95	4622
851.085	4816
851.22	4702
851.355	4637
851.49	4607
851.625	4668
851.76	4615
851.895	4550
852.03	4519
852.165	4637
852.299	4698
852.434	4759
852.569	4691
852.703	4767
852.838	4847
852.973	4908
853.107	4858
853.242	4710
853.376	4698
853.511	4531
853.645	4611
853.78	4828
853.914	4698
854.048	4660
854.183	4603
854.317	4679
854.451	4816
854.585	4729
854.72	4630
854.854	4763
854.988	4584
855.122	4683
855.256	4535
855.39	4656
855.524	4790
855.658	4653
855.792	4698
855.926	4729
856.06	4759
856.194	4816
856.327	4691
856.461	4611
856.595	4607
856.729	4626
856.862	4691
856.996	4679
857.13	4748
857.263	4778
857.397	4797
857.53	4653
857.664	4698
857.797	4733
857.931	4721
858.064	4649
858.197	4702
858.331	4698
858.464	4622
858.597	4497
858.731	4645
858.864	4611
858.997	4558
859.13	4622
859.263	4687
859.396	4683
859.529	4565
859.662	4554
859.795	4535
859.928	4615
860.061	4759
860.194	4771
860.327	4653
860.46	4535
860.592	4710
860.725	4717
860.858	4740
860.99	4565
861.123	4508
861.256	4504
861.388	4603
861.521	5143
861.653	4538
861.786	4398
861.918	4383
862.05	4478
862.183	4531
862.315	4584
862.447	4607
862.58	4516
862.712	4363
862.844	4325
862.976	4481
863.108	4455
863.24	4710
863.372	4333
863.504	4424
863.636	4402
863.768	4470
863.9	4417
864.032	4333
864.164	4409
864.296	4470
864.428	4504
864.559	4550
864.691	4538
864.823	4512
864.954	4527
865.086	4485
865.217	4432
865.349	4405
865.48	4462
865.612	4443
865.743	4618
865.875	4447
866.006	4421
866.137	4478
866.269	4462
866.4	4413
866.531	4383
866.662	4363
866.793	4424
866.924	4424
867.055	4481
867.186	4440
867.317	4405
867.448	4417
867.579	4379
867.71	4394
867.841	4379
867.972	4447
868.103	4421
868.233	4443
868.364	4405
868.495	4500
868.625	4656
868.756	4733
868.886	4558
869.017	4588
869.147	4755
869.278	4733
869.408	4626
869.539	4599
869.669	4675
869.799	4637
869.929	4729
870.06	4729
870.19	4904
870.32	4858
870.45	4877
870.58	4999
870.71	5109
870.84	5060
870.97	4919
871.1	4900
871.23	5079
871.36	5083
871.489	4968
871.619	5075
871.749	5098
871.879	5128
872.008	5170
872.138	5014
872.267	5003
872.397	4812
872.526	4771
872.656	4687
872.785	4771
872.915	4953
873.044	5037
873.173	4927
873.303	5014
873.432	4919
873.561	4896
873.69	4850
873.819	4801
873.948	4904
874.077	4748
874.206	4729
874.335	4759
874.464	4870
874.593	5056
874.722	4927
874.851	5067
874.979	5071
875.108	5064
875.237	4904
875.365	4881
875.494	4858
875.623	4991
875.751	4771
875.88	4896
876.008	4976
876.136	5029
876.265	5174
876.393	5254
876.521	5212
876.65	5258
876.778	5170
876.906	5056
877.034	4987
877.162	5041
877.29	5003
877.418	5064
877.546	4987
877.674	4999
877.802	5029
877.93	5033
878.058	4957
878.185	4850
878.313	4972
878.441	4927
878.568	4828
878.696	4877
878.824	4968
878.951	4968
879.079	5117
879.206	5254
879.333	5067
879.461	5006
879.588	4987
879.715	5094
879.842	5246
879.97	4999
880.097	4793
880.224	4736
880.351	4782
880.478	4862
880.605	4843
880.732	4809
880.859	5124
880.986	4870
881.112	4908
881.239	4805
881.366	4683
881.493	4580
881.619	4577
881.746	4611
881.872	4603
881.999	4599
882.125	4698
882.252	4782
882.378	4828
882.505	4972
882.631	4824
882.757	4641
882.883	4763
883.01	4771
883.136	4668
883.262	4535
883.388	4588
883.514	4774
883.64	4858
883.766	4736
883.892	4683
884.018	4675
884.143	4930
884.269	5003
884.395	4706
884.52	4596
884.646	4675
884.772	4611
884.897	4569
885.023	4630
885.148	4767
885.274	4858
885.399	4771
885.524	4675
885.65	4725
885.775	4717
885.9	4679
886.025	4805
886.15	4740
886.275	4710
886.4	4637
886.525	4645
886.65	4672
886.775	4687
886.9	4881
887.025	5006
887.149	4809
887.274	4626
887.399	4615
887.523	4554
887.648	4596
887.773	4554
887.897	4782
888.021	4752
888.146	4660
888.27	4778
888.395	4866
888.519	4835
888.643	4797
888.767	4790
888.891	4694
889.015	4554
889.139	4618
889.263	4565
889.387	4801
889.511	4774
889.635	4805
889.759	4596
889.883	4645
890.006	4736
890.13	4877
890.254	4607
890.377	4675
890.501	4554
890.624	4519
890.748	4607
890.871	4500
890.995	4459
891.118	4352
891.241	4519
891.364	4504
891.488	4668
891.611	4462
891.734	4535
891.857	4580
891.98	4527
892.103	4603
892.226	4561
892.349	4470
892.471	4394
892.594	4516
892.717	4554
892.839	4554
892.962	4542
893.085	4660
893.207	4565
893.33	4451
893.452	4519
893.575	4679
893.697	4538
893.819	4774
893.941	4824
894.064	4740
894.186	4584
894.308	4596
894.43	4710
894.552	4824
894.674	4759
894.796	4542
894.918	4558
895.04	4500
895.161	4694
895.283	4634
895.405	4580
895.526	4626
895.648	4691
895.769	4660
895.891	4702
896.012	4706
896.134	4660
896.255	4694
896.376	4615
896.498	4622
896.619	4691
896.74	4588
896.861	4675
896.982	4858
897.103	5102
897.224	4820
897.345	4714
897.466	4645
897.587	4717
897.708	4835
897.828	4748
897.949	4622
898.07	4584
898.19	4622
898.311	4816
898.431	4668
898.552	4729
898.672	4824
898.792	4801
898.913	4717
899.033	4584
899.153	4474
899.273	4432
899.393	4481
899.513	4508
899.633	4485
899.753	4558
899.873	4508
899.993	4546
900.113	4516
900.232	4588
900.352	4512
900.472	4512
900.591	4390
900.711	4516
900.83	4417
900.95	4626
901.069	4653
901.189	4542
901.308	4363
901.427	4337
901.546	4383
901.665	4466
901.784	4500
901.904	4375
902.023	4287
902.141	4154
902.26	4158
902.379	4253
902.498	4230
902.617	4177
902.735	4360
902.854	4375
902.973	4344
903.091	4185
903.21	4192
903.328	4272
903.446	4268
903.565	4322
903.683	4341
903.801	4306
903.919	4371
904.038	4417
904.156	4314
904.274	4459
904.392	4390
904.51	4421
904.627	4500
904.745	4599
904.863	4622
904.981	4413
905.098	4303
905.216	4363
905.334	4455
905.451	4409
905.569	4432
905.686	4561
905.803	4542
905.921	4398
906.038	4542
906.155	4447
906.272	4386
906.389	4447
906.506	4367
906.623	4329
906.74	4398
906.857	4310
906.974	4318
907.091	4550
907.208	4660
907.324	4519
907.441	4497
907.557	4348
907.674	4333
907.79	4363
907.907	4394
908.023	4493
908.139	4478
908.256	4413
908.372	4470
908.488	4481
908.604	4352
908.72	4390
908.836	4371
908.952	4462
909.068	4451
909.184	4580
909.3	4474
909.415	4584
909.531	4500
909.647	4310
909.762	4318
909.878	4322
909.993	4459
910.108	4417
910.224	4367
910.339	4447
910.454	4413
910.57	4352
910.685	4284
910.8	4634
910.915	4588
911.03	4519
911.145	4325
911.259	4299
911.374	4379
911.489	4299
911.604	4276
911.718	4169
911.833	4131
911.947	4082
912.062	4010
912.176	4188
912.291	4227
912.405	4272
912.519	4447
912.633	4497
912.748	4329
912.862	4295
912.976	4223
913.09	4109
913.204	4124
913.318	4261
913.431	4344
913.545	4386
913.659	4447
913.772	4333
913.886	4246
914	4177
914.113	4352
914.226	4413
914.34	4402
914.453	4192
914.566	4375
914.68	4303
914.793	4318
914.906	4166
915.019	4101
915.132	4116
915.245	4181
915.358	4169
915.47	4227
915.583	4272
915.696	4299
915.809	4413
915.921	4409
916.034	4257
916.146	4257
916.259	4215
916.371	4360
916.483	4375
916.595	4265
916.708	4367
916.82	4295
916.932	4287
917.044	4318
917.156	4394
917.268	4234
917.38	4295
917.491	4272
917.603	4337
917.715	4394
917.826	4428
917.938	4348
918.049	4238
918.161	4386
918.272	4497
918.384	4508
918.495	4405
918.606	4310
918.717	4257
918.828	4348
918.939	4398
919.05	4234
919.161	4352
919.272	4093
919.383	4246
919.494	4481
919.604	4565
919.715	4428
919.826	4314
919.936	4424
920.047	4519
920.157	4485
920.267	4683
920.378	4504
920.488	4474
920.598	4687
920.708	4881
920.818	4759
920.928	4763
921.038	4938
921.148	4904
921.258	4584
921.368	4573
921.477	4481
921.587	4409
921.697	4375
921.806	4516
921.916	4405
922.025	4299
922.134	4268
922.244	4215
922.353	4322
922.462	4147
922.571	4112
922.68	4002
922.789	4002
922.898	4021
923.007	3979
923.116	4143
923.224	4025
923.333	4074
923.442	3956
923.55	3945
923.659	4059
923.767	4101
923.876	3991
923.984	4067
924.092	3994
924.201	4078
924.309	4082
924.417	4093
924.525	4093
924.633	4074
924.741	5048
924.849	3922
924.956	4090
925.064	3968
925.172	3926
925.279	3956
925.387	4051
925.494	4074
925.602	4215
925.709	4166
925.816	4017
925.924	4097
926.031	4219
926.138	4162
926.245	4242
926.352	4097
926.459	4200
926.566	4303
926.673	4158
926.779	4067
926.886	4067
926.993	3975
927.099	3918
927.206	3896
927.312	3911
927.419	3983
927.525	3964
927.631	4048
927.737	4029
927.843	3937
927.95	3850
928.056	3964
928.162	3941
928.267	4036
928.373	4679
928.479	4135
928.585	3907
928.69	4013
928.796	4074
928.901	3964
929.007	3846
929.112	3975
929.218	3949
929.323	3899
929.428	3918
929.533	4128
929.638	3854
929.743	3956
929.848	4036
929.953	4017
930.058	3934
930.163	3762
930.267	3827
930.372	3975
930.477	3804
930.581	4063
930.685	3956
930.79	3819
930.894	3876
930.998	3873
931.103	4017
931.207	3698
931.311	3690
931.415	3671
931.519	3538
931.623	3542
