Data from test_V78500241_1515.txt Node
Date: Fri Mar 25 16:59:32 CST 2022
User: usil
Spectrometer: V785-0024
Trigger mode: 0
Integration Time (sec): 4.000000E-1
Scans to average: 1
Nonlinearity correction enabled: false
Boxcar width: 0
Storing dark spectrum: false
XAxis mode: Wavelengths
Number of Pixels in Spectrum: 1024
>>>>>Begin Spectral Data<<<<<
801.071	8039
801.214	8008
801.356	7898
801.499	7841
801.641	7803
801.783	7849
801.926	7955
802.068	7932
802.211	8027
802.353	7906
802.496	7887
802.638	7803
802.78	7925
802.923	7944
803.065	7932
803.208	7803
803.35	8043
803.492	8168
803.635	8149
803.777	8012
803.919	8191
804.061	8457
804.204	8172
804.346	8077
804.488	8069
804.63	8103
804.773	8027
804.915	8142
805.057	8263
805.199	8168
805.341	8202
805.483	8377
805.626	8157
805.768	8168
805.91	8202
806.052	8229
806.194	8130
806.336	8305
806.478	8130
806.62	8084
806.762	8073
806.904	8267
807.046	8507
807.188	8408
807.33	8290
807.472	8336
807.614	8168
807.756	8107
807.898	8016
808.04	7856
808.182	7913
808.324	7947
808.465	7909
808.607	8092
808.749	8123
808.891	8214
809.033	8339
809.174	8233
809.316	8054
809.458	8039
809.6	8016
809.741	7974
809.883	7963
810.025	8088
810.166	8103
810.308	8016
810.45	8024
810.591	7894
810.733	7723
810.875	7746
811.016	7601
811.158	7457
811.299	7624
811.441	7727
811.582	7651
811.724	7586
811.865	7556
812.007	7632
812.148	7578
812.29	7601
812.431	7830
812.573	7856
812.714	8039
812.855	8123
812.997	8149
813.138	8298
813.279	8248
813.421	8065
813.562	7989
813.703	7860
813.845	7658
813.986	7422
814.127	7305
814.268	7228
814.41	7149
814.551	7168
814.692	7206
814.833	7091
814.974	7069
815.115	7149
815.256	7027
815.397	6966
815.539	6943
815.68	6859
815.821	6795
815.962	6871
816.103	6806
816.244	6696
816.385	6620
816.526	6597
816.666	6555
816.807	6334
816.948	6467
817.089	6513
817.23	6441
817.371	6384
817.512	6369
817.653	6414
817.793	6350
817.934	6407
818.075	6445
818.216	6452
818.356	6403
818.497	6239
818.638	6155
818.778	6148
818.919	6087
819.06	6133
819.2	6266
819.341	6353
819.481	6388
819.622	6566
819.762	6726
819.903	6673
820.043	6650
820.184	6563
820.324	6570
820.465	6753
820.605	6673
820.746	6604
820.886	6509
821.026	6707
821.167	6681
821.307	6825
821.447	6779
821.588	6654
821.728	6517
821.868	6498
822.008	6338
822.149	6281
822.289	6334
822.429	6220
822.569	6064
822.709	6136
822.849	5870
822.99	5866
823.13	5866
823.27	5923
823.41	5821
823.55	5783
823.69	5745
823.83	5748
823.97	5707
824.11	5551
824.25	5467
824.389	5524
824.529	5600
824.669	5562
824.809	5707
824.949	5649
825.089	5604
825.228	5532
825.368	5402
825.508	5337
825.648	5360
825.787	5349
825.927	5349
826.067	5349
826.206	5296
826.346	5372
826.485	5379
826.625	5406
826.765	5528
826.904	5474
827.044	5239
827.183	5246
827.323	5132
827.462	5239
827.601	5166
827.741	5174
827.88	5254
828.02	5083
828.159	5246
828.298	5273
828.437	5360
828.577	5296
828.716	5474
828.855	5315
828.994	5181
829.134	5151
829.273	5220
829.412	5128
829.551	5109
829.69	5181
829.829	5250
829.968	5322
830.107	5311
830.246	5273
830.385	5181
830.524	5143
830.663	5048
830.802	4957
830.941	4885
831.08	4881
831.219	4987
831.357	4965
831.496	5208
831.635	4965
831.774	4858
831.913	4866
832.051	4725
832.19	4744
832.329	4870
832.467	4694
832.606	4599
832.744	4710
832.883	4733
833.022	4698
833.16	4805
833.299	4809
833.437	4805
833.576	4816
833.714	4873
833.852	4877
833.991	4843
834.129	4961
834.267	4965
834.406	4892
834.544	4968
834.682	4942
834.821	4930
834.959	5166
835.097	5018
835.235	5193
835.373	5045
835.511	5105
835.65	4991
835.788	5014
835.926	4839
836.064	4885
836.202	4919
836.34	5162
836.478	5220
836.615	5124
836.753	5239
836.891	5364
837.029	5246
837.167	5246
837.305	5147
837.443	5185
837.58	5109
837.718	5197
837.856	5201
837.993	5117
838.131	5235
838.269	5212
838.406	5216
838.544	5170
838.681	5014
838.819	5045
838.956	4885
839.094	4927
839.231	5018
839.369	5060
839.506	5421
839.643	5269
839.781	5037
839.918	4949
840.055	5052
840.193	5128
840.33	5075
840.467	5124
840.604	5235
840.742	5436
840.879	5140
841.016	5094
841.153	5193
841.29	5360
841.427	5349
841.564	5334
841.701	5364
841.838	5277
841.975	5246
842.112	5284
842.249	5155
842.385	5098
842.522	5277
842.659	5151
842.796	5136
842.933	5189
843.069	5136
843.206	5098
843.343	5288
843.479	5269
843.616	5273
843.752	4976
843.889	4976
844.025	5227
844.162	4968
844.298	5204
844.435	5094
844.571	5105
844.708	5181
844.844	5292
844.98	5337
845.117	5254
845.253	5098
845.389	5102
845.525	5166
845.661	5075
845.798	5045
845.934	5067
846.07	5060
846.206	5197
846.342	5265
846.478	5166
846.614	4984
846.75	4942
846.886	4942
847.022	5117
847.158	5052
847.294	5109
847.429	5071
847.565	5067
847.701	5337
847.837	4850
847.972	4782
848.108	4934
848.244	4957
848.379	4782
848.515	4725
848.65	4698
848.786	4763
848.921	4774
849.057	4881
849.192	4949
849.328	4839
849.463	4824
849.598	4858
849.734	4717
849.869	4698
850.004	4653
850.14	4637
850.275	4645
850.41	4542
850.545	4542
850.68	4615
850.815	4653
850.95	4660
851.085	4831
851.22	4706
851.355	4637
851.49	4603
851.625	4637
851.76	4656
851.895	4550
852.03	4561
852.165	4603
852.299	4698
852.434	4759
852.569	4694
852.703	4778
852.838	4850
852.973	4949
853.107	4900
853.242	4725
853.376	4645
853.511	4588
853.645	4599
853.78	4812
853.914	4664
854.048	4649
854.183	4664
854.317	4706
854.451	4816
854.585	4668
854.72	4641
854.854	4714
854.988	4634
855.122	4645
855.256	4527
855.39	4611
855.524	4809
855.658	4763
855.792	4691
855.926	4725
856.06	4740
856.194	4809
856.327	4656
856.461	4611
856.595	4630
856.729	4630
856.862	4698
856.996	4683
857.13	4729
857.263	4763
857.397	4771
857.53	4679
857.664	4691
857.797	4759
857.931	4782
858.064	4691
858.197	4729
858.331	4637
858.464	4645
858.597	4516
858.731	4634
858.864	4634
858.997	4554
859.13	4637
859.263	4637
859.396	4679
859.529	4573
859.662	4554
859.795	4535
859.928	4618
860.061	4774
860.194	4755
860.327	4615
860.46	4580
860.592	4687
860.725	4691
860.858	4706
860.99	4592
861.123	4554
861.256	4519
861.388	4603
861.521	5330
861.653	4459
861.786	4470
861.918	4478
862.05	4500
862.183	4523
862.315	4618
862.447	4656
862.58	4527
862.712	4352
862.844	4322
862.976	4455
863.108	4443
863.24	4763
863.372	4329
863.504	4455
863.636	4428
863.768	4466
863.9	4405
864.032	4333
864.164	4413
864.296	4443
864.428	4462
864.559	4561
864.691	4504
864.823	4523
864.954	4478
865.086	4474
865.217	4504
865.349	4447
865.48	4451
865.612	4466
865.743	4607
865.875	4474
866.006	4466
866.137	4436
866.269	4440
866.4	4405
866.531	4352
866.662	4390
866.793	4375
866.924	4421
867.055	4519
867.186	4466
867.317	4451
867.448	4390
867.579	4405
867.71	4352
867.841	4432
867.972	4451
868.103	4489
868.233	4447
868.364	4466
868.495	4470
868.625	4599
868.756	4755
868.886	4508
869.017	4630
869.147	4809
869.278	4721
869.408	4687
869.539	4641
869.669	4694
869.799	4656
869.929	4786
870.06	4740
870.19	5006
870.32	4873
870.45	4938
870.58	4987
870.71	5052
870.84	5113
870.97	4949
871.1	4892
871.23	5151
871.36	5109
871.489	5029
871.619	5045
871.749	5159
871.879	5170
872.008	5174
872.138	5033
872.267	4972
872.397	4843
872.526	4793
872.656	4714
872.785	4774
872.915	4949
873.044	5045
873.173	4923
873.303	4995
873.432	4987
873.561	4953
873.69	4892
873.819	4824
873.948	4942
874.077	4801
874.206	4755
874.335	4740
874.464	4854
874.593	5067
874.722	4938
874.851	5075
874.979	5079
875.108	4991
875.237	4927
875.365	4850
875.494	4843
875.623	4965
875.751	4835
875.88	4896
876.008	4957
876.136	5003
876.265	5227
876.393	5315
876.521	5273
876.65	5231
876.778	5155
876.906	5018
877.034	5033
877.162	5048
877.29	4957
877.418	5022
877.546	5029
877.674	5052
877.802	5014
877.93	4995
878.058	4908
878.185	4870
878.313	4957
878.441	4892
878.568	4805
878.696	4870
878.824	4930
878.951	4976
879.079	5067
879.206	5280
879.333	5083
879.461	4984
879.588	4972
879.715	5132
879.842	5220
879.97	4949
880.097	4786
880.224	4752
880.351	4812
880.478	4809
880.605	4778
880.732	4774
880.859	5102
880.986	4896
881.112	4904
881.239	4755
881.366	4637
881.493	4596
881.619	4626
881.746	4691
881.872	4634
881.999	4637
882.125	4694
882.252	4759
882.378	4786
882.505	4957
882.631	4778
882.757	4691
882.883	4736
883.01	4710
883.136	4691
883.262	4603
883.388	4607
883.514	4824
883.64	4877
883.766	4835
883.892	4641
884.018	4691
884.143	4854
884.269	5018
884.395	4664
884.52	4615
884.646	4615
884.772	4558
884.897	4558
885.023	4637
885.148	4767
885.274	4847
885.399	4820
885.524	4725
885.65	4725
885.775	4725
885.9	4710
886.025	4873
886.15	4820
886.275	4717
886.4	4634
886.525	4679
886.65	4668
886.775	4763
886.9	4934
887.025	5025
887.149	4824
887.274	4660
887.399	4603
887.523	4592
887.648	4584
887.773	4565
887.897	4755
888.021	4774
888.146	4675
888.27	4797
888.395	4915
888.519	4774
888.643	4793
888.767	4801
888.891	4637
889.015	4653
889.139	4607
889.263	4603
889.387	4736
889.511	4828
889.635	4786
889.759	4599
889.883	4599
890.006	4740
890.13	4835
890.254	4588
890.377	4717
890.501	4519
890.624	4558
890.748	4618
890.871	4500
890.995	4432
891.118	4379
891.241	4516
891.364	4565
891.488	4645
891.611	4497
891.734	4584
891.857	4542
891.98	4527
892.103	4653
892.226	4603
892.349	4550
892.471	4383
892.594	4558
892.717	4599
892.839	4592
892.962	4656
893.085	4641
893.207	4611
893.33	4455
893.452	4516
893.575	4637
893.697	4554
893.819	4752
893.941	4797
894.064	4763
894.186	4573
894.308	4561
894.43	4706
894.552	4797
894.674	4759
894.796	4607
894.918	4603
895.04	4531
895.161	4702
895.283	4630
895.405	4538
895.526	4630
895.648	4710
895.769	4698
895.891	4714
896.012	4691
896.134	4736
896.255	4641
896.376	4622
896.498	4565
896.619	4653
896.74	4561
896.861	4634
896.982	4892
897.103	5132
897.224	4790
897.345	4748
897.466	4641
897.587	4694
897.708	4892
897.828	4778
897.949	4649
898.07	4519
898.19	4599
898.311	4835
898.431	4668
898.552	4721
898.672	4816
898.792	4820
898.913	4725
899.033	4599
899.153	4580
899.273	4443
899.393	4508
899.513	4497
899.633	4550
899.753	4569
899.873	4474
899.993	4588
900.113	4561
900.232	4622
900.352	4512
900.472	4451
900.591	4398
900.711	4497
900.83	4402
900.95	4584
901.069	4607
901.189	4523
901.308	4344
901.427	4306
901.546	4341
901.665	4504
901.784	4489
901.904	4390
902.023	4303
902.141	4192
902.26	4128
902.379	4310
902.498	4238
902.617	4242
902.735	4337
902.854	4390
902.973	4341
903.091	4196
903.21	4188
903.328	4287
903.446	4291
903.565	4253
903.683	4329
903.801	4276
903.919	4398
904.038	4379
904.156	4287
904.274	4417
904.392	4390
904.51	4474
904.627	4485
904.745	4558
904.863	4622
904.981	4398
905.098	4299
905.216	4352
905.334	4405
905.451	4462
905.569	4432
905.686	4550
905.803	4508
905.921	4390
906.038	4558
906.155	4470
906.272	4386
906.389	4455
906.506	4337
906.623	4371
906.74	4379
906.857	4306
906.974	4352
907.091	4504
907.208	4679
907.324	4550
907.441	4459
907.557	4299
907.674	4314
907.79	4318
907.907	4379
908.023	4489
908.139	4466
908.256	4413
908.372	4428
908.488	4432
908.604	4303
908.72	4314
908.836	4383
908.952	4398
909.068	4413
909.184	4588
909.3	4508
909.415	4550
909.531	4592
909.647	4360
909.762	4356
909.878	4318
909.993	4428
910.108	4356
910.224	4428
910.339	4489
910.454	4409
910.57	4337
910.685	4306
910.8	4641
910.915	4645
911.03	4478
911.145	4333
911.259	4344
911.374	4379
911.489	4299
911.604	4257
911.718	4188
911.833	4196
911.947	4101
912.062	4021
912.176	4249
912.291	4234
912.405	4223
912.519	4440
912.633	4481
912.748	4402
912.862	4325
912.976	4227
913.09	4086
913.204	4173
913.318	4204
913.431	4360
913.545	4363
913.659	4447
913.772	4409
913.886	4242
914	4192
914.113	4360
914.226	4428
914.34	4379
914.453	4234
914.566	4413
914.68	4295
914.793	4284
914.906	4173
915.019	4093
915.132	4036
915.245	4200
915.358	4207
915.47	4268
915.583	4223
915.696	4272
915.809	4402
915.921	4432
916.034	4230
916.146	4253
916.259	4215
916.371	4352
916.483	4329
916.595	4230
916.708	4383
916.82	4314
916.932	4314
917.044	4318
917.156	4329
917.268	4238
917.38	4306
917.491	4242
917.603	4356
917.715	4470
917.826	4443
917.938	4341
918.049	4238
918.161	4375
918.272	4550
918.384	4561
918.495	4470
918.606	4314
918.717	4207
918.828	4352
918.939	4314
919.05	4261
919.161	4310
919.272	4109
919.383	4211
919.494	4432
919.604	4611
919.715	4402
919.826	4348
919.936	4394
920.047	4542
920.157	4485
920.267	4672
920.378	4599
920.488	4462
920.598	4725
920.708	4877
920.818	4740
920.928	4736
921.038	4957
921.148	4908
921.258	4592
921.368	4558
921.477	4493
921.587	4443
921.697	4386
921.806	4550
921.916	4398
922.025	4280
922.134	4242
922.244	4207
922.353	4341
922.462	4188
922.571	4128
922.68	4006
922.789	4010
922.898	4017
923.007	3987
923.116	4116
923.224	4090
923.333	4086
923.442	3994
923.55	3987
923.659	4029
923.767	4116
923.876	3968
923.984	4093
924.092	4013
924.201	4093
924.309	4059
924.417	4120
924.525	4071
924.633	4112
924.741	4911
924.849	3915
924.956	4086
925.064	3972
925.172	3896
925.279	3994
925.387	4051
925.494	4032
925.602	4227
925.709	4196
925.816	4025
925.924	4150
926.031	4246
926.138	4185
926.245	4188
926.352	4051
926.459	4219
926.566	4284
926.673	4177
926.779	4044
926.886	4067
926.993	3994
927.099	4013
927.206	3922
927.312	3960
927.419	4078
927.525	4006
927.631	4090
927.737	3953
927.843	3945
927.95	3835
928.056	3945
928.162	3972
928.267	4059
928.373	4577
928.479	4105
928.585	3876
928.69	4044
928.796	4074
928.901	3956
929.007	3831
929.112	4040
929.218	3953
929.323	3937
929.428	3903
929.533	4097
929.638	3899
929.743	3972
929.848	4063
929.953	4040
930.058	3915
930.163	3720
930.267	3850
930.372	3972
930.477	3800
930.581	4090
930.685	3945
930.79	3842
930.894	3846
930.998	3857
931.103	4044
931.207	3751
931.311	3717
931.415	3641
931.519	3507
931.623	3572
