Data from test_V78500241_1723.txt Node
Date: Fri Mar 25 17:00:58 CST 2022
User: usil
Spectrometer: V785-0024
Trigger mode: 0
Integration Time (sec): 4.000000E-1
Scans to average: 1
Nonlinearity correction enabled: false
Boxcar width: 0
Storing dark spectrum: false
XAxis mode: Wavelengths
Number of Pixels in Spectrum: 1024
>>>>>Begin Spectral Data<<<<<
801.071	8111
801.214	8046
801.356	7887
801.499	7898
801.641	7837
801.783	7871
801.926	8024
802.068	7940
802.211	7997
802.353	8005
802.496	7868
802.638	7856
802.78	7959
802.923	8016
803.065	7906
803.208	7864
803.35	7963
803.492	8088
803.635	8263
803.777	8001
803.919	8111
804.061	8396
804.204	8191
804.346	8088
804.488	7967
804.63	8050
804.773	8031
804.915	8161
805.057	8320
805.199	8183
805.341	8172
805.483	8313
805.626	8248
805.768	8100
805.91	8229
806.052	8229
806.194	8126
806.336	8320
806.478	8164
806.62	8096
806.762	8096
806.904	8282
807.046	8511
807.188	8347
807.33	8328
807.472	8351
807.614	8210
807.756	8191
807.898	8107
808.04	7894
808.182	7940
808.324	7940
808.465	7974
808.607	8084
808.749	8153
808.891	8195
809.033	8355
809.174	8237
809.316	8077
809.458	8065
809.6	8050
809.741	8100
809.883	8092
810.025	8157
810.166	8153
810.308	8016
810.45	8012
810.591	7898
810.733	7807
810.875	7670
811.016	7529
811.158	7502
811.299	7616
811.441	7708
811.582	7681
811.724	7590
811.865	7533
812.007	7605
812.148	7624
812.29	7696
812.431	7734
812.573	7978
812.714	8046
812.855	8180
812.997	8149
813.138	8351
813.279	8267
813.421	8138
813.562	8016
813.703	7894
813.845	7700
813.986	7457
814.127	7278
814.268	7255
814.41	7251
814.551	7171
814.692	7228
814.833	7129
814.974	7149
815.115	7145
815.256	6993
815.397	6989
815.539	7004
815.68	6818
815.821	6791
815.962	6787
816.103	6825
816.244	6650
816.385	6642
816.526	6631
816.666	6536
816.807	6353
816.948	6506
817.089	6475
817.23	6464
817.371	6441
817.512	6437
817.653	6422
817.793	6433
817.934	6426
818.075	6445
818.216	6441
818.356	6407
818.497	6289
818.638	6140
818.778	6197
818.919	6171
819.06	6155
819.2	6319
819.341	6334
819.481	6403
819.622	6585
819.762	6738
819.903	6734
820.043	6639
820.184	6608
820.324	6555
820.465	6707
820.605	6726
820.746	6722
820.886	6563
821.026	6707
821.167	6703
821.307	6829
821.447	6745
821.588	6726
821.728	6570
821.868	6513
822.008	6323
822.149	6418
822.289	6388
822.429	6228
822.569	6117
822.709	6213
822.849	5950
822.99	5901
823.13	6019
823.27	5946
823.41	5798
823.55	5794
823.69	5745
823.83	5802
823.97	5695
824.11	5547
824.25	5490
824.389	5581
824.529	5600
824.669	5551
824.809	5642
824.949	5714
825.089	5661
825.228	5539
825.368	5364
825.508	5318
825.648	5326
825.787	5417
825.927	5379
826.067	5334
826.206	5303
826.346	5391
826.485	5433
826.625	5429
826.765	5539
826.904	5486
827.044	5296
827.183	5250
827.323	5185
827.462	5299
827.601	5185
827.741	5151
827.88	5223
828.02	5174
828.159	5258
828.298	5318
828.437	5307
828.577	5299
828.716	5474
828.855	5341
828.994	5181
829.134	5151
829.273	5204
829.412	5140
829.551	5136
829.69	5162
829.829	5227
829.968	5395
830.107	5296
830.246	5326
830.385	5239
830.524	5124
830.663	5109
830.802	4953
830.941	4892
831.08	4889
831.219	4999
831.357	4995
831.496	5151
831.635	4961
831.774	4847
831.913	4862
832.051	4759
832.19	4774
832.329	4858
832.467	4740
832.606	4615
832.744	4733
832.883	4752
833.022	4710
833.16	4778
833.299	4824
833.437	4850
833.576	4839
833.714	4801
833.852	4858
833.991	4877
834.129	4984
834.267	4934
834.406	4892
834.544	4984
834.682	4965
834.821	4995
834.959	5155
835.097	5025
835.235	5124
835.373	5086
835.511	5159
835.65	5056
835.788	5037
835.926	4923
836.064	4881
836.202	4968
836.34	5227
836.478	5204
836.615	5181
836.753	5250
836.891	5307
837.029	5296
837.167	5227
837.305	5162
837.443	5143
837.58	5033
837.718	5235
837.856	5201
837.993	5193
838.131	5296
838.269	5254
838.406	5166
838.544	5208
838.681	5064
838.819	5029
838.956	4923
839.094	4915
839.231	4968
839.369	5102
839.506	5387
839.643	5265
839.781	5041
839.918	4987
840.055	5060
840.193	5124
840.33	5128
840.467	5102
840.604	5189
840.742	5417
840.879	5045
841.016	5136
841.153	5208
841.29	5364
841.427	5337
841.564	5273
841.701	5368
841.838	5311
841.975	5235
842.112	5288
842.249	5124
842.385	5079
842.522	5345
842.659	5166
842.796	5170
842.933	5216
843.069	5140
843.206	5162
843.343	5296
843.479	5296
843.616	5299
843.752	5060
843.889	5033
844.025	5204
844.162	5003
844.298	5246
844.435	5098
844.571	5094
844.708	5189
844.844	5330
844.98	5357
845.117	5315
845.253	5185
845.389	5124
845.525	5197
845.661	5109
845.798	5041
845.934	5136
846.07	5086
846.206	5185
846.342	5345
846.478	5189
846.614	5018
846.75	4991
846.886	4961
847.022	5136
847.158	5048
847.294	5067
847.429	5113
847.565	5064
847.701	5345
847.837	4866
847.972	4843
848.108	4999
848.244	4976
848.379	4801
848.515	4748
848.65	4771
848.786	4736
848.921	4839
849.057	4889
849.192	4919
849.328	4820
849.463	4850
849.598	4816
849.734	4752
849.869	4717
850.004	4660
850.14	4672
850.275	4584
850.41	4519
850.545	4565
850.68	4607
850.815	4668
850.95	4656
851.085	4854
851.22	4733
851.355	4672
851.49	4622
851.625	4641
851.76	4691
851.895	4573
852.03	4550
852.165	4656
852.299	4721
852.434	4782
852.569	4767
852.703	4835
852.838	4862
852.973	4946
853.107	4953
853.242	4736
853.376	4645
853.511	4584
853.645	4603
853.78	4790
853.914	4714
854.048	4664
854.183	4649
854.317	4687
854.451	4831
854.585	4702
854.72	4584
854.854	4790
854.988	4618
855.122	4649
855.256	4523
855.39	4698
855.524	4790
855.658	4702
855.792	4721
855.926	4710
856.06	4778
856.194	4805
856.327	4710
856.461	4596
856.595	4630
856.729	4687
856.862	4759
856.996	4710
857.13	4725
857.263	4774
857.397	4831
857.53	4660
857.664	4740
857.797	4706
857.931	4793
858.064	4687
858.197	4774
858.331	4656
858.464	4626
858.597	4500
858.731	4687
858.864	4664
858.997	4607
859.13	4698
859.263	4725
859.396	4721
859.529	4558
859.662	4577
859.795	4527
859.928	4653
860.061	4790
860.194	4759
860.327	4645
860.46	4584
860.592	4679
860.725	4744
860.858	4740
860.99	4584
861.123	4599
861.256	4546
861.388	4641
861.521	5239
861.653	4493
861.786	4462
861.918	4455
862.05	4538
862.183	4535
862.315	4618
862.447	4668
862.58	4558
862.712	4398
862.844	4337
862.976	4497
863.108	4451
863.24	4896
863.372	4379
863.504	4405
863.636	4375
863.768	4481
863.9	4451
864.032	4371
864.164	4424
864.296	4489
864.428	4538
864.559	4596
864.691	4554
864.823	4512
864.954	4474
865.086	4531
865.217	4402
865.349	4386
865.48	4451
865.612	4497
865.743	4641
865.875	4474
866.006	4421
866.137	4489
866.269	4432
866.4	4417
866.531	4402
866.662	4405
866.793	4432
866.924	4363
867.055	4474
867.186	4478
867.317	4489
867.448	4413
867.579	4409
867.71	4390
867.841	4421
867.972	4497
868.103	4455
868.233	4462
868.364	4485
868.495	4542
868.625	4641
868.756	4714
868.886	4561
869.017	4653
869.147	4774
869.278	4782
869.408	4649
869.539	4656
869.669	4771
869.799	4672
869.929	4831
870.06	4733
870.19	4976
870.32	4877
870.45	4911
870.58	5045
870.71	5075
870.84	5071
870.97	4961
871.1	4938
871.23	5075
871.36	5086
871.489	5010
871.619	5079
871.749	5056
871.879	5166
872.008	5151
872.138	5041
872.267	4995
872.397	4896
872.526	4812
872.656	4710
872.785	4828
872.915	4961
873.044	5022
873.173	4930
873.303	4968
873.432	4972
873.561	4968
873.69	4904
873.819	4839
873.948	4866
874.077	4839
874.206	4801
874.335	4805
874.464	4885
874.593	5052
874.722	4923
874.851	5117
874.979	5098
875.108	5003
875.237	4900
875.365	4870
875.494	4892
875.623	4968
875.751	4870
875.88	4850
876.008	5045
876.136	5086
876.265	5239
876.393	5273
876.521	5273
876.65	5212
876.778	5170
876.906	5071
877.034	5037
877.162	5037
877.29	4961
877.418	5041
877.546	5083
877.674	5075
877.802	5060
877.93	4991
878.058	4976
878.185	4885
878.313	4934
878.441	4908
878.568	4812
878.696	4858
878.824	4980
878.951	5022
879.079	5090
879.206	5307
879.333	5090
879.461	5003
879.588	5018
879.715	5136
879.842	5193
879.97	4984
880.097	4835
880.224	4721
880.351	4786
880.478	4847
880.605	4824
880.732	4740
880.859	5052
880.986	4835
881.112	4911
881.239	4828
881.366	4698
881.493	4615
881.619	4584
881.746	4615
881.872	4634
881.999	4668
882.125	4736
882.252	4790
882.378	4820
882.505	4968
882.631	4786
882.757	4698
882.883	4725
883.01	4759
883.136	4653
883.262	4626
883.388	4588
883.514	4812
883.64	4862
883.766	4771
883.892	4668
884.018	4714
884.143	4900
884.269	5033
884.395	4649
884.52	4630
884.646	4668
884.772	4558
884.897	4554
885.023	4691
885.148	4763
885.274	4866
885.399	4812
885.524	4698
885.65	4740
885.775	4774
885.9	4691
886.025	4850
886.15	4816
886.275	4721
886.4	4672
886.525	4755
886.65	4744
886.775	4702
886.9	4930
887.025	4968
887.149	4744
887.274	4645
887.399	4573
887.523	4584
887.648	4603
887.773	4577
887.897	4763
888.021	4793
888.146	4714
888.27	4847
888.395	4877
888.519	4797
888.643	4786
888.767	4839
888.891	4664
889.015	4603
889.139	4622
889.263	4554
889.387	4771
889.511	4862
889.635	4755
889.759	4664
889.883	4668
890.006	4725
890.13	4870
890.254	4649
890.377	4679
890.501	4573
890.624	4577
890.748	4641
890.871	4550
890.995	4459
891.118	4363
891.241	4497
891.364	4527
891.488	4698
891.611	4512
891.734	4558
891.857	4596
891.98	4577
892.103	4679
892.226	4565
892.349	4535
892.471	4478
892.594	4584
892.717	4584
892.839	4580
892.962	4599
893.085	4637
893.207	4611
893.33	4440
893.452	4561
893.575	4637
893.697	4596
893.819	4767
893.941	4828
894.064	4778
894.186	4558
894.308	4599
894.43	4725
894.552	4828
894.674	4790
894.796	4538
894.918	4637
895.04	4523
895.161	4744
895.283	4630
895.405	4592
895.526	4660
895.648	4683
895.769	4691
895.891	4694
896.012	4725
896.134	4656
896.255	4698
896.376	4641
896.498	4626
896.619	4672
896.74	4599
896.861	4672
896.982	4900
897.103	5048
897.224	4831
897.345	4740
897.466	4637
897.587	4721
897.708	4866
897.828	4755
897.949	4622
898.07	4558
898.19	4607
898.311	4805
898.431	4672
898.552	4725
898.672	4767
898.792	4793
898.913	4740
899.033	4637
899.153	4508
899.273	4371
899.393	4504
899.513	4538
899.633	4497
899.753	4573
899.873	4493
899.993	4550
900.113	4554
900.232	4550
900.352	4523
900.472	4516
900.591	4402
900.711	4455
900.83	4436
900.95	4611
901.069	4698
901.189	4554
901.308	4352
901.427	4325
901.546	4352
901.665	4451
901.784	4481
901.904	4455
902.023	4314
902.141	4215
902.26	4166
902.379	4261
902.498	4268
902.617	4177
902.735	4383
902.854	4424
902.973	4337
903.091	4211
903.21	4204
903.328	4284
903.446	4276
903.565	4234
903.683	4341
903.801	4284
903.919	4424
904.038	4424
904.156	4310
904.274	4402
904.392	4405
904.51	4455
904.627	4417
904.745	4504
904.863	4607
904.981	4367
905.098	4265
905.216	4379
905.334	4424
905.451	4451
905.569	4398
905.686	4554
905.803	4531
905.921	4447
906.038	4523
906.155	4466
906.272	4398
906.389	4474
906.506	4333
906.623	4375
906.74	4405
906.857	4295
906.974	4383
907.091	4558
907.208	4672
907.324	4599
907.441	4493
907.557	4360
907.674	4363
907.79	4352
907.907	4405
908.023	4466
908.139	4428
908.256	4462
908.372	4459
908.488	4455
908.604	4360
908.72	4333
908.836	4398
908.952	4383
909.068	4390
909.184	4603
909.3	4493
909.415	4538
909.531	4542
909.647	4322
909.762	4413
909.878	4379
909.993	4447
910.108	4402
910.224	4417
910.339	4500
910.454	4367
910.57	4367
910.685	4314
910.8	4656
910.915	4596
911.03	4489
911.145	4287
911.259	4291
911.374	4390
911.489	4265
911.604	4280
911.718	4143
911.833	4169
911.947	4032
912.062	4059
912.176	4211
912.291	4238
912.405	4291
912.519	4451
912.633	4504
912.748	4413
912.862	4295
912.976	4211
913.09	4101
913.204	4143
913.318	4227
913.431	4371
913.545	4341
913.659	4447
913.772	4329
913.886	4246
914	4242
914.113	4344
914.226	4440
914.34	4383
914.453	4227
914.566	4421
914.68	4322
914.793	4341
914.906	4166
915.019	4166
915.132	4086
915.245	4169
915.358	4162
915.47	4227
915.583	4215
915.696	4272
915.809	4363
915.921	4409
916.034	4265
916.146	4238
916.259	4192
916.371	4360
916.483	4299
916.595	4257
916.708	4325
916.82	4314
916.932	4295
917.044	4284
917.156	4329
917.268	4223
917.38	4306
917.491	4310
917.603	4344
917.715	4398
917.826	4443
917.938	4314
918.049	4249
918.161	4413
918.272	4535
918.384	4527
918.495	4436
918.606	4287
918.717	4204
918.828	4322
918.939	4367
919.05	4234
919.161	4325
919.272	4166
919.383	4207
919.494	4440
919.604	4645
919.715	4405
919.826	4379
919.936	4405
920.047	4497
920.157	4489
920.267	4687
920.378	4538
920.488	4485
920.598	4672
920.708	4885
920.818	4729
920.928	4710
921.038	4949
921.148	4915
921.258	4634
921.368	4599
921.477	4474
921.587	4432
921.697	4314
921.806	4569
921.916	4405
922.025	4268
922.134	4280
922.244	4234
922.353	4318
922.462	4207
922.571	4105
922.68	4013
922.789	4040
922.898	4078
923.007	3949
923.116	4074
923.224	4044
923.333	4105
923.442	3964
923.55	3964
923.659	4048
923.767	4101
923.876	4025
923.984	4162
924.092	3960
924.201	4101
924.309	4093
924.417	4124
924.525	4036
924.633	4154
924.741	4881
924.849	3899
924.956	4154
925.064	3922
925.172	3899
925.279	3983
925.387	4082
925.494	4040
925.602	4204
925.709	4181
925.816	4078
925.924	4139
926.031	4223
926.138	4139
926.245	4211
926.352	4120
926.459	4196
926.566	4272
926.673	4162
926.779	4067
926.886	4051
926.993	3987
927.099	3953
927.206	3922
927.312	3899
927.419	3994
927.525	3983
927.631	4120
927.737	3975
927.843	3991
927.95	3785
928.056	3987
928.162	3987
928.267	4040
928.373	4710
928.479	4101
928.585	3827
928.69	4025
928.796	4029
928.901	3968
929.007	3831
929.112	3987
929.218	3979
929.323	3960
929.428	3888
929.533	4131
929.638	3907
929.743	3911
929.848	4048
929.953	3983
930.058	3915
930.163	3816
930.267	3838
930.372	3991
930.477	3800
930.581	4078
930.685	3979
930.79	3846
930.894	3899
930.998	3880
931.103	4112
931.207	3709
931.311	3682
931.415	3671
931.519	3511
931.623	3523
