Data from test_V78500241_1253.txt Node
Date: Fri Mar 25 16:57:42 CST 2022
User: usil
Spectrometer: V785-0024
Trigger mode: 0
Integration Time (sec): 4.000000E-1
Scans to average: 1
Nonlinearity correction enabled: false
Boxcar width: 0
Storing dark spectrum: false
XAxis mode: Wavelengths
Number of Pixels in Spectrum: 1024
>>>>>Begin Spectral Data<<<<<
801.071	7967
801.214	8012
801.356	7974
801.499	7868
801.641	7807
801.783	7887
801.926	7936
802.068	7875
802.211	7989
802.353	7959
802.496	7845
802.638	7860
802.78	7921
802.923	8031
803.065	7894
803.208	7921
803.35	7974
803.492	8024
803.635	8187
803.777	8058
803.919	8088
804.061	8442
804.204	8176
804.346	8062
804.488	7963
804.63	8096
804.773	8027
804.915	8054
805.057	8244
805.199	8176
805.341	8233
805.483	8256
805.626	8199
805.768	8069
805.91	8172
806.052	8206
806.194	8084
806.336	8324
806.478	8096
806.62	8088
806.762	8142
806.904	8298
807.046	8507
807.188	8320
807.33	8256
807.472	8320
807.614	8138
807.756	8145
807.898	8008
808.04	7959
808.182	7864
808.324	7883
808.465	7837
808.607	8157
808.749	8069
808.891	8180
809.033	8244
809.174	8123
809.316	8031
809.458	7993
809.6	7947
809.741	7978
809.883	8039
810.025	8031
810.166	8020
810.308	8096
810.45	7955
810.591	7875
810.733	7731
810.875	7651
811.016	7499
811.158	7506
811.299	7552
811.441	7693
811.582	7636
811.724	7571
811.865	7544
812.007	7559
812.148	7559
812.29	7685
812.431	7708
812.573	7871
812.714	7936
812.855	8145
812.997	8286
813.138	8324
813.279	8183
813.421	8092
813.562	8001
813.703	7887
813.845	7761
813.986	7468
814.127	7232
814.268	7171
814.41	7202
814.551	7175
814.692	7244
814.833	7019
814.974	7110
815.115	7118
815.256	6970
815.397	6871
815.539	6852
815.68	6814
815.821	6837
815.962	6947
816.103	6798
816.244	6741
816.385	6601
816.526	6620
816.666	6479
816.807	6285
816.948	6506
817.089	6448
817.23	6494
817.371	6323
817.512	6346
817.653	6357
817.793	6376
817.934	6414
818.075	6467
818.216	6418
818.356	6429
818.497	6239
818.638	6140
818.778	6114
818.919	6155
819.06	6197
819.2	6277
819.341	6292
819.481	6391
819.622	6490
819.762	6696
819.903	6700
820.043	6593
820.184	6627
820.324	6559
820.465	6627
820.605	6696
820.746	6662
820.886	6471
821.026	6597
821.167	6650
821.307	6772
821.447	6741
821.588	6681
821.728	6563
821.868	6464
822.008	6357
822.149	6350
822.289	6369
822.429	6140
822.569	6038
822.709	6155
822.849	5996
822.99	5844
823.13	5916
823.27	5920
823.41	5809
823.55	5821
823.69	5809
823.83	5802
823.97	5680
824.11	5551
824.25	5512
824.389	5516
824.529	5589
824.669	5524
824.809	5634
824.949	5585
825.089	5619
825.228	5551
825.368	5379
825.508	5269
825.648	5292
825.787	5357
825.927	5376
826.067	5277
826.206	5284
826.346	5322
826.485	5410
826.625	5448
826.765	5539
826.904	5463
827.044	5220
827.183	5174
827.323	5124
827.462	5261
827.601	5185
827.741	5185
827.88	5242
828.02	5140
828.159	5227
828.298	5280
828.437	5303
828.577	5265
828.716	5429
828.855	5318
828.994	5162
829.134	5128
829.273	5216
829.412	5121
829.551	5113
829.69	5132
829.829	5212
829.968	5372
830.107	5246
830.246	5239
830.385	5166
830.524	5143
830.663	5041
830.802	4911
830.941	4877
831.08	4904
831.219	4980
831.357	4961
831.496	5181
831.635	4900
831.774	4847
831.913	4862
832.051	4691
832.19	4767
832.329	4809
832.467	4645
832.606	4630
832.744	4702
832.883	4645
833.022	4687
833.16	4809
833.299	4820
833.437	4797
833.576	4809
833.714	4885
833.852	4862
833.991	4797
834.129	4927
834.267	4911
834.406	4881
834.544	5037
834.682	4957
834.821	4965
834.959	5105
835.097	4938
835.235	5132
835.373	5067
835.511	5117
835.65	5025
835.788	4995
835.926	4889
836.064	4892
836.202	4923
836.34	5151
836.478	5178
836.615	5128
836.753	5162
836.891	5299
837.029	5204
837.167	5235
837.305	5159
837.443	5079
837.58	5079
837.718	5197
837.856	5208
837.993	5132
838.131	5212
838.269	5181
838.406	5185
838.544	5189
838.681	5041
838.819	4949
838.956	4889
839.094	4904
839.231	4980
839.369	5113
839.506	5383
839.643	5277
839.781	5022
839.918	5025
840.055	5102
840.193	5113
840.33	5132
840.467	5113
840.604	5143
840.742	5379
840.879	5067
841.016	5086
841.153	5166
841.29	5368
841.427	5315
841.564	5273
841.701	5360
841.838	5277
841.975	5185
842.112	5261
842.249	5121
842.385	5075
842.522	5307
842.659	5174
842.796	5124
842.933	5140
843.069	5136
843.206	5117
843.343	5296
843.479	5212
843.616	5273
843.752	5037
843.889	4987
844.025	5227
844.162	4999
844.298	5201
844.435	5083
844.571	5064
844.708	5147
844.844	5315
844.98	5315
845.117	5265
845.253	5174
845.389	5075
845.525	5162
845.661	5113
845.798	5014
845.934	5155
846.07	5022
846.206	5162
846.342	5258
846.478	5143
846.614	5071
846.75	4946
846.886	4942
847.022	5136
847.158	5060
847.294	5033
847.429	5102
847.565	5056
847.701	5345
847.837	4816
847.972	4759
848.108	5022
848.244	4900
848.379	4805
848.515	4691
848.65	4725
848.786	4733
848.921	4752
849.057	4862
849.192	4854
849.328	4801
849.463	4809
849.598	4805
849.734	4736
849.869	4744
850.004	4618
850.14	4664
850.275	4641
850.41	4531
850.545	4519
850.68	4569
850.815	4630
850.95	4653
851.085	4805
851.22	4752
851.355	4656
851.49	4558
851.625	4656
851.76	4615
851.895	4550
852.03	4478
852.165	4622
852.299	4672
852.434	4717
852.569	4729
852.703	4725
852.838	4809
852.973	4915
853.107	4900
853.242	4729
853.376	4660
853.511	4519
853.645	4603
853.78	4782
853.914	4694
854.048	4637
854.183	4634
854.317	4683
854.451	4816
854.585	4702
854.72	4622
854.854	4748
854.988	4611
855.122	4599
855.256	4519
855.39	4618
855.524	4782
855.658	4710
855.792	4634
855.926	4717
856.06	4721
856.194	4801
856.327	4691
856.461	4679
856.595	4607
856.729	4607
856.862	4733
856.996	4698
857.13	4702
857.263	4733
857.397	4816
857.53	4679
857.664	4736
857.797	4736
857.931	4774
858.064	4710
858.197	4706
858.331	4683
858.464	4607
858.597	4565
858.731	4618
858.864	4607
858.997	4592
859.13	4672
859.263	4664
859.396	4679
859.529	4577
859.662	4584
859.795	4542
859.928	4691
860.061	4759
860.194	4748
860.327	4656
860.46	4527
860.592	4691
860.725	4687
860.858	4717
860.99	4538
861.123	4470
861.256	4485
861.388	4618
861.521	5254
861.653	4489
861.786	4413
861.918	4462
862.05	4519
862.183	4535
862.315	4558
862.447	4656
862.58	4565
862.712	4356
862.844	4325
862.976	4481
863.108	4417
863.24	4877
863.372	4325
863.504	4375
863.636	4386
863.768	4500
863.9	4466
864.032	4360
864.164	4413
864.296	4440
864.428	4538
864.559	4580
864.691	4527
864.823	4474
864.954	4504
865.086	4500
865.217	4519
865.349	4405
865.48	4386
865.612	4462
865.743	4626
865.875	4466
866.006	4436
866.137	4443
866.269	4481
866.4	4421
866.531	4413
866.662	4394
866.793	4379
866.924	4447
867.055	4432
867.186	4443
867.317	4421
867.448	4367
867.579	4333
867.71	4394
867.841	4390
867.972	4474
868.103	4489
868.233	4413
868.364	4466
868.495	4474
868.625	4683
868.756	4736
868.886	4546
869.017	4630
869.147	4778
869.278	4786
869.408	4611
869.539	4653
869.669	4725
869.799	4584
869.929	4736
870.06	4725
870.19	4976
870.32	4908
870.45	4908
870.58	4984
870.71	5090
870.84	5113
870.97	4934
871.1	4866
871.23	5121
871.36	5102
871.489	4968
871.619	5025
871.749	5094
871.879	5155
872.008	5174
872.138	5067
872.267	4930
872.397	4809
872.526	4782
872.656	4759
872.785	4774
872.915	4915
873.044	4980
873.173	4911
873.303	4991
873.432	4980
873.561	4923
873.69	4900
873.819	4938
873.948	4919
874.077	4839
874.206	4717
874.335	4801
874.464	4908
874.593	5067
874.722	4949
874.851	5064
874.979	4999
875.108	5003
875.237	4892
875.365	4866
875.494	4820
875.623	4919
875.751	4809
875.88	4854
876.008	4972
876.136	5003
876.265	5166
876.393	5303
876.521	5254
876.65	5216
876.778	5121
876.906	5071
877.034	5025
877.162	5006
877.29	4976
877.418	5056
877.546	5079
877.674	5014
877.802	5056
877.93	5010
878.058	4961
878.185	4866
878.313	4927
878.441	4927
878.568	4778
878.696	4904
878.824	4957
878.951	4968
879.079	5136
879.206	5231
879.333	5094
879.461	4957
879.588	4968
879.715	5094
879.842	5227
879.97	4972
880.097	4774
880.224	4752
880.351	4820
880.478	4786
880.605	4812
880.732	4797
880.859	5147
880.986	4919
881.112	4870
881.239	4771
881.366	4664
881.493	4618
881.619	4584
881.746	4656
881.872	4634
881.999	4615
882.125	4702
882.252	4816
882.378	4847
882.505	4976
882.631	4801
882.757	4675
882.883	4687
883.01	4748
883.136	4675
883.262	4611
883.388	4615
883.514	4843
883.64	4873
883.766	4793
883.892	4675
884.018	4752
884.143	4889
884.269	4999
884.395	4706
884.52	4634
884.646	4603
884.772	4599
884.897	4615
885.023	4641
885.148	4752
885.274	4835
885.399	4824
885.524	4698
885.65	4691
885.775	4706
885.9	4714
886.025	4847
886.15	4790
886.275	4694
886.4	4653
886.525	4748
886.65	4672
886.775	4694
886.9	4889
887.025	5033
887.149	4831
887.274	4664
887.399	4588
887.523	4599
887.648	4580
887.773	4569
887.897	4725
888.021	4782
888.146	4721
888.27	4771
888.395	4854
888.519	4805
888.643	4816
888.767	4843
888.891	4672
889.015	4611
889.139	4626
889.263	4668
889.387	4714
889.511	4889
889.635	4763
889.759	4573
889.883	4630
890.006	4729
890.13	4824
890.254	4599
890.377	4649
890.501	4558
890.624	4558
890.748	4599
890.871	4523
890.995	4436
891.118	4344
891.241	4531
891.364	4516
891.488	4637
891.611	4500
891.734	4535
891.857	4569
891.98	4519
892.103	4687
892.226	4641
892.349	4470
892.471	4386
892.594	4504
892.717	4584
892.839	4542
892.962	4603
893.085	4630
893.207	4577
893.33	4459
893.452	4550
893.575	4691
893.697	4573
893.819	4793
893.941	4812
894.064	4767
894.186	4554
894.308	4538
894.43	4717
894.552	4790
894.674	4736
894.796	4554
894.918	4584
895.04	4565
895.161	4691
895.283	4626
895.405	4611
895.526	4641
895.648	4683
895.769	4668
895.891	4683
896.012	4698
896.134	4748
896.255	4691
896.376	4637
896.498	4611
896.619	4645
896.74	4580
896.861	4698
896.982	4896
897.103	5052
897.224	4809
897.345	4714
897.466	4656
897.587	4721
897.708	4843
897.828	4797
897.949	4645
898.07	4580
898.19	4706
898.311	4854
898.431	4702
898.552	4687
898.672	4759
898.792	4748
898.913	4717
899.033	4618
899.153	4531
899.273	4421
899.393	4478
899.513	4516
899.633	4527
899.753	4558
899.873	4535
899.993	4573
900.113	4512
900.232	4535
900.352	4519
900.472	4497
900.591	4386
900.711	4481
900.83	4432
900.95	4577
901.069	4679
901.189	4550
901.308	4352
901.427	4272
901.546	4409
901.665	4421
901.784	4489
901.904	4375
902.023	4310
902.141	4188
902.26	4181
902.379	4291
902.498	4276
902.617	4238
902.735	4383
902.854	4405
902.973	4398
903.091	4211
903.21	4234
903.328	4318
903.446	4227
903.565	4227
903.683	4322
903.801	4253
903.919	4375
904.038	4402
904.156	4299
904.274	4413
904.392	4344
904.51	4436
904.627	4474
904.745	4626
904.863	4611
904.981	4363
905.098	4280
905.216	4337
905.334	4409
905.451	4409
905.569	4432
905.686	4538
905.803	4523
905.921	4402
906.038	4554
906.155	4493
906.272	4352
906.389	4466
906.506	4333
906.623	4379
906.74	4398
906.857	4295
906.974	4375
907.091	4558
907.208	4668
907.324	4592
907.441	4512
907.557	4363
907.674	4348
907.79	4348
907.907	4375
908.023	4455
908.139	4466
908.256	4428
908.372	4478
908.488	4417
908.604	4352
908.72	4306
908.836	4375
908.952	4371
909.068	4417
909.184	4607
909.3	4485
909.415	4584
909.531	4577
909.647	4379
909.762	4314
909.878	4348
909.993	4409
910.108	4409
910.224	4436
910.339	4470
910.454	4360
910.57	4337
910.685	4394
910.8	4630
910.915	4561
911.03	4455
911.145	4360
911.259	4348
911.374	4367
911.489	4322
911.604	4287
911.718	4196
911.833	4215
911.947	4051
912.062	4029
912.176	4139
912.291	4268
912.405	4207
912.519	4500
912.633	4478
912.748	4383
912.862	4318
912.976	4238
913.09	4097
913.204	4150
913.318	4223
913.431	4337
913.545	4405
913.659	4466
913.772	4363
913.886	4230
914	4242
914.113	4394
914.226	4405
914.34	4402
914.453	4230
914.566	4405
914.68	4276
914.793	4325
914.906	4169
915.019	4120
915.132	4036
915.245	4169
915.358	4196
915.47	4257
915.583	4249
915.696	4276
915.809	4432
915.921	4394
916.034	4265
916.146	4265
916.259	4211
916.371	4383
916.483	4325
916.595	4268
916.708	4348
916.82	4356
916.932	4284
917.044	4337
917.156	4303
917.268	4211
917.38	4276
917.491	4230
917.603	4352
917.715	4405
917.826	4443
917.938	4325
918.049	4234
918.161	4440
918.272	4542
918.384	4531
918.495	4428
918.606	4284
918.717	4261
918.828	4310
918.939	4398
919.05	4246
919.161	4325
919.272	4162
919.383	4230
919.494	4470
919.604	4588
919.715	4424
919.826	4371
919.936	4360
920.047	4546
920.157	4474
920.267	4740
920.378	4493
920.488	4504
920.598	4687
920.708	4923
920.818	4752
920.928	4744
921.038	4976
921.148	4850
921.258	4603
921.368	4599
921.477	4497
921.587	4447
921.697	4352
921.806	4493
921.916	4428
922.025	4299
922.134	4303
922.244	4215
922.353	4314
922.462	4116
922.571	4135
922.68	4021
922.789	3983
922.898	4002
923.007	3991
923.116	4074
923.224	4059
923.333	4051
923.442	3998
923.55	4006
923.659	4032
923.767	4120
923.876	3983
923.984	4147
924.092	3972
924.201	4021
924.309	4086
924.417	4128
924.525	4032
924.633	4063
924.741	5083
924.849	3907
924.956	4124
925.064	3911
925.172	3941
925.279	3934
925.387	4040
925.494	4078
925.602	4169
925.709	4207
925.816	3994
925.924	4135
926.031	4219
926.138	4143
926.245	4147
926.352	4074
926.459	4249
926.566	4261
926.673	4097
926.779	4090
926.886	4090
926.993	4013
927.099	3949
927.206	3949
927.312	3960
927.419	4067
927.525	4017
927.631	4074
927.737	3953
927.843	3956
927.95	3918
928.056	3911
928.162	4006
928.267	4067
928.373	4660
928.479	4105
928.585	3884
928.69	4013
928.796	4067
928.901	3945
929.007	3861
929.112	4006
929.218	3983
929.323	3922
929.428	3934
929.533	4090
929.638	3880
929.743	3956
929.848	4040
929.953	4021
930.058	3926
930.163	3709
930.267	3842
930.372	3941
930.477	3816
930.581	4105
930.685	3937
930.79	3823
930.894	3918
930.998	3846
931.103	4021
931.207	3682
931.311	3743
931.415	3644
931.519	3488
931.623	3576
