Data from test_V78500241_1039.txt Node
Date: Fri Mar 25 16:56:13 CST 2022
User: usil
Spectrometer: V785-0024
Trigger mode: 0
Integration Time (sec): 4.000000E-1
Scans to average: 1
Nonlinearity correction enabled: false
Boxcar width: 0
Storing dark spectrum: false
XAxis mode: Wavelengths
Number of Pixels in Spectrum: 1024
>>>>>Begin Spectral Data<<<<<
801.071	8043
801.214	8046
801.356	7909
801.499	7841
801.641	7727
801.783	7780
801.926	7921
802.068	7894
802.211	7951
802.353	7974
802.496	7753
802.638	7830
802.78	7883
802.923	7947
803.065	7894
803.208	7830
803.35	7982
803.492	8134
803.635	8195
803.777	8027
803.919	8107
804.061	8469
804.204	8149
804.346	8024
804.488	7986
804.63	8088
804.773	8005
804.915	8138
805.057	8240
805.199	8218
805.341	8237
805.483	8252
805.626	8126
805.768	8062
805.91	8237
806.052	8180
806.194	8115
806.336	8263
806.478	8077
806.62	8069
806.762	8142
806.904	8286
807.046	8473
807.188	8256
807.33	8343
807.472	8324
807.614	8088
807.756	8069
807.898	8027
808.04	7951
808.182	7898
808.324	7833
808.465	7917
808.607	8088
808.749	8123
808.891	8107
809.033	8279
809.174	8199
809.316	8008
809.458	8005
809.6	7925
809.741	8005
809.883	7989
810.025	8073
810.166	8035
810.308	7963
810.45	8031
810.591	7906
810.733	7674
810.875	7594
811.016	7559
811.158	7544
811.299	7586
811.441	7704
811.582	7639
811.724	7571
811.865	7594
812.007	7586
812.148	7636
812.29	7620
812.431	7712
812.573	7849
812.714	7959
812.855	8111
812.997	8134
813.138	8309
813.279	8168
813.421	8084
813.562	8027
813.703	7807
813.845	7681
813.986	7495
814.127	7274
814.268	7202
814.41	7152
814.551	7118
814.692	7160
814.833	7000
814.974	7065
815.115	7069
815.256	6970
815.397	6951
815.539	7000
815.68	6844
815.821	6798
815.962	6863
816.103	6905
816.244	6692
816.385	6563
816.526	6608
816.666	6456
816.807	6266
816.948	6471
817.089	6479
817.23	6441
817.371	6361
817.512	6452
817.653	6426
817.793	6395
817.934	6353
818.075	6437
818.216	6403
818.356	6361
818.497	6186
818.638	6110
818.778	6152
818.919	6129
819.06	6155
819.2	6285
819.341	6308
819.481	6258
819.622	6532
819.762	6703
819.903	6741
820.043	6570
820.184	6578
820.324	6521
820.465	6726
820.605	6677
820.746	6612
820.886	6525
821.026	6658
821.167	6715
821.307	6764
821.447	6745
821.588	6620
821.728	6570
821.868	6506
822.008	6262
822.149	6376
822.289	6311
822.429	6159
822.569	6091
822.709	6125
822.849	5893
822.99	5901
823.13	5874
823.27	5904
823.41	5775
823.55	5805
823.69	5783
823.83	5809
823.97	5623
824.11	5524
824.25	5463
824.389	5528
824.529	5566
824.669	5474
824.809	5619
824.949	5596
825.089	5589
825.228	5528
825.368	5376
825.508	5360
825.648	5296
825.787	5395
825.927	5341
826.067	5318
826.206	5288
826.346	5341
826.485	5414
826.625	5406
826.765	5524
826.904	5474
827.044	5269
827.183	5201
827.323	5151
827.462	5204
827.601	5128
827.741	5155
827.88	5208
828.02	5102
828.159	5216
828.298	5288
828.437	5322
828.577	5242
828.716	5501
828.855	5250
828.994	5174
829.134	5162
829.273	5143
829.412	5140
829.551	5113
829.69	5170
829.829	5197
829.968	5334
830.107	5235
830.246	5284
830.385	5136
830.524	5102
830.663	5045
830.802	4949
830.941	4854
831.08	4843
831.219	4930
831.357	4927
831.496	5166
831.635	4911
831.774	4831
831.913	4854
832.051	4740
832.19	4691
832.329	4866
832.467	4698
832.606	4679
832.744	4691
832.883	4649
833.022	4698
833.16	4771
833.299	4809
833.437	4812
833.576	4793
833.714	4877
833.852	4847
833.991	4892
834.129	4930
834.267	4927
834.406	4911
834.544	4972
834.682	4984
834.821	4976
834.959	5102
835.097	4919
835.235	5140
835.373	5045
835.511	5071
835.65	5045
835.788	5075
835.926	4938
836.064	4904
836.202	4896
836.34	5143
836.478	5208
836.615	5102
836.753	5216
836.891	5277
837.029	5204
837.167	5155
837.305	5136
837.443	5094
837.58	5045
837.718	5258
837.856	5136
837.993	5132
838.131	5201
838.269	5216
838.406	5155
838.544	5136
838.681	5045
838.819	5014
838.956	4885
839.094	4839
839.231	4938
839.369	5117
839.506	5398
839.643	5280
839.781	5067
839.918	5022
840.055	5067
840.193	5086
840.33	5064
840.467	5094
840.604	5162
840.742	5436
840.879	5060
841.016	5102
841.153	5166
841.29	5383
841.427	5261
841.564	5326
841.701	5330
841.838	5277
841.975	5223
842.112	5242
842.249	5143
842.385	5124
842.522	5349
842.659	5185
842.796	5136
842.933	5201
843.069	5155
843.206	5132
843.343	5326
843.479	5216
843.616	5246
843.752	4984
843.889	4984
844.025	5193
844.162	5018
844.298	5159
844.435	5037
844.571	5056
844.708	5178
844.844	5334
844.98	5277
845.117	5273
845.253	5094
845.389	5022
845.525	5128
845.661	5124
845.798	5048
845.934	5151
846.07	5060
846.206	5170
846.342	5231
846.478	5181
846.614	5029
846.75	4953
846.886	4972
847.022	5098
847.158	5006
847.294	5060
847.429	5098
847.565	5037
847.701	5307
847.837	4858
847.972	4767
848.108	4934
848.244	4949
848.379	4763
848.515	4744
848.65	4729
848.786	4691
848.921	4736
849.057	4896
849.192	4904
849.328	4790
849.463	4839
849.598	4790
849.734	4755
849.869	4672
850.004	4622
850.14	4672
850.275	4573
850.41	4500
850.545	4588
850.68	4599
850.815	4599
850.95	4615
851.085	4847
851.22	4736
851.355	4653
851.49	4550
851.625	4607
851.76	4607
851.895	4508
852.03	4554
852.165	4656
852.299	4702
852.434	4755
852.569	4740
852.703	4767
852.838	4790
852.973	4934
853.107	4927
853.242	4675
853.376	4664
853.511	4508
853.645	4675
853.78	4782
853.914	4710
854.048	4634
854.183	4664
854.317	4660
854.451	4854
854.585	4698
854.72	4653
854.854	4748
854.988	4558
855.122	4660
855.256	4508
855.39	4626
855.524	4763
855.658	4683
855.792	4675
855.926	4740
856.06	4706
856.194	4774
856.327	4668
856.461	4653
856.595	4599
856.729	4653
856.862	4752
856.996	4668
857.13	4717
857.263	4714
857.397	4801
857.53	4683
857.664	4733
857.797	4759
857.931	4778
858.064	4634
858.197	4717
858.331	4672
858.464	4607
858.597	4531
858.731	4554
858.864	4622
858.997	4584
859.13	4634
859.263	4641
859.396	4721
859.529	4546
859.662	4596
859.795	4519
859.928	4626
860.061	4714
860.194	4767
860.327	4607
860.46	4554
860.592	4736
860.725	4694
860.858	4725
860.99	4550
861.123	4504
861.256	4485
861.388	4618
861.521	5269
861.653	4428
861.786	4428
861.918	4512
862.05	4500
862.183	4573
862.315	4554
862.447	4622
862.58	4538
862.712	4383
862.844	4299
862.976	4436
863.108	4459
863.24	4873
863.372	4356
863.504	4379
863.636	4390
863.768	4481
863.9	4447
864.032	4375
864.164	4379
864.296	4493
864.428	4546
864.559	4546
864.691	4516
864.823	4512
864.954	4493
865.086	4546
865.217	4451
865.349	4421
865.48	4417
865.612	4519
865.743	4645
865.875	4455
866.006	4417
866.137	4424
866.269	4432
866.4	4417
866.531	4428
866.662	4360
866.793	4424
866.924	4409
867.055	4485
867.186	4455
867.317	4413
867.448	4394
867.579	4352
867.71	4409
867.841	4367
867.972	4428
868.103	4481
868.233	4428
868.364	4481
868.495	4478
868.625	4630
868.756	4729
868.886	4546
869.017	4584
869.147	4801
869.278	4767
869.408	4668
869.539	4645
869.669	4710
869.799	4626
869.929	4767
870.06	4679
870.19	4965
870.32	4934
870.45	4938
870.58	5025
870.71	5022
870.84	5064
870.97	4946
871.1	4866
871.23	5067
871.36	5109
871.489	5045
871.619	5048
871.749	5067
871.879	5090
872.008	5204
872.138	5029
872.267	5006
872.397	4858
872.526	4778
872.656	4733
872.785	4752
872.915	4942
873.044	5018
873.173	4900
873.303	4991
873.432	4972
873.561	4930
873.69	4858
873.819	4873
873.948	4934
874.077	4809
874.206	4725
874.335	4786
874.464	4877
874.593	5071
874.722	4942
874.851	5136
874.979	5052
875.108	5029
875.237	4881
875.365	4881
875.494	4885
875.623	4980
875.751	4850
875.88	4839
876.008	4991
876.136	5003
876.265	5170
876.393	5292
876.521	5258
876.65	5174
876.778	5178
876.906	5045
877.034	5014
877.162	5025
877.29	4976
877.418	5102
877.546	4999
877.674	5048
877.802	5029
877.93	4999
878.058	4923
878.185	4858
878.313	4938
878.441	4957
878.568	4786
878.696	4812
878.824	4923
878.951	4991
879.079	5090
879.206	5277
879.333	5075
879.461	5006
879.588	4999
879.715	5086
879.842	5201
879.97	4980
880.097	4771
880.224	4721
880.351	4736
880.478	4847
880.605	4782
880.732	4755
880.859	5056
880.986	4900
881.112	4866
881.239	4850
881.366	4607
881.493	4603
881.619	4596
881.746	4611
881.872	4641
881.999	4641
882.125	4694
882.252	4774
882.378	4797
882.505	4965
882.631	4816
882.757	4653
882.883	4729
883.01	4729
883.136	4645
883.262	4611
883.388	4596
883.514	4782
883.64	4847
883.766	4774
883.892	4656
884.018	4782
884.143	4877
884.269	4999
884.395	4653
884.52	4550
884.646	4660
884.772	4599
884.897	4561
885.023	4683
885.148	4828
885.274	4850
885.399	4778
885.524	4771
885.65	4729
885.775	4744
885.9	4694
886.025	4862
886.15	4744
886.275	4717
886.4	4641
886.525	4706
886.65	4675
886.775	4717
886.9	4885
887.025	5010
887.149	4793
887.274	4649
887.399	4603
887.523	4596
887.648	4603
887.773	4569
887.897	4694
888.021	4801
888.146	4698
888.27	4816
888.395	4854
888.519	4801
888.643	4797
888.767	4793
888.891	4660
889.015	4592
889.139	4622
889.263	4618
889.387	4725
889.511	4892
889.635	4759
889.759	4603
889.883	4607
890.006	4759
890.13	4877
890.254	4561
890.377	4672
890.501	4512
890.624	4554
890.748	4599
890.871	4504
890.995	4447
891.118	4421
891.241	4516
891.364	4508
891.488	4603
891.611	4500
891.734	4485
891.857	4577
891.98	4538
892.103	4660
892.226	4569
892.349	4573
892.471	4474
892.594	4550
892.717	4592
892.839	4531
892.962	4580
893.085	4653
893.207	4561
893.33	4466
893.452	4504
893.575	4592
893.697	4615
893.819	4797
893.941	4786
894.064	4717
894.186	4577
894.308	4554
894.43	4702
894.552	4752
894.674	4774
894.796	4588
894.918	4596
895.04	4542
895.161	4653
895.283	4637
895.405	4504
895.526	4626
895.648	4694
895.769	4679
895.891	4668
896.012	4725
896.134	4706
896.255	4679
896.376	4615
896.498	4649
896.619	4679
896.74	4622
896.861	4679
896.982	4938
897.103	5098
897.224	4824
897.345	4748
897.466	4675
897.587	4706
897.708	4820
897.828	4706
897.949	4630
898.07	4573
898.19	4622
898.311	4824
898.431	4645
898.552	4702
898.672	4839
898.792	4744
898.913	4717
899.033	4607
899.153	4478
899.273	4428
899.393	4516
899.513	4493
899.633	4531
899.753	4489
899.873	4481
899.993	4558
900.113	4493
900.232	4615
900.352	4550
900.472	4459
900.591	4398
900.711	4489
900.83	4428
900.95	4588
901.069	4675
901.189	4523
901.308	4390
901.427	4310
901.546	4322
901.665	4497
901.784	4546
901.904	4394
902.023	4284
902.141	4227
902.26	4154
902.379	4322
902.498	4261
902.617	4230
902.735	4348
902.854	4402
902.973	4367
903.091	4230
903.21	4253
903.328	4284
903.446	4276
903.565	4253
903.683	4348
903.801	4242
903.919	4402
904.038	4451
904.156	4310
904.274	4417
904.392	4409
904.51	4424
904.627	4466
904.745	4618
904.863	4637
904.981	4398
905.098	4257
905.216	4379
905.334	4440
905.451	4432
905.569	4451
905.686	4561
905.803	4584
905.921	4413
906.038	4535
906.155	4512
906.272	4352
906.389	4451
906.506	4291
906.623	4371
906.74	4379
906.857	4318
906.974	4356
907.091	4523
907.208	4637
907.324	4577
907.441	4497
907.557	4356
907.674	4333
907.79	4325
907.907	4375
908.023	4447
908.139	4474
908.256	4489
908.372	4421
908.488	4421
908.604	4303
908.72	4299
908.836	4379
908.952	4352
909.068	4379
909.184	4523
909.3	4455
909.415	4584
909.531	4535
909.647	4337
909.762	4379
909.878	4325
909.993	4390
910.108	4402
910.224	4424
910.339	4436
910.454	4398
910.57	4325
910.685	4310
910.8	4649
910.915	4622
911.03	4489
911.145	4322
911.259	4303
911.374	4318
911.489	4238
911.604	4242
911.718	4090
911.833	4238
911.947	4071
912.062	4044
912.176	4223
912.291	4223
912.405	4211
912.519	4424
912.633	4440
912.748	4295
912.862	4303
912.976	4234
913.09	4097
913.204	4162
913.318	4249
913.431	4348
913.545	4386
913.659	4417
913.772	4394
913.886	4287
914	4257
914.113	4367
914.226	4394
914.34	4409
914.453	4219
914.566	4432
914.68	4291
914.793	4348
914.906	4131
915.019	4135
915.132	4086
915.245	4192
915.358	4227
915.47	4173
915.583	4291
915.696	4230
915.809	4436
915.921	4398
916.034	4268
916.146	4234
916.259	4261
916.371	4394
916.483	4402
916.595	4280
916.708	4303
916.82	4280
916.932	4325
917.044	4295
917.156	4310
917.268	4223
917.38	4314
917.491	4287
917.603	4356
917.715	4421
917.826	4402
917.938	4360
918.049	4177
918.161	4398
918.272	4523
918.384	4546
918.495	4413
918.606	4306
918.717	4219
918.828	4322
918.939	4337
919.05	4242
919.161	4306
919.272	4135
919.383	4219
919.494	4402
919.604	4565
919.715	4402
919.826	4325
919.936	4413
920.047	4512
920.157	4500
920.267	4687
920.378	4535
920.488	4493
920.598	4736
920.708	4847
920.818	4725
920.928	4774
921.038	4881
921.148	4885
921.258	4630
921.368	4535
921.477	4481
921.587	4421
921.697	4322
921.806	4500
921.916	4428
922.025	4257
922.134	4257
922.244	4246
922.353	4348
922.462	4147
922.571	4139
922.68	4002
922.789	3949
922.898	4006
923.007	3960
923.116	4082
923.224	4048
923.333	4063
923.442	4006
923.55	3945
923.659	4032
923.767	4090
923.876	3987
923.984	4090
924.092	3991
924.201	4040
924.309	4067
924.417	4074
924.525	4067
924.633	4055
924.741	5029
924.849	3876
924.956	4177
925.064	3968
925.172	3907
925.279	3968
925.387	4051
925.494	4059
925.602	4207
925.709	4230
925.816	4086
925.924	4109
926.031	4242
926.138	4147
926.245	4207
926.352	4032
926.459	4265
926.566	4337
926.673	4116
926.779	4021
926.886	4048
926.993	3949
927.099	3956
927.206	3968
927.312	3934
927.419	4002
927.525	3983
927.631	4059
927.737	3945
927.843	3907
927.95	3861
928.056	3964
928.162	4032
928.267	4017
928.373	4626
928.479	4128
928.585	3865
928.69	4013
928.796	4063
928.901	3915
929.007	3854
929.112	4006
929.218	3987
929.323	3896
929.428	3949
929.533	4067
929.638	3949
929.743	3934
929.848	4017
929.953	4002
930.058	3930
930.163	3747
930.267	3812
930.372	3922
930.477	3800
930.581	4071
930.685	3930
930.79	3797
930.894	3838
930.998	3812
931.103	4029
931.207	3759
931.311	3717
931.415	3686
931.519	3511
931.623	3561
