Data from test_V78500241_1125.txt Node
Date: Fri Mar 25 16:56:49 CST 2022
User: usil
Spectrometer: V785-0024
Trigger mode: 0
Integration Time (sec): 4.000000E-1
Scans to average: 1
Nonlinearity correction enabled: false
Boxcar width: 0
Storing dark spectrum: false
XAxis mode: Wavelengths
Number of Pixels in Spectrum: 1024
>>>>>Begin Spectral Data<<<<<
801.071	8119
801.214	8005
801.356	7837
801.499	7761
801.641	7761
801.783	7753
801.926	7993
802.068	7955
802.211	7936
802.353	7974
802.496	7799
802.638	7883
802.78	7940
802.923	7982
803.065	7803
803.208	7959
803.35	7963
803.492	8138
803.635	8153
803.777	8001
803.919	8092
804.061	8404
804.204	8111
804.346	8031
804.488	8046
804.63	8142
804.773	8012
804.915	8096
805.057	8256
805.199	8123
805.341	8218
805.483	8256
805.626	8225
805.768	8142
805.91	8183
806.052	8119
806.194	8027
806.336	8294
806.478	8062
806.62	8062
806.762	8134
806.904	8237
807.046	8396
807.188	8366
807.33	8298
807.472	8259
807.614	8073
807.756	8096
807.898	7989
808.04	7818
808.182	7951
808.324	7856
808.465	7928
808.607	8100
808.749	8100
808.891	8168
809.033	8332
809.174	8134
809.316	8062
809.458	8043
809.6	8016
809.741	8092
809.883	8016
810.025	8039
810.166	8024
810.308	8065
810.45	7993
810.591	7898
810.733	7742
810.875	7613
811.016	7563
811.158	7472
811.299	7563
811.441	7715
811.582	7685
811.724	7567
811.865	7514
812.007	7544
812.148	7590
812.29	7578
812.431	7696
812.573	7875
812.714	8012
812.855	8088
812.997	8221
813.138	8309
813.279	8138
813.421	8119
813.562	8001
813.703	7845
813.845	7731
813.986	7460
814.127	7263
814.268	7198
814.41	7198
814.551	7061
814.692	7213
814.833	7057
814.974	7076
815.115	7069
815.256	6970
815.397	6897
815.539	6928
815.68	6798
815.821	6734
815.962	6875
816.103	6798
816.244	6673
816.385	6627
816.526	6620
816.666	6486
816.807	6308
816.948	6426
817.089	6426
817.23	6445
817.371	6334
817.512	6380
817.653	6429
817.793	6399
817.934	6372
818.075	6433
818.216	6391
818.356	6426
818.497	6175
818.638	6114
818.778	6178
818.919	6148
819.06	6175
819.2	6369
819.341	6346
819.481	6391
819.622	6418
819.762	6707
819.903	6669
820.043	6563
820.184	6566
820.324	6563
820.465	6658
820.605	6677
820.746	6582
820.886	6517
821.026	6635
821.167	6703
821.307	6741
821.447	6745
821.588	6658
821.728	6601
821.868	6437
822.008	6281
822.149	6384
822.289	6334
822.429	6125
822.569	6095
822.709	6117
822.849	5901
822.99	5821
823.13	5920
823.27	5893
823.41	5767
823.55	5779
823.69	5748
823.83	5733
823.97	5649
824.11	5532
824.25	5493
824.389	5554
824.529	5539
824.669	5509
824.809	5600
824.949	5646
825.089	5600
825.228	5532
825.368	5284
825.508	5326
825.648	5299
825.787	5387
825.927	5383
826.067	5296
826.206	5299
826.346	5398
826.485	5417
826.625	5398
826.765	5528
826.904	5486
827.044	5250
827.183	5181
827.323	5113
827.462	5227
827.601	5140
827.741	5166
827.88	5212
828.02	5090
828.159	5227
828.298	5269
828.437	5315
828.577	5250
828.716	5429
828.855	5288
828.994	5170
829.134	5102
829.273	5170
829.412	5102
829.551	5075
829.69	5159
829.829	5239
829.968	5303
830.107	5212
830.246	5261
830.385	5121
830.524	5162
830.663	5045
830.802	4934
830.941	4870
831.08	4839
831.219	4991
831.357	4953
831.496	5136
831.635	4824
831.774	4797
831.913	4877
832.051	4702
832.19	4736
832.329	4816
832.467	4675
832.606	4630
832.744	4702
832.883	4698
833.022	4660
833.16	4763
833.299	4824
833.437	4801
833.576	4839
833.714	4801
833.852	4850
833.991	4858
834.129	4938
834.267	4972
834.406	4934
834.544	4938
834.682	4980
834.821	4991
834.959	5174
835.097	4991
835.235	5117
835.373	5056
835.511	5117
835.65	4991
835.788	5029
835.926	4870
836.064	4839
836.202	4904
836.34	5151
836.478	5239
836.615	5124
836.753	5231
836.891	5284
837.029	5235
837.167	5181
837.305	5181
837.443	5140
837.58	5079
837.718	5239
837.856	5201
837.993	5105
838.131	5181
838.269	5193
838.406	5136
838.544	5178
838.681	5010
838.819	5033
838.956	4873
839.094	4843
839.231	4987
839.369	5113
839.506	5429
839.643	5235
839.781	5010
839.918	4976
840.055	5109
840.193	5102
840.33	5060
840.467	5136
840.604	5185
840.742	5490
840.879	5079
841.016	5071
841.153	5136
841.29	5387
841.427	5334
841.564	5265
841.701	5368
841.838	5261
841.975	5216
842.112	5231
842.249	5098
842.385	5113
842.522	5242
842.659	5178
842.796	5102
842.933	5216
843.069	5117
843.206	5075
843.343	5273
843.479	5216
843.616	5292
843.752	4999
843.889	5041
844.025	5174
844.162	4957
844.298	5155
844.435	5079
844.571	5025
844.708	5185
844.844	5288
844.98	5261
845.117	5235
845.253	5124
845.389	5083
845.525	5128
845.661	5124
845.798	5014
845.934	5079
846.07	5033
846.206	5136
846.342	5303
846.478	5132
846.614	5003
846.75	4938
846.886	4923
847.022	5128
847.158	4968
847.294	5060
847.429	5067
847.565	5067
847.701	5269
847.837	4812
847.972	4786
848.108	4938
848.244	4949
848.379	4809
848.515	4733
848.65	4721
848.786	4698
848.921	4778
849.057	4870
849.192	4881
849.328	4782
849.463	4862
849.598	4744
849.734	4714
849.869	4660
850.004	4611
850.14	4630
850.275	4542
850.41	4535
850.545	4558
850.68	4561
850.815	4611
850.95	4637
851.085	4824
851.22	4733
851.355	4641
851.49	4584
851.625	4596
851.76	4603
851.895	4546
852.03	4474
852.165	4599
852.299	4717
852.434	4824
852.569	4755
852.703	4805
852.838	4831
852.973	4942
853.107	4896
853.242	4771
853.376	4660
853.511	4542
853.645	4565
853.78	4778
853.914	4698
854.048	4672
854.183	4660
854.317	4668
854.451	4847
854.585	4607
854.72	4603
854.854	4752
854.988	4565
855.122	4664
855.256	4512
855.39	4653
855.524	4774
855.658	4736
855.792	4668
855.926	4710
856.06	4725
856.194	4759
856.327	4725
856.461	4622
856.595	4626
856.729	4626
856.862	4774
856.996	4664
857.13	4710
857.263	4774
857.397	4744
857.53	4618
857.664	4725
857.797	4710
857.931	4790
858.064	4694
858.197	4694
858.331	4641
858.464	4565
858.597	4535
858.731	4649
858.864	4611
858.997	4615
859.13	4630
859.263	4675
859.396	4679
859.529	4577
859.662	4538
859.795	4535
859.928	4573
860.061	4752
860.194	4774
860.327	4588
860.46	4538
860.592	4733
860.725	4668
860.858	4755
860.99	4554
861.123	4481
861.256	4508
861.388	4611
861.521	5330
861.653	4462
861.786	4455
861.918	4440
862.05	4516
862.183	4569
862.315	4565
862.447	4626
862.58	4569
862.712	4367
862.844	4257
862.976	4451
863.108	4417
863.24	4858
863.372	4337
863.504	4402
863.636	4443
863.768	4474
863.9	4390
864.032	4367
864.164	4386
864.296	4466
864.428	4538
864.559	4535
864.691	4489
864.823	4497
864.954	4493
865.086	4470
865.217	4443
865.349	4413
865.48	4478
865.612	4512
865.743	4664
865.875	4470
866.006	4432
866.137	4436
866.269	4424
866.4	4443
866.531	4421
866.662	4413
866.793	4413
866.924	4485
867.055	4504
867.186	4478
867.317	4432
867.448	4318
867.579	4386
867.71	4417
867.841	4363
867.972	4455
868.103	4436
868.233	4417
868.364	4398
868.495	4451
868.625	4634
868.756	4752
868.886	4584
869.017	4615
869.147	4748
869.278	4748
869.408	4634
869.539	4656
869.669	4706
869.799	4653
869.929	4774
870.06	4725
870.19	4953
870.32	4900
870.45	4942
870.58	5014
870.71	5132
870.84	5029
870.97	4911
871.1	4919
871.23	5117
871.36	5132
871.489	5045
871.619	5067
871.749	5056
871.879	5117
872.008	5147
872.138	5079
872.267	4961
872.397	4793
872.526	4774
872.656	4721
872.785	4752
872.915	4885
873.044	4991
873.173	4946
873.303	4968
873.432	4972
873.561	4957
873.69	4881
873.819	4839
873.948	4908
874.077	4816
874.206	4725
874.335	4812
874.464	4915
874.593	5056
874.722	4968
874.851	5056
874.979	5075
875.108	5052
875.237	4877
875.365	4877
875.494	4953
875.623	4980
875.751	4828
875.88	4831
876.008	4942
876.136	5045
876.265	5189
876.393	5311
876.521	5261
876.65	5212
876.778	5170
876.906	5022
877.034	4987
877.162	4991
877.29	4968
877.418	5064
877.546	5075
877.674	4999
877.802	5014
877.93	4972
878.058	4923
878.185	4866
878.313	4927
878.441	4911
878.568	4835
878.696	4873
878.824	4980
878.951	4995
879.079	5136
879.206	5265
879.333	5048
879.461	4961
879.588	5014
879.715	5136
879.842	5170
879.97	4953
880.097	4752
880.224	4694
880.351	4767
880.478	4767
880.605	4793
880.732	4816
880.859	5086
880.986	4877
881.112	4812
881.239	4721
881.366	4622
881.493	4584
881.619	4531
881.746	4641
881.872	4664
881.999	4653
882.125	4698
882.252	4797
882.378	4847
882.505	4961
882.631	4755
882.757	4706
882.883	4714
883.01	4729
883.136	4649
883.262	4615
883.388	4561
883.514	4809
883.64	4839
883.766	4809
883.892	4634
884.018	4721
884.143	4919
884.269	4965
884.395	4649
884.52	4618
884.646	4596
884.772	4569
884.897	4558
885.023	4675
885.148	4763
885.274	4873
885.399	4763
885.524	4714
885.65	4679
885.775	4752
885.9	4721
886.025	4839
886.15	4805
886.275	4702
886.4	4664
886.525	4733
886.65	4710
886.775	4653
886.9	4873
887.025	5048
887.149	4790
887.274	4672
887.399	4607
887.523	4615
887.648	4592
887.773	4569
887.897	4763
888.021	4782
888.146	4675
888.27	4847
888.395	4896
888.519	4771
888.643	4801
888.767	4812
888.891	4675
889.015	4611
889.139	4596
889.263	4580
889.387	4744
889.511	4835
889.635	4790
889.759	4649
889.883	4599
890.006	4729
890.13	4839
890.254	4599
890.377	4660
890.501	4519
890.624	4485
890.748	4626
890.871	4516
890.995	4417
891.118	4363
891.241	4489
891.364	4508
891.488	4675
891.611	4519
891.734	4542
891.857	4599
891.98	4535
892.103	4679
892.226	4538
892.349	4500
892.471	4440
892.594	4538
892.717	4603
892.839	4569
892.962	4554
893.085	4645
893.207	4546
893.33	4470
893.452	4478
893.575	4649
893.697	4538
893.819	4805
893.941	4778
894.064	4710
894.186	4565
894.308	4558
894.43	4672
894.552	4812
894.674	4748
894.796	4535
894.918	4538
895.04	4565
895.161	4641
895.283	4641
895.405	4546
895.526	4634
895.648	4630
895.769	4649
895.891	4706
896.012	4736
896.134	4679
896.255	4679
896.376	4656
896.498	4573
896.619	4656
896.74	4607
896.861	4664
896.982	4889
897.103	5083
897.224	4843
897.345	4790
897.466	4615
897.587	4725
897.708	4797
897.828	4744
897.949	4645
898.07	4554
898.19	4641
898.311	4790
898.431	4679
898.552	4748
898.672	4828
898.792	4831
898.913	4809
899.033	4622
899.153	4516
899.273	4405
899.393	4489
899.513	4481
899.633	4485
899.753	4531
899.873	4500
899.993	4554
900.113	4542
900.232	4580
900.352	4493
900.472	4497
900.591	4390
900.711	4504
900.83	4409
900.95	4546
901.069	4679
901.189	4554
901.308	4341
901.427	4325
901.546	4402
901.665	4417
901.784	4462
901.904	4341
902.023	4329
902.141	4200
902.26	4169
902.379	4314
902.498	4261
902.617	4219
902.735	4333
902.854	4386
902.973	4337
903.091	4173
903.21	4196
903.328	4299
903.446	4234
903.565	4257
903.683	4291
903.801	4280
903.919	4390
904.038	4413
904.156	4310
904.274	4424
904.392	4375
904.51	4421
904.627	4405
904.745	4519
904.863	4634
904.981	4398
905.098	4322
905.216	4348
905.334	4390
905.451	4421
905.569	4409
905.686	4546
905.803	4554
905.921	4386
906.038	4535
906.155	4493
906.272	4394
906.389	4421
906.506	4344
906.623	4371
906.74	4402
906.857	4295
906.974	4341
907.091	4550
907.208	4679
907.324	4618
907.441	4481
907.557	4348
907.674	4341
907.79	4344
907.907	4405
908.023	4447
908.139	4481
908.256	4470
908.372	4500
908.488	4424
908.604	4402
908.72	4306
908.836	4356
908.952	4322
909.068	4367
909.184	4546
909.3	4451
909.415	4546
909.531	4573
909.647	4333
909.762	4352
909.878	4386
909.993	4402
910.108	4409
910.224	4383
910.339	4466
910.454	4390
910.57	4356
910.685	4303
910.8	4645
910.915	4596
911.03	4470
911.145	4337
911.259	4337
911.374	4394
911.489	4295
911.604	4268
911.718	4219
911.833	4207
911.947	4059
912.062	4055
912.176	4162
912.291	4234
912.405	4276
912.519	4455
912.633	4558
912.748	4356
912.862	4306
912.976	4185
913.09	4067
913.204	4162
913.318	4234
913.431	4337
913.545	4375
913.659	4428
913.772	4356
913.886	4268
914	4242
914.113	4402
914.226	4413
914.34	4371
914.453	4242
914.566	4440
914.68	4344
914.793	4276
914.906	4166
915.019	4124
915.132	4082
915.245	4185
915.358	4158
915.47	4204
915.583	4268
915.696	4272
915.809	4386
915.921	4459
916.034	4253
916.146	4223
916.259	4272
916.371	4379
916.483	4329
916.595	4230
916.708	4322
916.82	4295
916.932	4329
917.044	4329
917.156	4333
917.268	4265
917.38	4265
917.491	4287
917.603	4318
917.715	4398
917.826	4390
917.938	4352
918.049	4207
918.161	4402
918.272	4500
918.384	4535
918.495	4428
918.606	4310
918.717	4223
918.828	4341
918.939	4363
919.05	4253
919.161	4314
919.272	4082
919.383	4185
919.494	4455
919.604	4584
919.715	4440
919.826	4344
919.936	4379
920.047	4466
920.157	4421
920.267	4702
920.378	4565
920.488	4462
920.598	4687
920.708	4904
920.818	4755
920.928	4748
921.038	4957
921.148	4949
921.258	4615
921.368	4519
921.477	4440
921.587	4485
921.697	4379
921.806	4485
921.916	4424
922.025	4253
922.134	4249
922.244	4242
922.353	4322
922.462	4238
922.571	4131
922.68	4029
922.789	3964
922.898	4036
923.007	3975
923.116	4051
923.224	4067
923.333	4097
923.442	3960
923.55	3949
923.659	4029
923.767	4074
923.876	3956
923.984	4078
924.092	3960
924.201	4044
924.309	4036
924.417	4128
924.525	4048
924.633	4093
924.741	5067
924.849	3903
924.956	4135
925.064	3964
925.172	3896
925.279	3937
925.387	4044
925.494	4086
925.602	4185
925.709	4234
925.816	4029
925.924	4082
926.031	4215
926.138	4169
926.245	4158
926.352	4067
926.459	4272
926.566	4284
926.673	4150
926.779	4059
926.886	4074
926.993	3964
927.099	3899
927.206	3937
927.312	3926
927.419	4048
927.525	4067
927.631	4078
927.737	3953
927.843	3968
927.95	3876
928.056	3945
928.162	3953
928.267	4025
928.373	4634
928.479	4105
928.585	3827
928.69	4006
928.796	4105
928.901	3979
929.007	3861
929.112	4021
929.218	3945
929.323	3918
929.428	3934
929.533	4093
929.638	3869
929.743	3983
929.848	4097
929.953	4021
930.058	3876
930.163	3759
930.267	3850
930.372	3964
930.477	3800
930.581	4101
930.685	3949
930.79	3808
930.894	3842
930.998	3873
931.103	4067
931.207	3701
931.311	3709
931.415	3637
931.519	3526
931.623	3542
