Data from test_V78500241_1934.txt Node
Date: Fri Mar 25 17:02:26 CST 2022
User: usil
Spectrometer: V785-0024
Trigger mode: 0
Integration Time (sec): 4.000000E-1
Scans to average: 1
Nonlinearity correction enabled: false
Boxcar width: 0
Storing dark spectrum: false
XAxis mode: Wavelengths
Number of Pixels in Spectrum: 1024
>>>>>Begin Spectral Data<<<<<
801.071	7989
801.214	7951
801.356	7772
801.499	7776
801.641	7811
801.783	7803
801.926	7921
802.068	7875
802.211	7887
802.353	7932
802.496	7830
802.638	7807
802.78	7826
802.923	7906
803.065	7864
803.208	7841
803.35	7955
803.492	8107
803.635	8126
803.777	7944
803.919	8065
804.061	8362
804.204	8157
804.346	8024
804.488	7955
804.63	8107
804.773	7978
804.915	8035
805.057	8298
805.199	8119
805.341	8202
805.483	8218
805.626	8183
805.768	8100
805.91	8218
806.052	8210
806.194	8092
806.336	8279
806.478	8084
806.62	7989
806.762	8134
806.904	8240
807.046	8438
807.188	8404
807.33	8286
807.472	8343
807.614	8153
807.756	8092
807.898	8001
808.04	7875
808.182	7887
808.324	7921
808.465	7940
808.607	8058
808.749	8107
808.891	8180
809.033	8237
809.174	8183
809.316	8077
809.458	8065
809.6	8054
809.741	8073
809.883	7986
810.025	8081
810.166	8024
810.308	8005
810.45	7898
810.591	7772
810.733	7712
810.875	7601
811.016	7525
811.158	7430
811.299	7552
811.441	7731
811.582	7624
811.724	7556
811.865	7521
812.007	7620
812.148	7533
812.29	7616
812.431	7723
812.573	7871
812.714	8001
812.855	8126
812.997	8225
813.138	8294
813.279	8145
813.421	8096
813.562	7944
813.703	7788
813.845	7746
813.986	7441
814.127	7228
814.268	7206
814.41	7126
814.551	7137
814.692	7263
814.833	7217
814.974	7129
815.115	7107
815.256	6943
815.397	6947
815.539	6897
815.68	6757
815.821	6719
815.962	6825
816.103	6867
816.244	6673
816.385	6639
816.526	6593
816.666	6513
816.807	6334
816.948	6422
817.089	6403
817.23	6429
817.371	6376
817.512	6372
817.653	6418
817.793	6414
817.934	6357
818.075	6483
818.216	6452
818.356	6410
818.497	6251
818.638	6091
818.778	6110
818.919	6125
819.06	6148
819.2	6365
819.341	6327
819.481	6361
819.622	6490
819.762	6726
819.903	6745
820.043	6601
820.184	6566
820.324	6532
820.465	6707
820.605	6677
820.746	6650
820.886	6532
821.026	6612
821.167	6669
821.307	6779
821.447	6787
821.588	6620
821.728	6566
821.868	6509
822.008	6334
822.149	6350
822.289	6357
822.429	6167
822.569	6102
822.709	6102
822.849	5931
822.99	5897
823.13	5958
823.27	5889
823.41	5783
823.55	5798
823.69	5771
823.83	5722
823.97	5570
824.11	5459
824.25	5482
824.389	5611
824.529	5570
824.669	5543
824.809	5547
824.949	5672
825.089	5604
825.228	5551
825.368	5429
825.508	5387
825.648	5364
825.787	5372
825.927	5360
826.067	5307
826.206	5296
826.346	5372
826.485	5395
826.625	5395
826.765	5539
826.904	5463
827.044	5239
827.183	5189
827.323	5132
827.462	5299
827.601	5193
827.741	5197
827.88	5140
828.02	5056
828.159	5258
828.298	5265
828.437	5357
828.577	5315
828.716	5459
828.855	5326
828.994	5155
829.134	5140
829.273	5212
829.412	5181
829.551	5117
829.69	5136
829.829	5292
829.968	5383
830.107	5288
830.246	5315
830.385	5208
830.524	5155
830.663	5064
830.802	4965
830.941	4934
831.08	4889
831.219	4968
831.357	5014
831.496	5231
831.635	4915
831.774	4873
831.913	4866
832.051	4778
832.19	4774
832.329	4930
832.467	4767
832.606	4675
832.744	4744
832.883	4729
833.022	4774
833.16	4801
833.299	4839
833.437	4843
833.576	4854
833.714	4866
833.852	4873
833.991	4927
834.129	5060
834.267	5029
834.406	4946
834.544	4995
834.682	4987
834.821	5018
834.959	5147
835.097	5041
835.235	5189
835.373	5132
835.511	5136
835.65	5094
835.788	5045
835.926	4911
836.064	4934
836.202	4965
836.34	5261
836.478	5307
836.615	5109
836.753	5250
836.891	5322
837.029	5288
837.167	5189
837.305	5170
837.443	5185
837.58	5102
837.718	5322
837.856	5235
837.993	5197
838.131	5269
838.269	5296
838.406	5246
838.544	5284
838.681	5060
838.819	5086
838.956	4984
839.094	4942
839.231	5018
839.369	5102
839.506	5455
839.643	5277
839.781	5075
839.918	5006
840.055	5105
840.193	5090
840.33	5162
840.467	5193
840.604	5235
840.742	5436
840.879	5128
841.016	5124
841.153	5162
841.29	5387
841.427	5341
841.564	5349
841.701	5433
841.838	5311
841.975	5254
842.112	5284
842.249	5151
842.385	5166
842.522	5372
842.659	5201
842.796	5208
842.933	5261
843.069	5151
843.206	5136
843.343	5307
843.479	5315
843.616	5265
843.752	5064
843.889	5018
844.025	5246
844.162	5071
844.298	5231
844.435	5086
844.571	5124
844.708	5189
844.844	5341
844.98	5345
845.117	5315
845.253	5235
845.389	5117
845.525	5212
845.661	5159
845.798	5060
845.934	5162
846.07	5094
846.206	5246
846.342	5307
846.478	5216
846.614	5037
846.75	4968
846.886	4976
847.022	5174
847.158	5010
847.294	5094
847.429	5109
847.565	5056
847.701	5368
847.837	4885
847.972	4835
848.108	4987
848.244	4949
848.379	4786
848.515	4759
848.65	4729
848.786	4774
848.921	4839
849.057	4938
849.192	4938
849.328	4847
849.463	4835
849.598	4801
849.734	4786
849.869	4744
850.004	4679
850.14	4710
850.275	4714
850.41	4554
850.545	4577
850.68	4611
850.815	4660
850.95	4637
851.085	4919
851.22	4767
851.355	4717
851.49	4645
851.625	4626
851.76	4691
851.895	4573
852.03	4599
852.165	4733
852.299	4725
852.434	4805
852.569	4706
852.703	4805
852.838	4831
852.973	4961
853.107	4919
853.242	4740
853.376	4675
853.511	4573
853.645	4615
853.78	4816
853.914	4721
854.048	4714
854.183	4672
854.317	4729
854.451	4847
854.585	4721
854.72	4672
854.854	4782
854.988	4607
855.122	4698
855.256	4546
855.39	4710
855.524	4850
855.658	4774
855.792	4740
855.926	4763
856.06	4740
856.194	4809
856.327	4721
856.461	4641
856.595	4645
856.729	4672
856.862	4755
856.996	4729
857.13	4782
857.263	4797
857.397	4786
857.53	4668
857.664	4759
857.797	4812
857.931	4877
858.064	4679
858.197	4752
858.331	4717
858.464	4618
858.597	4516
858.731	4645
858.864	4679
858.997	4622
859.13	4683
859.263	4668
859.396	4698
859.529	4634
859.662	4630
859.795	4538
859.928	4691
860.061	4755
860.194	4805
860.327	4660
860.46	4527
860.592	4740
860.725	4797
860.858	4748
860.99	4634
861.123	4603
861.256	4573
861.388	4641
861.521	5322
861.653	4542
861.786	4470
861.918	4481
862.05	4561
862.183	4531
862.315	4569
862.447	4687
862.58	4554
862.712	4451
862.844	4344
862.976	4523
863.108	4451
863.24	4805
863.372	4390
863.504	4478
863.636	4440
863.768	4535
863.9	4462
864.032	4383
864.164	4466
864.296	4558
864.428	4565
864.559	4577
864.691	4558
864.823	4561
864.954	4519
865.086	4519
865.217	4421
865.349	4481
865.48	4455
865.612	4497
865.743	4637
865.875	4485
866.006	4481
866.137	4481
866.269	4466
866.4	4489
866.531	4432
866.662	4409
866.793	4413
866.924	4436
867.055	4538
867.186	4466
867.317	4432
867.448	4405
867.579	4459
867.71	4436
867.841	4394
867.972	4493
868.103	4512
868.233	4462
868.364	4443
868.495	4519
868.625	4683
868.756	4797
868.886	4596
869.017	4637
869.147	4816
869.278	4774
869.408	4653
869.539	4679
869.669	4736
869.799	4683
869.929	4778
870.06	4748
870.19	5022
870.32	4991
870.45	4911
870.58	5060
870.71	5098
870.84	5105
870.97	4919
871.1	4961
871.23	5117
871.36	5162
871.489	5071
871.619	5025
871.749	5128
871.879	5143
872.008	5170
872.138	5151
872.267	4984
872.397	4885
872.526	4873
872.656	4778
872.785	4850
872.915	4999
873.044	5037
873.173	4957
873.303	4961
873.432	4972
873.561	4984
873.69	4927
873.819	4900
873.948	4938
874.077	4866
874.206	4778
874.335	4873
874.464	4927
874.593	5086
874.722	4984
874.851	5124
874.979	5048
875.108	5064
875.237	4915
875.365	4866
875.494	4885
875.623	4923
875.751	4850
875.88	4889
876.008	4957
876.136	5083
876.265	5227
876.393	5326
876.521	5280
876.65	5258
876.778	5162
876.906	5090
877.034	4995
877.162	5094
877.29	5037
877.418	5102
877.546	5064
877.674	5010
877.802	5060
877.93	4968
878.058	4961
878.185	4889
878.313	4980
878.441	5025
878.568	4831
878.696	4934
878.824	4987
878.951	4976
879.079	5079
879.206	5292
879.333	5121
879.461	4991
879.588	4980
879.715	5128
879.842	5227
879.97	5006
880.097	4744
880.224	4774
880.351	4771
880.478	4828
880.605	4850
880.732	4843
880.859	5102
880.986	4927
881.112	4976
881.239	4782
881.366	4706
881.493	4599
881.619	4645
881.746	4630
881.872	4691
881.999	4687
882.125	4710
882.252	4801
882.378	4862
882.505	5014
882.631	4835
882.757	4664
882.883	4736
883.01	4755
883.136	4653
883.262	4660
883.388	4664
883.514	4793
883.64	4923
883.766	4782
883.892	4672
884.018	4736
884.143	4892
884.269	5010
884.395	4679
884.52	4653
884.646	4672
884.772	4664
884.897	4565
885.023	4717
885.148	4797
885.274	4904
885.399	4843
885.524	4771
885.65	4702
885.775	4767
885.9	4729
886.025	4847
886.15	4748
886.275	4736
886.4	4656
886.525	4767
886.65	4721
886.775	4683
886.9	4900
887.025	5033
887.149	4824
887.274	4675
887.399	4596
887.523	4603
887.648	4596
887.773	4599
887.897	4782
888.021	4816
888.146	4706
888.27	4831
888.395	4870
888.519	4820
888.643	4812
888.767	4801
888.891	4687
889.015	4607
889.139	4691
889.263	4599
889.387	4733
889.511	4889
889.635	4782
889.759	4634
889.883	4694
890.006	4729
890.13	4843
890.254	4618
890.377	4698
890.501	4599
890.624	4508
890.748	4660
890.871	4538
890.995	4417
891.118	4413
891.241	4569
891.364	4523
891.488	4653
891.611	4546
891.734	4596
891.857	4618
891.98	4569
892.103	4668
892.226	4607
892.349	4497
892.471	4466
892.594	4603
892.717	4618
892.839	4588
892.962	4615
893.085	4683
893.207	4630
893.33	4474
893.452	4546
893.575	4744
893.697	4580
893.819	4782
893.941	4877
894.064	4755
894.186	4592
894.308	4577
894.43	4714
894.552	4847
894.674	4801
894.796	4588
894.918	4637
895.04	4611
895.161	4717
895.283	4660
895.405	4618
895.526	4656
895.648	4710
895.769	4683
895.891	4733
896.012	4729
896.134	4668
896.255	4656
896.376	4675
896.498	4634
896.619	4660
896.74	4668
896.861	4645
896.982	4915
897.103	5048
897.224	4831
897.345	4729
897.466	4660
897.587	4729
897.708	4881
897.828	4767
897.949	4656
898.07	4592
898.19	4637
898.311	4854
898.431	4668
898.552	4736
898.672	4843
898.792	4839
898.913	4759
899.033	4660
899.153	4523
899.273	4470
899.393	4527
899.513	4508
899.633	4500
899.753	4554
899.873	4584
899.993	4611
900.113	4554
900.232	4626
900.352	4580
900.472	4531
900.591	4447
900.711	4558
900.83	4413
900.95	4630
901.069	4702
901.189	4542
901.308	4379
901.427	4299
901.546	4379
901.665	4493
901.784	4443
901.904	4386
902.023	4341
902.141	4227
902.26	4188
902.379	4306
902.498	4280
902.617	4227
902.735	4402
902.854	4405
902.973	4371
903.091	4204
903.21	4261
903.328	4306
903.446	4287
903.565	4257
903.683	4367
903.801	4322
903.919	4394
904.038	4462
904.156	4341
904.274	4402
904.392	4398
904.51	4421
904.627	4466
904.745	4577
904.863	4660
904.981	4417
905.098	4318
905.216	4367
905.334	4432
905.451	4424
905.569	4455
905.686	4599
905.803	4569
905.921	4402
906.038	4538
906.155	4440
906.272	4383
906.389	4535
906.506	4352
906.623	4348
906.74	4405
906.857	4337
906.974	4371
907.091	4611
907.208	4698
907.324	4584
907.441	4504
907.557	4344
907.674	4348
907.79	4348
907.907	4405
908.023	4523
908.139	4470
908.256	4455
908.372	4466
908.488	4478
908.604	4402
908.72	4318
908.836	4451
908.952	4383
909.068	4394
909.184	4554
909.3	4516
909.415	4649
909.531	4573
909.647	4379
909.762	4386
909.878	4352
909.993	4432
910.108	4398
910.224	4421
910.339	4523
910.454	4402
910.57	4383
910.685	4360
910.8	4672
910.915	4599
911.03	4516
911.145	4333
911.259	4341
911.374	4402
911.489	4310
911.604	4303
911.718	4169
911.833	4211
911.947	4078
912.062	4055
912.176	4223
912.291	4276
912.405	4253
912.519	4459
912.633	4478
912.748	4360
912.862	4287
912.976	4234
913.09	4109
913.204	4211
913.318	4227
913.431	4337
913.545	4398
913.659	4443
913.772	4341
913.886	4215
914	4196
914.113	4375
914.226	4405
914.34	4379
914.453	4257
914.566	4436
914.68	4295
914.793	4344
914.906	4166
915.019	4124
915.132	4093
915.245	4169
915.358	4238
915.47	4261
915.583	4234
915.696	4303
915.809	4405
915.921	4443
916.034	4272
916.146	4268
916.259	4242
916.371	4360
916.483	4344
916.595	4303
916.708	4325
916.82	4325
916.932	4371
917.044	4341
917.156	4318
917.268	4242
917.38	4303
917.491	4280
917.603	4360
917.715	4409
917.826	4451
917.938	4344
918.049	4249
918.161	4398
918.272	4531
918.384	4573
918.495	4470
918.606	4295
918.717	4246
918.828	4329
918.939	4375
919.05	4246
919.161	4348
919.272	4128
919.383	4230
919.494	4417
919.604	4569
919.715	4402
919.826	4337
919.936	4394
920.047	4554
920.157	4538
920.267	4744
920.378	4558
920.488	4485
920.598	4736
920.708	4896
920.818	4767
920.928	4786
921.038	4965
921.148	4938
921.258	4634
921.368	4554
921.477	4455
921.587	4451
921.697	4367
921.806	4580
921.916	4500
922.025	4249
922.134	4253
922.244	4257
922.353	4337
922.462	4166
922.571	4143
922.68	4029
922.789	3956
922.898	4040
923.007	3983
923.116	4048
923.224	4124
923.333	4093
923.442	3983
923.55	3941
923.659	3987
923.767	4139
923.876	3991
923.984	4124
924.092	3968
924.201	4090
924.309	4078
924.417	4112
924.525	4017
924.633	4067
924.741	5098
924.849	3884
924.956	4177
925.064	3960
925.172	3930
925.279	3983
925.387	4063
925.494	4093
925.602	4192
925.709	4204
925.816	4051
925.924	4120
926.031	4223
926.138	4181
926.245	4196
926.352	4131
926.459	4230
926.566	4322
926.673	4173
926.779	4063
926.886	4105
926.993	3991
927.099	3949
927.206	3915
927.312	3922
927.419	4090
927.525	4086
927.631	4109
927.737	3964
927.843	3918
927.95	3819
928.056	3953
928.162	3983
928.267	4071
928.373	4588
928.479	4128
928.585	3869
928.69	4013
928.796	4055
928.901	3960
929.007	3827
929.112	3983
929.218	3960
929.323	3926
929.428	3960
929.533	4105
929.638	3911
929.743	3964
929.848	4048
929.953	4010
930.058	3956
930.163	3816
930.267	3823
930.372	3964
930.477	3835
930.581	4090
930.685	3949
930.79	3797
930.894	3880
930.998	3846
931.103	4059
931.207	3698
931.311	3682
931.415	3660
931.519	3485
931.623	3580
