Data from test_V78500241_480.txt Node
Date: Fri Mar 25 16:52:20 CST 2022
User: usil
Spectrometer: V785-0024
Trigger mode: 0
Integration Time (sec): 4.000000E-1
Scans to average: 1
Nonlinearity correction enabled: false
Boxcar width: 0
Storing dark spectrum: false
XAxis mode: Wavelengths
Number of Pixels in Spectrum: 1024
>>>>>Begin Spectral Data<<<<<
801.071	8065
801.214	7978
801.356	7898
801.499	7799
801.641	7769
801.783	7841
801.926	8027
802.068	7989
802.211	8043
802.353	8039
802.496	7921
802.638	7852
802.78	7898
802.923	7921
803.065	7868
803.208	7841
803.35	7932
803.492	8081
803.635	8084
803.777	7982
803.919	8096
804.061	8450
804.204	8092
804.346	8005
804.488	7963
804.63	8054
804.773	8005
804.915	8084
805.057	8221
805.199	8153
805.341	8199
805.483	8317
805.626	8130
805.768	7986
805.91	8050
806.052	8229
806.194	8081
806.336	8290
806.478	8043
806.62	8103
806.762	8214
806.904	8210
807.046	8473
807.188	8202
807.33	8279
807.472	8275
807.614	8134
807.756	8100
807.898	7913
808.04	7849
808.182	7940
808.324	7928
808.465	7906
808.607	8050
808.749	8084
808.891	8183
809.033	8221
809.174	8199
809.316	8058
809.458	8065
809.6	7982
809.741	7986
809.883	8005
810.025	8084
810.166	8081
810.308	8054
810.45	7963
810.591	7894
810.733	7700
810.875	7674
811.016	7544
811.158	7472
811.299	7632
811.441	7719
811.582	7719
811.724	7624
811.865	7537
812.007	7578
812.148	7491
812.29	7643
812.431	7776
812.573	7765
812.714	8005
812.855	8161
812.997	8248
813.138	8351
813.279	8294
813.421	8172
813.562	8062
813.703	7982
813.845	7784
813.986	7548
814.127	7365
814.268	7320
814.41	7194
814.551	7183
814.692	7206
814.833	7057
814.974	7110
815.115	7129
815.256	6916
815.397	6894
815.539	6905
815.68	6814
815.821	6779
815.962	6928
816.103	6798
816.244	6783
816.385	6612
816.526	6677
816.666	6498
816.807	6334
816.948	6483
817.089	6502
817.23	6483
817.371	6384
817.512	6338
817.653	6418
817.793	6315
817.934	6388
818.075	6502
818.216	6353
818.356	6395
818.497	6251
818.638	6182
818.778	6144
818.919	6140
819.06	6136
819.2	6323
819.341	6296
819.481	6395
819.622	6525
819.762	6779
819.903	6707
820.043	6639
820.184	6593
820.324	6582
820.465	6669
820.605	6639
820.746	6597
820.886	6490
821.026	6681
821.167	6700
821.307	6848
821.447	6776
821.588	6639
821.728	6570
821.868	6498
822.008	6292
822.149	6350
822.289	6361
822.429	6178
822.569	6079
822.709	6140
822.849	5942
822.99	5901
823.13	5939
823.27	5923
823.41	5760
823.55	5729
823.69	5748
823.83	5775
823.97	5642
824.11	5520
824.25	5474
824.389	5554
824.529	5623
824.669	5493
824.809	5653
824.949	5665
825.089	5581
825.228	5596
825.368	5379
825.508	5326
825.648	5318
825.787	5376
825.927	5379
826.067	5326
826.206	5326
826.346	5368
826.485	5406
826.625	5402
826.765	5535
826.904	5516
827.044	5231
827.183	5292
827.323	5155
827.462	5261
827.601	5178
827.741	5166
827.88	5223
828.02	5056
828.159	5227
828.298	5288
828.437	5337
828.577	5269
828.716	5467
828.855	5292
828.994	5124
829.134	5155
829.273	5181
829.412	5140
829.551	5094
829.69	5121
829.829	5242
829.968	5364
830.107	5258
830.246	5303
830.385	5136
830.524	5151
830.663	5098
830.802	4965
830.941	4854
831.08	4858
831.219	5067
831.357	4995
831.496	5162
831.635	4930
831.774	4793
831.913	4896
832.051	4729
832.19	4816
832.329	4812
832.467	4714
832.606	4637
832.744	4725
832.883	4725
833.022	4702
833.16	4797
833.299	4812
833.437	4786
833.576	4824
833.714	4812
833.852	4831
833.991	4896
834.129	4892
834.267	4949
834.406	4923
834.544	4980
834.682	4976
834.821	4953
834.959	5201
835.097	4965
835.235	5128
835.373	5086
835.511	5113
835.65	5037
835.788	5045
835.926	4919
836.064	4915
836.202	4942
836.34	5140
836.478	5189
836.615	5178
836.753	5143
836.891	5223
837.029	5292
837.167	5140
837.305	5159
837.443	5151
837.58	5071
837.718	5208
837.856	5189
837.993	5178
838.131	5231
838.269	5201
838.406	5201
838.544	5170
838.681	5006
838.819	4999
838.956	4934
839.094	4892
839.231	4972
839.369	5060
839.506	5410
839.643	5220
839.781	5056
839.918	5010
840.055	5090
840.193	5102
840.33	5090
840.467	5151
840.604	5151
840.742	5421
840.879	5052
841.016	5109
841.153	5132
841.29	5337
841.427	5372
841.564	5303
841.701	5345
841.838	5258
841.975	5212
842.112	5280
842.249	5162
842.385	5105
842.522	5353
842.659	5105
842.796	5151
842.933	5235
843.069	5181
843.206	5159
843.343	5315
843.479	5204
843.616	5246
843.752	5048
843.889	5003
844.025	5201
844.162	5052
844.298	5250
844.435	5052
844.571	5045
844.708	5162
844.844	5334
844.98	5383
845.117	5261
845.253	5143
845.389	5048
845.525	5174
845.661	5147
845.798	4984
845.934	5204
846.07	5060
846.206	5212
846.342	5201
846.478	5204
846.614	4961
846.75	4991
846.886	4900
847.022	5117
847.158	5003
847.294	5113
847.429	5083
847.565	5029
847.701	5326
847.837	4850
847.972	4812
848.108	4968
848.244	4953
848.379	4774
848.515	4687
848.65	4714
848.786	4736
848.921	4755
849.057	4881
849.192	4873
849.328	4805
849.463	4797
849.598	4759
849.734	4752
849.869	4683
850.004	4660
850.14	4683
850.275	4656
850.41	4542
850.545	4546
850.68	4641
850.815	4599
850.95	4599
851.085	4812
851.22	4710
851.355	4672
851.49	4626
851.625	4641
851.76	4626
851.895	4588
852.03	4558
852.165	4649
852.299	4725
852.434	4793
852.569	4759
852.703	4736
852.838	4850
852.973	4870
853.107	4896
853.242	4721
853.376	4691
853.511	4546
853.645	4645
853.78	4809
853.914	4683
854.048	4694
854.183	4656
854.317	4641
854.451	4805
854.585	4675
854.72	4672
854.854	4725
854.988	4615
855.122	4683
855.256	4538
855.39	4679
855.524	4675
855.658	4702
855.792	4687
855.926	4782
856.06	4771
856.194	4824
856.327	4683
856.461	4611
856.595	4634
856.729	4626
856.862	4752
856.996	4694
857.13	4721
857.263	4797
857.397	4786
857.53	4656
857.664	4733
857.797	4786
857.931	4736
858.064	4733
858.197	4744
858.331	4660
858.464	4607
858.597	4546
858.731	4649
858.864	4596
858.997	4626
859.13	4653
859.263	4653
859.396	4683
859.529	4561
859.662	4584
859.795	4512
859.928	4672
860.061	4717
860.194	4812
860.327	4588
860.46	4569
860.592	4725
860.725	4736
860.858	4740
860.99	4611
861.123	4504
861.256	4523
861.388	4596
861.521	5364
861.653	4474
861.786	4436
861.918	4470
862.05	4538
862.183	4554
862.315	4630
862.447	4668
862.58	4519
862.712	4424
862.844	4341
862.976	4497
863.108	4443
863.24	4778
863.372	4322
863.504	4432
863.636	4432
863.768	4447
863.9	4455
864.032	4405
864.164	4421
864.296	4504
864.428	4573
864.559	4588
864.691	4542
864.823	4561
864.954	4508
865.086	4577
865.217	4508
865.349	4428
865.48	4474
865.612	4508
865.743	4622
865.875	4462
866.006	4459
866.137	4455
866.269	4474
866.4	4455
866.531	4428
866.662	4405
866.793	4421
866.924	4409
867.055	4470
867.186	4443
867.317	4402
867.448	4363
867.579	4428
867.71	4402
867.841	4386
867.972	4440
868.103	4451
868.233	4466
868.364	4428
868.495	4466
868.625	4698
868.756	4767
868.886	4554
869.017	4622
869.147	4778
869.278	4782
869.408	4668
869.539	4630
869.669	4653
869.799	4675
869.929	4774
870.06	4714
870.19	4946
870.32	4927
870.45	4938
870.58	5010
870.71	5197
870.84	5121
870.97	4961
871.1	4930
871.23	5121
871.36	5174
871.489	5029
871.619	5071
871.749	5033
871.879	5143
872.008	5181
872.138	5048
872.267	5037
872.397	4858
872.526	4774
872.656	4733
872.785	4847
872.915	4938
873.044	5045
873.173	4927
873.303	4980
873.432	4987
873.561	4953
873.69	4866
873.819	4831
873.948	4862
874.077	4755
874.206	4706
874.335	4816
874.464	4961
874.593	5029
874.722	5010
874.851	5147
874.979	5056
875.108	5048
875.237	4934
875.365	4900
875.494	4892
875.623	4976
875.751	4820
875.88	4908
876.008	5010
876.136	5041
876.265	5178
876.393	5372
876.521	5330
876.65	5193
876.778	5193
876.906	5083
877.034	5045
877.162	5067
877.29	5022
877.418	5037
877.546	5071
877.674	5052
877.802	5045
877.93	5071
878.058	4919
878.185	4889
878.313	4984
878.441	4938
878.568	4759
878.696	4908
878.824	4980
878.951	4972
879.079	5178
879.206	5345
879.333	5102
879.461	5018
879.588	5029
879.715	5098
879.842	5242
879.97	5022
880.097	4828
880.224	4767
880.351	4774
880.478	4858
880.605	4790
880.732	4763
880.859	5102
880.986	4885
881.112	4927
881.239	4824
881.366	4714
881.493	4653
881.619	4580
881.746	4672
881.872	4656
881.999	4668
882.125	4702
882.252	4729
882.378	4824
882.505	4995
882.631	4816
882.757	4637
882.883	4706
883.01	4801
883.136	4675
883.262	4615
883.388	4656
883.514	4824
883.64	4919
883.766	4786
883.892	4656
884.018	4698
884.143	4904
884.269	4984
884.395	4736
884.52	4637
884.646	4634
884.772	4603
884.897	4577
885.023	4653
885.148	4740
885.274	4831
885.399	4847
885.524	4683
885.65	4679
885.775	4744
885.9	4706
886.025	4904
886.15	4755
886.275	4725
886.4	4683
886.525	4752
886.65	4714
886.775	4733
886.9	4881
887.025	4991
887.149	4850
887.274	4626
887.399	4603
887.523	4630
887.648	4588
887.773	4596
887.897	4744
888.021	4767
888.146	4710
888.27	4850
888.395	4870
888.519	4801
888.643	4805
888.767	4892
888.891	4653
889.015	4596
889.139	4611
889.263	4611
889.387	4793
889.511	4850
889.635	4820
889.759	4641
889.883	4641
890.006	4793
890.13	4843
890.254	4611
890.377	4645
890.501	4558
890.624	4466
890.748	4645
890.871	4466
890.995	4428
891.118	4413
891.241	4580
891.364	4519
891.488	4626
891.611	4504
891.734	4542
891.857	4615
891.98	4550
892.103	4679
892.226	4546
892.349	4531
892.471	4485
892.594	4561
892.717	4573
892.839	4546
892.962	4622
893.085	4626
893.207	4584
893.33	4451
893.452	4523
893.575	4645
893.697	4599
893.819	4858
893.941	4862
894.064	4755
894.186	4592
894.308	4542
894.43	4714
894.552	4816
894.674	4748
894.796	4558
894.918	4615
895.04	4573
895.161	4672
895.283	4637
895.405	4561
895.526	4656
895.648	4714
895.769	4668
895.891	4702
896.012	4759
896.134	4702
896.255	4668
896.376	4603
896.498	4584
896.619	4664
896.74	4687
896.861	4675
896.982	4908
897.103	5083
897.224	4812
897.345	4759
897.466	4630
897.587	4748
897.708	4889
897.828	4778
897.949	4672
898.07	4565
898.19	4630
898.311	4828
898.431	4679
898.552	4660
898.672	4843
898.792	4774
898.913	4710
899.033	4634
899.153	4508
899.273	4459
899.393	4512
899.513	4561
899.633	4481
899.753	4523
899.873	4538
899.993	4573
900.113	4497
900.232	4577
900.352	4561
900.472	4500
900.591	4390
900.711	4527
900.83	4455
900.95	4641
901.069	4710
901.189	4550
901.308	4398
901.427	4318
901.546	4394
901.665	4500
901.784	4588
901.904	4409
902.023	4306
902.141	4223
902.26	4185
902.379	4325
902.498	4276
902.617	4238
902.735	4386
902.854	4421
902.973	4371
903.091	4215
903.21	4246
903.328	4356
903.446	4257
903.565	4242
903.683	4341
903.801	4287
903.919	4409
904.038	4462
904.156	4284
904.274	4462
904.392	4421
904.51	4398
904.627	4481
904.745	4550
904.863	4622
904.981	4394
905.098	4341
905.216	4356
905.334	4466
905.451	4432
905.569	4478
905.686	4554
905.803	4622
905.921	4379
906.038	4584
906.155	4462
906.272	4405
906.389	4455
906.506	4367
906.623	4344
906.74	4409
906.857	4306
906.974	4417
907.091	4538
907.208	4668
907.324	4641
907.441	4470
907.557	4322
907.674	4348
907.79	4325
907.907	4421
908.023	4489
908.139	4413
908.256	4481
908.372	4455
908.488	4466
908.604	4379
908.72	4341
908.836	4375
908.952	4352
909.068	4470
909.184	4577
909.3	4462
909.415	4584
909.531	4565
909.647	4363
909.762	4367
909.878	4310
909.993	4390
910.108	4432
910.224	4421
910.339	4481
910.454	4386
910.57	4371
910.685	4329
910.8	4637
910.915	4569
911.03	4481
911.145	4352
911.259	4371
911.374	4360
911.489	4230
911.604	4291
911.718	4169
911.833	4219
911.947	4120
912.062	3987
912.176	4230
912.291	4268
912.405	4265
912.519	4447
912.633	4516
912.748	4325
912.862	4318
912.976	4207
913.09	4147
913.204	4188
913.318	4246
913.431	4337
913.545	4356
913.659	4424
913.772	4363
913.886	4249
914	4230
914.113	4375
914.226	4402
914.34	4356
914.453	4234
914.566	4485
914.68	4268
914.793	4276
914.906	4188
915.019	4135
915.132	4109
915.245	4173
915.358	4219
915.47	4272
915.583	4268
915.696	4268
915.809	4405
915.921	4440
916.034	4268
916.146	4257
916.259	4166
916.371	4360
916.483	4383
916.595	4276
916.708	4352
916.82	4344
916.932	4310
917.044	4329
917.156	4356
917.268	4249
917.38	4303
917.491	4265
917.603	4322
917.715	4432
917.826	4421
917.938	4413
918.049	4261
918.161	4360
918.272	4535
918.384	4500
918.495	4436
918.606	4291
918.717	4253
918.828	4306
918.939	4360
919.05	4257
919.161	4348
919.272	4139
919.383	4253
919.494	4474
919.604	4687
919.715	4470
919.826	4367
919.936	4440
920.047	4558
920.157	4512
920.267	4729
920.378	4546
920.488	4512
920.598	4725
920.708	4904
920.818	4736
920.928	4774
921.038	4946
921.148	4923
921.258	4599
921.368	4538
921.477	4493
921.587	4485
921.697	4352
921.806	4535
921.916	4474
922.025	4234
922.134	4234
922.244	4265
922.353	4329
922.462	4173
922.571	4211
922.68	3979
922.789	4021
922.898	4017
923.007	4025
923.116	4082
923.224	4059
923.333	4067
923.442	4006
923.55	3979
923.659	4048
923.767	4112
923.876	3987
923.984	4131
924.092	3991
924.201	4059
924.309	4093
924.417	4093
924.525	4055
924.633	4105
924.741	5147
924.849	3934
924.956	4124
925.064	3979
925.172	3896
925.279	3987
925.387	4021
925.494	4029
925.602	4223
925.709	4173
925.816	4074
925.924	4090
926.031	4177
926.138	4196
926.245	4154
926.352	4109
926.459	4272
926.566	4314
926.673	4154
926.779	4044
926.886	4040
926.993	3991
927.099	3937
927.206	3956
927.312	3911
927.419	4044
927.525	4032
927.631	4067
927.737	3937
927.843	3956
927.95	3861
928.056	3960
928.162	3964
928.267	4071
928.373	4672
928.479	4109
928.585	3854
928.69	4040
928.796	4101
928.901	3953
929.007	3854
929.112	4013
929.218	3953
929.323	4010
929.428	3934
929.533	4139
929.638	3937
929.743	3964
929.848	4002
929.953	4032
930.058	3918
930.163	3781
930.267	3819
930.372	3991
930.477	3831
930.581	4124
930.685	3964
930.79	3842
930.894	3835
930.998	3854
931.103	4025
931.207	3686
931.311	3690
931.415	3690
931.519	3538
931.623	3523
