Data from test_V78500241_361.txt Node
Date: Fri Mar 25 16:51:30 CST 2022
User: usil
Spectrometer: V785-0024
Trigger mode: 0
Integration Time (sec): 4.000000E-1
Scans to average: 1
Nonlinearity correction enabled: false
Boxcar width: 0
Storing dark spectrum: false
XAxis mode: Wavelengths
Number of Pixels in Spectrum: 1024
>>>>>Begin Spectral Data<<<<<
801.071	8058
801.214	8092
801.356	7906
801.499	7887
801.641	7837
801.783	7875
801.926	7913
802.068	7944
802.211	7989
802.353	8012
802.496	7849
802.638	7864
802.78	7978
802.923	7928
803.065	7860
803.208	7875
803.35	8008
803.492	8008
803.635	8111
803.777	7967
803.919	8164
804.061	8476
804.204	8130
804.346	8088
804.488	7887
804.63	8123
804.773	8092
804.915	8130
805.057	8339
805.199	8221
805.341	8271
805.483	8271
805.626	8164
805.768	8065
805.91	8130
806.052	8240
806.194	8126
806.336	8279
806.478	8183
806.62	8153
806.762	8240
806.904	8290
807.046	8469
807.188	8438
807.33	8294
807.472	8381
807.614	8183
807.756	8153
807.898	8069
808.04	7868
808.182	8016
808.324	7928
808.465	7982
808.607	8119
808.749	8164
808.891	8324
809.033	8328
809.174	8233
809.316	8092
809.458	8126
809.6	8027
809.741	8092
809.883	8069
810.025	8100
810.166	8180
810.308	8069
810.45	8069
810.591	7940
810.733	7837
810.875	7723
811.016	7563
811.158	7601
811.299	7727
811.441	7875
811.582	7757
811.724	7628
811.865	7655
812.007	7609
812.148	7662
812.29	7715
812.431	7803
812.573	7993
812.714	8012
812.855	8176
812.997	8252
813.138	8332
813.279	8271
813.421	8271
813.562	8065
813.703	7986
813.845	7852
813.986	7514
814.127	7388
814.268	7270
814.41	7266
814.551	7232
814.692	7350
814.833	7251
814.974	7099
815.115	7099
815.256	6958
815.397	6939
815.539	6977
815.68	6913
815.821	6897
815.962	6909
816.103	6970
816.244	6776
816.385	6681
816.526	6703
816.666	6585
816.807	6369
816.948	6452
817.089	6502
817.23	6464
817.371	6460
817.512	6460
817.653	6506
817.793	6407
817.934	6528
818.075	6521
818.216	6494
818.356	6448
818.497	6273
818.638	6213
818.778	6167
818.919	6228
819.06	6201
819.2	6357
819.341	6403
819.481	6346
819.622	6589
819.762	6749
819.903	6810
820.043	6639
820.184	6597
820.324	6696
820.465	6741
820.605	6719
820.746	6627
820.886	6540
821.026	6764
821.167	6738
821.307	6798
821.447	6791
821.588	6703
821.728	6616
821.868	6559
822.008	6376
822.149	6429
822.289	6369
822.429	6251
822.569	6155
822.709	6182
822.849	5973
822.99	5961
823.13	5973
823.27	5977
823.41	5836
823.55	5904
823.69	5844
823.83	5817
823.97	5688
824.11	5570
824.25	5562
824.389	5638
824.529	5642
824.669	5558
824.809	5703
824.949	5737
825.089	5661
825.228	5611
825.368	5425
825.508	5376
825.648	5406
825.787	5436
825.927	5433
826.067	5337
826.206	5379
826.346	5372
826.485	5433
826.625	5463
826.765	5566
826.904	5547
827.044	5246
827.183	5269
827.323	5197
827.462	5307
827.601	5220
827.741	5235
827.88	5250
828.02	5151
828.159	5318
828.298	5307
828.437	5357
828.577	5326
828.716	5547
828.855	5402
828.994	5208
829.134	5201
829.273	5220
829.412	5193
829.551	5155
829.69	5201
829.829	5258
829.968	5459
830.107	5296
830.246	5341
830.385	5197
830.524	5193
830.663	5124
830.802	5003
830.941	4934
831.08	4908
831.219	5025
831.357	5079
831.496	5235
831.635	4972
831.774	4915
831.913	4847
832.051	4790
832.19	4801
832.329	4915
832.467	4767
832.606	4694
832.744	4771
832.883	4782
833.022	4831
833.16	4850
833.299	4915
833.437	4835
833.576	4870
833.714	4885
833.852	4896
833.991	4923
834.129	4976
834.267	4957
834.406	4961
834.544	5014
834.682	5037
834.821	5003
834.959	5162
835.097	4972
835.235	5166
835.373	5105
835.511	5136
835.65	5109
835.788	5052
835.926	4946
836.064	4915
836.202	4923
836.34	5132
836.478	5269
836.615	5124
836.753	5216
836.891	5322
837.029	5322
837.167	5250
837.305	5159
837.443	5151
837.58	5098
837.718	5254
837.856	5223
837.993	5223
838.131	5277
838.269	5288
838.406	5231
838.544	5265
838.681	5052
838.819	5098
838.956	4930
839.094	4976
839.231	5010
839.369	5121
839.506	5528
839.643	5307
839.781	5064
839.918	5071
840.055	5151
840.193	5113
840.33	5159
840.467	5181
840.604	5227
840.742	5455
840.879	5124
841.016	5105
841.153	5178
841.29	5398
841.427	5372
841.564	5402
841.701	5376
841.838	5254
841.975	5311
842.112	5242
842.249	5166
842.385	5105
842.522	5353
842.659	5151
842.796	5170
842.933	5201
843.069	5185
843.206	5170
843.343	5353
843.479	5303
843.616	5307
843.752	5075
843.889	5048
844.025	5201
844.162	5071
844.298	5269
844.435	5113
844.571	5113
844.708	5288
844.844	5349
844.98	5395
845.117	5311
845.253	5170
845.389	5064
845.525	5166
845.661	5151
845.798	5098
845.934	5189
846.07	5071
846.206	5231
846.342	5311
846.478	5223
846.614	5056
846.75	4991
846.886	4949
847.022	5181
847.158	5064
847.294	5121
847.429	5117
847.565	5075
847.701	5376
847.837	4854
847.972	4881
848.108	5033
848.244	4987
848.379	4824
848.515	4752
848.65	4767
848.786	4786
848.921	4786
849.057	4870
849.192	4953
849.328	4843
849.463	4862
849.598	4839
849.734	4771
849.869	4729
850.004	4645
850.14	4668
850.275	4721
850.41	4588
850.545	4596
850.68	4607
850.815	4691
850.95	4645
851.085	4839
851.22	4755
851.355	4660
851.49	4675
851.625	4683
851.76	4660
851.895	4584
852.03	4558
852.165	4698
852.299	4740
852.434	4812
852.569	4767
852.703	4809
852.838	4900
852.973	4961
853.107	4976
853.242	4752
853.376	4683
853.511	4615
853.645	4645
853.78	4797
853.914	4694
854.048	4672
854.183	4641
854.317	4733
854.451	4847
854.585	4706
854.72	4672
854.854	4797
854.988	4599
855.122	4698
855.256	4611
855.39	4675
855.524	4793
855.658	4805
855.792	4717
855.926	4759
856.06	4759
856.194	4828
856.327	4782
856.461	4615
856.595	4656
856.729	4653
856.862	4744
856.996	4759
857.13	4752
857.263	4801
857.397	4843
857.53	4660
857.664	4759
857.797	4774
857.931	4744
858.064	4717
858.197	4771
858.331	4672
858.464	4615
858.597	4596
858.731	4611
858.864	4634
858.997	4660
859.13	4694
859.263	4691
859.396	4729
859.529	4641
859.662	4569
859.795	4542
859.928	4653
860.061	4843
860.194	4748
860.327	4592
860.46	4577
860.592	4698
860.725	4752
860.858	4675
860.99	4577
861.123	4519
861.256	4493
861.388	4668
861.521	5357
861.653	4500
861.786	4466
861.918	4447
862.05	4573
862.183	4550
862.315	4675
862.447	4664
862.58	4584
862.712	4390
862.844	4344
862.976	4470
863.108	4504
863.24	4835
863.372	4367
863.504	4451
863.636	4424
863.768	4512
863.9	4443
864.032	4379
864.164	4478
864.296	4493
864.428	4592
864.559	4584
864.691	4561
864.823	4546
864.954	4493
865.086	4516
865.217	4497
865.349	4424
865.48	4470
865.612	4535
865.743	4645
865.875	4519
866.006	4489
866.137	4512
866.269	4459
866.4	4478
866.531	4447
866.662	4394
866.793	4428
866.924	4485
867.055	4523
867.186	4459
867.317	4405
867.448	4405
867.579	4432
867.71	4421
867.841	4367
867.972	4500
868.103	4500
868.233	4493
868.364	4466
868.495	4481
868.625	4740
868.756	4740
868.886	4607
869.017	4645
869.147	4771
869.278	4786
869.408	4691
869.539	4668
869.669	4710
869.799	4675
869.929	4778
870.06	4717
870.19	4980
870.32	4984
870.45	4999
870.58	5029
870.71	5136
870.84	5083
870.97	4919
871.1	4904
871.23	5159
871.36	5102
871.489	5056
871.619	5075
871.749	5128
871.879	5147
872.008	5159
872.138	5045
872.267	5022
872.397	4889
872.526	4850
872.656	4767
872.785	4835
872.915	4934
873.044	5022
873.173	4896
873.303	4968
873.432	4995
873.561	5037
873.69	4927
873.819	4911
873.948	4915
874.077	4839
874.206	4824
874.335	4839
874.464	4923
874.593	5071
874.722	4968
874.851	5117
874.979	5083
875.108	5052
875.237	4942
875.365	4896
875.494	4919
875.623	4949
875.751	4870
875.88	4877
876.008	5052
876.136	5086
876.265	5208
876.393	5345
876.521	5261
876.65	5265
876.778	5181
876.906	5060
877.034	5071
877.162	5006
877.29	5006
877.418	5060
877.546	5052
877.674	5003
877.802	5071
877.93	5067
878.058	4953
878.185	4820
878.313	4949
878.441	4995
878.568	4790
878.696	4889
878.824	4980
878.951	4961
879.079	5147
879.206	5307
879.333	5090
879.461	5022
879.588	5006
879.715	5143
879.842	5231
879.97	5010
880.097	4843
880.224	4778
880.351	4839
880.478	4793
880.605	4805
880.732	4847
880.859	5083
880.986	4892
881.112	4923
881.239	4805
881.366	4679
881.493	4649
881.619	4596
881.746	4634
881.872	4683
881.999	4702
882.125	4698
882.252	4831
882.378	4816
882.505	4946
882.631	4790
882.757	4740
882.883	4763
883.01	4740
883.136	4687
883.262	4618
883.388	4622
883.514	4835
883.64	4885
883.766	4801
883.892	4694
884.018	4725
884.143	4904
884.269	4976
884.395	4679
884.52	4626
884.646	4630
884.772	4573
884.897	4531
885.023	4691
885.148	4774
885.274	4877
885.399	4835
885.524	4683
885.65	4706
885.775	4744
885.9	4672
886.025	4835
886.15	4828
886.275	4763
886.4	4660
886.525	4725
886.65	4698
886.775	4763
886.9	4949
887.025	5006
887.149	4900
887.274	4656
887.399	4626
887.523	4634
887.648	4611
887.773	4603
887.897	4759
888.021	4759
888.146	4672
888.27	4839
888.395	4938
888.519	4820
888.643	4839
888.767	4847
888.891	4714
889.015	4653
889.139	4649
889.263	4615
889.387	4759
889.511	4900
889.635	4828
889.759	4675
889.883	4687
890.006	4698
890.13	4793
890.254	4656
890.377	4748
890.501	4603
890.624	4542
890.748	4641
890.871	4561
890.995	4432
891.118	4409
891.241	4535
891.364	4565
891.488	4714
891.611	4558
891.734	4558
891.857	4630
891.98	4603
892.103	4660
892.226	4565
892.349	4538
892.471	4394
892.594	4558
892.717	4622
892.839	4607
892.962	4664
893.085	4740
893.207	4630
893.33	4493
893.452	4508
893.575	4668
893.697	4580
893.819	4778
893.941	4885
894.064	4820
894.186	4596
894.308	4565
894.43	4763
894.552	4786
894.674	4812
894.796	4535
894.918	4607
895.04	4577
895.161	4736
895.283	4698
895.405	4519
895.526	4683
895.648	4740
895.769	4656
895.891	4725
896.012	4717
896.134	4717
896.255	4656
896.376	4656
896.498	4634
896.619	4664
896.74	4626
896.861	4675
896.982	4953
897.103	5109
897.224	4835
897.345	4790
897.466	4714
897.587	4736
897.708	4866
897.828	4771
897.949	4679
898.07	4542
898.19	4660
898.311	4793
898.431	4656
898.552	4710
898.672	4824
898.792	4809
898.913	4771
899.033	4634
899.153	4497
899.273	4413
899.393	4527
899.513	4603
899.633	4489
899.753	4554
899.873	4527
899.993	4607
900.113	4535
900.232	4592
900.352	4554
900.472	4478
900.591	4417
900.711	4512
900.83	4432
900.95	4649
901.069	4721
901.189	4569
901.308	4367
901.427	4322
901.546	4371
901.665	4470
901.784	4546
901.904	4436
902.023	4344
902.141	4204
902.26	4169
902.379	4360
902.498	4238
902.617	4284
902.735	4402
902.854	4424
902.973	4360
903.091	4234
903.21	4200
903.328	4367
903.446	4322
903.565	4265
903.683	4375
903.801	4249
903.919	4402
904.038	4417
904.156	4329
904.274	4462
904.392	4424
904.51	4459
904.627	4459
904.745	4607
904.863	4618
904.981	4443
905.098	4318
905.216	4367
905.334	4470
905.451	4462
905.569	4451
905.686	4561
905.803	4618
905.921	4417
906.038	4527
906.155	4455
906.272	4413
906.389	4478
906.506	4333
906.623	4405
906.74	4383
906.857	4272
906.974	4360
907.091	4596
907.208	4687
907.324	4615
907.441	4512
907.557	4344
907.674	4348
907.79	4337
907.907	4398
908.023	4489
908.139	4474
908.256	4462
908.372	4466
908.488	4432
908.604	4356
908.72	4379
908.836	4367
908.952	4379
909.068	4421
909.184	4558
909.3	4481
909.415	4588
909.531	4508
909.647	4344
909.762	4363
909.878	4314
909.993	4485
910.108	4421
910.224	4402
910.339	4500
910.454	4409
910.57	4341
910.685	4306
910.8	4672
910.915	4588
911.03	4493
911.145	4363
911.259	4341
911.374	4375
911.489	4322
911.604	4333
911.718	4162
911.833	4249
911.947	4116
912.062	4036
912.176	4227
912.291	4196
912.405	4257
912.519	4432
912.633	4538
912.748	4402
912.862	4291
912.976	4188
913.09	4105
913.204	4227
913.318	4230
913.431	4390
913.545	4356
913.659	4432
913.772	4329
913.886	4246
914	4253
914.113	4371
914.226	4481
914.34	4413
914.453	4253
914.566	4443
914.68	4246
914.793	4322
914.906	4143
915.019	4139
915.132	4086
915.245	4223
915.358	4215
915.47	4253
915.583	4265
915.696	4303
915.809	4409
915.921	4443
916.034	4287
916.146	4257
916.259	4219
916.371	4379
916.483	4360
916.595	4230
916.708	4333
916.82	4352
916.932	4329
917.044	4344
917.156	4306
917.268	4223
917.38	4280
917.491	4284
917.603	4329
917.715	4428
917.826	4478
917.938	4371
918.049	4246
918.161	4390
918.272	4519
918.384	4546
918.495	4478
918.606	4276
918.717	4249
918.828	4322
918.939	4367
919.05	4268
919.161	4344
919.272	4090
919.383	4230
919.494	4413
919.604	4603
919.715	4436
919.826	4352
919.936	4394
920.047	4519
920.157	4508
920.267	4683
920.378	4523
920.488	4542
920.598	4767
920.708	4892
920.818	4729
920.928	4790
921.038	4946
921.148	4904
921.258	4634
921.368	4592
921.477	4554
921.587	4447
921.697	4379
921.806	4546
921.916	4451
922.025	4192
922.134	4257
922.244	4268
922.353	4363
922.462	4215
922.571	4116
922.68	4002
922.789	3972
922.898	4040
923.007	3987
923.116	4105
923.224	4097
923.333	4059
923.442	3960
923.55	3983
923.659	4040
923.767	4112
923.876	4010
923.984	4166
924.092	4006
924.201	4063
924.309	4147
924.417	4097
924.525	4071
924.633	4128
924.741	4904
924.849	3949
924.956	4135
925.064	4044
925.172	3941
925.279	3949
925.387	4032
925.494	4063
925.602	4177
925.709	4162
925.816	4051
925.924	4154
926.031	4215
926.138	4154
926.245	4234
926.352	4063
926.459	4318
926.566	4367
926.673	4143
926.779	4139
926.886	4109
926.993	3953
927.099	3983
927.206	3934
927.312	3941
927.419	4078
927.525	4002
927.631	4143
927.737	3991
927.843	3945
927.95	3827
928.056	3945
928.162	3998
928.267	4086
928.373	4740
928.479	4143
928.585	3873
928.69	4025
928.796	4078
928.901	3968
929.007	3869
929.112	4006
929.218	4010
929.323	3949
929.428	3949
929.533	4120
929.638	3941
929.743	3979
929.848	4071
929.953	3983
930.058	3956
930.163	3804
930.267	3808
930.372	3998
930.477	3816
930.581	4074
930.685	3945
930.79	3827
930.894	3884
930.998	3857
931.103	4082
931.207	3705
931.311	3679
931.415	3698
931.519	3564
931.623	3538
