Data from test_V78500241_1606.txt Node
Date: Fri Mar 25 17:00:10 CST 2022
User: usil
Spectrometer: V785-0024
Trigger mode: 0
Integration Time (sec): 4.000000E-1
Scans to average: 1
Nonlinearity correction enabled: false
Boxcar width: 0
Storing dark spectrum: false
XAxis mode: Wavelengths
Number of Pixels in Spectrum: 1024
>>>>>Begin Spectral Data<<<<<
801.071	7963
801.214	7993
801.356	7868
801.499	7837
801.641	7780
801.783	7822
801.926	7947
802.068	7928
802.211	7982
802.353	8084
802.496	7788
802.638	7826
802.78	7909
802.923	7959
803.065	7845
803.208	7875
803.35	7978
803.492	8092
803.635	8145
803.777	8092
803.919	8168
804.061	8423
804.204	8111
804.346	8065
804.488	7947
804.63	8088
804.773	7974
804.915	8065
805.057	8317
805.199	8183
805.341	8191
805.483	8214
805.626	8142
805.768	8126
805.91	8172
806.052	8225
806.194	8115
806.336	8336
806.478	8069
806.62	8092
806.762	8134
806.904	8279
807.046	8514
807.188	8317
807.33	8324
807.472	8320
807.614	8142
807.756	8138
807.898	8008
808.04	7936
808.182	7860
808.324	7826
808.465	7932
808.607	8035
808.749	8126
808.891	8168
809.033	8221
809.174	8233
809.316	7997
809.458	8012
809.6	7955
809.741	8039
809.883	7970
810.025	8084
810.166	8069
810.308	7982
810.45	7951
810.591	7837
810.733	7658
810.875	7651
811.016	7529
811.158	7449
811.299	7578
811.441	7670
811.582	7647
811.724	7453
811.865	7476
812.007	7559
812.148	7529
812.29	7620
812.431	7731
812.573	7795
812.714	7932
812.855	8065
812.997	8164
813.138	8199
813.279	8161
813.421	8084
813.562	7955
813.703	7864
813.845	7731
813.986	7457
814.127	7198
814.268	7202
814.41	7187
814.551	7213
814.692	7190
814.833	7099
814.974	7080
815.115	7072
815.256	6916
815.397	6928
815.539	6913
815.68	6901
815.821	6787
815.962	6852
816.103	6818
816.244	6711
816.385	6620
816.526	6574
816.666	6513
816.807	6285
816.948	6334
817.089	6418
817.23	6498
817.371	6350
817.512	6403
817.653	6350
817.793	6369
817.934	6365
818.075	6414
818.216	6418
818.356	6395
818.497	6251
818.638	6076
818.778	6106
818.919	6163
819.06	6140
819.2	6296
819.341	6308
819.481	6422
819.622	6517
819.762	6696
819.903	6669
820.043	6563
820.184	6574
820.324	6642
820.465	6703
820.605	6673
820.746	6601
820.886	6521
821.026	6631
821.167	6654
821.307	6802
821.447	6772
821.588	6627
821.728	6574
821.868	6437
822.008	6304
822.149	6403
822.289	6304
822.429	6190
822.569	6163
822.709	6117
822.849	5874
822.99	5908
823.13	5912
823.27	5889
823.41	5786
823.55	5786
823.69	5767
823.83	5748
823.97	5657
824.11	5543
824.25	5505
824.389	5493
824.529	5562
824.669	5505
824.809	5627
824.949	5608
825.089	5573
825.228	5558
825.368	5364
825.508	5326
825.648	5326
825.787	5353
825.927	5357
826.067	5269
826.206	5345
826.346	5372
826.485	5395
826.625	5406
826.765	5543
826.904	5436
827.044	5250
827.183	5185
827.323	5067
827.462	5193
827.601	5143
827.741	5197
827.88	5170
828.02	5105
828.159	5235
828.298	5284
828.437	5334
828.577	5250
828.716	5471
828.855	5311
828.994	5162
829.134	5140
829.273	5201
829.412	5147
829.551	5121
829.69	5170
829.829	5208
829.968	5391
830.107	5242
830.246	5235
830.385	5159
830.524	5143
830.663	5102
830.802	4942
830.941	4858
831.08	4870
831.219	4953
831.357	4965
831.496	5121
831.635	4908
831.774	4858
831.913	4828
832.051	4691
832.19	4710
832.329	4790
832.467	4759
832.606	4683
832.744	4706
832.883	4714
833.022	4668
833.16	4778
833.299	4816
833.437	4767
833.576	4793
833.714	4839
833.852	4828
833.991	4854
834.129	4873
834.267	4972
834.406	4885
834.544	5003
834.682	4961
834.821	4965
834.959	5132
835.097	4942
835.235	5052
835.373	5045
835.511	5094
835.65	5041
835.788	5014
835.926	4828
836.064	4862
836.202	4870
836.34	5170
836.478	5212
836.615	5098
836.753	5193
836.891	5292
837.029	5220
837.167	5189
837.305	5204
837.443	5159
837.58	5064
837.718	5178
837.856	5178
837.993	5136
838.131	5189
838.269	5166
838.406	5208
838.544	5155
838.681	4999
838.819	4961
838.956	4934
839.094	4877
839.231	4961
839.369	5041
839.506	5414
839.643	5216
839.781	5048
839.918	5033
840.055	5071
840.193	5102
840.33	5094
840.467	5086
840.604	5170
840.742	5383
840.879	5029
841.016	5025
841.153	5105
841.29	5330
841.427	5288
841.564	5292
841.701	5349
841.838	5273
841.975	5242
842.112	5227
842.249	5102
842.385	5086
842.522	5280
842.659	5140
842.796	5143
842.933	5185
843.069	5140
843.206	5098
843.343	5322
843.479	5254
843.616	5258
843.752	5003
843.889	4980
844.025	5239
844.162	5037
844.298	5109
844.435	5048
844.571	5079
844.708	5143
844.844	5299
844.98	5315
845.117	5284
845.253	5109
845.389	5052
845.525	5170
845.661	5151
845.798	4995
845.934	5162
846.07	5048
846.206	5201
846.342	5258
846.478	5166
846.614	5029
846.75	4930
846.886	4938
847.022	5109
847.158	4972
847.294	5029
847.429	5071
847.565	5029
847.701	5311
847.837	4824
847.972	4797
848.108	4927
848.244	4927
848.379	4752
848.515	4706
848.65	4698
848.786	4702
848.921	4778
849.057	4767
849.192	4850
849.328	4812
849.463	4809
849.598	4771
849.734	4717
849.869	4694
850.004	4596
850.14	4660
850.275	4603
850.41	4516
850.545	4516
850.68	4599
850.815	4588
850.95	4637
851.085	4850
851.22	4729
851.355	4645
851.49	4573
851.625	4622
851.76	4630
851.895	4523
852.03	4516
852.165	4660
852.299	4702
852.434	4729
852.569	4755
852.703	4752
852.838	4828
852.973	4843
853.107	4915
853.242	4702
853.376	4660
853.511	4580
853.645	4573
853.78	4752
853.914	4714
854.048	4698
854.183	4653
854.317	4668
854.451	4835
854.585	4694
854.72	4626
854.854	4725
854.988	4626
855.122	4691
855.256	4527
855.39	4656
855.524	4820
855.658	4733
855.792	4759
855.926	4755
856.06	4767
856.194	4858
856.327	4710
856.461	4645
856.595	4710
856.729	4679
856.862	4759
856.996	4687
857.13	4763
857.263	4778
857.397	4839
857.53	4653
857.664	4706
857.797	4797
857.931	4839
858.064	4736
858.197	4812
858.331	4706
858.464	4618
858.597	4538
858.731	4637
858.864	4706
858.997	4653
859.13	4691
859.263	4675
859.396	4755
859.529	4615
859.662	4664
859.795	4607
859.928	4645
860.061	4820
860.194	4805
860.327	4694
860.46	4573
860.592	4736
860.725	4812
860.858	4759
860.99	4603
861.123	4569
861.256	4607
861.388	4656
861.521	5193
861.653	4508
861.786	4535
861.918	4478
862.05	4577
862.183	4531
862.315	4626
862.447	4698
862.58	4561
862.712	4398
862.844	4333
862.976	4478
863.108	4447
863.24	4793
863.372	4394
863.504	4481
863.636	4459
863.768	4474
863.9	4440
864.032	4417
864.164	4398
864.296	4516
864.428	4603
864.559	4630
864.691	4580
864.823	4546
864.954	4561
865.086	4554
865.217	4512
865.349	4424
865.48	4516
865.612	4531
865.743	4687
865.875	4516
866.006	4417
866.137	4512
866.269	4500
866.4	4508
866.531	4516
866.662	4459
866.793	4493
866.924	4455
867.055	4432
867.186	4447
867.317	4462
867.448	4394
867.579	4432
867.71	4348
867.841	4443
867.972	4497
868.103	4478
868.233	4478
868.364	4489
868.495	4519
868.625	4698
868.756	4786
868.886	4611
869.017	4626
869.147	4790
869.278	4786
869.408	4717
869.539	4668
869.669	4733
869.799	4698
869.929	4790
870.06	4748
870.19	4965
870.32	4930
870.45	4949
870.58	5037
870.71	5121
870.84	5086
870.97	4980
871.1	4953
871.23	5235
871.36	5147
871.489	5045
871.619	5132
871.749	5109
871.879	5151
872.008	5201
872.138	5052
872.267	4987
872.397	4873
872.526	4816
872.656	4733
872.785	4839
872.915	4965
873.044	5010
873.173	4991
873.303	4980
873.432	4972
873.561	4987
873.69	4915
873.819	4885
873.948	4968
874.077	4843
874.206	4805
874.335	4824
874.464	4972
874.593	5022
874.722	4957
874.851	5109
874.979	5079
875.108	5045
875.237	4946
875.365	4919
875.494	4911
875.623	5052
875.751	4843
875.88	4919
876.008	5029
876.136	5113
876.265	5231
876.393	5387
876.521	5239
876.65	5242
876.778	5140
876.906	5109
877.034	5075
877.162	5064
877.29	5056
877.418	5052
877.546	5025
877.674	5041
877.802	5109
877.93	4965
878.058	4976
878.185	4904
878.313	4991
878.441	4980
878.568	4801
878.696	4904
878.824	5003
878.951	5033
879.079	5117
879.206	5315
879.333	5086
879.461	5018
879.588	5045
879.715	5155
879.842	5220
879.97	5033
880.097	4759
880.224	4763
880.351	4900
880.478	4843
880.605	4824
880.732	4824
880.859	5124
880.986	4953
881.112	4949
881.239	4797
881.366	4672
881.493	4622
881.619	4588
881.746	4641
881.872	4656
881.999	4679
882.125	4702
882.252	4812
882.378	4850
882.505	4957
882.631	4816
882.757	4672
882.883	4778
883.01	4744
883.136	4725
883.262	4615
883.388	4611
883.514	4889
883.64	4828
883.766	4816
883.892	4694
884.018	4752
884.143	4923
884.269	5056
884.395	4679
884.52	4672
884.646	4664
884.772	4596
884.897	4561
885.023	4706
885.148	4801
885.274	4919
885.399	4847
885.524	4717
885.65	4729
885.775	4710
885.9	4736
886.025	4892
886.15	4801
886.275	4744
886.4	4683
886.525	4759
886.65	4748
886.775	4759
886.9	4911
887.025	5052
887.149	4847
887.274	4683
887.399	4634
887.523	4577
887.648	4596
887.773	4641
887.897	4820
888.021	4801
888.146	4714
888.27	4831
888.395	4919
888.519	4782
888.643	4843
888.767	4828
888.891	4706
889.015	4668
889.139	4672
889.263	4618
889.387	4755
889.511	4885
889.635	4835
889.759	4649
889.883	4637
890.006	4740
890.13	4820
890.254	4675
890.377	4725
890.501	4569
890.624	4531
890.748	4645
890.871	4542
890.995	4421
891.118	4375
891.241	4561
891.364	4622
891.488	4622
891.611	4519
891.734	4531
891.857	4607
891.98	4554
892.103	4675
892.226	4622
892.349	4550
892.471	4470
892.594	4561
892.717	4596
892.839	4618
892.962	4668
893.085	4668
893.207	4615
893.33	4519
893.452	4550
893.575	4733
893.697	4603
893.819	4801
893.941	4801
894.064	4744
894.186	4634
894.308	4584
894.43	4744
894.552	4820
894.674	4755
894.796	4554
894.918	4603
895.04	4592
895.161	4721
895.283	4691
895.405	4592
895.526	4649
895.648	4717
895.769	4694
895.891	4721
896.012	4774
896.134	4725
896.255	4694
896.376	4634
896.498	4622
896.619	4679
896.74	4611
896.861	4698
896.982	4949
897.103	5075
897.224	4835
897.345	4782
897.466	4675
897.587	4771
897.708	4885
897.828	4805
897.949	4706
898.07	4527
898.19	4672
898.311	4828
898.431	4675
898.552	4790
898.672	4828
898.792	4816
898.913	4801
899.033	4668
899.153	4542
899.273	4436
899.393	4512
899.513	4561
899.633	4542
899.753	4569
899.873	4531
899.993	4596
900.113	4554
900.232	4611
900.352	4599
900.472	4512
900.591	4379
900.711	4519
900.83	4459
900.95	4580
901.069	4691
901.189	4565
901.308	4398
901.427	4375
901.546	4405
901.665	4504
901.784	4489
901.904	4443
902.023	4344
902.141	4223
902.26	4188
902.379	4329
902.498	4215
902.617	4200
902.735	4402
902.854	4424
902.973	4386
903.091	4242
903.21	4268
903.328	4310
903.446	4356
903.565	4310
903.683	4322
903.801	4303
903.919	4379
904.038	4489
904.156	4295
904.274	4478
904.392	4436
904.51	4470
904.627	4504
904.745	4550
904.863	4660
904.981	4402
905.098	4348
905.216	4360
905.334	4443
905.451	4440
905.569	4462
905.686	4584
905.803	4603
905.921	4436
906.038	4531
906.155	4516
906.272	4409
906.389	4512
906.506	4379
906.623	4337
906.74	4432
906.857	4325
906.974	4379
907.091	4580
907.208	4656
907.324	4641
907.441	4546
907.557	4360
907.674	4390
907.79	4344
907.907	4371
908.023	4535
908.139	4470
908.256	4493
908.372	4478
908.488	4504
908.604	4398
908.72	4322
908.836	4398
908.952	4383
909.068	4398
909.184	4577
909.3	4508
909.415	4588
909.531	4569
909.647	4394
909.762	4360
909.878	4329
909.993	4421
910.108	4402
910.224	4405
910.339	4508
910.454	4455
910.57	4394
910.685	4329
910.8	4694
910.915	4618
911.03	4497
911.145	4348
911.259	4352
911.374	4360
911.489	4322
911.604	4272
911.718	4211
911.833	4204
911.947	4131
912.062	4063
912.176	4219
912.291	4227
912.405	4295
912.519	4516
912.633	4554
912.748	4379
912.862	4299
912.976	4227
913.09	4143
913.204	4188
913.318	4265
913.431	4402
913.545	4375
913.659	4478
913.772	4344
913.886	4291
914	4204
914.113	4348
914.226	4447
914.34	4436
914.453	4291
914.566	4409
914.68	4325
914.793	4356
914.906	4185
915.019	4143
915.132	4109
915.245	4185
915.358	4261
915.47	4207
915.583	4261
915.696	4325
915.809	4443
915.921	4443
916.034	4207
916.146	4246
916.259	4211
916.371	4371
916.483	4360
916.595	4257
916.708	4356
916.82	4363
916.932	4383
917.044	4394
917.156	4310
917.268	4204
917.38	4284
917.491	4272
917.603	4363
917.715	4440
917.826	4417
917.938	4405
918.049	4299
918.161	4390
918.272	4500
918.384	4512
918.495	4409
918.606	4325
918.717	4261
918.828	4329
918.939	4352
919.05	4249
919.161	4310
919.272	4109
919.383	4230
919.494	4474
919.604	4611
919.715	4443
919.826	4375
919.936	4398
920.047	4538
920.157	4478
920.267	4687
920.378	4535
920.488	4550
920.598	4660
920.708	4915
920.818	4790
920.928	4771
921.038	4968
921.148	4927
921.258	4630
921.368	4592
921.477	4516
921.587	4512
921.697	4390
921.806	4573
921.916	4443
922.025	4249
922.134	4261
922.244	4242
922.353	4337
922.462	4204
922.571	4188
922.68	4067
922.789	3991
922.898	4071
923.007	4006
923.116	4147
923.224	4135
923.333	4131
923.442	4006
923.55	4048
923.659	4063
923.767	4147
923.876	4036
923.984	4162
924.092	4048
924.201	4139
924.309	4150
924.417	4188
924.525	4143
924.633	4177
924.741	4892
924.849	4017
924.956	4166
925.064	4059
925.172	4017
925.279	4010
925.387	4090
925.494	4090
925.602	4265
925.709	4257
925.816	4074
925.924	4196
926.031	4253
926.138	4219
926.245	4246
926.352	4086
926.459	4318
926.566	4303
926.673	4154
926.779	4116
926.886	4101
926.993	3991
927.099	3983
927.206	3972
927.312	3987
927.419	4086
927.525	4040
927.631	4147
927.737	4032
927.843	4025
927.95	3926
928.056	3991
928.162	4044
928.267	4101
928.373	4641
928.479	4200
928.585	3941
928.69	4105
928.796	4067
928.901	3994
929.007	3934
929.112	4063
929.218	4048
929.323	3987
929.428	3937
929.533	4173
929.638	3964
929.743	3994
929.848	4105
929.953	4048
930.058	3953
930.163	3846
930.267	3850
930.372	4032
930.477	3838
930.581	4154
930.685	3964
930.79	3892
930.894	3945
930.998	3892
931.103	4101
931.207	3740
931.311	3728
931.415	3766
931.519	3534
931.623	3614
