Data from test_V78500241_1809.txt Node
Date: Fri Mar 25 17:01:34 CST 2022
User: usil
Spectrometer: V785-0024
Trigger mode: 0
Integration Time (sec): 4.000000E-1
Scans to average: 1
Nonlinearity correction enabled: false
Boxcar width: 0
Storing dark spectrum: false
XAxis mode: Wavelengths
Number of Pixels in Spectrum: 1024
>>>>>Begin Spectral Data<<<<<
801.071	7967
801.214	7932
801.356	7909
801.499	7875
801.641	7753
801.783	7845
801.926	7974
802.068	7940
802.211	7917
802.353	8008
802.496	7811
802.638	7814
802.78	7837
802.923	7898
803.065	7822
803.208	7837
803.35	7955
803.492	8069
803.635	8138
803.777	8035
803.919	8126
804.061	8438
804.204	8161
804.346	8123
804.488	7925
804.63	8077
804.773	8043
804.915	8149
805.057	8377
805.199	8168
805.341	8149
805.483	8202
805.626	8218
805.768	8191
805.91	8138
806.052	8214
806.194	8050
806.336	8275
806.478	8142
806.62	8054
806.762	8107
806.904	8267
807.046	8446
807.188	8294
807.33	8317
807.472	8355
807.614	8172
807.756	8168
807.898	8020
808.04	7864
808.182	7833
808.324	7951
808.465	7917
808.607	8027
808.749	8031
808.891	8123
809.033	8286
809.174	8164
809.316	8081
809.458	8073
809.6	8073
809.741	8058
809.883	8050
810.025	8039
810.166	8008
810.308	8008
810.45	7902
810.591	7814
810.733	7727
810.875	7734
811.016	7510
811.158	7476
811.299	7540
811.441	7670
811.582	7655
811.724	7529
811.865	7510
812.007	7601
812.148	7582
812.29	7636
812.431	7719
812.573	7837
812.714	7936
812.855	8058
812.997	8145
813.138	8347
813.279	8138
813.421	8012
813.562	7944
813.703	7883
813.845	7761
813.986	7411
814.127	7213
814.268	7209
814.41	7202
814.551	7129
814.692	7175
814.833	7107
814.974	7061
815.115	7137
815.256	6962
815.397	6993
815.539	6954
815.68	6802
815.821	6772
815.962	6867
816.103	6814
816.244	6730
816.385	6570
816.526	6616
816.666	6479
816.807	6331
816.948	6441
817.089	6490
817.23	6410
817.371	6372
817.512	6342
817.653	6380
817.793	6372
817.934	6369
818.075	6479
818.216	6422
818.356	6365
818.497	6243
818.638	6083
818.778	6205
818.919	6129
819.06	6106
819.2	6365
819.341	6273
819.481	6365
819.622	6559
819.762	6730
819.903	6757
820.043	6608
820.184	6563
820.324	6593
820.465	6681
820.605	6715
820.746	6612
820.886	6479
821.026	6673
821.167	6684
821.307	6798
821.447	6787
821.588	6677
821.728	6563
821.868	6479
822.008	6300
822.149	6369
822.289	6353
822.429	6186
822.569	6098
822.709	6095
822.849	5980
822.99	5847
823.13	5893
823.27	5847
823.41	5767
823.55	5832
823.69	5680
823.83	5748
823.97	5634
824.11	5524
824.25	5467
824.389	5524
824.529	5577
824.669	5554
824.809	5619
824.949	5684
825.089	5608
825.228	5558
825.368	5402
825.508	5379
825.648	5364
825.787	5406
825.927	5383
826.067	5353
826.206	5254
826.346	5345
826.485	5349
826.625	5372
826.765	5543
826.904	5452
827.044	5269
827.183	5185
827.323	5098
827.462	5246
827.601	5181
827.741	5212
827.88	5242
828.02	5094
828.159	5208
828.298	5265
828.437	5368
828.577	5330
828.716	5471
828.855	5311
828.994	5147
829.134	5140
829.273	5178
829.412	5098
829.551	5147
829.69	5166
829.829	5246
829.968	5368
830.107	5235
830.246	5280
830.385	5136
830.524	5105
830.663	5079
830.802	4965
830.941	4930
831.08	4915
831.219	4980
831.357	4930
831.496	5151
831.635	4919
831.774	4839
831.913	4828
832.051	4694
832.19	4698
832.329	4839
832.467	4706
832.606	4588
832.744	4729
832.883	4691
833.022	4736
833.16	4740
833.299	4805
833.437	4820
833.576	4820
833.714	4858
833.852	4831
833.991	4908
834.129	4984
834.267	4938
834.406	4908
834.544	4980
834.682	4938
834.821	4984
834.959	5151
835.097	4953
835.235	5124
835.373	5117
835.511	5056
835.65	4980
835.788	5025
835.926	4904
836.064	4904
836.202	4949
836.34	5178
836.478	5220
836.615	5117
836.753	5189
836.891	5265
837.029	5265
837.167	5227
837.305	5147
837.443	5143
837.58	5086
837.718	5265
837.856	5178
837.993	5159
838.131	5212
838.269	5216
838.406	5185
838.544	5174
838.681	4991
838.819	4965
838.956	4862
839.094	4881
839.231	5014
839.369	5121
839.506	5417
839.643	5250
839.781	5067
839.918	4976
840.055	5132
840.193	5117
840.33	5083
840.467	5079
840.604	5166
840.742	5417
840.879	5003
841.016	5121
841.153	5174
841.29	5357
841.427	5341
841.564	5330
841.701	5414
841.838	5250
841.975	5242
842.112	5254
842.249	5155
842.385	5079
842.522	5387
842.659	5155
842.796	5094
842.933	5189
843.069	5174
843.206	5185
843.343	5261
843.479	5220
843.616	5261
843.752	5064
843.889	5041
844.025	5231
844.162	5064
844.298	5227
844.435	5090
844.571	5098
844.708	5197
844.844	5261
844.98	5307
845.117	5292
845.253	5067
845.389	5086
845.525	5208
845.661	5109
845.798	4987
845.934	5166
846.07	5041
846.206	5216
846.342	5239
846.478	5204
846.614	5022
846.75	4892
846.886	4938
847.022	5094
847.158	5003
847.294	5071
847.429	5075
847.565	5079
847.701	5364
847.837	4820
847.972	4809
848.108	4984
848.244	4934
848.379	4801
848.515	4675
848.65	4698
848.786	4740
848.921	4771
849.057	4900
849.192	4889
849.328	4831
849.463	4843
849.598	4774
849.734	4702
849.869	4729
850.004	4588
850.14	4668
850.275	4596
850.41	4554
850.545	4573
850.68	4588
850.815	4577
850.95	4626
851.085	4805
851.22	4748
851.355	4694
851.49	4683
851.625	4634
851.76	4584
851.895	4565
852.03	4565
852.165	4599
852.299	4702
852.434	4782
852.569	4744
852.703	4771
852.838	4839
852.973	4938
853.107	4923
853.242	4733
853.376	4649
853.511	4554
853.645	4630
853.78	4778
853.914	4675
854.048	4656
854.183	4664
854.317	4653
854.451	4889
854.585	4634
854.72	4599
854.854	4759
854.988	4588
855.122	4626
855.256	4561
855.39	4641
855.524	4801
855.658	4752
855.792	4679
855.926	4740
856.06	4763
856.194	4801
856.327	4691
856.461	4626
856.595	4588
856.729	4622
856.862	4740
856.996	4649
857.13	4710
857.263	4759
857.397	4778
857.53	4660
857.664	4744
857.797	4763
857.931	4763
858.064	4668
858.197	4736
858.331	4607
858.464	4603
858.597	4504
858.731	4622
858.864	4694
858.997	4569
859.13	4679
859.263	4668
859.396	4656
859.529	4607
859.662	4535
859.795	4531
859.928	4664
860.061	4786
860.194	4786
860.327	4615
860.46	4592
860.592	4706
860.725	4744
860.858	4733
860.99	4573
861.123	4573
861.256	4535
861.388	4592
861.521	5368
861.653	4478
861.786	4432
861.918	4459
862.05	4535
862.183	4554
862.315	4565
862.447	4580
862.58	4519
862.712	4394
862.844	4333
862.976	4436
863.108	4436
863.24	4908
863.372	4344
863.504	4428
863.636	4390
863.768	4485
863.9	4451
864.032	4333
864.164	4379
864.296	4470
864.428	4542
864.559	4527
864.691	4516
864.823	4542
864.954	4462
865.086	4504
865.217	4436
865.349	4402
865.48	4447
865.612	4478
865.743	4607
865.875	4421
866.006	4462
866.137	4493
866.269	4394
866.4	4432
866.531	4447
866.662	4409
866.793	4367
866.924	4440
867.055	4447
867.186	4440
867.317	4398
867.448	4383
867.579	4360
867.71	4386
867.841	4379
867.972	4447
868.103	4462
868.233	4413
868.364	4474
868.495	4481
868.625	4656
868.756	4740
868.886	4565
869.017	4679
869.147	4752
869.278	4790
869.408	4653
869.539	4672
869.669	4733
869.799	4615
869.929	4733
870.06	4790
870.19	4930
870.32	4919
870.45	4892
870.58	4995
870.71	5056
870.84	5086
870.97	4938
871.1	4900
871.23	5132
871.36	5109
871.489	4999
871.619	5086
871.749	5029
871.879	5155
872.008	5143
872.138	5006
872.267	4976
872.397	4805
872.526	4820
872.656	4714
872.785	4767
872.915	4938
873.044	5045
873.173	4938
873.303	4927
873.432	4927
873.561	4968
873.69	4831
873.819	4889
873.948	4900
874.077	4755
874.206	4755
874.335	4809
874.464	4908
874.593	5048
874.722	4934
874.851	5052
874.979	5052
875.108	5025
875.237	4862
875.365	4919
875.494	4892
875.623	4987
875.751	4870
875.88	4843
876.008	4968
876.136	4999
876.265	5159
876.393	5337
876.521	5223
876.65	5189
876.778	5166
876.906	5075
877.034	4961
877.162	5010
877.29	4968
877.418	5048
877.546	4980
877.674	5006
877.802	5056
877.93	5022
878.058	4915
878.185	4866
878.313	4965
878.441	4927
878.568	4793
878.696	4820
878.824	4999
878.951	5018
879.079	5174
879.206	5277
879.333	5117
879.461	4972
879.588	4999
879.715	5086
879.842	5220
879.97	4934
880.097	4755
880.224	4733
880.351	4805
880.478	4782
880.605	4767
880.732	4812
880.859	5025
880.986	4904
881.112	4900
881.239	4778
881.366	4653
881.493	4634
881.619	4565
881.746	4592
881.872	4645
881.999	4649
882.125	4679
882.252	4725
882.378	4786
882.505	4934
882.631	4797
882.757	4622
882.883	4660
883.01	4717
883.136	4634
883.262	4637
883.388	4656
883.514	4797
883.64	4812
883.766	4801
883.892	4649
884.018	4740
884.143	4904
884.269	4999
884.395	4691
884.52	4618
884.646	4645
884.772	4577
884.897	4580
885.023	4641
885.148	4771
885.274	4820
885.399	4805
885.524	4717
885.65	4691
885.775	4721
885.9	4714
886.025	4816
886.15	4786
886.275	4691
886.4	4649
886.525	4706
886.65	4717
886.775	4656
886.9	4904
887.025	5045
887.149	4809
887.274	4653
887.399	4668
887.523	4618
887.648	4592
887.773	4584
887.897	4729
888.021	4778
888.146	4672
888.27	4816
888.395	4866
888.519	4782
888.643	4774
888.767	4839
888.891	4683
889.015	4611
889.139	4645
889.263	4588
889.387	4786
889.511	4919
889.635	4782
889.759	4645
889.883	4668
890.006	4725
890.13	4797
890.254	4626
890.377	4694
890.501	4519
890.624	4516
890.748	4630
890.871	4512
890.995	4428
891.118	4356
891.241	4519
891.364	4535
891.488	4653
891.611	4527
891.734	4527
891.857	4558
891.98	4554
892.103	4603
892.226	4584
892.349	4542
892.471	4398
892.594	4550
892.717	4596
892.839	4523
892.962	4561
893.085	4698
893.207	4535
893.33	4462
893.452	4478
893.575	4641
893.697	4577
893.819	4809
893.941	4820
894.064	4759
894.186	4599
894.308	4622
894.43	4687
894.552	4782
894.674	4733
894.796	4558
894.918	4599
895.04	4523
895.161	4672
895.283	4660
895.405	4592
895.526	4668
895.648	4710
895.769	4668
895.891	4694
896.012	4706
896.134	4740
896.255	4634
896.376	4622
896.498	4607
896.619	4675
896.74	4550
896.861	4660
896.982	4919
897.103	5117
897.224	4820
897.345	4752
897.466	4664
897.587	4744
897.708	4854
897.828	4767
897.949	4660
898.07	4554
898.19	4630
898.311	4805
898.431	4702
898.552	4725
898.672	4774
898.792	4759
898.913	4717
899.033	4634
899.153	4523
899.273	4428
899.393	4493
899.513	4497
899.633	4538
899.753	4538
899.873	4512
899.993	4561
900.113	4485
900.232	4630
900.352	4508
900.472	4424
900.591	4363
900.711	4478
900.83	4417
900.95	4599
901.069	4683
901.189	4561
901.308	4348
901.427	4348
901.546	4341
901.665	4481
901.784	4497
901.904	4375
902.023	4322
902.141	4200
902.26	4158
902.379	4322
902.498	4211
902.617	4215
902.735	4329
902.854	4413
902.973	4367
903.091	4192
903.21	4227
903.328	4310
903.446	4242
903.565	4238
903.683	4341
903.801	4333
903.919	4363
904.038	4455
904.156	4306
904.274	4409
904.392	4417
904.51	4428
904.627	4478
904.745	4603
904.863	4615
904.981	4375
905.098	4280
905.216	4337
905.334	4436
905.451	4432
905.569	4447
905.686	4550
905.803	4592
905.921	4409
906.038	4527
906.155	4440
906.272	4363
906.389	4470
906.506	4344
906.623	4337
906.74	4402
906.857	4295
906.974	4360
907.091	4588
907.208	4656
907.324	4504
907.441	4504
907.557	4306
907.674	4344
907.79	4333
907.907	4390
908.023	4474
908.139	4508
908.256	4424
908.372	4535
908.488	4481
908.604	4363
908.72	4303
908.836	4413
908.952	4322
909.068	4428
909.184	4588
909.3	4474
909.415	4607
909.531	4546
909.647	4379
909.762	4367
909.878	4375
909.993	4424
910.108	4417
910.224	4409
910.339	4451
910.454	4417
910.57	4363
910.685	4325
910.8	4607
910.915	4580
911.03	4497
911.145	4310
911.259	4314
911.374	4371
911.489	4268
911.604	4329
911.718	4181
911.833	4166
911.947	4090
912.062	4013
912.176	4227
912.291	4272
912.405	4276
912.519	4443
912.633	4485
912.748	4405
912.862	4314
912.976	4185
913.09	4055
913.204	4154
913.318	4230
913.431	4424
913.545	4352
913.659	4394
913.772	4341
913.886	4257
914	4257
914.113	4348
914.226	4485
914.34	4424
914.453	4223
914.566	4375
914.68	4295
914.793	4322
914.906	4139
915.019	4109
915.132	4101
915.245	4207
915.358	4238
915.47	4215
915.583	4223
915.696	4276
915.809	4421
915.921	4440
916.034	4280
916.146	4318
916.259	4211
916.371	4375
916.483	4310
916.595	4249
916.708	4337
916.82	4287
916.932	4333
917.044	4322
917.156	4337
917.268	4200
917.38	4287
917.491	4242
917.603	4325
917.715	4424
917.826	4455
917.938	4325
918.049	4280
918.161	4383
918.272	4584
918.384	4519
918.495	4440
918.606	4341
918.717	4200
918.828	4363
918.939	4398
919.05	4246
919.161	4287
919.272	4135
919.383	4287
919.494	4436
919.604	4634
919.715	4421
919.826	4341
919.936	4432
920.047	4470
920.157	4500
920.267	4679
920.378	4561
920.488	4508
920.598	4672
920.708	4850
920.818	4736
920.928	4786
921.038	4946
921.148	4881
921.258	4649
921.368	4622
921.477	4447
921.587	4424
921.697	4371
921.806	4554
921.916	4413
922.025	4295
922.134	4223
922.244	4188
922.353	4367
922.462	4219
922.571	4150
922.68	3991
922.789	3953
922.898	4051
923.007	3991
923.116	4105
923.224	4051
923.333	4051
923.442	3979
923.55	3968
923.659	4021
923.767	4093
923.876	4006
923.984	4150
924.092	4013
924.201	4071
924.309	4124
924.417	4090
924.525	4025
924.633	4112
924.741	5075
924.849	3922
924.956	4177
925.064	3907
925.172	3880
925.279	3968
925.387	4048
925.494	4067
925.602	4192
925.709	4185
925.816	4010
925.924	4097
926.031	4234
926.138	4158
926.245	4188
926.352	4082
926.459	4272
926.566	4276
926.673	4158
926.779	4139
926.886	4067
926.993	3941
927.099	3937
927.206	3964
927.312	3972
927.419	4078
927.525	4002
927.631	4139
927.737	3975
927.843	3911
927.95	3838
928.056	3926
928.162	3994
928.267	4044
928.373	4630
928.479	4067
928.585	3892
928.69	3953
928.796	4055
928.901	3975
929.007	3903
929.112	3987
929.218	3960
929.323	3949
929.428	3945
929.533	4105
929.638	3915
929.743	3930
929.848	4044
929.953	3983
930.058	3941
930.163	3797
930.267	3838
930.372	3953
930.477	3846
930.581	4086
930.685	3937
930.79	3835
930.894	3865
930.998	3896
931.103	4013
931.207	3701
931.311	3660
931.415	3667
931.519	3519
931.623	3576
