Data from test_V78500241_783.txt Node
Date: Fri Mar 25 16:54:26 CST 2022
User: usil
Spectrometer: V785-0024
Trigger mode: 0
Integration Time (sec): 4.000000E-1
Scans to average: 1
Nonlinearity correction enabled: false
Boxcar width: 0
Storing dark spectrum: false
XAxis mode: Wavelengths
Number of Pixels in Spectrum: 1024
>>>>>Begin Spectral Data<<<<<
801.071	8027
801.214	7989
801.356	7841
801.499	7841
801.641	7727
801.783	7769
801.926	7936
802.068	7909
802.211	7959
802.353	7944
802.496	7845
802.638	7898
802.78	7879
802.923	7883
803.065	7894
803.208	7833
803.35	8020
803.492	8100
803.635	8256
803.777	8062
803.919	8084
804.061	8450
804.204	8081
804.346	8008
804.488	7917
804.63	8130
804.773	7986
804.915	8073
805.057	8282
805.199	8115
805.341	8176
805.483	8279
805.626	8206
805.768	8081
805.91	8168
806.052	8221
806.194	8103
806.336	8221
806.478	8100
806.62	8092
806.762	8111
806.904	8275
807.046	8488
807.188	8393
807.33	8294
807.472	8286
807.614	8149
807.756	8134
807.898	8020
808.04	7814
808.182	7871
808.324	7917
808.465	7936
808.607	8050
808.749	8084
808.891	8233
809.033	8237
809.174	8271
809.316	8092
809.458	8039
809.6	7959
809.741	8046
809.883	8084
810.025	8024
810.166	8069
810.308	8039
810.45	8058
810.591	7875
810.733	7776
810.875	7677
811.016	7544
811.158	7476
811.299	7525
811.441	7712
811.582	7704
811.724	7620
811.865	7491
812.007	7567
812.148	7533
812.29	7582
812.431	7685
812.573	7792
812.714	7894
812.855	8100
812.997	8149
813.138	8298
813.279	8199
813.421	8111
813.562	7993
813.703	7776
813.845	7746
813.986	7460
814.127	7293
814.268	7251
814.41	7171
814.551	7053
814.692	7141
814.833	7103
814.974	7122
815.115	7069
815.256	6977
815.397	6909
815.539	6996
815.68	6882
815.821	6730
815.962	6856
816.103	6802
816.244	6703
816.385	6604
816.526	6639
816.666	6506
816.807	6258
816.948	6429
817.089	6426
817.23	6433
817.371	6361
817.512	6315
817.653	6388
817.793	6353
817.934	6422
818.075	6403
818.216	6456
818.356	6338
818.497	6186
818.638	6083
818.778	6095
818.919	6140
819.06	6091
819.2	6323
819.341	6281
819.481	6346
819.622	6509
819.762	6749
819.903	6681
820.043	6570
820.184	6544
820.324	6593
820.465	6654
820.605	6662
820.746	6593
820.886	6460
821.026	6665
821.167	6692
821.307	6821
821.447	6715
821.588	6631
821.728	6544
821.868	6448
822.008	6315
822.149	6395
822.289	6350
822.429	6117
822.569	6087
822.709	6083
822.849	5954
822.99	5901
823.13	5885
823.27	5916
823.41	5794
823.55	5798
823.69	5741
823.83	5786
823.97	5703
824.11	5516
824.25	5463
824.389	5539
824.529	5562
824.669	5524
824.809	5676
824.949	5627
825.089	5668
825.228	5562
825.368	5349
825.508	5341
825.648	5360
825.787	5379
825.927	5395
826.067	5277
826.206	5223
826.346	5353
826.485	5391
826.625	5429
826.765	5532
826.904	5444
827.044	5269
827.183	5147
827.323	5121
827.462	5227
827.601	5151
827.741	5124
827.88	5296
828.02	5067
828.159	5212
828.298	5261
828.437	5322
828.577	5292
828.716	5471
828.855	5353
828.994	5174
829.134	5109
829.273	5208
829.412	5155
829.551	5105
829.69	5159
829.829	5204
829.968	5368
830.107	5220
830.246	5265
830.385	5159
830.524	5124
830.663	5067
830.802	4991
830.941	4870
831.08	4870
831.219	4957
831.357	4980
831.496	5170
831.635	4927
831.774	4866
831.913	4881
832.051	4706
832.19	4733
832.329	4828
832.467	4702
832.606	4653
832.744	4729
832.883	4675
833.022	4793
833.16	4774
833.299	4850
833.437	4847
833.576	4820
833.714	4831
833.852	4862
833.991	4904
834.129	4953
834.267	4949
834.406	4923
834.544	4984
834.682	4930
834.821	4934
834.959	5162
835.097	4942
835.235	5102
835.373	5094
835.511	5071
835.65	4999
835.788	5014
835.926	4858
836.064	4847
836.202	4896
836.34	5147
836.478	5246
836.615	5124
836.753	5246
836.891	5318
837.029	5216
837.167	5166
837.305	5132
837.443	5128
837.58	5048
837.718	5250
837.856	5140
837.993	5128
838.131	5261
838.269	5189
838.406	5212
838.544	5212
838.681	5033
838.819	5006
838.956	4900
839.094	4900
839.231	4991
839.369	5083
839.506	5410
839.643	5246
839.781	5083
839.918	4999
840.055	5098
840.193	5109
840.33	5128
840.467	5121
840.604	5159
840.742	5364
840.879	5060
841.016	5045
841.153	5170
841.29	5341
841.427	5357
841.564	5349
841.701	5315
841.838	5280
841.975	5269
842.112	5280
842.249	5178
842.385	5079
842.522	5322
842.659	5147
842.796	5151
842.933	5204
843.069	5113
843.206	5105
843.343	5265
843.479	5212
843.616	5269
843.752	5010
843.889	5010
844.025	5162
844.162	4976
844.298	5166
844.435	5075
844.571	5060
844.708	5166
844.844	5280
844.98	5391
845.117	5265
845.253	5121
845.389	5086
845.525	5121
845.661	5201
845.798	5022
845.934	5166
846.07	5006
846.206	5140
846.342	5261
846.478	5151
846.614	5056
846.75	4965
846.886	4934
847.022	5124
847.158	5018
847.294	5014
847.429	5083
847.565	5048
847.701	5318
847.837	4850
847.972	4755
848.108	4946
848.244	4911
848.379	4767
848.515	4721
848.65	4698
848.786	4729
848.921	4717
849.057	4847
849.192	4949
849.328	4831
849.463	4805
849.598	4733
849.734	4744
849.869	4687
850.004	4607
850.14	4630
850.275	4573
850.41	4508
850.545	4546
850.68	4565
850.815	4618
850.95	4653
851.085	4809
851.22	4721
851.355	4645
851.49	4592
851.625	4660
851.76	4607
851.895	4531
852.03	4523
852.165	4637
852.299	4691
852.434	4763
852.569	4774
852.703	4733
852.838	4873
852.973	4911
853.107	4930
853.242	4740
853.376	4653
853.511	4523
853.645	4584
853.78	4824
853.914	4630
854.048	4660
854.183	4672
854.317	4694
854.451	4828
854.585	4634
854.72	4630
854.854	4782
854.988	4607
855.122	4603
855.256	4527
855.39	4653
855.524	4748
855.658	4725
855.792	4717
855.926	4710
856.06	4683
856.194	4816
856.327	4717
856.461	4599
856.595	4603
856.729	4615
856.862	4755
856.996	4698
857.13	4725
857.263	4778
857.397	4816
857.53	4634
857.664	4740
857.797	4828
857.931	4771
858.064	4672
858.197	4748
858.331	4656
858.464	4626
858.597	4519
858.731	4641
858.864	4637
858.997	4599
859.13	4626
859.263	4645
859.396	4664
859.529	4573
859.662	4550
859.795	4550
859.928	4637
860.061	4786
860.194	4767
860.327	4565
860.46	4523
860.592	4694
860.725	4725
860.858	4687
860.99	4580
861.123	4504
861.256	4512
861.388	4626
861.521	5280
861.653	4481
861.786	4428
861.918	4489
862.05	4542
862.183	4523
862.315	4561
862.447	4630
862.58	4611
862.712	4375
862.844	4337
862.976	4443
863.108	4459
863.24	4873
863.372	4284
863.504	4398
863.636	4428
863.768	4428
863.9	4424
864.032	4341
864.164	4421
864.296	4440
864.428	4531
864.559	4538
864.691	4497
864.823	4500
864.954	4451
865.086	4459
865.217	4451
865.349	4417
865.48	4466
865.612	4440
865.743	4603
865.875	4459
866.006	4459
866.137	4417
866.269	4497
866.4	4455
866.531	4421
866.662	4421
866.793	4405
866.924	4379
867.055	4470
867.186	4421
867.317	4383
867.448	4367
867.579	4424
867.71	4379
867.841	4344
867.972	4455
868.103	4466
868.233	4470
868.364	4459
868.495	4428
868.625	4641
868.756	4782
868.886	4542
869.017	4626
869.147	4763
869.278	4725
869.408	4668
869.539	4656
869.669	4660
869.799	4599
869.929	4774
870.06	4790
870.19	4946
870.32	4858
870.45	4972
870.58	4995
870.71	5143
870.84	5075
870.97	4927
871.1	4892
871.23	5102
871.36	5098
871.489	5006
871.619	5121
871.749	5132
871.879	5113
872.008	5147
872.138	5052
872.267	4999
872.397	4870
872.526	4786
872.656	4717
872.785	4790
872.915	4919
873.044	5022
873.173	4904
873.303	5029
873.432	4919
873.561	4942
873.69	4866
873.819	4858
873.948	4896
874.077	4820
874.206	4729
874.335	4748
874.464	4885
874.593	5067
874.722	4908
874.851	5102
874.979	5025
875.108	4995
875.237	4930
875.365	4812
875.494	4877
875.623	4995
875.751	4847
875.88	4881
876.008	4942
876.136	5003
876.265	5193
876.393	5307
876.521	5178
876.65	5258
876.778	5109
876.906	5071
877.034	5010
877.162	5048
877.29	4961
877.418	5052
877.546	5010
877.674	5033
877.802	4968
877.93	4976
878.058	4866
878.185	4873
878.313	4908
878.441	4984
878.568	4759
878.696	4866
878.824	4942
878.951	4965
879.079	5094
879.206	5265
879.333	5128
879.461	4999
879.588	4976
879.715	5147
879.842	5227
879.97	5014
880.097	4831
880.224	4755
880.351	4797
880.478	4843
880.605	4812
880.732	4782
880.859	5025
880.986	4850
881.112	4927
881.239	4729
881.366	4649
881.493	4561
881.619	4615
881.746	4660
881.872	4664
881.999	4653
882.125	4691
882.252	4759
882.378	4805
882.505	4957
882.631	4835
882.757	4668
882.883	4744
883.01	4721
883.136	4660
883.262	4580
883.388	4626
883.514	4809
883.64	4866
883.766	4736
883.892	4615
884.018	4729
884.143	4870
884.269	5022
884.395	4691
884.52	4649
884.646	4645
884.772	4588
884.897	4584
885.023	4664
885.148	4744
885.274	4877
885.399	4793
885.524	4672
885.65	4649
885.775	4744
885.9	4668
886.025	4854
886.15	4759
886.275	4679
886.4	4687
886.525	4679
886.65	4683
886.775	4675
886.9	4885
887.025	5022
887.149	4767
887.274	4615
887.399	4596
887.523	4622
887.648	4607
887.773	4565
887.897	4752
888.021	4706
888.146	4694
888.27	4843
888.395	4812
888.519	4755
888.643	4854
888.767	4847
888.891	4660
889.015	4611
889.139	4660
889.263	4550
889.387	4793
889.511	4896
889.635	4816
889.759	4626
889.883	4626
890.006	4706
890.13	4854
890.254	4622
890.377	4653
890.501	4516
890.624	4474
890.748	4637
890.871	4519
890.995	4402
891.118	4352
891.241	4500
891.364	4485
891.488	4649
891.611	4512
891.734	4554
891.857	4577
891.98	4550
892.103	4637
892.226	4508
892.349	4497
892.471	4440
892.594	4550
892.717	4565
892.839	4615
892.962	4580
893.085	4630
893.207	4607
893.33	4474
893.452	4538
893.575	4645
893.697	4588
893.819	4805
893.941	4809
894.064	4763
894.186	4561
894.308	4550
894.43	4755
894.552	4809
894.674	4771
894.796	4592
894.918	4569
895.04	4565
895.161	4687
895.283	4679
895.405	4603
895.526	4679
895.648	4698
895.769	4717
895.891	4740
896.012	4752
896.134	4740
896.255	4679
896.376	4656
896.498	4634
896.619	4694
896.74	4599
896.861	4660
896.982	4908
897.103	5075
897.224	4892
897.345	4729
897.466	4653
897.587	4755
897.708	4858
897.828	4729
897.949	4630
898.07	4580
898.19	4630
898.311	4809
898.431	4653
898.552	4725
898.672	4797
898.792	4778
898.913	4748
899.033	4588
899.153	4500
899.273	4413
899.393	4497
899.513	4538
899.633	4554
899.753	4519
899.873	4538
899.993	4580
900.113	4504
900.232	4573
900.352	4493
900.472	4523
900.591	4390
900.711	4474
900.83	4421
900.95	4637
901.069	4668
901.189	4519
901.308	4394
901.427	4363
901.546	4371
901.665	4466
901.784	4497
901.904	4337
902.023	4299
902.141	4192
902.26	4173
902.379	4287
902.498	4227
902.617	4227
902.735	4295
902.854	4394
902.973	4341
903.091	4246
903.21	4204
903.328	4295
903.446	4265
903.565	4246
903.683	4356
903.801	4284
903.919	4375
904.038	4424
904.156	4356
904.274	4455
904.392	4409
904.51	4440
904.627	4424
904.745	4565
904.863	4611
904.981	4379
905.098	4322
905.216	4405
905.334	4436
905.451	4428
905.569	4421
905.686	4523
905.803	4546
905.921	4409
906.038	4558
906.155	4466
906.272	4413
906.389	4432
906.506	4356
906.623	4360
906.74	4360
906.857	4333
906.974	4356
907.091	4599
907.208	4649
907.324	4599
907.441	4504
907.557	4344
907.674	4314
907.79	4325
907.907	4367
908.023	4504
908.139	4512
908.256	4440
908.372	4466
908.488	4462
908.604	4360
908.72	4306
908.836	4398
908.952	4367
909.068	4424
909.184	4565
909.3	4497
909.415	4588
909.531	4542
909.647	4367
909.762	4363
909.878	4352
909.993	4405
910.108	4432
910.224	4413
910.339	4493
910.454	4363
910.57	4352
910.685	4318
910.8	4687
910.915	4569
911.03	4470
911.145	4322
911.259	4310
911.374	4367
911.489	4257
911.604	4291
911.718	4147
911.833	4177
911.947	4097
912.062	4048
912.176	4234
912.291	4253
912.405	4261
912.519	4489
912.633	4500
912.748	4379
912.862	4314
912.976	4200
913.09	4093
913.204	4196
913.318	4287
913.431	4386
913.545	4348
913.659	4436
913.772	4383
913.886	4230
914	4200
914.113	4371
914.226	4447
914.34	4409
914.453	4242
914.566	4413
914.68	4329
914.793	4341
914.906	4147
915.019	4162
915.132	4029
915.245	4169
915.358	4185
915.47	4223
915.583	4276
915.696	4268
915.809	4405
915.921	4405
916.034	4249
916.146	4219
916.259	4242
916.371	4390
916.483	4333
916.595	4234
916.708	4306
916.82	4337
916.932	4360
917.044	4329
917.156	4325
917.268	4276
917.38	4306
917.491	4272
917.603	4295
917.715	4459
917.826	4451
917.938	4356
918.049	4207
918.161	4386
918.272	4512
918.384	4558
918.495	4447
918.606	4303
918.717	4223
918.828	4310
918.939	4367
919.05	4291
919.161	4352
919.272	4135
919.383	4192
919.494	4508
919.604	4607
919.715	4440
919.826	4352
919.936	4440
920.047	4508
920.157	4474
920.267	4698
920.378	4523
920.488	4485
920.598	4675
920.708	4946
920.818	4767
920.928	4797
921.038	4930
921.148	4976
921.258	4607
921.368	4550
921.477	4462
921.587	4504
921.697	4363
921.806	4565
921.916	4443
922.025	4230
922.134	4272
922.244	4192
922.353	4318
922.462	4196
922.571	4135
922.68	4032
922.789	4017
922.898	3991
923.007	4013
923.116	4128
923.224	4074
923.333	4082
923.442	3953
923.55	3994
923.659	4002
923.767	4097
923.876	4021
923.984	4105
924.092	3975
924.201	4101
924.309	4086
924.417	4147
924.525	4059
924.633	4059
924.741	4873
924.849	3922
924.956	4112
925.064	4002
925.172	3884
925.279	3945
925.387	4036
925.494	4105
925.602	4211
925.709	4185
925.816	3994
925.924	4112
926.031	4200
926.138	4162
926.245	4192
926.352	4112
926.459	4257
926.566	4295
926.673	4162
926.779	4071
926.886	4116
926.993	3949
927.099	3941
927.206	3941
927.312	3926
927.419	4048
927.525	4055
927.631	4071
927.737	3934
927.843	3949
927.95	3861
928.056	3949
928.162	3941
928.267	4048
928.373	4706
928.479	4139
928.585	3846
928.69	4017
928.796	4051
928.901	3949
929.007	3838
929.112	4002
929.218	3968
929.323	3892
929.428	3930
929.533	4086
929.638	3918
929.743	3991
929.848	4029
929.953	3991
930.058	3896
930.163	3762
930.267	3823
930.372	3987
930.477	3808
930.581	4101
930.685	3930
930.79	3823
930.894	3876
930.998	3869
931.103	4040
931.207	3717
931.311	3694
931.415	3660
931.519	3500
931.623	3523
