Data from test_V78500241_2145.txt Node
Date: Fri Mar 25 17:03:55 CST 2022
User: usil
Spectrometer: V785-0024
Trigger mode: 0
Integration Time (sec): 4.000000E-1
Scans to average: 1
Nonlinearity correction enabled: false
Boxcar width: 0
Storing dark spectrum: false
XAxis mode: Wavelengths
Number of Pixels in Spectrum: 1024
>>>>>Begin Spectral Data<<<<<
801.071	8024
801.214	7925
801.356	7849
801.499	7917
801.641	7841
801.783	7818
801.926	7982
802.068	7986
802.211	7967
802.353	8005
802.496	7883
802.638	7856
802.78	7898
802.923	7871
803.065	7864
803.208	7928
803.35	7978
803.492	8058
803.635	8168
803.777	8054
803.919	8172
804.061	8507
804.204	8191
804.346	8100
804.488	8073
804.63	8065
804.773	7982
804.915	8111
805.057	8309
805.199	8240
805.341	8164
805.483	8282
805.626	8138
805.768	8161
805.91	8233
806.052	8256
806.194	8103
806.336	8259
806.478	8149
806.62	8046
806.762	8191
806.904	8172
807.046	8571
807.188	8423
807.33	8377
807.472	8305
807.614	8164
807.756	8134
807.898	7970
808.04	7928
808.182	7860
808.324	7883
808.465	7959
808.607	8024
808.749	8100
808.891	8210
809.033	8248
809.174	8134
809.316	8065
809.458	8081
809.6	7989
809.741	8005
809.883	8031
810.025	8077
810.166	7982
810.308	8001
810.45	7951
810.591	7856
810.733	7715
810.875	7666
811.016	7430
811.158	7445
811.299	7590
811.441	7651
811.582	7662
811.724	7563
811.865	7586
812.007	7658
812.148	7537
812.29	7636
812.431	7750
812.573	7868
812.714	8020
812.855	8138
812.997	8138
813.138	8339
813.279	8119
813.421	8126
813.562	7917
813.703	7837
813.845	7696
813.986	7339
814.127	7305
814.268	7175
814.41	7187
814.551	7221
814.692	7266
814.833	7080
814.974	7091
815.115	7175
815.256	6966
815.397	6913
815.539	6909
815.68	6871
815.821	6772
815.962	6852
816.103	6833
816.244	6711
816.385	6616
816.526	6612
816.666	6486
816.807	6323
816.948	6467
817.089	6494
817.23	6407
817.371	6357
817.512	6418
817.653	6437
817.793	6391
817.934	6422
818.075	6460
818.216	6399
818.356	6353
818.497	6266
818.638	6159
818.778	6079
818.919	6194
819.06	6178
819.2	6353
819.341	6327
819.481	6338
819.622	6486
819.762	6776
819.903	6650
820.043	6593
820.184	6589
820.324	6601
820.465	6700
820.605	6681
820.746	6673
820.886	6479
821.026	6715
821.167	6703
821.307	6806
821.447	6840
821.588	6707
821.728	6627
821.868	6540
822.008	6380
822.149	6403
822.289	6315
822.429	6216
822.569	6133
822.709	6148
822.849	5942
822.99	5977
823.13	5946
823.27	6003
823.41	5786
823.55	5805
823.69	5805
823.83	5817
823.97	5764
824.11	5585
824.25	5547
824.389	5623
824.529	5608
824.669	5592
824.809	5657
824.949	5699
825.089	5649
825.228	5592
825.368	5478
825.508	5368
825.648	5387
825.787	5448
825.927	5433
826.067	5349
826.206	5334
826.346	5440
826.485	5440
826.625	5398
826.765	5592
826.904	5562
827.044	5273
827.183	5246
827.323	5147
827.462	5269
827.601	5227
827.741	5212
827.88	5288
828.02	5121
828.159	5299
828.298	5337
828.437	5433
828.577	5341
828.716	5535
828.855	5368
828.994	5235
829.134	5231
829.273	5231
829.412	5181
829.551	5185
829.69	5208
829.829	5280
829.968	5379
830.107	5303
830.246	5387
830.385	5220
830.524	5193
830.663	5109
830.802	4946
830.941	4911
831.08	4923
831.219	4976
831.357	5029
831.496	5231
831.635	4934
831.774	4850
831.913	4949
832.051	4782
832.19	4828
832.329	4877
832.467	4717
832.606	4694
832.744	4771
832.883	4782
833.022	4786
833.16	4820
833.299	4820
833.437	4866
833.576	4885
833.714	4881
833.852	4892
833.991	4927
834.129	4991
834.267	5003
834.406	4976
834.544	5014
834.682	4999
834.821	5025
834.959	5193
835.097	5006
835.235	5159
835.373	5117
835.511	5075
835.65	5128
835.788	5075
835.926	4911
836.064	4911
836.202	4953
836.34	5189
836.478	5242
836.615	5170
836.753	5269
836.891	5318
837.029	5337
837.167	5216
837.305	5185
837.443	5185
837.58	5151
837.718	5280
837.856	5227
837.993	5162
838.131	5303
838.269	5280
838.406	5197
838.544	5197
838.681	5075
838.819	5022
838.956	4889
839.094	4919
839.231	5041
839.369	5109
839.506	5433
839.643	5292
839.781	5086
839.918	5025
840.055	5147
840.193	5086
840.33	5143
840.467	5109
840.604	5284
840.742	5429
840.879	5140
841.016	5041
841.153	5193
841.29	5414
841.427	5379
841.564	5341
841.701	5353
841.838	5318
841.975	5223
842.112	5265
842.249	5193
842.385	5105
842.522	5357
842.659	5208
842.796	5128
842.933	5227
843.069	5143
843.206	5216
843.343	5353
843.479	5246
843.616	5277
843.752	5083
843.889	5037
844.025	5261
844.162	5113
844.298	5208
844.435	5136
844.571	5094
844.708	5220
844.844	5357
844.98	5345
845.117	5349
845.253	5162
845.389	5102
845.525	5170
845.661	5124
845.798	5067
845.934	5178
846.07	5048
846.206	5201
846.342	5299
846.478	5181
846.614	5052
846.75	4991
846.886	4949
847.022	5174
847.158	5060
847.294	5086
847.429	5117
847.565	5071
847.701	5387
847.837	4885
847.972	4809
848.108	4896
848.244	4949
848.379	4812
848.515	4698
848.65	4774
848.786	4752
848.921	4809
849.057	4892
849.192	4900
849.328	4873
849.463	4858
849.598	4801
849.734	4824
849.869	4687
850.004	4694
850.14	4660
850.275	4626
850.41	4577
850.545	4588
850.68	4649
850.815	4668
850.95	4668
851.085	4885
851.22	4809
851.355	4691
851.49	4641
851.625	4679
851.76	4645
851.895	4599
852.03	4565
852.165	4687
852.299	4710
852.434	4812
852.569	4767
852.703	4843
852.838	4870
852.973	4908
853.107	4968
853.242	4752
853.376	4702
853.511	4573
853.645	4607
853.78	4831
853.914	4736
854.048	4706
854.183	4721
854.317	4706
854.451	4870
854.585	4710
854.72	4694
854.854	4797
854.988	4611
855.122	4634
855.256	4561
855.39	4672
855.524	4782
855.658	4778
855.792	4771
855.926	4778
856.06	4820
856.194	4793
856.327	4733
856.461	4656
856.595	4630
856.729	4710
856.862	4828
856.996	4710
857.13	4767
857.263	4824
857.397	4797
857.53	4683
857.664	4744
857.797	4809
857.931	4778
858.064	4694
858.197	4759
858.331	4645
858.464	4611
858.597	4546
858.731	4664
858.864	4653
858.997	4637
859.13	4653
859.263	4694
859.396	4733
859.529	4611
859.662	4596
859.795	4519
859.928	4649
860.061	4763
860.194	4771
860.327	4660
860.46	4584
860.592	4755
860.725	4801
860.858	4752
860.99	4592
861.123	4519
861.256	4523
861.388	4672
861.521	5376
861.653	4538
861.786	4500
861.918	4531
862.05	4542
862.183	4668
862.315	4637
862.447	4683
862.58	4508
862.712	4462
862.844	4348
862.976	4474
863.108	4462
863.24	4831
863.372	4363
863.504	4436
863.636	4413
863.768	4523
863.9	4459
864.032	4390
864.164	4455
864.296	4500
864.428	4573
864.559	4611
864.691	4535
864.823	4519
864.954	4550
865.086	4565
865.217	4497
865.349	4440
865.48	4481
865.612	4542
865.743	4641
865.875	4497
866.006	4474
866.137	4462
866.269	4523
866.4	4440
866.531	4424
866.662	4413
866.793	4436
866.924	4432
867.055	4489
867.186	4478
867.317	4413
867.448	4383
867.579	4432
867.71	4432
867.841	4356
867.972	4462
868.103	4485
868.233	4421
868.364	4428
868.495	4519
868.625	4710
868.756	4752
868.886	4603
869.017	4679
869.147	4774
869.278	4828
869.408	4653
869.539	4637
869.669	4755
869.799	4717
869.929	4782
870.06	4755
870.19	5022
870.32	4957
870.45	4938
870.58	5029
870.71	5098
870.84	5083
870.97	4961
871.1	4889
871.23	5170
871.36	5181
871.489	5022
871.619	5067
871.749	5098
871.879	5166
872.008	5246
872.138	5098
872.267	5018
872.397	4870
872.526	4831
872.656	4759
872.785	4820
872.915	4957
873.044	5033
873.173	4934
873.303	4965
873.432	4984
873.561	4984
873.69	4885
873.819	4877
873.948	4953
874.077	4835
874.206	4824
874.335	4847
874.464	4984
874.593	5079
874.722	5003
874.851	5151
874.979	5079
875.108	5052
875.237	4995
875.365	4892
875.494	4915
875.623	4972
875.751	4816
875.88	4896
876.008	5022
876.136	5064
876.265	5220
876.393	5383
876.521	5277
876.65	5273
876.778	5124
876.906	5094
877.034	5075
877.162	5121
877.29	5010
877.418	5094
877.546	5056
877.674	5052
877.802	5022
877.93	5037
878.058	4965
878.185	4896
878.313	4930
878.441	4984
878.568	4805
878.696	4870
878.824	4965
878.951	5052
879.079	5170
879.206	5246
879.333	5105
879.461	5003
879.588	5033
879.715	5132
879.842	5223
879.97	5041
880.097	4763
880.224	4740
880.351	4809
880.478	4866
880.605	4858
880.732	4843
880.859	5098
880.986	4900
881.112	4908
881.239	4843
881.366	4706
881.493	4634
881.619	4569
881.746	4653
881.872	4668
881.999	4649
882.125	4759
882.252	4831
882.378	4831
882.505	5006
882.631	4862
882.757	4687
882.883	4763
883.01	4771
883.136	4668
883.262	4626
883.388	4611
883.514	4831
883.64	4877
883.766	4790
883.892	4683
884.018	4782
884.143	4961
884.269	4991
884.395	4668
884.52	4691
884.646	4660
884.772	4641
884.897	4580
885.023	4733
885.148	4774
885.274	4843
885.399	4858
885.524	4721
885.65	4706
885.775	4771
885.9	4740
886.025	4904
886.15	4835
886.275	4710
886.4	4687
886.525	4717
886.65	4687
886.775	4717
886.9	4889
887.025	5056
887.149	4824
887.274	4653
887.399	4611
887.523	4668
887.648	4615
887.773	4611
887.897	4809
888.021	4786
888.146	4733
888.27	4847
888.395	4946
888.519	4809
888.643	4839
888.767	4839
888.891	4679
889.015	4611
889.139	4649
889.263	4611
889.387	4790
889.511	4889
889.635	4831
889.759	4653
889.883	4653
890.006	4706
890.13	4828
890.254	4645
890.377	4729
890.501	4527
890.624	4516
890.748	4660
890.871	4535
890.995	4474
891.118	4402
891.241	4561
891.364	4558
891.488	4622
891.611	4516
891.734	4516
891.857	4630
891.98	4565
892.103	4710
892.226	4573
892.349	4577
892.471	4398
892.594	4607
892.717	4580
892.839	4603
892.962	4634
893.085	4698
893.207	4649
893.33	4462
893.452	4580
893.575	4679
893.697	4592
893.819	4828
893.941	4862
894.064	4748
894.186	4588
894.308	4607
894.43	4755
894.552	4755
894.674	4759
894.796	4558
894.918	4668
895.04	4573
895.161	4774
895.283	4691
895.405	4577
895.526	4618
895.648	4733
895.769	4710
895.891	4702
896.012	4733
896.134	4759
896.255	4691
896.376	4694
896.498	4668
896.619	4694
896.74	4645
896.861	4649
896.982	4896
897.103	5105
897.224	4839
897.345	4752
897.466	4641
897.587	4721
897.708	4862
897.828	4801
897.949	4687
898.07	4588
898.19	4645
898.311	4831
898.431	4733
898.552	4771
898.672	4831
898.792	4835
898.913	4717
899.033	4679
899.153	4573
899.273	4421
899.393	4493
899.513	4500
899.633	4558
899.753	4573
899.873	4478
899.993	4626
900.113	4519
900.232	4569
900.352	4527
900.472	4481
900.591	4440
900.711	4504
900.83	4451
900.95	4664
901.069	4736
901.189	4550
901.308	4402
901.427	4348
901.546	4417
901.665	4500
901.784	4497
901.904	4371
902.023	4306
902.141	4196
902.26	4131
902.379	4341
902.498	4223
902.617	4230
902.735	4394
902.854	4417
902.973	4386
903.091	4253
903.21	4181
903.328	4295
903.446	4242
903.565	4287
903.683	4367
903.801	4306
903.919	4402
904.038	4363
904.156	4322
904.274	4432
904.392	4394
904.51	4459
904.627	4489
904.745	4565
904.863	4607
904.981	4405
905.098	4322
905.216	4383
905.334	4421
905.451	4390
905.569	4447
905.686	4588
905.803	4558
905.921	4447
906.038	4519
906.155	4489
906.272	4390
906.389	4489
906.506	4371
906.623	4398
906.74	4379
906.857	4383
906.974	4341
907.091	4558
907.208	4698
907.324	4588
907.441	4508
907.557	4363
907.674	4329
907.79	4375
907.907	4402
908.023	4436
908.139	4512
908.256	4421
908.372	4466
908.488	4459
908.604	4303
908.72	4341
908.836	4405
908.952	4341
909.068	4447
909.184	4538
909.3	4500
909.415	4622
909.531	4573
909.647	4333
909.762	4386
909.878	4306
909.993	4394
910.108	4371
910.224	4402
910.339	4489
910.454	4432
910.57	4356
910.685	4310
910.8	4622
910.915	4588
911.03	4527
911.145	4379
911.259	4325
911.374	4386
911.489	4333
911.604	4341
911.718	4204
911.833	4219
911.947	4097
912.062	4025
912.176	4215
912.291	4204
912.405	4261
912.519	4485
912.633	4497
912.748	4409
912.862	4299
912.976	4177
913.09	4139
913.204	4219
913.318	4261
913.431	4386
913.545	4394
913.659	4440
913.772	4344
913.886	4234
914	4169
914.113	4386
914.226	4436
914.34	4367
914.453	4227
914.566	4447
914.68	4246
914.793	4348
914.906	4093
915.019	4120
915.132	4082
915.245	4185
915.358	4249
915.47	4253
915.583	4280
915.696	4276
915.809	4424
915.921	4375
916.034	4242
916.146	4265
916.259	4211
916.371	4375
916.483	4348
916.595	4261
916.708	4310
916.82	4325
916.932	4341
917.044	4363
917.156	4344
917.268	4284
917.38	4268
917.491	4287
917.603	4325
917.715	4405
917.826	4443
917.938	4337
918.049	4215
918.161	4383
918.272	4519
918.384	4523
918.495	4405
918.606	4318
918.717	4223
918.828	4344
918.939	4379
919.05	4291
919.161	4299
919.272	4166
919.383	4211
919.494	4447
919.604	4645
919.715	4409
919.826	4356
919.936	4383
920.047	4504
920.157	4497
920.267	4702
920.378	4516
920.488	4542
920.598	4668
920.708	4930
920.818	4752
920.928	4733
921.038	4930
921.148	4885
921.258	4634
921.368	4535
921.477	4500
921.587	4455
921.697	4363
921.806	4599
921.916	4417
922.025	4306
922.134	4249
922.244	4272
922.353	4322
922.462	4188
922.571	4139
922.68	3998
922.789	3983
922.898	4006
923.007	3968
923.116	4093
923.224	4090
923.333	4086
923.442	4006
923.55	4029
923.659	4040
923.767	4109
923.876	3975
923.984	4101
924.092	3979
924.201	4032
924.309	4090
924.417	4101
924.525	4086
924.633	4112
924.741	5048
924.849	3930
924.956	4131
925.064	3941
925.172	3911
925.279	3968
925.387	4036
925.494	4048
925.602	4200
925.709	4177
925.816	4059
925.924	4124
926.031	4230
926.138	4147
926.245	4192
926.352	4150
926.459	4249
926.566	4314
926.673	4169
926.779	4090
926.886	4048
926.993	3998
927.099	3922
927.206	3937
927.312	3918
927.419	4078
927.525	3987
927.631	4082
927.737	3960
927.843	3979
927.95	3827
928.056	3960
928.162	3998
928.267	4055
928.373	4653
928.479	4169
928.585	3854
928.69	4032
928.796	3998
928.901	3953
929.007	3819
929.112	3979
929.218	3945
929.323	3922
929.428	3956
929.533	4101
929.638	3922
929.743	3945
929.848	4074
929.953	3987
930.058	3873
930.163	3804
930.267	3804
930.372	3953
930.477	3797
930.581	4071
930.685	3937
930.79	3827
930.894	3926
930.998	3842
931.103	4025
931.207	3732
931.311	3698
931.415	3671
931.519	3492
931.623	3519
