Data from test_V78500241_1974.txt Node
Date: Fri Mar 25 17:02:43 CST 2022
User: usil
Spectrometer: V785-0024
Trigger mode: 0
Integration Time (sec): 4.000000E-1
Scans to average: 1
Nonlinearity correction enabled: false
Boxcar width: 0
Storing dark spectrum: false
XAxis mode: Wavelengths
Number of Pixels in Spectrum: 1024
>>>>>Begin Spectral Data<<<<<
801.071	8046
801.214	8016
801.356	7913
801.499	7856
801.641	7765
801.783	7837
801.926	7928
802.068	7936
802.211	7978
802.353	8035
802.496	7849
802.638	7799
802.78	7906
802.923	7860
803.065	7803
803.208	7868
803.35	7890
803.492	8073
803.635	8119
803.777	7989
803.919	8123
804.061	8415
804.204	8126
804.346	8123
804.488	7986
804.63	8103
804.773	7932
804.915	8100
805.057	8336
805.199	8157
805.341	8206
805.483	8221
805.626	8244
805.768	8130
805.91	8206
806.052	8275
806.194	8119
806.336	8282
806.478	8073
806.62	8103
806.762	8164
806.904	8271
807.046	8507
807.188	8389
807.33	8355
807.472	8301
807.614	8149
807.756	8168
807.898	7993
808.04	7883
808.182	7868
808.324	7909
808.465	7982
808.607	8058
808.749	8103
808.891	8256
809.033	8248
809.174	8191
809.316	8069
809.458	8119
809.6	8043
809.741	8016
809.883	8016
810.025	8100
810.166	8096
810.308	8039
810.45	7928
810.591	7917
810.733	7750
810.875	7769
811.016	7453
811.158	7426
811.299	7559
811.441	7723
811.582	7731
811.724	7628
811.865	7540
812.007	7616
812.148	7628
812.29	7601
812.431	7769
812.573	7852
812.714	7963
812.855	8077
812.997	8115
813.138	8317
813.279	8157
813.421	8016
813.562	7944
813.703	7849
813.845	7689
813.986	7472
814.127	7198
814.268	7259
814.41	7187
814.551	7137
814.692	7145
814.833	7107
814.974	7149
815.115	7133
815.256	6970
815.397	6939
815.539	6890
815.68	6859
815.821	6791
815.962	6901
816.103	6886
816.244	6692
816.385	6597
816.526	6620
816.666	6498
816.807	6304
816.948	6467
817.089	6475
817.23	6441
817.371	6380
817.512	6369
817.653	6372
817.793	6323
817.934	6391
818.075	6483
818.216	6498
818.356	6407
818.497	6258
818.638	6106
818.778	6167
818.919	6175
819.06	6209
819.2	6350
819.341	6323
819.481	6410
819.622	6513
819.762	6700
819.903	6684
820.043	6593
820.184	6612
820.324	6566
820.465	6677
820.605	6665
820.746	6635
820.886	6521
821.026	6639
821.167	6734
821.307	6837
821.447	6745
821.588	6703
821.728	6582
821.868	6490
822.008	6357
822.149	6361
822.289	6361
822.429	6178
822.569	6102
822.709	6106
822.849	5923
822.99	5882
823.13	5920
823.27	5920
823.41	5855
823.55	5786
823.69	5756
823.83	5805
823.97	5642
824.11	5543
824.25	5554
824.389	5539
824.529	5592
824.669	5528
824.809	5623
824.949	5638
825.089	5627
825.228	5577
825.368	5341
825.508	5337
825.648	5376
825.787	5383
825.927	5436
826.067	5315
826.206	5311
826.346	5433
826.485	5353
826.625	5368
826.765	5554
826.904	5486
827.044	5284
827.183	5159
827.323	5132
827.462	5227
827.601	5189
827.741	5246
827.88	5231
828.02	5113
828.159	5235
828.298	5292
828.437	5299
828.577	5284
828.716	5478
828.855	5353
828.994	5159
829.134	5151
829.273	5181
829.412	5086
829.551	5174
829.69	5174
829.829	5227
829.968	5345
830.107	5265
830.246	5318
830.385	5147
830.524	5098
830.663	5102
830.802	4991
830.941	4919
831.08	4885
831.219	4968
831.357	4968
831.496	5170
831.635	4896
831.774	4816
831.913	4812
832.051	4710
832.19	4774
832.329	4839
832.467	4721
832.606	4645
832.744	4759
832.883	4736
833.022	4759
833.16	4774
833.299	4862
833.437	4850
833.576	4835
833.714	4862
833.852	4835
833.991	4908
834.129	4946
834.267	4965
834.406	4900
834.544	4980
834.682	4987
834.821	4968
834.959	5162
835.097	4980
835.235	5166
835.373	5056
835.511	5094
835.65	5037
835.788	5025
835.926	4908
836.064	4908
836.202	4915
836.34	5178
836.478	5235
836.615	5071
836.753	5246
836.891	5273
837.029	5269
837.167	5265
837.305	5170
837.443	5143
837.58	5086
837.718	5223
837.856	5204
837.993	5132
838.131	5280
838.269	5193
838.406	5147
838.544	5162
838.681	5060
838.819	4999
838.956	4927
839.094	4915
839.231	4976
839.369	5086
839.506	5402
839.643	5273
839.781	5109
839.918	5083
840.055	5060
840.193	5094
840.33	5155
840.467	5143
840.604	5208
840.742	5455
840.879	5128
841.016	5064
841.153	5170
841.29	5417
841.427	5337
841.564	5307
841.701	5345
841.838	5292
841.975	5269
842.112	5242
842.249	5155
842.385	5113
842.522	5288
842.659	5155
842.796	5178
842.933	5155
843.069	5117
843.206	5181
843.343	5292
843.479	5201
843.616	5250
843.752	5037
843.889	5003
844.025	5204
844.162	4999
844.298	5212
844.435	5064
844.571	5071
844.708	5174
844.844	5330
844.98	5372
845.117	5288
845.253	5121
845.389	5124
845.525	5166
845.661	5124
845.798	5041
845.934	5132
846.07	5041
846.206	5151
846.342	5296
846.478	5216
846.614	5022
846.75	4946
846.886	4972
847.022	5109
847.158	5064
847.294	5083
847.429	5109
847.565	5075
847.701	5273
847.837	4820
847.972	4835
848.108	4961
848.244	4972
848.379	4801
848.515	4725
848.65	4733
848.786	4748
848.921	4752
849.057	4877
849.192	4870
849.328	4793
849.463	4847
849.598	4816
849.734	4729
849.869	4637
850.004	4634
850.14	4668
850.275	4603
850.41	4527
850.545	4558
850.68	4588
850.815	4664
850.95	4630
851.085	4809
851.22	4725
851.355	4698
851.49	4611
851.625	4626
851.76	4660
851.895	4573
852.03	4497
852.165	4573
852.299	4721
852.434	4824
852.569	4733
852.703	4782
852.838	4881
852.973	4942
853.107	4927
853.242	4748
853.376	4683
853.511	4554
853.645	4615
853.78	4782
853.914	4710
854.048	4687
854.183	4668
854.317	4691
854.451	4839
854.585	4664
854.72	4664
854.854	4740
854.988	4588
855.122	4615
855.256	4527
855.39	4687
855.524	4793
855.658	4687
855.792	4744
855.926	4744
856.06	4809
856.194	4778
856.327	4706
856.461	4584
856.595	4588
856.729	4599
856.862	4736
856.996	4653
857.13	4725
857.263	4725
857.397	4790
857.53	4637
857.664	4744
857.797	4786
857.931	4744
858.064	4683
858.197	4733
858.331	4645
858.464	4611
858.597	4470
858.731	4637
858.864	4649
858.997	4577
859.13	4672
859.263	4687
859.396	4790
859.529	4615
859.662	4577
859.795	4550
859.928	4634
860.061	4721
860.194	4759
860.327	4641
860.46	4580
860.592	4725
860.725	4748
860.858	4725
860.99	4580
861.123	4497
861.256	4493
861.388	4656
861.521	5174
861.653	4504
861.786	4417
861.918	4451
862.05	4504
862.183	4478
862.315	4637
862.447	4672
862.58	4569
862.712	4413
862.844	4318
862.976	4459
863.108	4451
863.24	4778
863.372	4337
863.504	4478
863.636	4421
863.768	4485
863.9	4413
864.032	4333
864.164	4383
864.296	4478
864.428	4550
864.559	4577
864.691	4516
864.823	4512
864.954	4485
865.086	4489
865.217	4485
865.349	4386
865.48	4443
865.612	4489
865.743	4599
865.875	4451
866.006	4394
866.137	4466
866.269	4443
866.4	4443
866.531	4459
866.662	4352
866.793	4409
866.924	4341
867.055	4497
867.186	4455
867.317	4413
867.448	4360
867.579	4394
867.71	4348
867.841	4348
867.972	4459
868.103	4485
868.233	4481
868.364	4508
868.495	4478
868.625	4641
868.756	4767
868.886	4554
869.017	4588
869.147	4797
869.278	4714
869.408	4694
869.539	4679
869.669	4683
869.799	4660
869.929	4702
870.06	4714
870.19	4991
870.32	4915
870.45	4934
870.58	5003
870.71	5075
870.84	5045
870.97	4934
871.1	4896
871.23	5140
871.36	5109
871.489	4987
871.619	5086
871.749	5113
871.879	5098
872.008	5201
872.138	5064
872.267	4987
872.397	4892
872.526	4782
872.656	4721
872.785	4774
872.915	4984
873.044	5052
873.173	4911
873.303	4904
873.432	4953
873.561	4930
873.69	4881
873.819	4831
873.948	4877
874.077	4820
874.206	4710
874.335	4805
874.464	4923
874.593	4987
874.722	4991
874.851	5048
874.979	5041
875.108	5003
875.237	4870
875.365	4839
875.494	4870
875.623	4976
875.751	4812
875.88	4862
876.008	4942
876.136	5003
876.265	5227
876.393	5349
876.521	5258
876.65	5227
876.778	5151
876.906	5079
877.034	4980
877.162	5041
877.29	4995
877.418	5064
877.546	5052
877.674	5010
877.802	5037
877.93	5033
878.058	4938
878.185	4850
878.313	5014
878.441	4953
878.568	4778
878.696	4854
878.824	4938
878.951	4976
879.079	5124
879.206	5280
879.333	5071
879.461	4965
879.588	5029
879.715	5094
879.842	5204
879.97	4987
880.097	4744
880.224	4774
880.351	4831
880.478	4866
880.605	4828
880.732	4801
880.859	5075
880.986	4831
881.112	4923
881.239	4774
881.366	4691
881.493	4637
881.619	4618
881.746	4622
881.872	4592
881.999	4664
882.125	4668
882.252	4748
882.378	4835
882.505	4938
882.631	4824
882.757	4683
882.883	4744
883.01	4736
883.136	4668
883.262	4580
883.388	4630
883.514	4782
883.64	4831
883.766	4721
883.892	4664
884.018	4679
884.143	4949
884.269	5067
884.395	4679
884.52	4592
884.646	4649
884.772	4546
884.897	4546
885.023	4630
885.148	4790
885.274	4812
885.399	4812
885.524	4748
885.65	4664
885.775	4721
885.9	4710
886.025	4805
886.15	4801
886.275	4679
886.4	4672
886.525	4714
886.65	4675
886.775	4698
886.9	4881
887.025	4991
887.149	4820
887.274	4634
887.399	4588
887.523	4599
887.648	4542
887.773	4596
887.897	4805
888.021	4790
888.146	4710
888.27	4809
888.395	4877
888.519	4820
888.643	4881
888.767	4782
888.891	4710
889.015	4561
889.139	4672
889.263	4626
889.387	4782
889.511	4881
889.635	4812
889.759	4687
889.883	4615
890.006	4698
890.13	4835
890.254	4618
890.377	4672
890.501	4542
890.624	4516
890.748	4622
890.871	4474
890.995	4466
891.118	4375
891.241	4542
891.364	4519
891.488	4641
891.611	4500
891.734	4554
891.857	4683
891.98	4558
892.103	4607
892.226	4615
892.349	4500
892.471	4428
892.594	4550
892.717	4592
892.839	4580
892.962	4580
893.085	4645
893.207	4577
893.33	4455
893.452	4565
893.575	4603
893.697	4596
893.819	4782
893.941	4831
894.064	4755
894.186	4607
894.308	4558
894.43	4733
894.552	4847
894.674	4759
894.796	4569
894.918	4596
895.04	4573
895.161	4710
895.283	4691
895.405	4535
895.526	4672
895.648	4683
895.769	4706
895.891	4706
896.012	4748
896.134	4721
896.255	4672
896.376	4626
896.498	4626
896.619	4687
896.74	4603
896.861	4653
896.982	4850
897.103	5083
897.224	4774
897.345	4755
897.466	4683
897.587	4763
897.708	4831
897.828	4805
897.949	4645
898.07	4596
898.19	4660
898.311	4809
898.431	4675
898.552	4717
898.672	4835
898.792	4809
898.913	4710
899.033	4592
899.153	4508
899.273	4474
899.393	4474
899.513	4546
899.633	4546
899.753	4554
899.873	4516
899.993	4580
900.113	4497
900.232	4603
900.352	4481
900.472	4485
900.591	4428
900.711	4523
900.83	4455
900.95	4630
901.069	4679
901.189	4542
901.308	4383
901.427	4287
901.546	4379
901.665	4451
901.784	4481
901.904	4413
902.023	4287
902.141	4158
902.26	4120
902.379	4322
902.498	4211
902.617	4200
902.735	4363
902.854	4417
902.973	4325
903.091	4173
903.21	4207
903.328	4314
903.446	4261
903.565	4268
903.683	4318
903.801	4303
903.919	4386
904.038	4417
904.156	4284
904.274	4405
904.392	4360
904.51	4447
904.627	4474
904.745	4618
904.863	4626
904.981	4417
905.098	4310
905.216	4375
905.334	4421
905.451	4405
905.569	4443
905.686	4554
905.803	4596
905.921	4390
906.038	4527
906.155	4485
906.272	4428
906.389	4455
906.506	4337
906.623	4383
906.74	4405
906.857	4341
906.974	4383
907.091	4550
907.208	4687
907.324	4603
907.441	4493
907.557	4394
907.674	4333
907.79	4341
907.907	4390
908.023	4478
908.139	4489
908.256	4424
908.372	4500
908.488	4478
908.604	4363
908.72	4261
908.836	4318
908.952	4405
909.068	4421
909.184	4527
909.3	4504
909.415	4577
909.531	4535
909.647	4386
909.762	4379
909.878	4348
909.993	4421
910.108	4417
910.224	4424
910.339	4474
910.454	4402
910.57	4348
910.685	4344
910.8	4596
910.915	4634
911.03	4508
911.145	4306
911.259	4303
911.374	4348
911.489	4287
911.604	4257
911.718	4173
911.833	4181
911.947	4082
912.062	4048
912.176	4223
912.291	4219
912.405	4257
912.519	4455
912.633	4535
912.748	4417
912.862	4280
912.976	4200
913.09	4086
913.204	4207
913.318	4253
913.431	4402
913.545	4299
913.659	4436
913.772	4375
913.886	4284
914	4219
914.113	4383
914.226	4413
914.34	4329
914.453	4230
914.566	4409
914.68	4318
914.793	4341
914.906	4158
915.019	4109
915.132	4097
915.245	4207
915.358	4162
915.47	4223
915.583	4234
915.696	4299
915.809	4363
915.921	4421
916.034	4268
916.146	4257
916.259	4173
916.371	4371
916.483	4356
916.595	4276
916.708	4291
916.82	4314
916.932	4329
917.044	4341
917.156	4379
917.268	4230
917.38	4249
917.491	4223
917.603	4341
917.715	4459
917.826	4409
917.938	4295
918.049	4227
918.161	4348
918.272	4527
918.384	4485
918.495	4424
918.606	4329
918.717	4242
918.828	4303
918.939	4402
919.05	4234
919.161	4363
919.272	4181
919.383	4215
919.494	4405
919.604	4603
919.715	4451
919.826	4348
919.936	4432
920.047	4497
920.157	4504
920.267	4721
920.378	4531
920.488	4478
920.598	4725
920.708	4889
920.818	4733
920.928	4725
921.038	4900
921.148	4908
921.258	4611
921.368	4561
921.477	4500
921.587	4413
921.697	4318
921.806	4455
921.916	4386
922.025	4268
922.134	4261
922.244	4211
922.353	4341
922.462	4227
922.571	4090
922.68	4032
922.789	4017
922.898	4025
923.007	3994
923.116	4093
923.224	4071
923.333	4051
923.442	3964
923.55	3941
923.659	4017
923.767	4109
923.876	4029
923.984	4116
924.092	3972
924.201	4048
924.309	4090
924.417	4128
924.525	4086
924.633	4078
924.741	5003
924.849	3903
924.956	4128
925.064	3960
925.172	3903
925.279	3930
925.387	4063
925.494	4055
925.602	4207
925.709	4207
925.816	4013
925.924	4097
926.031	4192
926.138	4188
926.245	4219
926.352	4040
926.459	4215
926.566	4306
926.673	4154
926.779	4059
926.886	4093
926.993	3964
927.099	3918
927.206	3937
927.312	3918
927.419	4063
927.525	4029
927.631	4044
927.737	3930
927.843	3994
927.95	3835
928.056	3956
928.162	4006
928.267	4074
928.373	4584
928.479	4128
928.585	3888
928.69	4059
928.796	4101
928.901	3930
929.007	3827
929.112	4021
929.218	4006
929.323	3934
929.428	3926
929.533	4055
929.638	3903
929.743	3968
929.848	4013
929.953	3941
930.058	3949
930.163	3785
930.267	3789
930.372	3964
930.477	3812
930.581	4086
930.685	3941
930.79	3808
930.894	3930
930.998	3854
931.103	4040
931.207	3759
931.311	3717
931.415	3652
931.519	3534
931.623	3557
