Data from test_V78500241_2198.txt Node
Date: Fri Mar 25 17:04:17 CST 2022
User: usil
Spectrometer: V785-0024
Trigger mode: 0
Integration Time (sec): 4.000000E-1
Scans to average: 1
Nonlinearity correction enabled: false
Boxcar width: 0
Storing dark spectrum: false
XAxis mode: Wavelengths
Number of Pixels in Spectrum: 1024
>>>>>Begin Spectral Data<<<<<
801.071	8020
801.214	8005
801.356	7845
801.499	7898
801.641	7811
801.783	7833
801.926	7989
802.068	7947
802.211	7967
802.353	7997
802.496	7875
802.638	7917
802.78	7879
802.923	7898
803.065	7921
803.208	7856
803.35	7928
803.492	8092
803.635	8069
803.777	7982
803.919	8157
804.061	8450
804.204	8183
804.346	8058
804.488	7986
804.63	8092
804.773	7947
804.915	8077
805.057	8214
805.199	8149
805.341	8221
805.483	8256
805.626	8176
805.768	8142
805.91	8187
806.052	8275
806.194	8088
806.336	8229
806.478	8107
806.62	8126
806.762	8149
806.904	8221
807.046	8469
807.188	8415
807.33	8275
807.472	8298
807.614	8168
807.756	8134
807.898	7989
808.04	7849
808.182	7940
808.324	7818
808.465	7852
808.607	8058
808.749	8092
808.891	8214
809.033	8267
809.174	8271
809.316	8065
809.458	8024
809.6	8020
809.741	8084
809.883	8081
810.025	8092
810.166	8096
810.308	8062
810.45	7936
810.591	7837
810.733	7704
810.875	7643
811.016	7521
811.158	7445
811.299	7578
811.441	7712
811.582	7681
811.724	7544
811.865	7476
812.007	7571
812.148	7620
812.29	7636
812.431	7677
812.573	7864
812.714	7970
812.855	8103
812.997	8202
813.138	8225
813.279	8138
813.421	8027
813.562	7967
813.703	7769
813.845	7674
813.986	7464
814.127	7179
814.268	7168
814.41	7236
814.551	7187
814.692	7202
814.833	7160
814.974	7053
815.115	7118
815.256	6970
815.397	6913
815.539	6962
815.68	6818
815.821	6707
815.962	6871
816.103	6776
816.244	6703
816.385	6623
816.526	6597
816.666	6467
816.807	6323
816.948	6369
817.089	6380
817.23	6418
817.371	6380
817.512	6353
817.653	6365
817.793	6399
817.934	6418
818.075	6445
818.216	6437
818.356	6384
818.497	6319
818.638	6178
818.778	6129
818.919	6155
819.06	6159
819.2	6323
819.341	6323
819.481	6376
819.622	6502
819.762	6662
819.903	6688
820.043	6585
820.184	6570
820.324	6555
820.465	6703
820.605	6711
820.746	6627
820.886	6509
821.026	6669
821.167	6711
821.307	6776
821.447	6787
821.588	6684
821.728	6528
821.868	6486
822.008	6331
822.149	6388
822.289	6372
822.429	6136
822.569	6114
822.709	6114
822.849	5885
822.99	5866
823.13	5893
823.27	5893
823.41	5836
823.55	5809
823.69	5707
823.83	5767
823.97	5668
824.11	5520
824.25	5524
824.389	5551
824.529	5585
824.669	5524
824.809	5646
824.949	5657
825.089	5611
825.228	5592
825.368	5425
825.508	5345
825.648	5360
825.787	5417
825.927	5345
826.067	5303
826.206	5368
826.346	5372
826.485	5448
826.625	5379
826.765	5570
826.904	5520
827.044	5254
827.183	5239
827.323	5170
827.462	5277
827.601	5143
827.741	5181
827.88	5254
828.02	5147
828.159	5265
828.298	5330
828.437	5421
828.577	5345
828.716	5532
828.855	5353
828.994	5178
829.134	5151
829.273	5223
829.412	5162
829.551	5147
829.69	5212
829.829	5288
829.968	5425
830.107	5254
830.246	5372
830.385	5201
830.524	5208
830.663	5079
830.802	5006
830.941	4915
831.08	4976
831.219	5018
831.357	5003
831.496	5223
831.635	4919
831.774	4915
831.913	4923
832.051	4725
832.19	4801
832.329	4858
832.467	4725
832.606	4717
832.744	4752
832.883	4740
833.022	4759
833.16	4782
833.299	4866
833.437	4919
833.576	4877
833.714	4896
833.852	4930
833.991	4942
834.129	4995
834.267	4987
834.406	4949
834.544	5052
834.682	5067
834.821	5006
834.959	5223
835.097	5048
835.235	5185
835.373	5132
835.511	5109
835.65	5067
835.788	5052
835.926	4942
836.064	4934
836.202	4908
836.34	5250
836.478	5258
836.615	5201
836.753	5277
836.891	5326
837.029	5311
837.167	5261
837.305	5254
837.443	5132
837.58	5117
837.718	5292
837.856	5231
837.993	5197
838.131	5261
838.269	5315
838.406	5269
838.544	5201
838.681	5090
838.819	5079
838.956	4938
839.094	4946
839.231	4999
839.369	5098
839.506	5421
839.643	5341
839.781	5102
839.918	5010
840.055	5155
840.193	5181
840.33	5121
840.467	5204
840.604	5212
840.742	5444
840.879	5117
841.016	5140
841.153	5174
841.29	5455
841.427	5315
841.564	5337
841.701	5357
841.838	5299
841.975	5307
842.112	5284
842.249	5235
842.385	5121
842.522	5398
842.659	5246
842.796	5121
842.933	5220
843.069	5181
843.206	5242
843.343	5330
843.479	5284
843.616	5318
843.752	5018
843.889	4999
844.025	5204
844.162	5105
844.298	5258
844.435	5071
844.571	5079
844.708	5261
844.844	5315
844.98	5414
845.117	5318
845.253	5197
845.389	5098
845.525	5166
845.661	5208
845.798	5079
845.934	5147
846.07	5170
846.206	5212
846.342	5273
846.478	5208
846.614	5064
846.75	5010
846.886	5014
847.022	5155
847.158	5060
847.294	5075
847.429	5151
847.565	5064
847.701	5349
847.837	4934
847.972	4877
848.108	4984
848.244	4976
848.379	4820
848.515	4790
848.65	4755
848.786	4755
848.921	4835
849.057	4892
849.192	4949
849.328	4850
849.463	4862
849.598	4877
849.734	4805
849.869	4721
850.004	4641
850.14	4733
850.275	4588
850.41	4569
850.545	4641
850.68	4634
850.815	4687
850.95	4668
851.085	4881
851.22	4786
851.355	4744
851.49	4622
851.625	4634
851.76	4683
851.895	4611
852.03	4577
852.165	4694
852.299	4778
852.434	4820
852.569	4786
852.703	4790
852.838	4919
852.973	4968
853.107	4930
853.242	4759
853.376	4706
853.511	4588
853.645	4656
853.78	4828
853.914	4679
854.048	4721
854.183	4736
854.317	4778
854.451	4885
854.585	4679
854.72	4664
854.854	4733
854.988	4645
855.122	4645
855.256	4554
855.39	4653
855.524	4809
855.658	4793
855.792	4706
855.926	4752
856.06	4812
856.194	4824
856.327	4725
856.461	4611
856.595	4653
856.729	4660
856.862	4759
856.996	4752
857.13	4752
857.263	4816
857.397	4835
857.53	4710
857.664	4759
857.797	4759
857.931	4729
858.064	4755
858.197	4790
858.331	4767
858.464	4649
858.597	4611
858.731	4656
858.864	4630
858.997	4626
859.13	4702
859.263	4664
859.396	4717
859.529	4599
859.662	4596
859.795	4603
859.928	4641
860.061	4790
860.194	4812
860.327	4630
860.46	4607
860.592	4744
860.725	4752
860.858	4755
860.99	4603
861.123	4550
861.256	4561
861.388	4596
861.521	5421
861.653	4500
861.786	4466
861.918	4470
862.05	4554
862.183	4577
862.315	4637
862.447	4645
862.58	4569
862.712	4428
862.844	4333
862.976	4512
863.108	4485
863.24	4835
863.372	4386
863.504	4428
863.636	4394
863.768	4474
863.9	4500
864.032	4409
864.164	4459
864.296	4516
864.428	4580
864.559	4596
864.691	4588
864.823	4546
864.954	4523
865.086	4538
865.217	4516
865.349	4462
865.48	4447
865.612	4508
865.743	4653
865.875	4485
866.006	4470
866.137	4504
866.269	4462
866.4	4466
866.531	4432
866.662	4398
866.793	4417
866.924	4421
867.055	4538
867.186	4485
867.317	4455
867.448	4379
867.579	4474
867.71	4413
867.841	4440
867.972	4493
868.103	4470
868.233	4470
868.364	4462
868.495	4531
868.625	4626
868.756	4748
868.886	4603
869.017	4687
869.147	4790
869.278	4828
869.408	4717
869.539	4687
869.669	4759
869.799	4626
869.929	4801
870.06	4729
870.19	4968
870.32	4938
870.45	4919
870.58	5029
870.71	5155
870.84	5159
870.97	4972
871.1	4991
871.23	5235
871.36	5102
871.489	5064
871.619	5079
871.749	5079
871.879	5128
872.008	5185
872.138	5071
872.267	5029
872.397	4828
872.526	4786
872.656	4767
872.785	4812
872.915	4991
873.044	5056
873.173	4995
873.303	5010
873.432	4965
873.561	4991
873.69	4892
873.819	4896
873.948	4938
874.077	4839
874.206	4744
874.335	4786
874.464	4942
874.593	5071
874.722	4976
874.851	5136
874.979	5037
875.108	5033
875.237	4942
875.365	4885
875.494	4934
875.623	5052
875.751	4831
875.88	4896
876.008	4942
876.136	5052
876.265	5258
876.393	5337
876.521	5254
876.65	5239
876.778	5151
876.906	5094
877.034	5045
877.162	5105
877.29	5018
877.418	5033
877.546	5060
877.674	5048
877.802	5086
877.93	5048
878.058	4976
878.185	4896
878.313	4995
878.441	5010
878.568	4835
878.696	4885
878.824	4961
878.951	5018
879.079	5147
879.206	5345
879.333	5128
879.461	4995
879.588	5010
879.715	5208
879.842	5269
879.97	5041
880.097	4816
880.224	4805
880.351	4805
880.478	4847
880.605	4831
880.732	4824
880.859	5094
880.986	4908
881.112	4919
881.239	4812
881.366	4729
881.493	4618
881.619	4588
881.746	4637
881.872	4622
881.999	4675
882.125	4675
882.252	4831
882.378	4809
882.505	4995
882.631	4820
882.757	4691
882.883	4744
883.01	4744
883.136	4683
883.262	4645
883.388	4626
883.514	4793
883.64	4873
883.766	4881
883.892	4714
884.018	4752
884.143	4938
884.269	5037
884.395	4729
884.52	4630
884.646	4634
884.772	4615
884.897	4577
885.023	4679
885.148	4820
885.274	4904
885.399	4839
885.524	4706
885.65	4752
885.775	4850
885.9	4733
886.025	4908
886.15	4752
886.275	4736
886.4	4729
886.525	4767
886.65	4675
886.775	4748
886.9	4934
887.025	5075
887.149	4812
887.274	4626
887.399	4634
887.523	4637
887.648	4664
887.773	4618
887.897	4763
888.021	4820
888.146	4717
888.27	4812
888.395	4858
888.519	4835
888.643	4793
888.767	4858
888.891	4675
889.015	4607
889.139	4698
889.263	4630
889.387	4767
889.511	4866
889.635	4763
889.759	4615
889.883	4618
890.006	4729
890.13	4828
890.254	4607
890.377	4717
890.501	4535
890.624	4554
890.748	4653
890.871	4561
890.995	4428
891.118	4398
891.241	4527
891.364	4558
891.488	4687
891.611	4512
891.734	4558
891.857	4588
891.98	4554
892.103	4637
892.226	4645
892.349	4561
892.471	4478
892.594	4588
892.717	4630
892.839	4596
892.962	4626
893.085	4668
893.207	4622
893.33	4470
893.452	4504
893.575	4683
893.697	4550
893.819	4793
893.941	4828
894.064	4831
894.186	4596
894.308	4573
894.43	4733
894.552	4801
894.674	4755
894.796	4584
894.918	4645
895.04	4596
895.161	4687
895.283	4694
895.405	4618
895.526	4626
895.648	4675
895.769	4733
895.891	4748
896.012	4744
896.134	4748
896.255	4637
896.376	4649
896.498	4626
896.619	4675
896.74	4634
896.861	4630
896.982	4934
897.103	5071
897.224	4854
897.345	4706
897.466	4717
897.587	4748
897.708	4877
897.828	4786
897.949	4694
898.07	4546
898.19	4653
898.311	4850
898.431	4714
898.552	4767
898.672	4839
898.792	4809
898.913	4759
899.033	4660
899.153	4489
899.273	4466
899.393	4485
899.513	4485
899.633	4546
899.753	4569
899.873	4546
899.993	4596
900.113	4542
900.232	4577
900.352	4542
900.472	4481
900.591	4402
900.711	4519
900.83	4428
900.95	4675
901.069	4725
901.189	4550
901.308	4383
901.427	4318
901.546	4398
901.665	4489
901.784	4538
901.904	4398
902.023	4344
902.141	4219
902.26	4192
902.379	4299
902.498	4303
902.617	4204
902.735	4432
902.854	4421
902.973	4314
903.091	4261
903.21	4215
903.328	4280
903.446	4276
903.565	4299
903.683	4375
903.801	4284
903.919	4413
904.038	4428
904.156	4356
904.274	4436
904.392	4394
904.51	4383
904.627	4443
904.745	4565
904.863	4645
904.981	4405
905.098	4318
905.216	4375
905.334	4440
905.451	4462
905.569	4459
905.686	4508
905.803	4592
905.921	4462
906.038	4584
906.155	4470
906.272	4379
906.389	4508
906.506	4360
906.623	4405
906.74	4417
906.857	4291
906.974	4352
907.091	4588
907.208	4717
907.324	4569
907.441	4497
907.557	4348
907.674	4341
907.79	4322
907.907	4398
908.023	4512
908.139	4497
908.256	4474
908.372	4447
908.488	4443
908.604	4386
908.72	4333
908.836	4390
908.952	4352
909.068	4455
909.184	4577
909.3	4462
909.415	4615
909.531	4558
909.647	4333
909.762	4383
909.878	4367
909.993	4462
910.108	4436
910.224	4417
910.339	4489
910.454	4360
910.57	4367
910.685	4287
910.8	4672
910.915	4565
911.03	4497
911.145	4341
911.259	4322
911.374	4337
911.489	4318
911.604	4310
911.718	4177
911.833	4188
911.947	4116
912.062	4059
912.176	4207
912.291	4291
912.405	4257
912.519	4504
912.633	4470
912.748	4363
912.862	4314
912.976	4219
913.09	4101
913.204	4181
913.318	4234
913.431	4390
913.545	4371
913.659	4398
913.772	4386
913.886	4265
914	4223
914.113	4421
914.226	4470
914.34	4428
914.453	4287
914.566	4459
914.68	4295
914.793	4329
914.906	4177
915.019	4143
915.132	4105
915.245	4173
915.358	4158
915.47	4272
915.583	4223
915.696	4310
915.809	4375
915.921	4451
916.034	4261
916.146	4249
916.259	4211
916.371	4356
916.483	4356
916.595	4276
916.708	4356
916.82	4314
916.932	4280
917.044	4310
917.156	4310
917.268	4249
917.38	4284
917.491	4242
917.603	4348
917.715	4447
917.826	4424
917.938	4356
918.049	4230
918.161	4421
918.272	4554
918.384	4558
918.495	4398
918.606	4322
918.717	4280
918.828	4341
918.939	4371
919.05	4211
919.161	4341
919.272	4135
919.383	4219
919.494	4459
919.604	4649
919.715	4443
919.826	4360
919.936	4405
920.047	4485
920.157	4470
920.267	4668
920.378	4550
920.488	4531
920.598	4706
920.708	4854
920.818	4740
920.928	4733
921.038	4976
921.148	4984
921.258	4607
921.368	4558
921.477	4500
921.587	4443
921.697	4394
921.806	4481
921.916	4398
922.025	4276
922.134	4253
922.244	4234
922.353	4341
922.462	4181
922.571	4154
922.68	4036
922.789	3994
922.898	4032
923.007	3991
923.116	4097
923.224	4116
923.333	4078
923.442	3975
923.55	3949
923.659	4051
923.767	4116
923.876	4021
923.984	4154
924.092	3994
924.201	4082
924.309	4124
924.417	4109
924.525	4067
924.633	4051
924.741	5140
924.849	3922
924.956	4162
925.064	3975
925.172	3903
925.279	3937
925.387	4055
925.494	4051
925.602	4238
925.709	4173
925.816	4040
925.924	4147
926.031	4211
926.138	4158
926.245	4158
926.352	4093
926.459	4253
926.566	4333
926.673	4150
926.779	4063
926.886	4093
926.993	4006
927.099	3922
927.206	3941
927.312	3918
927.419	4067
927.525	4025
927.631	4150
927.737	3968
927.843	4006
927.95	3819
928.056	3949
928.162	3994
928.267	4025
928.373	4660
928.479	4097
928.585	3903
928.69	4017
928.796	4055
928.901	3968
929.007	3850
929.112	4010
929.218	3964
929.323	3937
929.428	3964
929.533	4120
929.638	3911
929.743	3968
929.848	4086
929.953	3972
930.058	3911
930.163	3762
930.267	3819
930.372	3979
930.477	3800
930.581	4124
930.685	3922
930.79	3850
930.894	3899
930.998	3888
931.103	4067
931.207	3686
931.311	3709
931.415	3663
931.519	3534
931.623	3557
