Data from test_V78500241_779.txt Node
Date: Fri Mar 25 16:54:25 CST 2022
User: usil
Spectrometer: V785-0024
Trigger mode: 0
Integration Time (sec): 4.000000E-1
Scans to average: 1
Nonlinearity correction enabled: false
Boxcar width: 0
Storing dark spectrum: false
XAxis mode: Wavelengths
Number of Pixels in Spectrum: 1024
>>>>>Begin Spectral Data<<<<<
801.071	8024
801.214	8020
801.356	7845
801.499	7826
801.641	7769
801.783	7780
801.926	7959
802.068	7993
802.211	7936
802.353	7947
802.496	7887
802.638	7928
802.78	7871
802.923	7852
803.065	7906
803.208	7871
803.35	8027
803.492	8130
803.635	8153
803.777	7997
803.919	8058
804.061	8374
804.204	8107
804.346	7970
804.488	7989
804.63	8092
804.773	8008
804.915	8035
805.057	8324
805.199	8176
805.341	8176
805.483	8282
805.626	8157
805.768	8050
805.91	8149
806.052	8145
806.194	8073
806.336	8313
806.478	8111
806.62	7947
806.762	8134
806.904	8225
807.046	8492
807.188	8305
807.33	8275
807.472	8351
807.614	8062
807.756	8088
807.898	7921
808.04	7913
808.182	7852
808.324	7894
808.465	7890
808.607	8035
808.749	8062
808.891	8149
809.033	8305
809.174	8218
809.316	8005
809.458	8035
809.6	8008
809.741	7967
809.883	7978
810.025	8134
810.166	8039
810.308	8046
810.45	8103
810.591	7925
810.733	7674
810.875	7693
811.016	7502
811.158	7453
811.299	7544
811.441	7712
811.582	7704
811.724	7578
811.865	7540
812.007	7506
812.148	7590
812.29	7556
812.431	7658
812.573	7795
812.714	7951
812.855	8088
812.997	8161
813.138	8343
813.279	8100
813.421	8100
813.562	8001
813.703	7883
813.845	7780
813.986	7434
814.127	7308
814.268	7213
814.41	7194
814.551	7103
814.692	7126
814.833	7031
814.974	7053
815.115	7084
815.256	6943
815.397	6924
815.539	6973
815.68	6882
815.821	6867
815.962	6890
816.103	6818
816.244	6707
816.385	6623
816.526	6635
816.666	6532
816.807	6338
816.948	6391
817.089	6441
817.23	6384
817.371	6380
817.512	6369
817.653	6380
817.793	6300
817.934	6407
818.075	6437
818.216	6445
818.356	6384
818.497	6251
818.638	6121
818.778	6140
818.919	6121
819.06	6072
819.2	6315
819.341	6285
819.481	6281
819.622	6498
819.762	6707
819.903	6677
820.043	6517
820.184	6585
820.324	6544
820.465	6631
820.605	6627
820.746	6620
820.886	6506
821.026	6692
821.167	6768
821.307	6749
821.447	6722
821.588	6688
821.728	6597
821.868	6486
822.008	6300
822.149	6315
822.289	6292
822.429	6163
822.569	6049
822.709	6087
822.849	5878
822.99	5870
823.13	5912
823.27	5866
823.41	5756
823.55	5733
823.69	5779
823.83	5745
823.97	5630
824.11	5501
824.25	5505
824.389	5585
824.529	5558
824.669	5486
824.809	5585
824.949	5623
825.089	5585
825.228	5543
825.368	5372
825.508	5345
825.648	5326
825.787	5349
825.927	5353
826.067	5315
826.206	5239
826.346	5379
826.485	5372
826.625	5372
826.765	5566
826.904	5493
827.044	5239
827.183	5201
827.323	5079
827.462	5212
827.601	5185
827.741	5178
827.88	5193
828.02	5132
828.159	5212
828.298	5277
828.437	5311
828.577	5326
828.716	5512
828.855	5261
828.994	5159
829.134	5079
829.273	5204
829.412	5113
829.551	5098
829.69	5136
829.829	5242
829.968	5284
830.107	5204
830.246	5216
830.385	5204
830.524	5178
830.663	5071
830.802	4968
830.941	4923
831.08	4870
831.219	4938
831.357	4946
831.496	5143
831.635	4938
831.774	4885
831.913	4824
832.051	4733
832.19	4755
832.329	4835
832.467	4694
832.606	4637
832.744	4748
832.883	4691
833.022	4714
833.16	4771
833.299	4828
833.437	4809
833.576	4892
833.714	4911
833.852	4858
833.991	4877
834.129	4972
834.267	4934
834.406	4881
834.544	4980
834.682	4965
834.821	4972
834.959	5147
835.097	4999
835.235	5098
835.373	5090
835.511	5140
835.65	5014
835.788	5048
835.926	4915
836.064	4885
836.202	4923
836.34	5162
836.478	5273
836.615	5159
836.753	5208
836.891	5235
837.029	5277
837.167	5220
837.305	5174
837.443	5143
837.58	5041
837.718	5258
837.856	5143
837.993	5181
838.131	5189
838.269	5143
838.406	5174
838.544	5189
838.681	4995
838.819	4984
838.956	4889
839.094	4881
839.231	4976
839.369	5064
839.506	5433
839.643	5235
839.781	5056
839.918	4995
840.055	5102
840.193	5086
840.33	5132
840.467	5151
840.604	5181
840.742	5406
840.879	5060
841.016	5060
841.153	5155
841.29	5341
841.427	5345
841.564	5292
841.701	5357
841.838	5307
841.975	5254
842.112	5258
842.249	5113
842.385	5109
842.522	5318
842.659	5178
842.796	5220
842.933	5204
843.069	5105
843.206	5128
843.343	5277
843.479	5246
843.616	5277
843.752	4995
843.889	5018
844.025	5216
844.162	4984
844.298	5208
844.435	5071
844.571	5022
844.708	5201
844.844	5303
844.98	5334
845.117	5273
845.253	5128
845.389	5045
845.525	5105
845.661	5105
845.798	5006
845.934	5094
846.07	4976
846.206	5216
846.342	5269
846.478	5201
846.614	4987
846.75	4930
846.886	4927
847.022	5143
847.158	5006
847.294	5041
847.429	5155
847.565	5048
847.701	5345
847.837	4889
847.972	4763
848.108	4919
848.244	4972
848.379	4843
848.515	4706
848.65	4698
848.786	4748
848.921	4767
849.057	4828
849.192	4942
849.328	4782
849.463	4873
849.598	4774
849.734	4774
849.869	4687
850.004	4615
850.14	4653
850.275	4596
850.41	4489
850.545	4538
850.68	4603
850.815	4618
850.95	4584
851.085	4896
851.22	4725
851.355	4634
851.49	4630
851.625	4615
851.76	4679
851.895	4538
852.03	4497
852.165	4634
852.299	4721
852.434	4733
852.569	4710
852.703	4793
852.838	4816
852.973	4915
853.107	4927
853.242	4755
853.376	4630
853.511	4519
853.645	4596
853.78	4793
853.914	4717
854.048	4687
854.183	4679
854.317	4706
854.451	4835
854.585	4714
854.72	4588
854.854	4706
854.988	4653
855.122	4596
855.256	4523
855.39	4656
855.524	4752
855.658	4687
855.792	4675
855.926	4706
856.06	4721
856.194	4812
856.327	4702
856.461	4592
856.595	4588
856.729	4611
856.862	4702
856.996	4698
857.13	4679
857.263	4721
857.397	4828
857.53	4588
857.664	4702
857.797	4782
857.931	4748
858.064	4702
858.197	4748
858.331	4656
858.464	4580
858.597	4565
858.731	4634
858.864	4618
858.997	4558
859.13	4668
859.263	4660
859.396	4691
859.529	4561
859.662	4592
859.795	4535
859.928	4611
860.061	4774
860.194	4786
860.327	4596
860.46	4588
860.592	4687
860.725	4721
860.858	4740
860.99	4611
861.123	4523
861.256	4478
861.388	4592
861.521	5265
861.653	4440
861.786	4398
861.918	4485
862.05	4523
862.183	4485
862.315	4596
862.447	4618
862.58	4554
862.712	4360
862.844	4314
862.976	4470
863.108	4413
863.24	4847
863.372	4367
863.504	4383
863.636	4402
863.768	4470
863.9	4443
864.032	4325
864.164	4417
864.296	4523
864.428	4531
864.559	4584
864.691	4531
864.823	4508
864.954	4462
865.086	4481
865.217	4481
865.349	4394
865.48	4466
865.612	4497
865.743	4596
865.875	4466
866.006	4432
866.137	4398
866.269	4394
866.4	4455
866.531	4341
866.662	4363
866.793	4375
866.924	4436
867.055	4466
867.186	4485
867.317	4394
867.448	4341
867.579	4375
867.71	4390
867.841	4409
867.972	4432
868.103	4447
868.233	4481
868.364	4447
868.495	4497
868.625	4611
868.756	4771
868.886	4565
869.017	4550
869.147	4752
869.278	4759
869.408	4634
869.539	4668
869.669	4683
869.799	4706
869.929	4748
870.06	4675
870.19	4927
870.32	4911
870.45	4976
870.58	5018
870.71	5056
870.84	5098
870.97	4911
871.1	4904
871.23	5113
871.36	5143
871.489	5014
871.619	5075
871.749	5060
871.879	5151
872.008	5155
872.138	5045
872.267	4919
872.397	4839
872.526	4782
872.656	4752
872.785	4816
872.915	4991
873.044	4965
873.173	4934
873.303	4999
873.432	4938
873.561	4919
873.69	4889
873.819	4870
873.948	4908
874.077	4786
874.206	4694
874.335	4793
874.464	4908
874.593	5029
874.722	4923
874.851	5098
874.979	5014
875.108	5064
875.237	4911
875.365	4896
875.494	4839
875.623	4995
875.751	4835
875.88	4850
876.008	4965
876.136	4995
876.265	5174
876.393	5296
876.521	5296
876.65	5185
876.778	5170
876.906	5033
877.034	4991
877.162	5025
877.29	5010
877.418	5041
877.546	5067
877.674	5025
877.802	5003
877.93	5037
878.058	4938
878.185	4877
878.313	4938
878.441	4961
878.568	4797
878.696	4889
878.824	4927
878.951	4972
879.079	5109
879.206	5292
879.333	5090
879.461	4949
879.588	5006
879.715	5117
879.842	5246
879.97	5006
880.097	4736
880.224	4694
880.351	4774
880.478	4820
880.605	4763
880.732	4774
880.859	5025
880.986	4862
881.112	4942
881.239	4801
881.366	4645
881.493	4630
881.619	4542
881.746	4637
881.872	4691
881.999	4679
882.125	4668
882.252	4767
882.378	4797
882.505	4965
882.631	4774
882.757	4679
882.883	4729
883.01	4721
883.136	4687
883.262	4611
883.388	4596
883.514	4820
883.64	4873
883.766	4812
883.892	4664
884.018	4733
884.143	4885
884.269	5018
884.395	4634
884.52	4584
884.646	4660
884.772	4584
884.897	4523
885.023	4634
885.148	4755
885.274	4816
885.399	4778
885.524	4759
885.65	4717
885.775	4740
885.9	4679
886.025	4824
886.15	4820
886.275	4755
886.4	4675
886.525	4721
886.65	4714
886.775	4702
886.9	4900
887.025	5037
887.149	4782
887.274	4664
887.399	4607
887.523	4618
887.648	4596
887.773	4569
887.897	4733
888.021	4759
888.146	4694
888.27	4774
888.395	4908
888.519	4771
888.643	4820
888.767	4778
888.891	4656
889.015	4592
889.139	4634
889.263	4577
889.387	4714
889.511	4881
889.635	4771
889.759	4630
889.883	4649
890.006	4736
890.13	4831
890.254	4618
890.377	4687
890.501	4573
890.624	4516
890.748	4558
890.871	4500
890.995	4436
891.118	4386
891.241	4519
891.364	4550
891.488	4611
891.611	4519
891.734	4508
891.857	4584
891.98	4535
892.103	4592
892.226	4558
892.349	4512
892.471	4462
892.594	4489
892.717	4561
892.839	4634
892.962	4558
893.085	4664
893.207	4618
893.33	4436
893.452	4577
893.575	4611
893.697	4611
893.819	4759
893.941	4771
894.064	4740
894.186	4561
894.308	4573
894.43	4729
894.552	4801
894.674	4748
894.796	4508
894.918	4538
895.04	4565
895.161	4687
895.283	4645
895.405	4596
895.526	4611
895.648	4748
895.769	4656
895.891	4729
896.012	4740
896.134	4675
896.255	4653
896.376	4573
896.498	4607
896.619	4630
896.74	4561
896.861	4660
896.982	4930
897.103	5079
897.224	4771
897.345	4767
897.466	4672
897.587	4733
897.708	4873
897.828	4736
897.949	4634
898.07	4512
898.19	4641
898.311	4854
898.431	4656
898.552	4744
898.672	4786
898.792	4755
898.913	4721
899.033	4588
899.153	4508
899.273	4424
899.393	4447
899.513	4523
899.633	4504
899.753	4546
899.873	4516
899.993	4577
900.113	4470
900.232	4588
900.352	4535
900.472	4466
900.591	4375
900.711	4504
900.83	4402
900.95	4634
901.069	4622
901.189	4508
901.308	4379
901.427	4299
901.546	4386
901.665	4455
901.784	4504
901.904	4398
902.023	4356
902.141	4230
902.26	4131
902.379	4322
902.498	4227
902.617	4185
902.735	4394
902.854	4417
902.973	4356
903.091	4185
903.21	4192
903.328	4322
903.446	4268
903.565	4207
903.683	4375
903.801	4318
903.919	4413
904.038	4409
904.156	4284
904.274	4436
904.392	4390
904.51	4390
904.627	4474
904.745	4569
904.863	4626
904.981	4379
905.098	4284
905.216	4379
905.334	4447
905.451	4405
905.569	4379
905.686	4519
905.803	4565
905.921	4383
906.038	4542
906.155	4470
906.272	4390
906.389	4440
906.506	4367
906.623	4344
906.74	4398
906.857	4295
906.974	4409
907.091	4527
907.208	4634
907.324	4599
907.441	4519
907.557	4360
907.674	4314
907.79	4337
907.907	4405
908.023	4478
908.139	4474
908.256	4405
908.372	4474
908.488	4447
908.604	4371
908.72	4322
908.836	4337
908.952	4322
909.068	4428
909.184	4535
909.3	4451
909.415	4554
909.531	4508
909.647	4394
909.762	4344
909.878	4352
909.993	4436
910.108	4424
910.224	4440
910.339	4489
910.454	4398
910.57	4363
910.685	4310
910.8	4626
910.915	4615
911.03	4485
911.145	4322
911.259	4348
911.374	4322
911.489	4310
911.604	4253
911.718	4196
911.833	4185
911.947	4093
912.062	4036
912.176	4173
912.291	4238
912.405	4238
912.519	4432
912.633	4489
912.748	4417
912.862	4352
912.976	4188
913.09	4097
913.204	4188
913.318	4280
913.431	4325
913.545	4371
913.659	4428
913.772	4413
913.886	4230
914	4249
914.113	4352
914.226	4459
914.34	4360
914.453	4253
914.566	4398
914.68	4272
914.793	4299
914.906	4173
915.019	4112
915.132	4071
915.245	4150
915.358	4215
915.47	4246
915.583	4238
915.696	4299
915.809	4432
915.921	4424
916.034	4234
916.146	4211
916.259	4192
916.371	4386
916.483	4348
916.595	4295
916.708	4337
916.82	4344
916.932	4325
917.044	4333
917.156	4295
917.268	4230
917.38	4291
917.491	4265
917.603	4333
917.715	4440
917.826	4421
917.938	4383
918.049	4268
918.161	4417
918.272	4546
918.384	4565
918.495	4470
918.606	4291
918.717	4265
918.828	4386
918.939	4333
919.05	4280
919.161	4329
919.272	4112
919.383	4268
919.494	4451
919.604	4611
919.715	4417
919.826	4367
919.936	4409
920.047	4519
920.157	4489
920.267	4687
920.378	4535
920.488	4481
920.598	4714
920.708	4919
920.818	4752
920.928	4782
921.038	4900
921.148	4946
921.258	4611
921.368	4561
921.477	4531
921.587	4436
921.697	4390
921.806	4516
921.916	4474
922.025	4253
922.134	4268
922.244	4253
922.353	4360
922.462	4188
922.571	4147
922.68	4006
922.789	3994
922.898	3998
923.007	4017
923.116	4120
923.224	4078
923.333	4040
923.442	3983
923.55	3926
923.659	4055
923.767	4082
923.876	4010
923.984	4128
924.092	4013
924.201	4063
924.309	4067
924.417	4112
924.525	4055
924.633	4124
924.741	4858
924.849	3915
924.956	4116
925.064	3934
925.172	3915
925.279	3953
925.387	4044
925.494	4036
925.602	4192
925.709	4192
925.816	4013
925.924	4131
926.031	4204
926.138	4169
926.245	4192
926.352	4044
926.459	4249
926.566	4318
926.673	4154
926.779	4074
926.886	4051
926.993	3979
927.099	3949
927.206	3953
927.312	3930
927.419	4086
927.525	3991
927.631	4097
927.737	3956
927.843	3907
927.95	3831
928.056	3937
928.162	3994
928.267	4036
928.373	4710
928.479	4143
928.585	3846
928.69	4025
928.796	4063
928.901	3979
929.007	3819
929.112	4067
929.218	3922
929.323	3907
929.428	3979
929.533	4124
929.638	3892
929.743	3949
929.848	4044
929.953	3953
930.058	3941
930.163	3762
930.267	3785
930.372	3964
930.477	3755
930.581	4086
930.685	3903
930.79	3819
930.894	3876
930.998	3888
931.103	4025
931.207	3713
931.311	3728
931.415	3622
931.519	3538
931.623	3549
