Data from test_V78500241_2557.txt Node
Date: Fri Mar 25 17:06:46 CST 2022
User: usil
Spectrometer: V785-0024
Trigger mode: 0
Integration Time (sec): 4.000000E-1
Scans to average: 1
Nonlinearity correction enabled: false
Boxcar width: 0
Storing dark spectrum: false
XAxis mode: Wavelengths
Number of Pixels in Spectrum: 1024
>>>>>Begin Spectral Data<<<<<
801.071	8092
801.214	7970
801.356	7826
801.499	7811
801.641	7772
801.783	7807
801.926	7970
802.068	7955
802.211	7928
802.353	8016
802.496	7894
802.638	7833
802.78	7925
802.923	7951
803.065	7894
803.208	7868
803.35	8024
803.492	8100
803.635	8183
803.777	8012
803.919	8123
804.061	8415
804.204	8187
804.346	8065
804.488	8001
804.63	8126
804.773	7989
804.915	8134
805.057	8339
805.199	8157
805.341	8221
805.483	8275
805.626	8221
805.768	8176
805.91	8195
806.052	8206
806.194	8126
806.336	8286
806.478	8107
806.62	8103
806.762	8088
806.904	8240
807.046	8419
807.188	8351
807.33	8290
807.472	8305
807.614	8168
807.756	8107
807.898	7963
808.04	7921
808.182	7898
808.324	7837
808.465	7898
808.607	8096
808.749	8092
808.891	8199
809.033	8305
809.174	8214
809.316	8058
809.458	8130
809.6	8020
809.741	7997
809.883	8123
810.025	8096
810.166	8058
810.308	8050
810.45	8012
810.591	7913
810.733	7757
810.875	7723
811.016	7556
811.158	7495
811.299	7529
811.441	7670
811.582	7712
811.724	7544
811.865	7510
812.007	7616
812.148	7582
812.29	7693
812.431	7731
812.573	7913
812.714	7982
812.855	8130
812.997	8218
813.138	8309
813.279	8126
813.421	8100
813.562	7963
813.703	7879
813.845	7788
813.986	7483
814.127	7297
814.268	7202
814.41	7232
814.551	7141
814.692	7305
814.833	7149
814.974	7095
815.115	7103
815.256	7023
815.397	6928
815.539	6951
815.68	6852
815.821	6810
815.962	6878
816.103	6795
816.244	6677
816.385	6650
816.526	6688
816.666	6486
816.807	6319
816.948	6452
817.089	6441
817.23	6437
817.371	6388
817.512	6388
817.653	6388
817.793	6334
817.934	6395
818.075	6498
818.216	6399
818.356	6422
818.497	6266
818.638	6148
818.778	6171
818.919	6117
819.06	6178
819.2	6342
819.341	6311
819.481	6414
819.622	6612
819.762	6779
819.903	6658
820.043	6665
820.184	6662
820.324	6642
820.465	6673
820.605	6688
820.746	6669
820.886	6559
821.026	6646
821.167	6741
821.307	6745
821.447	6760
821.588	6738
821.728	6608
821.868	6498
822.008	6342
822.149	6410
822.289	6319
822.429	6194
822.569	6034
822.709	6175
822.849	5863
822.99	5935
823.13	5977
823.27	5992
823.41	5821
823.55	5798
823.69	5756
823.83	5775
823.97	5646
824.11	5509
824.25	5512
824.389	5619
824.529	5573
824.669	5547
824.809	5661
824.949	5668
825.089	5668
825.228	5592
825.368	5379
825.508	5326
825.648	5345
825.787	5364
825.927	5402
826.067	5273
826.206	5330
826.346	5387
826.485	5406
826.625	5364
826.765	5524
826.904	5421
827.044	5341
827.183	5254
827.323	5136
827.462	5254
827.601	5197
827.741	5170
827.88	5181
828.02	5159
828.159	5212
828.298	5330
828.437	5322
828.577	5303
828.716	5528
828.855	5345
828.994	5155
829.134	5140
829.273	5155
829.412	5113
829.551	5151
829.69	5151
829.829	5220
829.968	5334
830.107	5284
830.246	5299
830.385	5178
830.524	5174
830.663	5090
830.802	5022
830.941	4870
831.08	4885
831.219	5022
831.357	4972
831.496	5143
831.635	4934
831.774	4908
831.913	4881
832.051	4698
832.19	4740
832.329	4850
832.467	4687
832.606	4698
832.744	4702
832.883	4714
833.022	4714
833.16	4755
833.299	4809
833.437	4824
833.576	4831
833.714	4820
833.852	4847
833.991	4942
834.129	4972
834.267	4927
834.406	4934
834.544	4961
834.682	5003
834.821	4949
834.959	5121
835.097	4995
835.235	5178
835.373	5067
835.511	5143
835.65	5006
835.788	5045
835.926	4904
836.064	4930
836.202	4904
836.34	5166
836.478	5269
836.615	5128
836.753	5204
836.891	5254
837.029	5280
837.167	5178
837.305	5174
837.443	5147
837.58	5113
837.718	5216
837.856	5269
837.993	5185
838.131	5223
838.269	5227
838.406	5197
838.544	5102
838.681	5079
838.819	5052
838.956	4938
839.094	4881
839.231	4991
839.369	5079
839.506	5402
839.643	5216
839.781	5075
839.918	4999
840.055	5166
840.193	5090
840.33	5121
840.467	5113
840.604	5185
840.742	5410
840.879	5109
841.016	5075
841.153	5143
841.29	5357
841.427	5273
841.564	5318
841.701	5330
841.838	5292
841.975	5239
842.112	5265
842.249	5159
842.385	5083
842.522	5334
842.659	5193
842.796	5128
842.933	5162
843.069	5079
843.206	5147
843.343	5288
843.479	5246
843.616	5254
843.752	5056
843.889	5003
844.025	5204
844.162	5022
844.298	5223
844.435	5064
844.571	5071
844.708	5227
844.844	5246
844.98	5337
845.117	5303
845.253	5151
845.389	5117
845.525	5159
845.661	5109
845.798	5006
845.934	5060
846.07	5041
846.206	5159
846.342	5280
846.478	5151
846.614	5029
846.75	4976
846.886	4919
847.022	5147
847.158	5033
847.294	5029
847.429	5113
847.565	5018
847.701	5254
847.837	4850
847.972	4831
848.108	4980
848.244	4965
848.379	4767
848.515	4755
848.65	4782
848.786	4740
848.921	4782
849.057	4877
849.192	4892
849.328	4797
849.463	4793
849.598	4793
849.734	4744
849.869	4679
850.004	4645
850.14	4683
850.275	4603
850.41	4516
850.545	4588
850.68	4596
850.815	4596
850.95	4630
851.085	4839
851.22	4748
851.355	4702
851.49	4634
851.625	4569
851.76	4634
851.895	4542
852.03	4550
852.165	4645
852.299	4675
852.434	4763
852.569	4744
852.703	4797
852.838	4889
852.973	4930
853.107	4892
853.242	4774
853.376	4645
853.511	4546
853.645	4649
853.78	4862
853.914	4672
854.048	4679
854.183	4668
854.317	4717
854.451	4809
854.585	4698
854.72	4649
854.854	4763
854.988	4622
855.122	4626
855.256	4527
855.39	4641
855.524	4752
855.658	4687
855.792	4664
855.926	4740
856.06	4778
856.194	4812
856.327	4725
856.461	4558
856.595	4618
856.729	4687
856.862	4721
856.996	4721
857.13	4744
857.263	4786
857.397	4847
857.53	4645
857.664	4714
857.797	4740
857.931	4797
858.064	4687
858.197	4733
858.331	4672
858.464	4618
858.597	4531
858.731	4615
858.864	4645
858.997	4550
859.13	4626
859.263	4668
859.396	4668
859.529	4599
859.662	4580
859.795	4538
859.928	4592
860.061	4755
860.194	4774
860.327	4580
860.46	4603
860.592	4710
860.725	4721
860.858	4744
860.99	4573
861.123	4558
861.256	4535
861.388	4611
861.521	5299
861.653	4443
861.786	4455
861.918	4470
862.05	4500
862.183	4535
862.315	4611
862.447	4672
862.58	4561
862.712	4394
862.844	4306
862.976	4474
863.108	4466
863.24	4797
863.372	4318
863.504	4421
863.636	4390
863.768	4489
863.9	4417
864.032	4363
864.164	4394
864.296	4451
864.428	4516
864.559	4527
864.691	4489
864.823	4523
864.954	4470
865.086	4451
865.217	4436
865.349	4443
865.48	4459
865.612	4489
865.743	4664
865.875	4447
866.006	4405
866.137	4508
866.269	4443
866.4	4383
866.531	4440
866.662	4409
866.793	4447
866.924	4447
867.055	4504
867.186	4466
867.317	4398
867.448	4360
867.579	4371
867.71	4390
867.841	4322
867.972	4485
868.103	4459
868.233	4474
868.364	4455
868.495	4481
868.625	4691
868.756	4740
868.886	4561
869.017	4599
869.147	4771
869.278	4733
869.408	4664
869.539	4649
869.669	4725
869.799	4656
869.929	4691
870.06	4733
870.19	4984
870.32	4900
870.45	4908
870.58	4980
870.71	5083
870.84	5102
870.97	4923
871.1	4911
871.23	5098
871.36	5132
871.489	4976
871.619	5102
871.749	5086
871.879	5151
872.008	5143
872.138	5048
872.267	5006
872.397	4850
872.526	4774
872.656	4744
872.785	4816
872.915	4972
873.044	5014
873.173	4972
873.303	4991
873.432	4949
873.561	4934
873.69	4938
873.819	4915
873.948	4896
874.077	4858
874.206	4763
874.335	4809
874.464	4930
874.593	5029
874.722	4968
874.851	5105
874.979	5064
875.108	4972
875.237	4915
875.365	4877
875.494	4904
875.623	4961
875.751	4835
875.88	4885
876.008	4968
876.136	5029
876.265	5231
876.393	5341
876.521	5223
876.65	5231
876.778	5166
876.906	5090
877.034	5010
877.162	5045
877.29	5003
877.418	5083
877.546	5045
877.674	5045
877.802	5033
877.93	5006
878.058	4927
878.185	4881
878.313	4999
878.441	4930
878.568	4828
878.696	4889
878.824	4892
878.951	4999
879.079	5075
879.206	5242
879.333	5128
879.461	4995
879.588	4980
879.715	5132
879.842	5216
879.97	5052
880.097	4843
880.224	4820
880.351	4755
880.478	4828
880.605	4812
880.732	4831
880.859	5060
880.986	4904
881.112	4892
881.239	4797
881.366	4702
881.493	4592
881.619	4599
881.746	4634
881.872	4622
881.999	4664
882.125	4736
882.252	4801
882.378	4790
882.505	4957
882.631	4759
882.757	4660
882.883	4717
883.01	4744
883.136	4664
883.262	4596
883.388	4630
883.514	4828
883.64	4885
883.766	4733
883.892	4679
884.018	4691
884.143	4889
884.269	5025
884.395	4717
884.52	4634
884.646	4664
884.772	4596
884.897	4546
885.023	4687
885.148	4740
885.274	4885
885.399	4790
885.524	4710
885.65	4702
885.775	4706
885.9	4721
886.025	4824
886.15	4763
886.275	4736
886.4	4596
886.525	4733
886.65	4683
886.775	4729
886.9	4904
887.025	5006
887.149	4809
887.274	4679
887.399	4588
887.523	4573
887.648	4573
887.773	4535
887.897	4748
888.021	4744
888.146	4691
888.27	4790
888.395	4877
888.519	4809
888.643	4820
888.767	4767
888.891	4630
889.015	4599
889.139	4668
889.263	4603
889.387	4740
889.511	4870
889.635	4763
889.759	4637
889.883	4603
890.006	4702
890.13	4831
890.254	4558
890.377	4672
890.501	4561
890.624	4508
890.748	4603
890.871	4497
890.995	4440
891.118	4390
891.241	4569
891.364	4474
891.488	4603
891.611	4466
891.734	4561
891.857	4615
891.98	4565
892.103	4630
892.226	4592
892.349	4516
892.471	4421
892.594	4512
892.717	4592
892.839	4516
892.962	4607
893.085	4672
893.207	4626
893.33	4432
893.452	4558
893.575	4683
893.697	4577
893.819	4790
893.941	4820
894.064	4801
894.186	4641
894.308	4580
894.43	4736
894.552	4771
894.674	4771
894.796	4561
894.918	4618
895.04	4542
895.161	4656
895.283	4672
895.405	4637
895.526	4637
895.648	4714
895.769	4698
895.891	4706
896.012	4748
896.134	4675
896.255	4702
896.376	4634
896.498	4615
896.619	4668
896.74	4573
896.861	4641
896.982	4927
897.103	5060
897.224	4892
897.345	4698
897.466	4672
897.587	4721
897.708	4843
897.828	4805
897.949	4702
898.07	4531
898.19	4615
898.311	4790
898.431	4687
898.552	4755
898.672	4786
898.792	4820
898.913	4721
899.033	4626
899.153	4474
899.273	4398
899.393	4489
899.513	4508
899.633	4485
899.753	4558
899.873	4527
899.993	4565
900.113	4542
900.232	4554
900.352	4561
900.472	4432
900.591	4383
900.711	4436
900.83	4402
900.95	4580
901.069	4710
901.189	4565
901.308	4363
901.427	4276
901.546	4348
901.665	4508
901.784	4523
901.904	4394
902.023	4284
902.141	4181
902.26	4143
902.379	4318
902.498	4268
902.617	4234
902.735	4325
902.854	4402
902.973	4352
903.091	4207
903.21	4249
903.328	4322
903.446	4246
903.565	4238
903.683	4371
903.801	4246
903.919	4356
904.038	4360
904.156	4287
904.274	4428
904.392	4390
904.51	4390
904.627	4519
904.745	4538
904.863	4634
904.981	4440
905.098	4303
905.216	4386
905.334	4436
905.451	4428
905.569	4432
905.686	4550
905.803	4565
905.921	4394
906.038	4512
906.155	4470
906.272	4421
906.389	4485
906.506	4329
906.623	4402
906.74	4413
906.857	4291
906.974	4371
907.091	4592
907.208	4687
907.324	4656
907.441	4485
907.557	4318
907.674	4371
907.79	4325
907.907	4398
908.023	4436
908.139	4443
908.256	4500
908.372	4462
908.488	4493
908.604	4360
908.72	4295
908.836	4356
908.952	4386
909.068	4386
909.184	4573
909.3	4481
909.415	4577
909.531	4546
909.647	4386
909.762	4379
909.878	4344
909.993	4440
910.108	4417
910.224	4432
910.339	4516
910.454	4333
910.57	4363
910.685	4329
910.8	4615
910.915	4599
911.03	4455
911.145	4337
911.259	4322
911.374	4390
911.489	4303
911.604	4253
911.718	4204
911.833	4192
911.947	4071
912.062	4029
912.176	4215
912.291	4272
912.405	4268
912.519	4459
912.633	4489
912.748	4386
912.862	4352
912.976	4211
913.09	4093
913.204	4200
913.318	4276
913.431	4363
913.545	4421
913.659	4489
913.772	4352
913.886	4246
914	4223
914.113	4402
914.226	4447
914.34	4341
914.453	4257
914.566	4405
914.68	4246
914.793	4310
914.906	4147
915.019	4105
915.132	4063
915.245	4211
915.358	4192
915.47	4265
915.583	4276
915.696	4276
915.809	4371
915.921	4447
916.034	4280
916.146	4238
916.259	4177
916.371	4386
916.483	4337
916.595	4261
916.708	4314
916.82	4287
916.932	4325
917.044	4291
917.156	4325
917.268	4219
917.38	4246
917.491	4261
917.603	4348
917.715	4466
917.826	4451
917.938	4322
918.049	4234
918.161	4375
918.272	4573
918.384	4500
918.495	4497
918.606	4284
918.717	4204
918.828	4303
918.939	4356
919.05	4287
919.161	4348
919.272	4097
919.383	4253
919.494	4474
919.604	4607
919.715	4436
919.826	4314
919.936	4367
920.047	4573
920.157	4474
920.267	4733
920.378	4504
920.488	4516
920.598	4714
920.708	4896
920.818	4736
920.928	4786
921.038	4980
921.148	4915
921.258	4626
921.368	4558
921.477	4481
921.587	4432
921.697	4379
921.806	4580
921.916	4405
922.025	4268
922.134	4295
922.244	4219
922.353	4284
922.462	4158
922.571	4166
922.68	3991
922.789	3953
922.898	4067
923.007	4002
923.116	4071
923.224	4051
923.333	4067
923.442	4032
923.55	3998
923.659	4021
923.767	4109
923.876	3998
923.984	4101
924.092	3941
924.201	4032
924.309	4071
924.417	4116
924.525	4059
924.633	4051
924.741	5052
924.849	3941
924.956	4131
925.064	3949
925.172	3884
925.279	3960
925.387	4059
925.494	4097
925.602	4154
925.709	4185
925.816	3994
925.924	4078
926.031	4211
926.138	4162
926.245	4249
926.352	4074
926.459	4223
926.566	4325
926.673	4131
926.779	4032
926.886	4093
926.993	3960
927.099	3968
927.206	3922
927.312	3941
927.419	4040
927.525	4044
927.631	4109
927.737	3945
927.843	3983
927.95	3896
928.056	3945
928.162	4002
928.267	4090
928.373	4584
928.479	4154
928.585	3827
928.69	4044
928.796	4036
928.901	3983
929.007	3831
929.112	3987
929.218	3949
929.323	3922
929.428	3956
929.533	4116
929.638	3918
929.743	4002
929.848	4025
929.953	4006
930.058	3956
930.163	3755
930.267	3831
930.372	3975
930.477	3816
930.581	4086
930.685	3953
930.79	3789
930.894	3857
930.998	3846
931.103	4074
931.207	3751
931.311	3675
931.415	3713
931.519	3564
931.623	3561
