Data from test_V78500241_1536.txt Node
Date: Fri Mar 25 16:59:40 CST 2022
User: usil
Spectrometer: V785-0024
Trigger mode: 0
Integration Time (sec): 4.000000E-1
Scans to average: 1
Nonlinearity correction enabled: false
Boxcar width: 0
Storing dark spectrum: false
XAxis mode: Wavelengths
Number of Pixels in Spectrum: 1024
>>>>>Begin Spectral Data<<<<<
801.071	7993
801.214	8024
801.356	7940
801.499	7879
801.641	7845
801.783	7852
801.926	7967
802.068	7921
802.211	7997
802.353	7936
802.496	7883
802.638	7871
802.78	7936
802.923	7928
803.065	7898
803.208	7826
803.35	7978
803.492	8115
803.635	8161
803.777	7947
803.919	8157
804.061	8446
804.204	8142
804.346	8020
804.488	7997
804.63	8107
804.773	8005
804.915	8065
805.057	8252
805.199	8206
805.341	8206
805.483	8240
805.626	8206
805.768	8115
805.91	8187
806.052	8252
806.194	8145
806.336	8267
806.478	8103
806.62	8035
806.762	8191
806.904	8324
807.046	8484
807.188	8336
807.33	8298
807.472	8317
807.614	8176
807.756	8107
807.898	8016
808.04	7951
808.182	7921
808.324	7894
808.465	7909
808.607	8073
808.749	8168
808.891	8157
809.033	8313
809.174	8233
809.316	8103
809.458	8031
809.6	8027
809.741	8050
809.883	8005
810.025	8119
810.166	8088
810.308	8084
810.45	7967
810.591	7830
810.733	7738
810.875	7647
811.016	7495
811.158	7563
811.299	7674
811.441	7712
811.582	7666
811.724	7540
811.865	7567
812.007	7597
812.148	7571
812.29	7578
812.431	7750
812.573	7925
812.714	8039
812.855	8096
812.997	8237
813.138	8351
813.279	8214
813.421	8157
813.562	7909
813.703	7925
813.845	7769
813.986	7476
814.127	7263
814.268	7164
814.41	7179
814.551	7160
814.692	7171
814.833	7046
814.974	7145
815.115	7110
815.256	7023
815.397	6954
815.539	6939
815.68	6779
815.821	6821
815.962	6882
816.103	6814
816.244	6639
816.385	6642
816.526	6551
816.666	6509
816.807	6289
816.948	6445
817.089	6521
817.23	6388
817.371	6414
817.512	6376
817.653	6384
817.793	6338
817.934	6437
818.075	6467
818.216	6437
818.356	6384
818.497	6216
818.638	6140
818.778	6117
818.919	6110
819.06	6228
819.2	6296
819.341	6323
819.481	6365
819.622	6509
819.762	6738
819.903	6719
820.043	6566
820.184	6593
820.324	6612
820.465	6703
820.605	6703
820.746	6642
820.886	6441
821.026	6700
821.167	6620
821.307	6810
821.447	6764
821.588	6654
821.728	6563
821.868	6513
822.008	6338
822.149	6429
822.289	6410
822.429	6144
822.569	6045
822.709	6125
822.849	5901
822.99	5950
823.13	5897
823.27	5923
823.41	5760
823.55	5840
823.69	5817
823.83	5745
823.97	5672
824.11	5532
824.25	5490
824.389	5547
824.529	5577
824.669	5497
824.809	5642
824.949	5657
825.089	5592
825.228	5562
825.368	5395
825.508	5376
825.648	5330
825.787	5387
825.927	5368
826.067	5288
826.206	5334
826.346	5398
826.485	5410
826.625	5376
826.765	5566
826.904	5482
827.044	5292
827.183	5193
827.323	5132
827.462	5246
827.601	5109
827.741	5185
827.88	5231
828.02	5105
828.159	5193
828.298	5326
828.437	5349
828.577	5280
828.716	5471
828.855	5326
828.994	5151
829.134	5162
829.273	5208
829.412	5147
829.551	5124
829.69	5227
829.829	5223
829.968	5345
830.107	5239
830.246	5269
830.385	5159
830.524	5143
830.663	5048
830.802	4976
830.941	4881
831.08	4854
831.219	4984
831.357	4999
831.496	5181
831.635	4900
831.774	4839
831.913	4850
832.051	4748
832.19	4706
832.329	4847
832.467	4634
832.606	4611
832.744	4748
832.883	4675
833.022	4721
833.16	4824
833.299	4850
833.437	4824
833.576	4820
833.714	4873
833.852	4866
833.991	4911
834.129	4980
834.267	5003
834.406	4911
834.544	5022
834.682	4991
834.821	4984
834.959	5132
835.097	4957
835.235	5136
835.373	5113
835.511	5090
835.65	5037
835.788	5014
835.926	4896
836.064	4809
836.202	4946
836.34	5147
836.478	5227
836.615	5162
836.753	5227
836.891	5250
837.029	5299
837.167	5201
837.305	5132
837.443	5151
837.58	5075
837.718	5216
837.856	5178
837.993	5121
838.131	5231
838.269	5208
838.406	5216
838.544	5189
838.681	5060
838.819	5071
838.956	4919
839.094	4930
839.231	4987
839.369	5121
839.506	5455
839.643	5181
839.781	5033
839.918	5018
840.055	5132
840.193	5086
840.33	5105
840.467	5132
840.604	5132
840.742	5459
840.879	5037
841.016	5086
841.153	5128
841.29	5414
841.427	5334
841.564	5299
841.701	5303
841.838	5288
841.975	5242
842.112	5246
842.249	5178
842.385	5105
842.522	5357
842.659	5193
842.796	5136
842.933	5117
843.069	5170
843.206	5151
843.343	5318
843.479	5258
843.616	5208
843.752	5056
843.889	5037
844.025	5227
844.162	5003
844.298	5197
844.435	5048
844.571	5083
844.708	5208
844.844	5341
844.98	5364
845.117	5299
845.253	5181
845.389	5105
845.525	5132
845.661	5124
845.798	4999
845.934	5170
846.07	5041
846.206	5189
846.342	5277
846.478	5212
846.614	5045
846.75	5041
846.886	4976
847.022	5181
847.158	4999
847.294	5067
847.429	5143
847.565	5052
847.701	5364
847.837	4843
847.972	4774
848.108	4991
848.244	4949
848.379	4793
848.515	4748
848.65	4733
848.786	4694
848.921	4729
849.057	4896
849.192	4828
849.328	4839
849.463	4847
849.598	4790
849.734	4721
849.869	4706
850.004	4653
850.14	4634
850.275	4561
850.41	4516
850.545	4531
850.68	4584
850.815	4603
850.95	4634
851.085	4847
851.22	4698
851.355	4626
851.49	4603
851.625	4653
851.76	4653
851.895	4504
852.03	4550
852.165	4615
852.299	4691
852.434	4809
852.569	4733
852.703	4740
852.838	4892
852.973	4919
853.107	4927
853.242	4736
853.376	4630
853.511	4561
853.645	4611
853.78	4820
853.914	4679
854.048	4672
854.183	4664
854.317	4691
854.451	4790
854.585	4683
854.72	4683
854.854	4752
854.988	4573
855.122	4664
855.256	4584
855.39	4687
855.524	4793
855.658	4698
855.792	4653
855.926	4744
856.06	4752
856.194	4790
856.327	4683
856.461	4577
856.595	4618
856.729	4565
856.862	4786
856.996	4687
857.13	4687
857.263	4740
857.397	4809
857.53	4588
857.664	4672
857.797	4771
857.931	4725
858.064	4702
858.197	4736
858.331	4622
858.464	4569
858.597	4577
858.731	4630
858.864	4653
858.997	4603
859.13	4725
859.263	4668
859.396	4668
859.529	4554
859.662	4577
859.795	4542
859.928	4615
860.061	4725
860.194	4717
860.327	4626
860.46	4580
860.592	4687
860.725	4759
860.858	4702
860.99	4580
861.123	4546
861.256	4519
861.388	4615
861.521	5303
861.653	4500
861.786	4478
861.918	4474
862.05	4519
862.183	4577
862.315	4588
862.447	4611
862.58	4504
862.712	4390
862.844	4306
862.976	4428
863.108	4455
863.24	4793
863.372	4318
863.504	4390
863.636	4390
863.768	4519
863.9	4432
864.032	4344
864.164	4409
864.296	4462
864.428	4546
864.559	4554
864.691	4508
864.823	4470
864.954	4500
865.086	4516
865.217	4481
865.349	4390
865.48	4485
865.612	4462
865.743	4622
865.875	4478
866.006	4451
866.137	4462
866.269	4440
866.4	4417
866.531	4436
866.662	4428
866.793	4394
866.924	4402
867.055	4459
867.186	4390
867.317	4409
867.448	4375
867.579	4424
867.71	4367
867.841	4402
867.972	4428
868.103	4466
868.233	4440
868.364	4428
868.495	4500
868.625	4626
868.756	4755
868.886	4542
869.017	4599
869.147	4786
869.278	4733
869.408	4679
869.539	4611
869.669	4698
869.799	4664
869.929	4752
870.06	4714
870.19	4934
870.32	4934
870.45	4934
870.58	4999
870.71	5064
870.84	5079
870.97	4946
871.1	4908
871.23	5132
871.36	5098
871.489	4995
871.619	5064
871.749	5117
871.879	5132
872.008	5136
872.138	5067
872.267	4968
872.397	4866
872.526	4767
872.656	4687
872.785	4828
872.915	4930
873.044	5025
873.173	4923
873.303	4957
873.432	4961
873.561	4984
873.69	4843
873.819	4828
873.948	4911
874.077	4850
874.206	4744
874.335	4797
874.464	4908
874.593	5052
874.722	4972
874.851	5113
874.979	5060
875.108	5010
875.237	4919
875.365	4938
875.494	4881
875.623	4934
875.751	4805
875.88	4843
876.008	4980
876.136	5052
876.265	5189
876.393	5284
876.521	5227
876.65	5212
876.778	5147
876.906	5071
877.034	5033
877.162	5003
877.29	4968
877.418	5064
877.546	5033
877.674	5045
877.802	4957
877.93	4999
878.058	4961
878.185	4900
878.313	4968
878.441	4968
878.568	4786
878.696	4900
878.824	4946
878.951	4987
879.079	5094
879.206	5296
879.333	5109
879.461	4946
879.588	4995
879.715	5094
879.842	5254
879.97	4987
880.097	4782
880.224	4778
880.351	4812
880.478	4839
880.605	4809
880.732	4812
880.859	5083
880.986	4881
881.112	4839
881.239	4786
881.366	4584
881.493	4573
881.619	4592
881.746	4653
881.872	4615
881.999	4653
882.125	4660
882.252	4774
882.378	4816
882.505	4942
882.631	4793
882.757	4637
882.883	4759
883.01	4694
883.136	4664
883.262	4561
883.388	4649
883.514	4793
883.64	4847
883.766	4812
883.892	4687
884.018	4729
884.143	4919
884.269	4965
884.395	4748
884.52	4618
884.646	4679
884.772	4584
884.897	4542
885.023	4679
885.148	4820
885.274	4873
885.399	4759
885.524	4714
885.65	4630
885.775	4771
885.9	4706
886.025	4839
886.15	4820
886.275	4687
886.4	4626
886.525	4687
886.65	4694
886.775	4668
886.9	4870
887.025	5037
887.149	4805
887.274	4698
887.399	4615
887.523	4615
887.648	4630
887.773	4554
887.897	4790
888.021	4805
888.146	4637
888.27	4797
888.395	4896
888.519	4793
888.643	4801
888.767	4828
888.891	4679
889.015	4615
889.139	4634
889.263	4584
889.387	4714
889.511	4839
889.635	4805
889.759	4607
889.883	4630
890.006	4698
890.13	4820
890.254	4577
890.377	4683
890.501	4523
890.624	4474
890.748	4641
890.871	4508
890.995	4417
891.118	4379
891.241	4459
891.364	4504
891.488	4618
891.611	4493
891.734	4512
891.857	4626
891.98	4550
892.103	4626
892.226	4565
892.349	4497
892.471	4417
892.594	4478
892.717	4584
892.839	4561
892.962	4596
893.085	4653
893.207	4580
893.33	4447
893.452	4504
893.575	4645
893.697	4588
893.819	4793
893.941	4847
894.064	4702
894.186	4561
894.308	4584
894.43	4767
894.552	4793
894.674	4717
894.796	4577
894.918	4626
895.04	4603
895.161	4736
895.283	4630
895.405	4580
895.526	4649
895.648	4630
895.769	4668
895.891	4736
896.012	4679
896.134	4664
896.255	4679
896.376	4607
896.498	4622
896.619	4664
896.74	4607
896.861	4641
896.982	4866
897.103	5075
897.224	4870
897.345	4767
897.466	4679
897.587	4725
897.708	4824
897.828	4797
897.949	4672
898.07	4546
898.19	4645
898.311	4786
898.431	4664
898.552	4721
898.672	4801
898.792	4774
898.913	4729
899.033	4580
899.153	4523
899.273	4424
899.393	4481
899.513	4531
899.633	4538
899.753	4546
899.873	4481
899.993	4607
900.113	4538
900.232	4573
900.352	4478
900.472	4470
900.591	4367
900.711	4497
900.83	4436
900.95	4592
901.069	4683
901.189	4531
901.308	4371
901.427	4322
901.546	4405
901.665	4485
901.784	4519
901.904	4383
902.023	4371
902.141	4192
902.26	4147
902.379	4284
902.498	4310
902.617	4204
902.735	4341
902.854	4413
902.973	4360
903.091	4223
903.21	4242
903.328	4257
903.446	4265
903.565	4253
903.683	4383
903.801	4284
903.919	4398
904.038	4447
904.156	4287
904.274	4447
904.392	4348
904.51	4413
904.627	4432
904.745	4569
904.863	4630
904.981	4360
905.098	4303
905.216	4367
905.334	4421
905.451	4447
905.569	4432
905.686	4523
905.803	4573
905.921	4409
906.038	4538
906.155	4470
906.272	4398
906.389	4447
906.506	4333
906.623	4386
906.74	4367
906.857	4318
906.974	4413
907.091	4538
907.208	4679
907.324	4550
907.441	4455
907.557	4337
907.674	4337
907.79	4344
907.907	4394
908.023	4466
908.139	4542
908.256	4413
908.372	4470
908.488	4413
908.604	4348
908.72	4318
908.836	4333
908.952	4394
909.068	4405
909.184	4516
909.3	4504
909.415	4573
909.531	4550
909.647	4337
909.762	4356
909.878	4322
909.993	4379
910.108	4394
910.224	4440
910.339	4466
910.454	4413
910.57	4344
910.685	4272
910.8	4649
910.915	4626
911.03	4485
911.145	4291
911.259	4325
911.374	4417
911.489	4352
911.604	4284
911.718	4147
911.833	4181
911.947	4051
912.062	4006
912.176	4196
912.291	4219
912.405	4219
912.519	4485
912.633	4470
912.748	4371
912.862	4325
912.976	4181
913.09	4093
913.204	4215
913.318	4230
913.431	4375
913.545	4383
913.659	4440
913.772	4310
913.886	4223
914	4230
914.113	4352
914.226	4405
914.34	4398
914.453	4249
914.566	4478
914.68	4303
914.793	4299
914.906	4185
915.019	4097
915.132	4048
915.245	4158
915.358	4181
915.47	4238
915.583	4223
915.696	4276
915.809	4386
915.921	4409
916.034	4238
916.146	4261
916.259	4204
916.371	4390
916.483	4348
916.595	4268
916.708	4276
916.82	4306
916.932	4242
917.044	4337
917.156	4402
917.268	4261
917.38	4246
917.491	4265
917.603	4306
917.715	4390
917.826	4478
917.938	4367
918.049	4238
918.161	4443
918.272	4531
918.384	4573
918.495	4455
918.606	4306
918.717	4196
918.828	4318
918.939	4375
919.05	4257
919.161	4333
919.272	4128
919.383	4211
919.494	4512
919.604	4618
919.715	4424
919.826	4386
919.936	4413
920.047	4493
920.157	4497
920.267	4706
920.378	4573
920.488	4497
920.598	4687
920.708	4858
920.818	4767
920.928	4714
921.038	4881
921.148	4892
921.258	4596
921.368	4561
921.477	4432
921.587	4451
921.697	4371
921.806	4531
921.916	4428
922.025	4211
922.134	4261
922.244	4234
922.353	4329
922.462	4166
922.571	4101
922.68	3983
922.789	3949
922.898	4025
923.007	3987
923.116	4071
923.224	4013
923.333	4078
923.442	3983
923.55	3941
923.659	4044
923.767	4078
923.876	4010
923.984	4063
924.092	3987
924.201	4078
924.309	4051
924.417	4112
924.525	4051
924.633	4082
924.741	4866
924.849	3880
924.956	4093
925.064	3972
925.172	3892
925.279	3937
925.387	4021
925.494	4021
925.602	4204
925.709	4166
925.816	4021
925.924	4143
926.031	4234
926.138	4173
926.245	4173
926.352	4082
926.459	4227
926.566	4276
926.673	4128
926.779	4074
926.886	4090
926.993	3964
927.099	3941
927.206	3956
927.312	3907
927.419	4048
927.525	4055
927.631	4063
927.737	3964
927.843	3972
927.95	3861
928.056	3964
928.162	3983
928.267	4086
928.373	4580
928.479	4109
928.585	3865
928.69	4032
928.796	4063
928.901	3941
929.007	3808
929.112	3972
929.218	3956
929.323	3937
929.428	3949
929.533	4082
929.638	3907
929.743	3975
929.848	4044
929.953	3979
930.058	3941
930.163	3762
930.267	3846
930.372	3987
930.477	3857
930.581	4097
930.685	3926
930.79	3816
930.894	3888
930.998	3842
931.103	4036
931.207	3701
931.311	3671
931.415	3660
931.519	3500
931.623	3591
