Data from test_V78500241_1407.txt Node
Date: Fri Mar 25 16:58:47 CST 2022
User: usil
Spectrometer: V785-0024
Trigger mode: 0
Integration Time (sec): 4.000000E-1
Scans to average: 1
Nonlinearity correction enabled: false
Boxcar width: 0
Storing dark spectrum: false
XAxis mode: Wavelengths
Number of Pixels in Spectrum: 1024
>>>>>Begin Spectral Data<<<<<
801.071	8073
801.214	8005
801.356	7951
801.499	7852
801.641	7811
801.783	7765
801.926	7932
802.068	7940
802.211	8012
802.353	8008
802.496	7932
802.638	7845
802.78	7898
802.923	7917
803.065	7913
803.208	7841
803.35	7936
803.492	8069
803.635	8134
803.777	7989
803.919	8100
804.061	8404
804.204	8145
804.346	8084
804.488	7997
804.63	8035
804.773	8020
804.915	8126
805.057	8267
805.199	8164
805.341	8161
805.483	8229
805.626	8180
805.768	8142
805.91	8233
806.052	8218
806.194	8073
806.336	8259
806.478	8084
806.62	8046
806.762	8103
806.904	8240
807.046	8484
807.188	8339
807.33	8324
807.472	8279
807.614	8153
807.756	8130
807.898	7970
808.04	7909
808.182	7856
808.324	7906
808.465	7921
808.607	8031
808.749	8176
808.891	8210
809.033	8252
809.174	8259
809.316	8020
809.458	8027
809.6	7951
809.741	8016
809.883	8001
810.025	8043
810.166	8134
810.308	8046
810.45	8027
810.591	7925
810.733	7738
810.875	7620
811.016	7510
811.158	7514
811.299	7529
811.441	7734
811.582	7655
811.724	7567
811.865	7552
812.007	7590
812.148	7571
812.29	7575
812.431	7753
812.573	7887
812.714	7963
812.855	8069
812.997	8172
813.138	8298
813.279	8161
813.421	8050
813.562	8008
813.703	7833
813.845	7712
813.986	7445
814.127	7194
814.268	7244
814.41	7202
814.551	7114
814.692	7190
814.833	7149
814.974	7042
815.115	7069
815.256	6939
815.397	6890
815.539	6993
815.68	6821
815.821	6749
815.962	6829
816.103	6833
816.244	6692
816.385	6608
816.526	6639
816.666	6456
816.807	6292
816.948	6429
817.089	6502
817.23	6418
817.371	6342
817.512	6422
817.653	6334
817.793	6357
817.934	6403
818.075	6456
818.216	6384
818.356	6410
818.497	6273
818.638	6068
818.778	6114
818.919	6140
819.06	6178
819.2	6281
819.341	6315
819.481	6327
819.622	6479
819.762	6757
819.903	6730
820.043	6570
820.184	6551
820.324	6551
820.465	6711
820.605	6669
820.746	6665
820.886	6517
821.026	6627
821.167	6696
821.307	6749
821.447	6795
821.588	6635
821.728	6574
821.868	6494
822.008	6304
822.149	6365
822.289	6338
822.429	6140
822.569	6060
822.709	6087
822.849	5916
822.99	5908
823.13	5908
823.27	5897
823.41	5844
823.55	5775
823.69	5817
823.83	5805
823.97	5688
824.11	5547
824.25	5528
824.389	5592
824.529	5570
824.669	5516
824.809	5630
824.949	5680
825.089	5668
825.228	5608
825.368	5444
825.508	5398
825.648	5455
825.787	5436
825.927	5467
826.067	5318
826.206	5345
826.346	5387
826.485	5471
826.625	5436
826.765	5581
826.904	5436
827.044	5280
827.183	5239
827.323	5185
827.462	5239
827.601	5227
827.741	5227
827.88	5288
828.02	5185
828.159	5231
828.298	5330
828.437	5444
828.577	5280
828.716	5524
828.855	5360
828.994	5212
829.134	5185
829.273	5258
829.412	5113
829.551	5162
829.69	5208
829.829	5231
829.968	5387
830.107	5364
830.246	5311
830.385	5155
830.524	5170
830.663	5136
830.802	4957
830.941	4987
831.08	4949
831.219	5029
831.357	4946
831.496	5181
831.635	4919
831.774	4900
831.913	4915
832.051	4733
832.19	4774
832.329	4847
832.467	4725
832.606	4679
832.744	4717
832.883	4752
833.022	4805
833.16	4824
833.299	4839
833.437	4843
833.576	4835
833.714	4892
833.852	4854
833.991	4904
834.129	5018
834.267	5006
834.406	4934
834.544	5018
834.682	5003
834.821	4980
834.959	5208
835.097	5029
835.235	5204
835.373	5113
835.511	5143
835.65	5075
835.788	5067
835.926	4896
836.064	4858
836.202	4915
836.34	5269
836.478	5246
836.615	5162
836.753	5193
836.891	5326
837.029	5269
837.167	5273
837.305	5208
837.443	5208
837.58	5079
837.718	5326
837.856	5220
837.993	5166
838.131	5296
838.269	5284
838.406	5216
838.544	5258
838.681	5105
838.819	5056
838.956	4892
839.094	4889
839.231	4972
839.369	5094
839.506	5406
839.643	5307
839.781	5185
839.918	5037
840.055	5121
840.193	5048
840.33	5086
840.467	5147
840.604	5303
840.742	5478
840.879	5113
841.016	5117
841.153	5166
841.29	5383
841.427	5360
841.564	5326
841.701	5425
841.838	5296
841.975	5284
842.112	5296
842.249	5204
842.385	5136
842.522	5315
842.659	5204
842.796	5174
842.933	5193
843.069	5273
843.206	5197
843.343	5303
843.479	5296
843.616	5311
843.752	5018
843.889	5003
844.025	5239
844.162	5041
844.298	5258
844.435	5052
844.571	5124
844.708	5166
844.844	5307
844.98	5387
845.117	5296
845.253	5212
845.389	5079
845.525	5212
845.661	5162
845.798	5045
845.934	5147
846.07	5018
846.206	5250
846.342	5284
846.478	5162
846.614	5052
846.75	4995
846.886	4965
847.022	5140
847.158	5029
847.294	5086
847.429	5109
847.565	5102
847.701	5284
847.837	4858
847.972	4828
848.108	4968
848.244	4965
848.379	4847
848.515	4805
848.65	4801
848.786	4710
848.921	4839
849.057	4927
849.192	4942
849.328	4862
849.463	4854
849.598	4809
849.734	4786
849.869	4717
850.004	4660
850.14	4691
850.275	4656
850.41	4569
850.545	4630
850.68	4637
850.815	4626
850.95	4672
851.085	4828
851.22	4786
851.355	4744
851.49	4626
851.625	4634
851.76	4637
851.895	4596
852.03	4531
852.165	4679
852.299	4759
852.434	4782
852.569	4774
852.703	4786
852.838	4885
852.973	4953
853.107	4934
853.242	4759
853.376	4672
853.511	4542
853.645	4611
853.78	4820
853.914	4725
854.048	4660
854.183	4710
854.317	4774
854.451	4877
854.585	4721
854.72	4675
854.854	4812
854.988	4577
855.122	4596
855.256	4466
855.39	4698
855.524	4805
855.658	4714
855.792	4721
855.926	4755
856.06	4793
856.194	4843
856.327	4729
856.461	4592
856.595	4634
856.729	4656
856.862	4774
856.996	4691
857.13	4729
857.263	4828
857.397	4786
857.53	4653
857.664	4721
857.797	4824
857.931	4793
858.064	4706
858.197	4763
858.331	4687
858.464	4649
858.597	4519
858.731	4679
858.864	4687
858.997	4592
859.13	4672
859.263	4660
859.396	4744
859.529	4634
859.662	4611
859.795	4592
859.928	4649
860.061	4786
860.194	4854
860.327	4641
860.46	4615
860.592	4774
860.725	4763
860.858	4714
860.99	4622
861.123	4531
861.256	4535
861.388	4599
861.521	5444
861.653	4455
861.786	4451
861.918	4500
862.05	4489
862.183	4622
862.315	4577
862.447	4656
862.58	4615
862.712	4440
862.844	4303
862.976	4466
863.108	4500
863.24	4911
863.372	4394
863.504	4447
863.636	4337
863.768	4485
863.9	4402
864.032	4367
864.164	4402
864.296	4478
864.428	4531
864.559	4565
864.691	4531
864.823	4565
864.954	4542
865.086	4523
865.217	4459
865.349	4421
865.48	4508
865.612	4569
865.743	4645
865.875	4459
866.006	4421
866.137	4424
866.269	4436
866.4	4504
866.531	4455
866.662	4402
866.793	4424
866.924	4424
867.055	4504
867.186	4485
867.317	4432
867.448	4371
867.579	4432
867.71	4459
867.841	4360
867.972	4489
868.103	4466
868.233	4489
868.364	4440
868.495	4504
868.625	4649
868.756	4752
868.886	4554
869.017	4660
869.147	4744
869.278	4755
869.408	4679
869.539	4702
869.669	4687
869.799	4717
869.929	4782
870.06	4759
870.19	4968
870.32	4961
870.45	4911
870.58	5048
870.71	5083
870.84	5121
870.97	4923
871.1	4904
871.23	5128
871.36	5113
871.489	4987
871.619	5041
871.749	5052
871.879	5121
872.008	5166
872.138	5094
872.267	4949
872.397	4835
872.526	4862
872.656	4748
872.785	4824
872.915	4999
873.044	5029
873.173	4919
873.303	5003
873.432	4980
873.561	4961
873.69	4889
873.819	4881
873.948	4911
874.077	4854
874.206	4801
874.335	4816
874.464	4915
874.593	5037
874.722	4957
874.851	5079
874.979	5056
875.108	5079
875.237	4862
875.365	4873
875.494	4930
875.623	4972
875.751	4805
875.88	4904
876.008	4991
876.136	5052
876.265	5193
876.393	5337
876.521	5284
876.65	5318
876.778	5132
876.906	5052
877.034	5037
877.162	5071
877.29	5025
877.418	5098
877.546	5029
877.674	5067
877.802	5033
877.93	5029
878.058	4980
878.185	4919
878.313	4946
878.441	4957
878.568	4809
878.696	4870
878.824	4965
878.951	4965
879.079	5128
879.206	5277
879.333	5109
879.461	4953
879.588	4976
879.715	5121
879.842	5220
879.97	4987
880.097	4759
880.224	4740
880.351	4790
880.478	4824
880.605	4786
880.732	4790
880.859	5075
880.986	4911
881.112	4900
881.239	4736
881.366	4725
881.493	4584
881.619	4618
881.746	4679
881.872	4660
881.999	4702
882.125	4683
882.252	4816
882.378	4824
882.505	4946
882.631	4793
882.757	4668
882.883	4721
883.01	4755
883.136	4622
883.262	4645
883.388	4630
883.514	4752
883.64	4843
883.766	4793
883.892	4702
884.018	4729
884.143	4911
884.269	5003
884.395	4672
884.52	4645
884.646	4702
884.772	4599
884.897	4546
885.023	4691
885.148	4824
885.274	4881
885.399	4774
885.524	4763
885.65	4698
885.775	4744
885.9	4748
886.025	4881
886.15	4744
886.275	4725
886.4	4683
886.525	4683
886.65	4672
886.775	4660
886.9	4896
887.025	5033
887.149	4793
887.274	4706
887.399	4546
887.523	4626
887.648	4588
887.773	4634
887.897	4782
888.021	4786
888.146	4698
888.27	4793
888.395	4892
888.519	4801
888.643	4816
888.767	4862
888.891	4748
889.015	4641
889.139	4675
889.263	4622
889.387	4733
889.511	4847
889.635	4824
889.759	4626
889.883	4675
890.006	4687
890.13	4862
890.254	4611
890.377	4664
890.501	4527
890.624	4516
890.748	4630
890.871	4500
890.995	4421
891.118	4383
891.241	4554
891.364	4607
891.488	4641
891.611	4478
891.734	4561
891.857	4584
891.98	4577
892.103	4656
892.226	4618
892.349	4538
892.471	4405
892.594	4546
892.717	4618
892.839	4538
892.962	4558
893.085	4660
893.207	4634
893.33	4443
893.452	4489
893.575	4618
893.697	4584
893.819	4805
893.941	4839
894.064	4771
894.186	4550
894.308	4580
894.43	4748
894.552	4866
894.674	4752
894.796	4565
894.918	4622
895.04	4558
895.161	4721
895.283	4668
895.405	4550
895.526	4588
895.648	4683
895.769	4721
895.891	4691
896.012	4729
896.134	4733
896.255	4687
896.376	4637
896.498	4656
896.619	4683
896.74	4558
896.861	4691
896.982	4919
897.103	5105
897.224	4835
897.345	4786
897.466	4672
897.587	4763
897.708	4866
897.828	4790
897.949	4683
898.07	4546
898.19	4607
898.311	4801
898.431	4698
898.552	4706
898.672	4797
898.792	4778
898.913	4767
899.033	4660
899.153	4516
899.273	4428
899.393	4478
899.513	4554
899.633	4516
899.753	4508
899.873	4538
899.993	4558
900.113	4527
900.232	4561
900.352	4592
900.472	4512
900.591	4440
900.711	4504
900.83	4443
900.95	4641
901.069	4683
901.189	4542
901.308	4386
901.427	4363
901.546	4367
901.665	4481
901.784	4500
901.904	4447
902.023	4352
902.141	4227
902.26	4131
902.379	4287
902.498	4242
902.617	4238
902.735	4383
902.854	4379
902.973	4322
903.091	4196
903.21	4246
903.328	4325
903.446	4272
903.565	4249
903.683	4325
903.801	4257
903.919	4409
904.038	4466
904.156	4379
904.274	4447
904.392	4402
904.51	4413
904.627	4489
904.745	4561
904.863	4596
904.981	4432
905.098	4325
905.216	4333
905.334	4421
905.451	4436
905.569	4421
905.686	4538
905.803	4607
905.921	4405
906.038	4565
906.155	4481
906.272	4386
906.389	4462
906.506	4356
906.623	4344
906.74	4367
906.857	4284
906.974	4379
907.091	4554
907.208	4668
907.324	4588
907.441	4516
907.557	4352
907.674	4367
907.79	4329
907.907	4371
908.023	4516
908.139	4489
908.256	4447
908.372	4474
908.488	4497
908.604	4356
908.72	4360
908.836	4421
908.952	4383
909.068	4436
909.184	4561
909.3	4489
909.415	4561
909.531	4558
909.647	4371
909.762	4371
909.878	4356
909.993	4421
910.108	4402
910.224	4447
910.339	4497
910.454	4367
910.57	4367
910.685	4284
910.8	4626
910.915	4599
911.03	4508
911.145	4344
911.259	4325
911.374	4386
911.489	4291
911.604	4249
911.718	4181
911.833	4196
911.947	4063
912.062	4006
912.176	4242
912.291	4234
912.405	4276
912.519	4455
912.633	4527
912.748	4371
912.862	4310
912.976	4181
913.09	4059
913.204	4158
913.318	4200
913.431	4390
913.545	4386
913.659	4459
913.772	4379
913.886	4238
914	4207
914.113	4337
914.226	4455
914.34	4348
914.453	4211
914.566	4413
914.68	4306
914.793	4318
914.906	4154
915.019	4120
915.132	4078
915.245	4169
915.358	4227
915.47	4215
915.583	4249
915.696	4299
915.809	4386
915.921	4421
916.034	4265
916.146	4238
916.259	4242
916.371	4341
916.483	4325
916.595	4265
916.708	4299
916.82	4310
916.932	4303
917.044	4306
917.156	4306
917.268	4242
917.38	4268
917.491	4257
917.603	4306
917.715	4424
917.826	4424
917.938	4344
918.049	4227
918.161	4371
918.272	4527
918.384	4531
918.495	4432
918.606	4295
918.717	4215
918.828	4322
918.939	4386
919.05	4265
919.161	4371
919.272	4090
919.383	4268
919.494	4470
919.604	4611
919.715	4440
919.826	4379
919.936	4428
920.047	4493
920.157	4523
920.267	4672
920.378	4531
920.488	4523
920.598	4679
920.708	4889
920.818	4767
920.928	4801
921.038	4965
921.148	4934
921.258	4641
921.368	4538
921.477	4508
921.587	4459
921.697	4386
921.806	4569
921.916	4421
922.025	4272
922.134	4265
922.244	4249
922.353	4352
922.462	4120
922.571	4082
922.68	3983
922.789	3994
922.898	4036
923.007	4021
923.116	4105
923.224	4101
923.333	4074
923.442	4010
923.55	3930
923.659	4048
923.767	4101
923.876	4002
923.984	4097
924.092	4021
924.201	4059
924.309	4105
924.417	4093
924.525	4048
924.633	4112
924.741	5045
924.849	3934
924.956	4131
925.064	3937
925.172	3949
925.279	3972
925.387	4051
925.494	4040
925.602	4211
925.709	4166
925.816	4051
925.924	4177
926.031	4219
926.138	4173
926.245	4207
926.352	4109
926.459	4303
926.566	4291
926.673	4162
926.779	4059
926.886	4071
926.993	3937
927.099	3937
927.206	3926
927.312	3937
927.419	4067
927.525	4013
927.631	4131
927.737	3945
927.843	3918
927.95	3873
928.056	3972
928.162	3968
928.267	4116
928.373	4714
928.479	4162
928.585	3911
928.69	4040
928.796	4082
928.901	3960
929.007	3831
929.112	3975
929.218	3987
929.323	3949
929.428	3941
929.533	4124
929.638	3918
929.743	3956
929.848	4048
929.953	3979
930.058	3941
930.163	3808
930.267	3827
930.372	3956
930.477	3812
930.581	4112
930.685	3922
930.79	3823
930.894	3888
930.998	3854
931.103	4040
931.207	3732
931.311	3660
931.415	3713
931.519	3473
931.623	3553
