Data from test_V78500241_2555.txt Node
Date: Fri Mar 25 17:06:46 CST 2022
User: usil
Spectrometer: V785-0024
Trigger mode: 0
Integration Time (sec): 4.000000E-1
Scans to average: 1
Nonlinearity correction enabled: false
Boxcar width: 0
Storing dark spectrum: false
XAxis mode: Wavelengths
Number of Pixels in Spectrum: 1024
>>>>>Begin Spectral Data<<<<<
801.071	7982
801.214	7978
801.356	7856
801.499	7841
801.641	7841
801.783	7807
801.926	7986
802.068	7906
802.211	7978
802.353	7997
802.496	7814
802.638	7833
802.78	7860
802.923	7894
803.065	7830
803.208	7871
803.35	7947
803.492	8096
803.635	8126
803.777	8069
803.919	8145
804.061	8404
804.204	8168
804.346	8073
804.488	7917
804.63	8035
804.773	7989
804.915	8119
805.057	8358
805.199	8187
805.341	8240
805.483	8214
805.626	8240
805.768	8157
805.91	8210
806.052	8172
806.194	8084
806.336	8263
806.478	8020
806.62	8077
806.762	8180
806.904	8290
807.046	8450
807.188	8389
807.33	8339
807.472	8290
807.614	8115
807.756	8092
807.898	8008
808.04	7913
808.182	7932
808.324	7906
808.465	7875
808.607	8134
808.749	8115
808.891	8282
809.033	8320
809.174	8176
809.316	8084
809.458	8073
809.6	8050
809.741	7970
809.883	7963
810.025	8096
810.166	8153
810.308	8058
810.45	7997
810.591	7864
810.733	7731
810.875	7624
811.016	7480
811.158	7441
811.299	7613
811.441	7715
811.582	7674
811.724	7620
811.865	7514
812.007	7647
812.148	7613
812.29	7620
812.431	7704
812.573	7849
812.714	7955
812.855	8149
812.997	8202
813.138	8275
813.279	8183
813.421	8130
813.562	8012
813.703	7871
813.845	7753
813.986	7563
814.127	7263
814.268	7183
814.41	7141
814.551	7194
814.692	7240
814.833	7091
814.974	7133
815.115	7171
815.256	6916
815.397	6916
815.539	6924
815.68	6787
815.821	6779
815.962	6920
816.103	6878
816.244	6738
816.385	6585
816.526	6593
816.666	6525
816.807	6327
816.948	6509
817.089	6483
817.23	6426
817.371	6414
817.512	6403
817.653	6391
817.793	6365
817.934	6418
818.075	6456
818.216	6460
818.356	6429
818.497	6220
818.638	6129
818.778	6178
818.919	6152
819.06	6136
819.2	6327
819.341	6353
819.481	6353
819.622	6528
819.762	6757
819.903	6665
820.043	6589
820.184	6627
820.324	6555
820.465	6696
820.605	6700
820.746	6692
820.886	6502
821.026	6677
821.167	6696
821.307	6844
821.447	6749
821.588	6639
821.728	6528
821.868	6467
822.008	6365
822.149	6372
822.289	6380
822.429	6182
822.569	6095
822.709	6148
822.849	5893
822.99	5878
823.13	5946
823.27	5965
823.41	5764
823.55	5756
823.69	5779
823.83	5824
823.97	5646
824.11	5497
824.25	5528
824.389	5524
824.529	5619
824.669	5535
824.809	5608
824.949	5661
825.089	5577
825.228	5592
825.368	5417
825.508	5280
825.648	5330
825.787	5353
825.927	5429
826.067	5307
826.206	5284
826.346	5357
826.485	5433
826.625	5455
826.765	5539
826.904	5455
827.044	5273
827.183	5204
827.323	5094
827.462	5261
827.601	5197
827.741	5185
827.88	5212
828.02	5075
828.159	5261
828.298	5322
828.437	5406
828.577	5307
828.716	5452
828.855	5292
828.994	5113
829.134	5128
829.273	5193
829.412	5117
829.551	5128
829.69	5132
829.829	5231
829.968	5360
830.107	5265
830.246	5292
830.385	5155
830.524	5189
830.663	5071
830.802	4965
830.941	4896
831.08	4877
831.219	4987
831.357	4953
831.496	5147
831.635	4915
831.774	4847
831.913	4847
832.051	4740
832.19	4721
832.329	4835
832.467	4664
832.606	4630
832.744	4721
832.883	4702
833.022	4717
833.16	4820
833.299	4801
833.437	4831
833.576	4812
833.714	4862
833.852	4866
833.991	4915
834.129	4942
834.267	4972
834.406	4904
834.544	4900
834.682	4987
834.821	4972
834.959	5140
835.097	5006
835.235	5159
835.373	5083
835.511	5090
835.65	5067
835.788	5022
835.926	4892
836.064	4824
836.202	4934
836.34	5147
836.478	5242
836.615	5128
836.753	5220
836.891	5296
837.029	5292
837.167	5185
837.305	5155
837.443	5155
837.58	5052
837.718	5288
837.856	5201
837.993	5121
838.131	5201
838.269	5246
838.406	5216
838.544	5170
838.681	5045
838.819	4999
838.956	4915
839.094	4885
839.231	4980
839.369	5010
839.506	5379
839.643	5254
839.781	5067
839.918	5029
840.055	5102
840.193	5132
840.33	5083
840.467	5185
840.604	5155
840.742	5444
840.879	5113
841.016	5079
841.153	5174
841.29	5364
841.427	5326
841.564	5357
841.701	5341
841.838	5288
841.975	5235
842.112	5181
842.249	5178
842.385	5083
842.522	5330
842.659	5090
842.796	5151
842.933	5208
843.069	5105
843.206	5174
843.343	5311
843.479	5261
843.616	5277
843.752	5010
843.889	5056
844.025	5220
844.162	5060
844.298	5201
844.435	5124
844.571	5071
844.708	5181
844.844	5288
844.98	5326
845.117	5315
845.253	5132
845.389	5033
845.525	5197
845.661	5216
845.798	5060
845.934	5117
846.07	5067
846.206	5178
846.342	5265
846.478	5162
846.614	5006
846.75	4923
846.886	4934
847.022	5143
847.158	5010
847.294	5041
847.429	5094
847.565	5048
847.701	5284
847.837	4847
847.972	4839
848.108	4965
848.244	4968
848.379	4820
848.515	4698
848.65	4691
848.786	4698
848.921	4797
849.057	4847
849.192	4904
849.328	4771
849.463	4873
849.598	4778
849.734	4744
849.869	4664
850.004	4603
850.14	4664
850.275	4649
850.41	4580
850.545	4599
850.68	4573
850.815	4653
850.95	4626
851.085	4877
851.22	4736
851.355	4660
851.49	4615
851.625	4664
851.76	4649
851.895	4569
852.03	4497
852.165	4664
852.299	4759
852.434	4801
852.569	4672
852.703	4820
852.838	4862
852.973	4919
853.107	4938
853.242	4725
853.376	4683
853.511	4592
853.645	4580
853.78	4839
853.914	4687
854.048	4656
854.183	4641
854.317	4706
854.451	4828
854.585	4691
854.72	4607
854.854	4771
854.988	4630
855.122	4664
855.256	4542
855.39	4683
855.524	4748
855.658	4702
855.792	4668
855.926	4740
856.06	4710
856.194	4793
856.327	4729
856.461	4558
856.595	4596
856.729	4596
856.862	4748
856.996	4668
857.13	4736
857.263	4793
857.397	4774
857.53	4683
857.664	4717
857.797	4771
857.931	4744
858.064	4725
858.197	4752
858.331	4580
858.464	4596
858.597	4485
858.731	4653
858.864	4603
858.997	4569
859.13	4675
859.263	4668
859.396	4675
859.529	4542
859.662	4596
859.795	4577
859.928	4626
860.061	4725
860.194	4771
860.327	4580
860.46	4577
860.592	4740
860.725	4736
860.858	4706
860.99	4531
861.123	4531
861.256	4561
861.388	4588
861.521	5288
861.653	4432
861.786	4447
861.918	4432
862.05	4481
862.183	4561
862.315	4653
862.447	4634
862.58	4554
862.712	4436
862.844	4337
862.976	4462
863.108	4451
863.24	4729
863.372	4341
863.504	4421
863.636	4424
863.768	4451
863.9	4413
864.032	4356
864.164	4383
864.296	4470
864.428	4565
864.559	4618
864.691	4512
864.823	4535
864.954	4508
865.086	4447
865.217	4451
865.349	4432
865.48	4432
865.612	4493
865.743	4603
865.875	4462
866.006	4394
866.137	4455
866.269	4451
866.4	4466
866.531	4402
866.662	4383
866.793	4375
866.924	4424
867.055	4459
867.186	4440
867.317	4402
867.448	4367
867.579	4375
867.71	4379
867.841	4356
867.972	4474
868.103	4470
868.233	4440
868.364	4417
868.495	4516
868.625	4656
868.756	4782
868.886	4550
869.017	4592
869.147	4774
869.278	4774
869.408	4637
869.539	4592
869.669	4698
869.799	4664
869.929	4782
870.06	4755
870.19	4957
870.32	4911
870.45	4877
870.58	5018
870.71	5079
870.84	5117
870.97	4923
871.1	4892
871.23	5128
871.36	5086
871.489	5048
871.619	5060
871.749	5075
871.879	5155
872.008	5170
872.138	5083
872.267	4995
872.397	4824
872.526	4816
872.656	4725
872.785	4839
872.915	4919
873.044	5022
873.173	4942
873.303	4987
873.432	4953
873.561	4938
873.69	4889
873.819	4843
873.948	4889
874.077	4816
874.206	4782
874.335	4809
874.464	4911
874.593	5060
874.722	4968
874.851	5079
874.979	5029
875.108	4991
875.237	4927
875.365	4885
875.494	4900
875.623	4976
875.751	4873
875.88	4896
876.008	4972
876.136	5041
876.265	5185
876.393	5368
876.521	5204
876.65	5258
876.778	5159
876.906	5124
877.034	5075
877.162	5090
877.29	4995
877.418	5079
877.546	4995
877.674	5025
877.802	4980
877.93	5064
878.058	4961
878.185	4885
878.313	4934
878.441	5003
878.568	4839
878.696	4911
878.824	4972
878.951	4972
879.079	5151
879.206	5227
879.333	5159
879.461	4953
879.588	4980
879.715	5098
879.842	5223
879.97	4987
880.097	4812
880.224	4733
880.351	4809
880.478	4835
880.605	4854
880.732	4771
880.859	5067
880.986	4858
881.112	4900
881.239	4744
881.366	4626
881.493	4626
881.619	4569
881.746	4622
881.872	4656
881.999	4649
882.125	4687
882.252	4778
882.378	4824
882.505	4984
882.631	4812
882.757	4668
882.883	4725
883.01	4721
883.136	4702
883.262	4611
883.388	4622
883.514	4843
883.64	4870
883.766	4748
883.892	4656
884.018	4702
884.143	4930
884.269	5033
884.395	4706
884.52	4611
884.646	4656
884.772	4596
884.897	4527
885.023	4664
885.148	4736
885.274	4820
885.399	4782
885.524	4687
885.65	4721
885.775	4729
885.9	4660
886.025	4847
886.15	4786
886.275	4714
886.4	4668
886.525	4683
886.65	4630
886.775	4702
886.9	4889
887.025	5037
887.149	4774
887.274	4653
887.399	4603
887.523	4611
887.648	4618
887.773	4584
887.897	4729
888.021	4755
888.146	4675
888.27	4812
888.395	4938
888.519	4797
888.643	4805
888.767	4835
888.891	4714
889.015	4607
889.139	4645
889.263	4599
889.387	4793
889.511	4858
889.635	4847
889.759	4649
889.883	4615
890.006	4774
890.13	4843
890.254	4645
890.377	4714
890.501	4573
890.624	4596
890.748	4580
890.871	4508
890.995	4417
891.118	4356
891.241	4504
891.364	4546
891.488	4668
891.611	4478
891.734	4561
891.857	4622
891.98	4558
892.103	4660
892.226	4592
892.349	4508
892.471	4436
892.594	4542
892.717	4626
892.839	4584
892.962	4592
893.085	4637
893.207	4630
893.33	4462
893.452	4447
893.575	4641
893.697	4523
893.819	4816
893.941	4835
894.064	4786
894.186	4592
894.308	4550
894.43	4656
894.552	4870
894.674	4782
894.796	4527
894.918	4592
895.04	4519
895.161	4740
895.283	4675
895.405	4599
895.526	4637
895.648	4702
895.769	4675
895.891	4721
896.012	4733
896.134	4660
896.255	4668
896.376	4622
896.498	4599
896.619	4714
896.74	4599
896.861	4622
896.982	4930
897.103	5105
897.224	4771
897.345	4721
897.466	4702
897.587	4748
897.708	4820
897.828	4790
897.949	4649
898.07	4535
898.19	4645
898.311	4820
898.431	4630
898.552	4752
898.672	4809
898.792	4835
898.913	4736
899.033	4630
899.153	4504
899.273	4394
899.393	4504
899.513	4485
899.633	4493
899.753	4554
899.873	4519
899.993	4630
900.113	4527
900.232	4634
900.352	4538
900.472	4436
900.591	4371
900.711	4516
900.83	4428
900.95	4630
901.069	4721
901.189	4516
901.308	4379
901.427	4291
901.546	4322
901.665	4497
901.784	4497
901.904	4424
902.023	4348
902.141	4261
902.26	4185
902.379	4329
902.498	4230
902.617	4249
902.735	4398
902.854	4417
902.973	4333
903.091	4211
903.21	4230
903.328	4306
903.446	4249
903.565	4230
903.683	4375
903.801	4268
903.919	4379
904.038	4466
904.156	4303
904.274	4447
904.392	4390
904.51	4428
904.627	4459
904.745	4607
904.863	4653
904.981	4383
905.098	4299
905.216	4360
905.334	4383
905.451	4428
905.569	4424
905.686	4584
905.803	4584
905.921	4436
906.038	4497
906.155	4462
906.272	4421
906.389	4421
906.506	4352
906.623	4447
906.74	4409
906.857	4295
906.974	4360
907.091	4554
907.208	4664
907.324	4592
907.441	4500
907.557	4329
907.674	4337
907.79	4284
907.907	4352
908.023	4470
908.139	4455
908.256	4413
908.372	4451
908.488	4478
908.604	4337
908.72	4272
908.836	4360
908.952	4333
909.068	4398
909.184	4611
909.3	4516
909.415	4535
909.531	4554
909.647	4360
909.762	4386
909.878	4287
909.993	4440
910.108	4383
910.224	4413
910.339	4485
910.454	4447
910.57	4394
910.685	4314
910.8	4634
910.915	4573
911.03	4497
911.145	4306
911.259	4333
911.374	4329
911.489	4276
911.604	4306
911.718	4185
911.833	4185
911.947	4086
912.062	4010
912.176	4192
912.291	4192
912.405	4230
912.519	4481
912.633	4489
912.748	4363
912.862	4306
912.976	4242
913.09	4086
913.204	4177
913.318	4272
913.431	4386
913.545	4371
913.659	4436
913.772	4352
913.886	4211
914	4219
914.113	4352
914.226	4341
914.34	4375
914.453	4253
914.566	4443
914.68	4367
914.793	4295
914.906	4162
915.019	4109
915.132	3994
915.245	4204
915.358	4185
915.47	4204
915.583	4261
915.696	4299
915.809	4375
915.921	4432
916.034	4249
916.146	4291
916.259	4249
916.371	4363
916.483	4314
916.595	4299
916.708	4337
916.82	4306
916.932	4318
917.044	4246
917.156	4333
917.268	4223
917.38	4314
917.491	4291
917.603	4337
917.715	4451
917.826	4409
917.938	4341
918.049	4196
918.161	4363
918.272	4550
918.384	4481
918.495	4466
918.606	4306
918.717	4272
918.828	4363
918.939	4424
919.05	4246
919.161	4291
919.272	4162
919.383	4230
919.494	4436
919.604	4592
919.715	4421
919.826	4322
919.936	4386
920.047	4573
920.157	4504
920.267	4748
920.378	4558
920.488	4523
920.598	4710
920.708	4870
920.818	4748
920.928	4752
921.038	4927
921.148	4885
921.258	4611
921.368	4538
921.477	4459
921.587	4428
921.697	4367
921.806	4542
921.916	4413
922.025	4284
922.134	4261
922.244	4227
922.353	4306
922.462	4219
922.571	4128
922.68	4002
922.789	3937
922.898	4044
923.007	3968
923.116	4082
923.224	4051
923.333	4071
923.442	3964
923.55	3960
923.659	4051
923.767	4128
923.876	3968
923.984	4128
924.092	3994
924.201	4086
924.309	4116
924.417	4120
924.525	4082
924.633	4158
924.741	5083
924.849	3915
924.956	4105
925.064	3937
925.172	3915
925.279	3960
925.387	4013
925.494	4082
925.602	4223
925.709	4192
925.816	4017
925.924	4162
926.031	4219
926.138	4177
926.245	4196
926.352	4105
926.459	4246
926.566	4303
926.673	4158
926.779	4078
926.886	4086
926.993	3983
927.099	3964
927.206	3983
927.312	3926
927.419	4074
927.525	4055
927.631	4097
927.737	3934
927.843	3922
927.95	3823
928.056	3915
928.162	3975
928.267	4067
928.373	4584
928.479	4105
928.585	3838
928.69	3987
928.796	4082
928.901	4002
929.007	3876
929.112	4040
929.218	4025
929.323	3899
929.428	3918
929.533	4101
929.638	3896
929.743	3975
929.848	4055
929.953	3991
930.058	3911
930.163	3774
930.267	3823
930.372	3964
930.477	3781
930.581	4074
930.685	3964
930.79	3827
930.894	3880
930.998	3930
931.103	4021
931.207	3705
931.311	3682
931.415	3686
931.519	3523
931.623	3557
