Data from test_V78500241_1832.txt Node
Date: Fri Mar 25 17:01:44 CST 2022
User: usil
Spectrometer: V785-0024
Trigger mode: 0
Integration Time (sec): 4.000000E-1
Scans to average: 1
Nonlinearity correction enabled: false
Boxcar width: 0
Storing dark spectrum: false
XAxis mode: Wavelengths
Number of Pixels in Spectrum: 1024
>>>>>Begin Spectral Data<<<<<
801.071	8005
801.214	8039
801.356	7856
801.499	7860
801.641	7776
801.783	7879
801.926	7974
802.068	7936
802.211	7974
802.353	7989
802.496	7890
802.638	7879
802.78	7894
802.923	7982
803.065	7849
803.208	7814
803.35	7936
803.492	8092
803.635	8126
803.777	7967
803.919	8195
804.061	8476
804.204	8176
804.346	8058
804.488	7940
804.63	8031
804.773	7947
804.915	8187
805.057	8271
805.199	8237
805.341	8248
805.483	8237
805.626	8191
805.768	8149
805.91	8191
806.052	8286
806.194	8164
806.336	8263
806.478	8107
806.62	8096
806.762	8149
806.904	8294
807.046	8503
807.188	8385
807.33	8282
807.472	8290
807.614	8202
807.756	8145
807.898	7997
808.04	7864
808.182	7944
808.324	7868
808.465	7890
808.607	8027
808.749	8088
808.891	8225
809.033	8343
809.174	8199
809.316	8081
809.458	8069
809.6	8069
809.741	8020
809.883	8065
810.025	8103
810.166	8035
810.308	7997
810.45	8005
810.591	7772
810.733	7753
810.875	7750
811.016	7514
811.158	7441
811.299	7597
811.441	7738
811.582	7666
811.724	7624
811.865	7540
812.007	7620
812.148	7556
812.29	7601
812.431	7753
812.573	7883
812.714	7928
812.855	8134
812.997	8240
813.138	8366
813.279	8195
813.421	8100
813.562	7917
813.703	7864
813.845	7704
813.986	7358
814.127	7228
814.268	7228
814.41	7251
814.551	7225
814.692	7244
814.833	7122
814.974	7091
815.115	7107
815.256	6985
815.397	6833
815.539	7012
815.68	6745
815.821	6795
815.962	6939
816.103	6810
816.244	6654
816.385	6555
816.526	6563
816.666	6452
816.807	6304
816.948	6437
817.089	6540
817.23	6376
817.371	6433
817.512	6384
817.653	6384
817.793	6319
817.934	6475
818.075	6486
818.216	6486
818.356	6445
818.497	6273
818.638	6129
818.778	6133
818.919	6190
819.06	6171
819.2	6372
819.341	6273
819.481	6391
819.622	6582
819.762	6673
819.903	6757
820.043	6631
820.184	6593
820.324	6566
820.465	6722
820.605	6673
820.746	6585
820.886	6563
821.026	6662
821.167	6715
821.307	6738
821.447	6772
821.588	6692
821.728	6616
821.868	6475
822.008	6319
822.149	6346
822.289	6407
822.429	6155
822.569	6102
822.709	6125
822.849	5897
822.99	5798
823.13	5961
823.27	5920
823.41	5771
823.55	5775
823.69	5786
823.83	5775
823.97	5695
824.11	5581
824.25	5467
824.389	5528
824.529	5649
824.669	5554
824.809	5634
824.949	5657
825.089	5642
825.228	5570
825.368	5349
825.508	5330
825.648	5337
825.787	5341
825.927	5330
826.067	5318
826.206	5299
826.346	5364
826.485	5391
826.625	5410
826.765	5509
826.904	5493
827.044	5231
827.183	5193
827.323	5121
827.462	5277
827.601	5174
827.741	5170
827.88	5269
828.02	5113
828.159	5231
828.298	5322
828.437	5303
828.577	5246
828.716	5524
828.855	5292
828.994	5174
829.134	5155
829.273	5159
829.412	5151
829.551	5121
829.69	5155
829.829	5277
829.968	5349
830.107	5261
830.246	5284
830.385	5155
830.524	5193
830.663	5067
830.802	4987
830.941	4892
831.08	4896
831.219	4995
831.357	4965
831.496	5140
831.635	4923
831.774	4831
831.913	4790
832.051	4702
832.19	4774
832.329	4831
832.467	4740
832.606	4596
832.744	4672
832.883	4755
833.022	4744
833.16	4786
833.299	4824
833.437	4805
833.576	4816
833.714	4854
833.852	4889
833.991	4904
834.129	4942
834.267	4957
834.406	4904
834.544	5014
834.682	5014
834.821	4911
834.959	5189
835.097	4972
835.235	5124
835.373	5048
835.511	5109
835.65	4987
835.788	4984
835.926	4900
836.064	4877
836.202	4870
836.34	5189
836.478	5223
836.615	5071
836.753	5204
836.891	5292
837.029	5197
837.167	5147
837.305	5166
837.443	5132
837.58	5041
837.718	5216
837.856	5204
837.993	5174
838.131	5231
838.269	5212
838.406	5185
838.544	5159
838.681	5056
838.819	5029
838.956	4866
839.094	4877
839.231	5045
839.369	5056
839.506	5433
839.643	5284
839.781	5029
839.918	5025
840.055	5086
840.193	5037
840.33	5056
840.467	5102
840.604	5178
840.742	5440
840.879	5079
841.016	5029
841.153	5170
841.29	5383
841.427	5299
841.564	5315
841.701	5353
841.838	5292
841.975	5147
842.112	5231
842.249	5143
842.385	5075
842.522	5337
842.659	5174
842.796	5170
842.933	5220
843.069	5185
843.206	5189
843.343	5299
843.479	5273
843.616	5223
843.752	5006
843.889	4999
844.025	5178
844.162	4965
844.298	5166
844.435	5094
844.571	5056
844.708	5185
844.844	5250
844.98	5315
845.117	5299
845.253	5117
845.389	5064
845.525	5181
845.661	5166
845.798	5052
845.934	5098
846.07	5029
846.206	5189
846.342	5246
846.478	5193
846.614	4984
846.75	4961
846.886	4892
847.022	5147
847.158	5025
847.294	5102
847.429	5128
847.565	5029
847.701	5345
847.837	4839
847.972	4797
848.108	4919
848.244	4923
848.379	4752
848.515	4759
848.65	4706
848.786	4725
848.921	4793
849.057	4870
849.192	4870
849.328	4831
849.463	4824
849.598	4744
849.734	4778
849.869	4729
850.004	4630
850.14	4672
850.275	4580
850.41	4538
850.545	4558
850.68	4561
850.815	4607
850.95	4603
851.085	4870
851.22	4710
851.355	4637
851.49	4603
851.625	4668
851.76	4637
851.895	4497
852.03	4512
852.165	4660
852.299	4729
852.434	4831
852.569	4679
852.703	4786
852.838	4820
852.973	4908
853.107	4934
853.242	4755
853.376	4660
853.511	4573
853.645	4596
853.78	4797
853.914	4672
854.048	4653
854.183	4618
854.317	4634
854.451	4797
854.585	4672
854.72	4634
854.854	4778
854.988	4649
855.122	4664
855.256	4538
855.39	4569
855.524	4748
855.658	4710
855.792	4725
855.926	4774
856.06	4733
856.194	4771
856.327	4641
856.461	4626
856.595	4611
856.729	4634
856.862	4774
856.996	4660
857.13	4763
857.263	4782
857.397	4752
857.53	4634
857.664	4664
857.797	4767
857.931	4755
858.064	4641
858.197	4698
858.331	4637
858.464	4622
858.597	4519
858.731	4550
858.864	4622
858.997	4588
859.13	4668
859.263	4679
859.396	4721
859.529	4561
859.662	4538
859.795	4558
859.928	4630
860.061	4763
860.194	4767
860.327	4630
860.46	4561
860.592	4698
860.725	4710
860.858	4717
860.99	4577
861.123	4554
861.256	4531
861.388	4596
861.521	5368
861.653	4398
861.786	4421
861.918	4478
862.05	4538
862.183	4569
862.315	4626
862.447	4626
862.58	4527
862.712	4383
862.844	4314
862.976	4455
863.108	4440
863.24	4881
863.372	4344
863.504	4436
863.636	4394
863.768	4497
863.9	4371
864.032	4333
864.164	4402
864.296	4447
864.428	4542
864.559	4535
864.691	4569
864.823	4527
864.954	4424
865.086	4466
865.217	4470
865.349	4390
865.48	4447
865.612	4504
865.743	4615
865.875	4462
866.006	4440
866.137	4451
866.269	4428
866.4	4421
866.531	4440
866.662	4421
866.793	4352
866.924	4417
867.055	4489
867.186	4466
867.317	4405
867.448	4348
867.579	4375
867.71	4394
867.841	4325
867.972	4451
868.103	4462
868.233	4462
868.364	4459
868.495	4504
868.625	4664
868.756	4736
868.886	4550
869.017	4622
869.147	4771
869.278	4733
869.408	4660
869.539	4649
869.669	4729
869.799	4653
869.929	4748
870.06	4752
870.19	4968
870.32	4866
870.45	4923
870.58	5022
870.71	5060
870.84	5090
870.97	4949
871.1	4946
871.23	5151
871.36	5113
871.489	4946
871.619	5086
871.749	5094
871.879	5128
872.008	5174
872.138	5075
872.267	4961
872.397	4862
872.526	4828
872.656	4714
872.785	4782
872.915	4976
873.044	5045
873.173	4949
873.303	4946
873.432	4991
873.561	4942
873.69	4858
873.819	4858
873.948	4881
874.077	4824
874.206	4733
874.335	4839
874.464	4946
874.593	5094
874.722	4987
874.851	5136
874.979	5022
875.108	5041
875.237	4938
875.365	4930
875.494	4866
875.623	4946
875.751	4812
875.88	4850
876.008	4949
876.136	4995
876.265	5170
876.393	5315
876.521	5235
876.65	5269
876.778	5166
876.906	5071
877.034	5067
877.162	5064
877.29	5029
877.418	5018
877.546	5056
877.674	5041
877.802	5003
877.93	4999
878.058	4946
878.185	4835
878.313	4942
878.441	4934
878.568	4847
878.696	4862
878.824	4987
878.951	5029
879.079	5132
879.206	5223
879.333	5102
879.461	4984
879.588	5014
879.715	5166
879.842	5220
879.97	5022
880.097	4786
880.224	4717
880.351	4843
880.478	4824
880.605	4816
880.732	4816
880.859	5075
880.986	4881
881.112	4870
881.239	4740
881.366	4694
881.493	4618
881.619	4615
881.746	4618
881.872	4584
881.999	4687
882.125	4694
882.252	4763
882.378	4831
882.505	4923
882.631	4755
882.757	4683
882.883	4683
883.01	4721
883.136	4683
883.262	4565
883.388	4611
883.514	4793
883.64	4839
883.766	4786
883.892	4687
884.018	4736
884.143	4873
884.269	4961
884.395	4630
884.52	4618
884.646	4592
884.772	4592
884.897	4558
885.023	4649
885.148	4771
885.274	4850
885.399	4771
885.524	4717
885.65	4630
885.775	4740
885.9	4698
886.025	4850
886.15	4721
886.275	4694
886.4	4626
886.525	4736
886.65	4634
886.775	4656
886.9	4915
887.025	5037
887.149	4809
887.274	4596
887.399	4622
887.523	4603
887.648	4592
887.773	4573
887.897	4729
888.021	4828
888.146	4675
888.27	4805
888.395	4843
888.519	4820
888.643	4801
888.767	4843
888.891	4653
889.015	4615
889.139	4675
889.263	4603
889.387	4809
889.511	4835
889.635	4809
889.759	4603
889.883	4668
890.006	4725
890.13	4831
890.254	4577
890.377	4672
890.501	4519
890.624	4500
890.748	4637
890.871	4493
890.995	4398
891.118	4360
891.241	4535
891.364	4569
891.488	4634
891.611	4481
891.734	4554
891.857	4611
891.98	4542
892.103	4683
892.226	4535
892.349	4558
892.471	4398
892.594	4580
892.717	4588
892.839	4580
892.962	4626
893.085	4649
893.207	4596
893.33	4447
893.452	4504
893.575	4721
893.697	4603
893.819	4793
893.941	4866
894.064	4687
894.186	4538
894.308	4603
894.43	4687
894.552	4854
894.674	4736
894.796	4550
894.918	4558
895.04	4577
895.161	4740
895.283	4664
895.405	4592
895.526	4649
895.648	4675
895.769	4630
895.891	4687
896.012	4767
896.134	4736
896.255	4641
896.376	4558
896.498	4626
896.619	4675
896.74	4580
896.861	4630
896.982	4961
897.103	5075
897.224	4774
897.345	4733
897.466	4672
897.587	4744
897.708	4831
897.828	4809
897.949	4710
898.07	4554
898.19	4615
898.311	4828
898.431	4717
898.552	4740
898.672	4801
898.792	4778
898.913	4714
899.033	4641
899.153	4478
899.273	4466
899.393	4516
899.513	4538
899.633	4538
899.753	4535
899.873	4470
899.993	4603
900.113	4516
900.232	4573
900.352	4538
900.472	4485
900.591	4394
900.711	4436
900.83	4402
900.95	4588
901.069	4687
901.189	4500
901.308	4383
901.427	4306
901.546	4386
901.665	4489
901.784	4500
901.904	4409
902.023	4306
902.141	4181
902.26	4196
902.379	4322
902.498	4188
902.617	4268
902.735	4432
902.854	4371
902.973	4356
903.091	4234
903.21	4230
903.328	4306
903.446	4295
903.565	4299
903.683	4344
903.801	4249
903.919	4379
904.038	4455
904.156	4329
904.274	4451
904.392	4383
904.51	4413
904.627	4470
904.745	4607
904.863	4615
904.981	4367
905.098	4322
905.216	4371
905.334	4489
905.451	4417
905.569	4481
905.686	4561
905.803	4531
905.921	4390
906.038	4516
906.155	4474
906.272	4344
906.389	4417
906.506	4375
906.623	4360
906.74	4432
906.857	4246
906.974	4371
907.091	4542
907.208	4611
907.324	4569
907.441	4527
907.557	4356
907.674	4352
907.79	4276
907.907	4402
908.023	4489
908.139	4470
908.256	4440
908.372	4443
908.488	4485
908.604	4356
908.72	4325
908.836	4390
908.952	4333
909.068	4440
909.184	4607
909.3	4493
909.415	4622
909.531	4519
909.647	4390
909.762	4390
909.878	4329
909.993	4466
910.108	4409
910.224	4394
910.339	4459
910.454	4402
910.57	4367
910.685	4303
910.8	4618
910.915	4558
911.03	4459
911.145	4341
911.259	4341
911.374	4329
911.489	4249
911.604	4265
911.718	4135
911.833	4200
911.947	4078
912.062	4002
912.176	4169
912.291	4223
912.405	4246
912.519	4459
912.633	4470
912.748	4360
912.862	4333
912.976	4238
913.09	4116
913.204	4188
913.318	4257
913.431	4356
913.545	4322
913.659	4459
913.772	4356
913.886	4238
914	4242
914.113	4367
914.226	4470
914.34	4379
914.453	4192
914.566	4398
914.68	4291
914.793	4325
914.906	4230
915.019	4071
915.132	4086
915.245	4173
915.358	4173
915.47	4215
915.583	4257
915.696	4314
915.809	4402
915.921	4409
916.034	4188
916.146	4276
916.259	4223
916.371	4363
916.483	4360
916.595	4272
916.708	4333
916.82	4325
916.932	4337
917.044	4344
917.156	4356
917.268	4261
917.38	4200
917.491	4272
917.603	4360
917.715	4440
917.826	4405
917.938	4363
918.049	4234
918.161	4402
918.272	4554
918.384	4531
918.495	4455
918.606	4314
918.717	4234
918.828	4333
918.939	4356
919.05	4238
919.161	4337
919.272	4112
919.383	4276
919.494	4451
919.604	4630
919.715	4413
919.826	4348
919.936	4421
920.047	4550
920.157	4443
920.267	4687
920.378	4474
920.488	4535
920.598	4687
920.708	4862
920.818	4767
920.928	4755
921.038	4953
921.148	4877
921.258	4630
921.368	4519
921.477	4478
921.587	4443
921.697	4371
921.806	4577
921.916	4379
922.025	4230
922.134	4253
922.244	4230
922.353	4337
922.462	4177
922.571	4162
922.68	4006
922.789	3968
922.898	4029
923.007	3956
923.116	4093
923.224	4051
923.333	4074
923.442	3960
923.55	3960
923.659	4013
923.767	4086
923.876	3983
923.984	4109
924.092	3968
924.201	4101
924.309	4086
924.417	4120
924.525	4059
924.633	4097
924.741	5033
924.849	3880
924.956	4086
925.064	3956
925.172	3888
925.279	3960
925.387	4032
925.494	4036
925.602	4162
925.709	4196
925.816	4040
925.924	4105
926.031	4249
926.138	4185
926.245	4188
926.352	4135
926.459	4238
926.566	4291
926.673	4139
926.779	4078
926.886	4071
926.993	3975
927.099	3945
927.206	3964
927.312	3972
927.419	4036
927.525	4032
927.631	4128
927.737	3911
927.843	3918
927.95	3854
928.056	3918
928.162	3991
928.267	4082
928.373	4588
928.479	4116
928.585	3937
928.69	4010
928.796	4078
928.901	3979
929.007	3888
929.112	3983
929.218	3922
929.323	3907
929.428	3922
929.533	4082
929.638	3953
929.743	3979
929.848	4002
929.953	3994
930.058	3934
930.163	3766
930.267	3857
930.372	4010
930.477	3781
930.581	4059
930.685	3953
930.79	3838
930.894	3884
930.998	3873
931.103	3994
931.207	3679
931.311	3694
931.415	3694
931.519	3507
931.623	3572
