Data from test_V78500241_1673.txt Node
Date: Fri Mar 25 17:00:38 CST 2022
User: usil
Spectrometer: V785-0024
Trigger mode: 0
Integration Time (sec): 4.000000E-1
Scans to average: 1
Nonlinearity correction enabled: false
Boxcar width: 0
Storing dark spectrum: false
XAxis mode: Wavelengths
Number of Pixels in Spectrum: 1024
>>>>>Begin Spectral Data<<<<<
801.071	7955
801.214	8043
801.356	7883
801.499	7864
801.641	7845
801.783	7814
801.926	7974
802.068	7887
802.211	8001
802.353	8043
802.496	7890
802.638	7856
802.78	7947
802.923	7894
803.065	7883
803.208	7879
803.35	7963
803.492	8100
803.635	8126
803.777	7982
803.919	8145
804.061	8461
804.204	8157
804.346	8050
804.488	7951
804.63	8081
804.773	8008
804.915	8134
805.057	8248
805.199	8210
805.341	8225
805.483	8248
805.626	8210
805.768	8176
805.91	8218
806.052	8229
806.194	8161
806.336	8244
806.478	8081
806.62	8092
806.762	8149
806.904	8309
807.046	8518
807.188	8396
807.33	8294
807.472	8374
807.614	8210
807.756	8199
807.898	8005
808.04	7849
808.182	7894
808.324	7856
808.465	7944
808.607	8088
808.749	8069
808.891	8195
809.033	8240
809.174	8298
809.316	8069
809.458	8058
809.6	8012
809.741	7967
809.883	8081
810.025	8073
810.166	8119
810.308	7963
810.45	7936
810.591	7837
810.733	7715
810.875	7719
811.016	7502
811.158	7495
811.299	7639
811.441	7658
811.582	7693
811.724	7556
811.865	7537
812.007	7556
812.148	7567
812.29	7696
812.431	7753
812.573	7902
812.714	8005
812.855	8164
812.997	8267
813.138	8355
813.279	8153
813.421	8100
813.562	7963
813.703	7852
813.845	7715
813.986	7419
814.127	7236
814.268	7202
814.41	7175
814.551	7190
814.692	7217
814.833	7088
814.974	7114
815.115	7168
815.256	6996
815.397	6890
815.539	6970
815.68	6829
815.821	6772
815.962	6871
816.103	6856
816.244	6715
816.385	6585
816.526	6604
816.666	6555
816.807	6292
816.948	6456
817.089	6437
817.23	6410
817.371	6414
817.512	6410
817.653	6391
817.793	6342
817.934	6437
818.075	6429
818.216	6395
818.356	6433
818.497	6194
818.638	6133
818.778	6205
818.919	6117
819.06	6083
819.2	6331
819.341	6300
819.481	6376
819.622	6528
819.762	6703
819.903	6700
820.043	6608
820.184	6559
820.324	6570
820.465	6757
820.605	6662
820.746	6703
820.886	6616
821.026	6681
821.167	6703
821.307	6768
821.447	6810
821.588	6719
821.728	6578
821.868	6494
822.008	6323
822.149	6372
822.289	6327
822.429	6201
822.569	6133
822.709	6133
822.849	5882
822.99	5935
823.13	5893
823.27	5927
823.41	5802
823.55	5809
823.69	5726
823.83	5817
823.97	5668
824.11	5528
824.25	5493
824.389	5554
824.529	5585
824.669	5478
824.809	5638
824.949	5649
825.089	5668
825.228	5562
825.368	5376
825.508	5360
825.648	5296
825.787	5421
825.927	5436
826.067	5296
826.206	5326
826.346	5360
826.485	5421
826.625	5395
826.765	5547
826.904	5512
827.044	5231
827.183	5254
827.323	5124
827.462	5265
827.601	5181
827.741	5189
827.88	5185
828.02	5128
828.159	5280
828.298	5318
828.437	5357
828.577	5280
828.716	5520
828.855	5334
828.994	5162
829.134	5166
829.273	5132
829.412	5136
829.551	5128
829.69	5159
829.829	5277
829.968	5337
830.107	5235
830.246	5242
830.385	5174
830.524	5136
830.663	5075
830.802	4987
830.941	4885
831.08	4938
831.219	4984
831.357	4927
831.496	5162
831.635	4877
831.774	4824
831.913	4839
832.051	4710
832.19	4752
832.329	4835
832.467	4691
832.606	4641
832.744	4725
832.883	4729
833.022	4710
833.16	4736
833.299	4850
833.437	4786
833.576	4790
833.714	4866
833.852	4866
833.991	4881
834.129	4938
834.267	4999
834.406	4881
834.544	4968
834.682	5003
834.821	4953
834.959	5189
835.097	5010
835.235	5143
835.373	5079
835.511	5064
835.65	5006
835.788	5010
835.926	4911
836.064	4900
836.202	4908
836.34	5113
836.478	5223
836.615	5140
836.753	5193
836.891	5284
837.029	5235
837.167	5216
837.305	5136
837.443	5162
837.58	5128
837.718	5261
837.856	5201
837.993	5121
838.131	5227
838.269	5242
838.406	5227
838.544	5178
838.681	5022
838.819	5018
838.956	4915
839.094	4911
839.231	4995
839.369	5102
839.506	5433
839.643	5235
839.781	5064
839.918	4999
840.055	5094
840.193	5064
840.33	5052
840.467	5086
840.604	5227
840.742	5440
840.879	5098
841.016	5102
841.153	5132
841.29	5391
841.427	5311
841.564	5284
841.701	5368
841.838	5250
841.975	5201
842.112	5322
842.249	5121
842.385	5102
842.522	5315
842.659	5143
842.796	5090
842.933	5197
843.069	5147
843.206	5170
843.343	5277
843.479	5239
843.616	5239
843.752	5010
843.889	5010
844.025	5231
844.162	5048
844.298	5246
844.435	5105
844.571	5045
844.708	5185
844.844	5318
844.98	5330
845.117	5250
845.253	5189
845.389	5143
845.525	5143
845.661	5181
845.798	4957
845.934	5147
846.07	5060
846.206	5261
846.342	5288
846.478	5121
846.614	5045
846.75	4915
846.886	4911
847.022	5117
847.158	5045
847.294	5045
847.429	5056
847.565	5025
847.701	5296
847.837	4862
847.972	4748
848.108	4980
848.244	4915
848.379	4744
848.515	4725
848.65	4698
848.786	4694
848.921	4801
849.057	4870
849.192	4896
849.328	4786
849.463	4839
849.598	4767
849.734	4714
849.869	4691
850.004	4622
850.14	4656
850.275	4588
850.41	4538
850.545	4580
850.68	4607
850.815	4596
850.95	4596
851.085	4824
851.22	4714
851.355	4672
851.49	4645
851.625	4668
851.76	4649
851.895	4565
852.03	4516
852.165	4687
852.299	4733
852.434	4786
852.569	4725
852.703	4763
852.838	4793
852.973	4904
853.107	4862
853.242	4698
853.376	4733
853.511	4508
853.645	4577
853.78	4790
853.914	4660
854.048	4664
854.183	4683
854.317	4664
854.451	4866
854.585	4653
854.72	4615
854.854	4714
854.988	4618
855.122	4611
855.256	4558
855.39	4645
855.524	4748
855.658	4687
855.792	4641
855.926	4736
856.06	4771
856.194	4755
856.327	4706
856.461	4611
856.595	4607
856.729	4630
856.862	4805
856.996	4702
857.13	4691
857.263	4771
857.397	4790
857.53	4645
857.664	4710
857.797	4748
857.931	4793
858.064	4664
858.197	4698
858.331	4634
858.464	4577
858.597	4542
858.731	4607
858.864	4637
858.997	4580
859.13	4607
859.263	4618
859.396	4675
859.529	4527
859.662	4584
859.795	4558
859.928	4615
860.061	4748
860.194	4767
860.327	4607
860.46	4569
860.592	4653
860.725	4706
860.858	4744
860.99	4580
861.123	4512
861.256	4573
861.388	4584
861.521	5322
861.653	4500
861.786	4481
861.918	4436
862.05	4478
862.183	4531
862.315	4508
862.447	4683
862.58	4500
862.712	4413
862.844	4257
862.976	4466
863.108	4447
863.24	4790
863.372	4348
863.504	4398
863.636	4379
863.768	4512
863.9	4443
864.032	4424
864.164	4371
864.296	4478
864.428	4542
864.559	4550
864.691	4546
864.823	4523
864.954	4474
865.086	4455
865.217	4436
865.349	4428
865.48	4451
865.612	4455
865.743	4611
865.875	4424
866.006	4390
866.137	4428
866.269	4375
866.4	4428
866.531	4432
866.662	4383
866.793	4424
866.924	4421
867.055	4493
867.186	4455
867.317	4459
867.448	4337
867.579	4424
867.71	4390
867.841	4417
867.972	4462
868.103	4455
868.233	4500
868.364	4424
868.495	4481
868.625	4675
868.756	4790
868.886	4550
869.017	4592
869.147	4740
869.278	4740
869.408	4675
869.539	4611
869.669	4660
869.799	4687
869.929	4767
870.06	4691
870.19	4938
870.32	4889
870.45	4904
870.58	4995
870.71	5052
870.84	5102
870.97	4972
871.1	4870
871.23	5162
871.36	5090
871.489	4999
871.619	5094
871.749	5045
871.879	5159
872.008	5140
872.138	5033
872.267	4957
872.397	4850
872.526	4816
872.656	4714
872.785	4816
872.915	4930
873.044	4961
873.173	4919
873.303	4915
873.432	4919
873.561	4904
873.69	4858
873.819	4839
873.948	4919
874.077	4763
874.206	4797
874.335	4801
874.464	4923
874.593	5033
874.722	4965
874.851	5105
874.979	5018
875.108	5067
875.237	4858
875.365	4831
875.494	4904
875.623	4972
875.751	4843
875.88	4889
876.008	4961
876.136	4968
876.265	5174
876.393	5353
876.521	5227
876.65	5201
876.778	5166
876.906	5052
877.034	5033
877.162	5071
877.29	4927
877.418	5041
877.546	5075
877.674	5041
877.802	4999
877.93	5014
878.058	4915
878.185	4835
878.313	4953
878.441	4923
878.568	4820
878.696	4900
878.824	4949
878.951	4953
879.079	5121
879.206	5254
879.333	5094
879.461	4999
879.588	4972
879.715	5109
879.842	5227
879.97	5025
880.097	4782
880.224	4721
880.351	4801
880.478	4881
880.605	4809
880.732	4767
880.859	5071
880.986	4862
881.112	4889
881.239	4793
881.366	4656
881.493	4561
881.619	4558
881.746	4607
881.872	4630
881.999	4660
882.125	4664
882.252	4812
882.378	4828
882.505	4896
882.631	4805
882.757	4668
882.883	4733
883.01	4748
883.136	4706
883.262	4599
883.388	4615
883.514	4812
883.64	4812
883.766	4793
883.892	4653
884.018	4736
884.143	4885
884.269	5003
884.395	4698
884.52	4588
884.646	4618
884.772	4618
884.897	4554
885.023	4641
885.148	4744
885.274	4858
885.399	4790
885.524	4748
885.65	4679
885.775	4687
885.9	4729
886.025	4858
886.15	4809
886.275	4694
886.4	4626
886.525	4748
886.65	4706
886.775	4702
886.9	4862
887.025	5037
887.149	4816
887.274	4660
887.399	4558
887.523	4592
887.648	4554
887.773	4634
887.897	4774
888.021	4759
888.146	4683
888.27	4850
888.395	4919
888.519	4812
888.643	4774
888.767	4843
888.891	4714
889.015	4580
889.139	4687
889.263	4596
889.387	4767
889.511	4850
889.635	4801
889.759	4622
889.883	4592
890.006	4729
890.13	4870
890.254	4615
890.377	4679
890.501	4542
890.624	4531
890.748	4622
890.871	4512
890.995	4417
891.118	4417
891.241	4546
891.364	4558
891.488	4618
891.611	4451
891.734	4527
891.857	4584
891.98	4592
892.103	4691
892.226	4565
892.349	4558
892.471	4413
892.594	4500
892.717	4558
892.839	4554
892.962	4584
893.085	4656
893.207	4580
893.33	4455
893.452	4538
893.575	4637
893.697	4584
893.819	4790
893.941	4824
894.064	4740
894.186	4611
894.308	4599
894.43	4714
894.552	4854
894.674	4752
894.796	4538
894.918	4626
895.04	4558
895.161	4710
895.283	4664
895.405	4523
895.526	4641
895.648	4694
895.769	4668
895.891	4744
896.012	4740
896.134	4694
896.255	4656
896.376	4626
896.498	4603
896.619	4683
896.74	4592
896.861	4645
896.982	4949
897.103	5094
897.224	4790
897.345	4767
897.466	4694
897.587	4744
897.708	4835
897.828	4759
897.949	4653
898.07	4542
898.19	4630
898.311	4786
898.431	4706
898.552	4706
898.672	4820
898.792	4828
898.913	4763
899.033	4641
899.153	4474
899.273	4421
899.393	4523
899.513	4504
899.633	4500
899.753	4500
899.873	4527
899.993	4569
900.113	4565
900.232	4645
900.352	4546
900.472	4478
900.591	4356
900.711	4481
900.83	4443
900.95	4584
901.069	4683
901.189	4569
901.308	4356
901.427	4299
901.546	4375
901.665	4493
901.784	4497
901.904	4344
902.023	4333
902.141	4147
902.26	4135
902.379	4287
902.498	4246
902.617	4211
902.735	4360
902.854	4367
902.973	4390
903.091	4200
903.21	4215
903.328	4287
903.446	4261
903.565	4242
903.683	4348
903.801	4272
903.919	4379
904.038	4398
904.156	4310
904.274	4428
904.392	4386
904.51	4421
904.627	4451
904.745	4580
904.863	4611
904.981	4409
905.098	4318
905.216	4375
905.334	4390
905.451	4466
905.569	4413
905.686	4531
905.803	4542
905.921	4409
906.038	4550
906.155	4474
906.272	4386
906.389	4474
906.506	4329
906.623	4341
906.74	4363
906.857	4299
906.974	4375
907.091	4599
907.208	4691
907.324	4546
907.441	4497
907.557	4386
907.674	4341
907.79	4299
907.907	4367
908.023	4481
908.139	4474
908.256	4443
908.372	4523
908.488	4440
908.604	4306
908.72	4314
908.836	4375
908.952	4375
909.068	4447
909.184	4603
909.3	4489
909.415	4618
909.531	4538
909.647	4352
909.762	4375
909.878	4310
909.993	4451
910.108	4421
910.224	4398
910.339	4462
910.454	4413
910.57	4424
910.685	4265
910.8	4611
910.915	4599
911.03	4462
911.145	4284
911.259	4322
911.374	4329
911.489	4265
911.604	4257
911.718	4169
911.833	4192
911.947	4074
912.062	4055
912.176	4200
912.291	4211
912.405	4265
912.519	4455
912.633	4500
912.748	4379
912.862	4280
912.976	4173
913.09	4025
913.204	4143
913.318	4249
913.431	4409
913.545	4363
913.659	4417
913.772	4360
913.886	4287
914	4261
914.113	4383
914.226	4497
914.34	4386
914.453	4238
914.566	4405
914.68	4276
914.793	4333
914.906	4204
915.019	4131
915.132	4074
915.245	4227
915.358	4173
915.47	4207
915.583	4242
915.696	4253
915.809	4398
915.921	4428
916.034	4230
916.146	4230
916.259	4234
916.371	4337
916.483	4383
916.595	4204
916.708	4295
916.82	4314
916.932	4310
917.044	4306
917.156	4322
917.268	4230
917.38	4287
917.491	4257
917.603	4337
917.715	4402
917.826	4459
917.938	4333
918.049	4249
918.161	4363
918.272	4561
918.384	4519
918.495	4462
918.606	4249
918.717	4211
918.828	4325
918.939	4325
919.05	4261
919.161	4318
919.272	4131
919.383	4227
919.494	4440
919.604	4596
919.715	4428
919.826	4325
919.936	4402
920.047	4481
920.157	4500
920.267	4694
920.378	4519
920.488	4474
920.598	4710
920.708	4881
920.818	4744
920.928	4725
921.038	4957
921.148	4919
921.258	4641
921.368	4554
921.477	4512
921.587	4432
921.697	4348
921.806	4512
921.916	4447
922.025	4306
922.134	4295
922.244	4219
922.353	4325
922.462	4162
922.571	4105
922.68	3983
922.789	3983
922.898	4055
923.007	3983
923.116	4090
923.224	4055
923.333	4090
923.442	3998
923.55	4010
923.659	4078
923.767	4067
923.876	4002
923.984	4143
924.092	3998
924.201	4071
924.309	4071
924.417	4128
924.525	4051
924.633	4051
924.741	4892
924.849	3956
924.956	4158
925.064	3964
925.172	3903
925.279	3941
925.387	4048
925.494	4059
925.602	4215
925.709	4169
925.816	4006
925.924	4166
926.031	4219
926.138	4173
926.245	4177
926.352	4082
926.459	4230
926.566	4272
926.673	4120
926.779	4055
926.886	4059
926.993	4021
927.099	3945
927.206	3930
927.312	3937
927.419	4055
927.525	4055
927.631	4105
927.737	3968
927.843	3975
927.95	3823
928.056	3953
928.162	4002
928.267	4071
928.373	4672
928.479	4124
928.585	3857
928.69	3998
928.796	4071
928.901	3937
929.007	3808
929.112	4021
929.218	3983
929.323	3922
929.428	3911
929.533	4135
929.638	3915
929.743	3960
929.848	4048
929.953	4017
930.058	3949
930.163	3785
930.267	3854
930.372	3937
930.477	3797
930.581	4040
930.685	3926
930.79	3804
930.894	3892
930.998	3876
931.103	4040
931.207	3717
931.311	3694
931.415	3686
931.519	3496
931.623	3542
