Data from test_V78500241_2165.txt Node
Date: Fri Mar 25 17:04:03 CST 2022
User: usil
Spectrometer: V785-0024
Trigger mode: 0
Integration Time (sec): 4.000000E-1
Scans to average: 1
Nonlinearity correction enabled: false
Boxcar width: 0
Storing dark spectrum: false
XAxis mode: Wavelengths
Number of Pixels in Spectrum: 1024
>>>>>Begin Spectral Data<<<<<
801.071	7932
801.214	7940
801.356	7833
801.499	7909
801.641	7746
801.783	7803
801.926	7970
802.068	7944
802.211	7928
802.353	7963
802.496	7841
802.638	7826
802.78	7951
802.923	7883
803.065	7837
803.208	7826
803.35	7940
803.492	8020
803.635	8225
803.777	7982
803.919	8123
804.061	8427
804.204	8180
804.346	8084
804.488	7963
804.63	8119
804.773	7974
804.915	8134
805.057	8282
805.199	8176
805.341	8180
805.483	8240
805.626	8256
805.768	8145
805.91	8218
806.052	8244
806.194	8145
806.336	8229
806.478	8119
806.62	8096
806.762	8157
806.904	8286
807.046	8450
807.188	8332
807.33	8332
807.472	8301
807.614	8202
807.756	8164
807.898	8046
808.04	7913
808.182	7921
808.324	7921
808.465	7925
808.607	8043
808.749	8149
808.891	8134
809.033	8248
809.174	8218
809.316	8050
809.458	8176
809.6	7944
809.741	8062
809.883	7978
810.025	8081
810.166	8031
810.308	8039
810.45	7978
810.591	7807
810.733	7681
810.875	7712
811.016	7533
811.158	7472
811.299	7597
811.441	7761
811.582	7662
811.724	7552
811.865	7567
812.007	7563
812.148	7628
812.29	7594
812.431	7674
812.573	7871
812.714	7989
812.855	8142
812.997	8233
813.138	8313
813.279	8164
813.421	8039
813.562	8008
813.703	7822
813.845	7769
813.986	7460
814.127	7209
814.268	7217
814.41	7194
814.551	7168
814.692	7194
814.833	7065
814.974	7088
815.115	7137
815.256	6985
815.397	6939
815.539	6920
815.68	6802
815.821	6791
815.962	6867
816.103	6833
816.244	6692
816.385	6597
816.526	6627
816.666	6502
816.807	6372
816.948	6445
817.089	6448
817.23	6452
817.371	6399
817.512	6372
817.653	6395
817.793	6300
817.934	6388
818.075	6464
818.216	6460
818.356	6437
818.497	6254
818.638	6167
818.778	6133
818.919	6114
819.06	6117
819.2	6346
819.341	6327
819.481	6395
819.622	6551
819.762	6798
819.903	6658
820.043	6620
820.184	6547
820.324	6551
820.465	6711
820.605	6707
820.746	6665
820.886	6506
821.026	6589
821.167	6768
821.307	6757
821.447	6719
821.588	6677
821.728	6563
821.868	6521
822.008	6342
822.149	6395
822.289	6376
822.429	6148
822.569	6083
822.709	6117
822.849	5923
822.99	5863
823.13	5916
823.27	5927
823.41	5756
823.55	5767
823.69	5729
823.83	5809
823.97	5672
824.11	5570
824.25	5528
824.389	5554
824.529	5558
824.669	5493
824.809	5653
824.949	5680
825.089	5600
825.228	5539
825.368	5387
825.508	5368
825.648	5349
825.787	5334
825.927	5349
826.067	5315
826.206	5280
826.346	5364
826.485	5452
826.625	5402
826.765	5528
826.904	5497
827.044	5204
827.183	5189
827.323	5121
827.462	5242
827.601	5117
827.741	5166
827.88	5170
828.02	5105
828.159	5235
828.298	5258
828.437	5345
828.577	5311
828.716	5467
828.855	5341
828.994	5128
829.134	5102
829.273	5185
829.412	5121
829.551	5105
829.69	5178
829.829	5201
829.968	5376
830.107	5254
830.246	5284
830.385	5162
830.524	5121
830.663	5064
830.802	4999
830.941	4911
831.08	4854
831.219	4938
831.357	4927
831.496	5193
831.635	4858
831.774	4820
831.913	4831
832.051	4767
832.19	4763
832.329	4812
832.467	4683
832.606	4649
832.744	4771
832.883	4752
833.022	4744
833.16	4752
833.299	4847
833.437	4797
833.576	4820
833.714	4862
833.852	4881
833.991	4904
834.129	4953
834.267	4987
834.406	4870
834.544	4946
834.682	5029
834.821	4976
834.959	5166
835.097	4976
835.235	5151
835.373	5136
835.511	5105
835.65	5037
835.788	5033
835.926	4896
836.064	4889
836.202	4862
836.34	5201
836.478	5212
836.615	5105
836.753	5231
836.891	5288
837.029	5216
837.167	5193
837.305	5132
837.443	5140
837.58	5041
837.718	5223
837.856	5128
837.993	5170
838.131	5246
838.269	5189
838.406	5204
838.544	5181
838.681	5048
838.819	4976
838.956	4881
839.094	4942
839.231	4961
839.369	5113
839.506	5402
839.643	5269
839.781	5056
839.918	5006
840.055	5124
840.193	5117
840.33	5136
840.467	5140
840.604	5155
840.742	5505
840.879	5083
841.016	5075
841.153	5216
841.29	5387
841.427	5303
841.564	5326
841.701	5341
841.838	5280
841.975	5231
842.112	5223
842.249	5090
842.385	5094
842.522	5318
842.659	5189
842.796	5132
842.933	5197
843.069	5094
843.206	5197
843.343	5364
843.479	5261
843.616	5269
843.752	5029
843.889	5003
844.025	5288
844.162	5037
844.298	5258
844.435	5041
844.571	5045
844.708	5170
844.844	5326
844.98	5414
845.117	5269
845.253	5155
845.389	5067
845.525	5201
845.661	5159
845.798	5022
845.934	5124
846.07	5056
846.206	5151
846.342	5261
846.478	5155
846.614	4999
846.75	4972
846.886	4991
847.022	5124
847.158	4999
847.294	5086
847.429	5109
847.565	5029
847.701	5307
847.837	4801
847.972	4790
848.108	4930
848.244	4881
848.379	4771
848.515	4748
848.65	4694
848.786	4736
848.921	4774
849.057	4835
849.192	4900
849.328	4797
849.463	4847
849.598	4786
849.734	4759
849.869	4740
850.004	4565
850.14	4611
850.275	4611
850.41	4523
850.545	4542
850.68	4577
850.815	4634
850.95	4641
851.085	4820
851.22	4710
851.355	4672
851.49	4630
851.625	4607
851.76	4641
851.895	4569
852.03	4512
852.165	4653
852.299	4694
852.434	4763
852.569	4706
852.703	4793
852.838	4839
852.973	4946
853.107	4938
853.242	4698
853.376	4653
853.511	4577
853.645	4596
853.78	4820
853.914	4679
854.048	4645
854.183	4656
854.317	4683
854.451	4877
854.585	4733
854.72	4653
854.854	4706
854.988	4538
855.122	4630
855.256	4500
855.39	4641
855.524	4740
855.658	4710
855.792	4683
855.926	4740
856.06	4733
856.194	4824
856.327	4702
856.461	4584
856.595	4603
856.729	4649
856.862	4706
856.996	4698
857.13	4755
857.263	4801
857.397	4774
857.53	4615
857.664	4675
857.797	4748
857.931	4820
858.064	4702
858.197	4725
858.331	4618
858.464	4607
858.597	4519
858.731	4653
858.864	4653
858.997	4611
859.13	4611
859.263	4694
859.396	4668
859.529	4599
859.662	4542
859.795	4504
859.928	4592
860.061	4763
860.194	4740
860.327	4599
860.46	4577
860.592	4725
860.725	4683
860.858	4744
860.99	4573
861.123	4542
861.256	4481
861.388	4618
861.521	5410
861.653	4508
861.786	4432
861.918	4451
862.05	4550
862.183	4535
862.315	4634
862.447	4656
862.58	4565
862.712	4424
862.844	4299
862.976	4481
863.108	4459
863.24	4782
863.372	4352
863.504	4428
863.636	4402
863.768	4447
863.9	4436
864.032	4360
864.164	4379
864.296	4432
864.428	4531
864.559	4569
864.691	4531
864.823	4485
864.954	4519
865.086	4508
865.217	4466
865.349	4383
865.48	4447
865.612	4466
865.743	4596
865.875	4424
866.006	4440
866.137	4485
866.269	4432
866.4	4443
866.531	4402
866.662	4383
866.793	4383
866.924	4390
867.055	4462
867.186	4402
867.317	4466
867.448	4436
867.579	4371
867.71	4424
867.841	4371
867.972	4459
868.103	4481
868.233	4470
868.364	4497
868.495	4470
868.625	4694
868.756	4774
868.886	4580
869.017	4634
869.147	4771
869.278	4824
869.408	4653
869.539	4618
869.669	4736
869.799	4596
869.929	4748
870.06	4740
870.19	4953
870.32	4927
870.45	4873
870.58	5041
870.71	5060
870.84	5064
870.97	4942
871.1	4919
871.23	5094
871.36	5109
871.489	5006
871.619	5045
871.749	5117
871.879	5185
872.008	5155
872.138	5052
872.267	4999
872.397	4847
872.526	4797
872.656	4717
872.785	4797
872.915	4915
873.044	5014
873.173	4938
873.303	4934
873.432	4961
873.561	4953
873.69	4870
873.819	4870
873.948	4923
874.077	4892
874.206	4736
874.335	4816
874.464	4934
874.593	5056
874.722	4946
874.851	5079
874.979	5064
875.108	5064
875.237	4854
875.365	4854
875.494	4896
875.623	4976
875.751	4828
875.88	4812
876.008	4999
876.136	5079
876.265	5220
876.393	5334
876.521	5258
876.65	5212
876.778	5170
876.906	4995
877.034	4987
877.162	5067
877.29	5014
877.418	5064
877.546	5052
877.674	5090
877.802	5029
877.93	5083
878.058	4980
878.185	4915
878.313	4946
878.441	4965
878.568	4778
878.696	4870
878.824	4965
878.951	4987
879.079	5105
879.206	5246
879.333	5113
879.461	5006
879.588	4984
879.715	5102
879.842	5235
879.97	5018
880.097	4790
880.224	4763
880.351	4793
880.478	4847
880.605	4790
880.732	4774
880.859	5079
880.986	4892
881.112	4873
881.239	4786
881.366	4675
881.493	4603
881.619	4558
881.746	4618
881.872	4653
881.999	4626
882.125	4649
882.252	4755
882.378	4828
882.505	4930
882.631	4771
882.757	4626
882.883	4721
883.01	4752
883.136	4672
883.262	4599
883.388	4664
883.514	4809
883.64	4847
883.766	4774
883.892	4653
884.018	4736
884.143	4892
884.269	4984
884.395	4653
884.52	4607
884.646	4641
884.772	4599
884.897	4573
885.023	4668
885.148	4790
885.274	4847
885.399	4812
885.524	4710
885.65	4641
885.775	4767
885.9	4683
886.025	4809
886.15	4744
886.275	4694
886.4	4634
886.525	4729
886.65	4679
886.775	4714
886.9	4930
887.025	5014
887.149	4816
887.274	4660
887.399	4641
887.523	4592
887.648	4588
887.773	4577
887.897	4778
888.021	4820
888.146	4634
888.27	4816
888.395	4889
888.519	4710
888.643	4816
888.767	4824
888.891	4634
889.015	4630
889.139	4656
889.263	4577
889.387	4710
889.511	4858
889.635	4816
889.759	4611
889.883	4649
890.006	4725
890.13	4881
890.254	4656
890.377	4694
890.501	4538
890.624	4451
890.748	4649
890.871	4535
890.995	4417
891.118	4379
891.241	4542
891.364	4504
891.488	4588
891.611	4459
891.734	4546
891.857	4592
891.98	4531
892.103	4573
892.226	4603
892.349	4542
892.471	4413
892.594	4508
892.717	4577
892.839	4558
892.962	4584
893.085	4660
893.207	4630
893.33	4443
893.452	4561
893.575	4691
893.697	4573
893.819	4812
893.941	4805
894.064	4744
894.186	4573
894.308	4527
894.43	4763
894.552	4809
894.674	4755
894.796	4531
894.918	4634
895.04	4592
895.161	4706
895.283	4656
895.405	4577
895.526	4626
895.648	4717
895.769	4653
895.891	4694
896.012	4687
896.134	4752
896.255	4626
896.376	4607
896.498	4592
896.619	4668
896.74	4607
896.861	4641
896.982	4896
897.103	5060
897.224	4816
897.345	4790
897.466	4675
897.587	4740
897.708	4911
897.828	4755
897.949	4656
898.07	4546
898.19	4668
898.311	4816
898.431	4599
898.552	4729
898.672	4801
898.792	4866
898.913	4744
899.033	4592
899.153	4489
899.273	4436
899.393	4474
899.513	4527
899.633	4561
899.753	4516
899.873	4497
899.993	4596
900.113	4542
900.232	4592
900.352	4504
900.472	4470
900.591	4409
900.711	4493
900.83	4470
900.95	4569
901.069	4637
901.189	4519
901.308	4322
901.427	4303
901.546	4341
901.665	4432
901.784	4512
901.904	4394
902.023	4310
902.141	4185
902.26	4185
902.379	4314
902.498	4287
902.617	4230
902.735	4390
902.854	4375
902.973	4375
903.091	4227
903.21	4238
903.328	4337
903.446	4246
903.565	4280
903.683	4402
903.801	4261
903.919	4386
904.038	4478
904.156	4280
904.274	4443
904.392	4371
904.51	4436
904.627	4459
904.745	4565
904.863	4641
904.981	4371
905.098	4318
905.216	4333
905.334	4447
905.451	4424
905.569	4455
905.686	4561
905.803	4485
905.921	4409
906.038	4565
906.155	4508
906.272	4417
906.389	4421
906.506	4333
906.623	4363
906.74	4375
906.857	4310
906.974	4356
907.091	4565
907.208	4618
907.324	4580
907.441	4489
907.557	4322
907.674	4322
907.79	4337
907.907	4424
908.023	4478
908.139	4489
908.256	4500
908.372	4485
908.488	4413
908.604	4363
908.72	4344
908.836	4348
908.952	4341
909.068	4421
909.184	4607
909.3	4440
909.415	4565
909.531	4588
909.647	4375
909.762	4329
909.878	4341
909.993	4459
910.108	4383
910.224	4417
910.339	4470
910.454	4390
910.57	4379
910.685	4299
910.8	4641
910.915	4569
911.03	4493
911.145	4341
911.259	4352
911.374	4371
911.489	4276
911.604	4276
911.718	4169
911.833	4215
911.947	4086
912.062	4040
912.176	4257
912.291	4253
912.405	4261
912.519	4436
912.633	4459
912.748	4383
912.862	4303
912.976	4204
913.09	4120
913.204	4158
913.318	4284
913.431	4348
913.545	4375
913.659	4432
913.772	4348
913.886	4246
914	4204
914.113	4386
914.226	4398
914.34	4375
914.453	4204
914.566	4421
914.68	4306
914.793	4310
914.906	4154
915.019	4112
915.132	4101
915.245	4177
915.358	4192
915.47	4249
915.583	4272
915.696	4306
915.809	4443
915.921	4455
916.034	4276
916.146	4242
916.259	4246
916.371	4363
916.483	4333
916.595	4230
916.708	4295
916.82	4363
916.932	4314
917.044	4272
917.156	4356
917.268	4215
917.38	4223
917.491	4238
917.603	4333
917.715	4443
917.826	4428
917.938	4356
918.049	4261
918.161	4405
918.272	4516
918.384	4504
918.495	4489
918.606	4299
918.717	4261
918.828	4348
918.939	4363
919.05	4257
919.161	4337
919.272	4139
919.383	4230
919.494	4443
919.604	4611
919.715	4455
919.826	4375
919.936	4363
920.047	4516
920.157	4455
920.267	4637
920.378	4558
920.488	4516
920.598	4702
920.708	4850
920.818	4725
920.928	4790
921.038	4953
921.148	4900
921.258	4611
921.368	4527
921.477	4474
921.587	4485
921.697	4386
921.806	4577
921.916	4436
922.025	4276
922.134	4261
922.244	4192
922.353	4284
922.462	4181
922.571	4131
922.68	4025
922.789	3941
922.898	4071
923.007	3979
923.116	4082
923.224	4086
923.333	4086
923.442	3968
923.55	3937
923.659	4010
923.767	4090
923.876	4021
923.984	4120
924.092	3998
924.201	4040
924.309	4101
924.417	4078
924.525	4051
924.633	4063
924.741	5086
924.849	3953
924.956	4120
925.064	3964
925.172	3873
925.279	3994
925.387	4002
925.494	4074
925.602	4219
925.709	4177
925.816	4105
925.924	4116
926.031	4188
926.138	4154
926.245	4230
926.352	4067
926.459	4234
926.566	4310
926.673	4135
926.779	4090
926.886	4101
926.993	3991
927.099	3991
927.206	3930
927.312	3930
927.419	4036
927.525	4013
927.631	4090
927.737	3964
927.843	3972
927.95	3865
928.056	3964
928.162	3975
928.267	4040
928.373	4649
928.479	4128
928.585	3861
928.69	4013
928.796	4059
928.901	3987
929.007	3812
929.112	4025
929.218	3987
929.323	3949
929.428	3945
929.533	4063
929.638	3926
929.743	3975
929.848	4078
929.953	4002
930.058	3896
930.163	3827
930.267	3857
930.372	4013
930.477	3793
930.581	4067
930.685	3953
930.79	3808
930.894	3873
930.998	3816
931.103	4029
931.207	3705
931.311	3728
931.415	3679
931.519	3545
931.623	3549
