Data from test_V78500241_666.txt Node
Date: Fri Mar 25 16:53:37 CST 2022
User: usil
Spectrometer: V785-0024
Trigger mode: 0
Integration Time (sec): 4.000000E-1
Scans to average: 1
Nonlinearity correction enabled: false
Boxcar width: 0
Storing dark spectrum: false
XAxis mode: Wavelengths
Number of Pixels in Spectrum: 1024
>>>>>Begin Spectral Data<<<<<
801.071	8008
801.214	7940
801.356	7814
801.499	7849
801.641	7814
801.783	7871
801.926	7993
802.068	7989
802.211	7993
802.353	8031
802.496	7864
802.638	7917
802.78	7921
802.923	7909
803.065	7864
803.208	7849
803.35	7970
803.492	8123
803.635	8164
803.777	7989
803.919	8157
804.061	8347
804.204	8005
804.346	8046
804.488	8005
804.63	8008
804.773	7970
804.915	8069
805.057	8305
805.199	8130
805.341	8176
805.483	8233
805.626	8218
805.768	8145
805.91	8210
806.052	8237
806.194	8142
806.336	8252
806.478	8103
806.62	8046
806.762	8119
806.904	8301
807.046	8446
807.188	8324
807.33	8290
807.472	8374
807.614	8142
807.756	8050
807.898	7951
808.04	7826
808.182	7894
808.324	7894
808.465	7921
808.607	8065
808.749	8115
808.891	8218
809.033	8248
809.174	8172
809.316	8024
809.458	8100
809.6	7947
809.741	8031
809.883	8008
810.025	8092
810.166	8096
810.308	8012
810.45	8073
810.591	7879
810.733	7734
810.875	7685
811.016	7510
811.158	7430
811.299	7594
811.441	7700
811.582	7693
811.724	7559
811.865	7502
812.007	7578
812.148	7567
812.29	7563
812.431	7708
812.573	7833
812.714	7967
812.855	8107
812.997	8202
813.138	8355
813.279	8202
813.421	8123
813.562	8077
813.703	7890
813.845	7731
813.986	7518
814.127	7339
814.268	7255
814.41	7198
814.551	7080
814.692	7164
814.833	7114
814.974	7038
815.115	7095
815.256	6924
815.397	6932
815.539	6981
815.68	6852
815.821	6745
815.962	6825
816.103	6837
816.244	6711
816.385	6646
816.526	6669
816.666	6525
816.807	6350
816.948	6429
817.089	6498
817.23	6448
817.371	6331
817.512	6342
817.653	6357
817.793	6323
817.934	6418
818.075	6433
818.216	6395
818.356	6395
818.497	6254
818.638	6095
818.778	6140
818.919	6148
819.06	6155
819.2	6350
819.341	6304
819.481	6361
819.622	6521
819.762	6700
819.903	6738
820.043	6525
820.184	6536
820.324	6566
820.465	6673
820.605	6563
820.746	6574
820.886	6464
821.026	6623
821.167	6711
821.307	6787
821.447	6806
821.588	6570
821.728	6578
821.868	6426
822.008	6289
822.149	6391
822.289	6346
822.429	6106
822.569	6049
822.709	6041
822.849	5908
822.99	5904
823.13	5874
823.27	5893
823.41	5756
823.55	5745
823.69	5760
823.83	5767
823.97	5623
824.11	5509
824.25	5455
824.389	5573
824.529	5604
824.669	5516
824.809	5623
824.949	5623
825.089	5566
825.228	5528
825.368	5425
825.508	5395
825.648	5326
825.787	5376
825.927	5402
826.067	5299
826.206	5265
826.346	5345
826.485	5387
826.625	5391
826.765	5524
826.904	5459
827.044	5265
827.183	5178
827.323	5079
827.462	5242
827.601	5170
827.741	5201
827.88	5216
828.02	5117
828.159	5212
828.298	5364
828.437	5391
828.577	5254
828.716	5459
828.855	5337
828.994	5204
829.134	5109
829.273	5155
829.412	5136
829.551	5113
829.69	5124
829.829	5227
829.968	5372
830.107	5326
830.246	5284
830.385	5147
830.524	5166
830.663	5056
830.802	4915
830.941	4862
831.08	4862
831.219	4965
831.357	5022
831.496	5136
831.635	4927
831.774	4858
831.913	4839
832.051	4714
832.19	4714
832.329	4820
832.467	4717
832.606	4637
832.744	4725
832.883	4759
833.022	4672
833.16	4778
833.299	4797
833.437	4843
833.576	4786
833.714	4850
833.852	4816
833.991	4881
834.129	4957
834.267	4934
834.406	4911
834.544	4976
834.682	4930
834.821	4946
834.959	5147
835.097	4991
835.235	5102
835.373	5060
835.511	5094
835.65	4972
835.788	5056
835.926	4904
836.064	4839
836.202	4904
836.34	5136
836.478	5223
836.615	5109
836.753	5178
836.891	5299
837.029	5235
837.167	5189
837.305	5151
837.443	5136
837.58	5102
837.718	5242
837.856	5140
837.993	5166
838.131	5223
838.269	5193
838.406	5197
838.544	5143
838.681	5022
838.819	5037
838.956	4812
839.094	4881
839.231	4965
839.369	5098
839.506	5436
839.643	5280
839.781	5094
839.918	4968
840.055	5147
840.193	5083
840.33	5075
840.467	5113
840.604	5170
840.742	5425
840.879	5064
841.016	5086
841.153	5181
841.29	5330
841.427	5299
841.564	5353
841.701	5318
841.838	5261
841.975	5098
842.112	5258
842.249	5143
842.385	5162
842.522	5334
842.659	5132
842.796	5136
842.933	5166
843.069	5140
843.206	5136
843.343	5277
843.479	5216
843.616	5246
843.752	5029
843.889	5006
844.025	5201
844.162	5033
844.298	5166
844.435	5094
844.571	5083
844.708	5170
844.844	5250
844.98	5303
845.117	5280
845.253	5113
845.389	5083
845.525	5151
845.661	5136
845.798	5018
845.934	5094
846.07	5041
846.206	5162
846.342	5292
846.478	5121
846.614	5079
846.75	5064
846.886	4885
847.022	5094
847.158	5003
847.294	5052
847.429	5128
847.565	5048
847.701	5318
847.837	4847
847.972	4824
848.108	4984
848.244	4870
848.379	4782
848.515	4736
848.65	4748
848.786	4736
848.921	4790
849.057	4843
849.192	4923
849.328	4801
849.463	4824
849.598	4835
849.734	4736
849.869	4752
850.004	4645
850.14	4645
850.275	4630
850.41	4527
850.545	4542
850.68	4573
850.815	4592
850.95	4603
851.085	4816
851.22	4736
851.355	4687
851.49	4626
851.625	4637
851.76	4672
851.895	4542
852.03	4554
852.165	4611
852.299	4729
852.434	4759
852.569	4736
852.703	4786
852.838	4820
852.973	4915
853.107	4911
853.242	4752
853.376	4634
853.511	4558
853.645	4599
853.78	4763
853.914	4668
854.048	4641
854.183	4649
854.317	4717
854.451	4824
854.585	4672
854.72	4592
854.854	4744
854.988	4542
855.122	4630
855.256	4508
855.39	4607
855.524	4782
855.658	4714
855.792	4679
855.926	4702
856.06	4714
856.194	4778
856.327	4683
856.461	4626
856.595	4603
856.729	4622
856.862	4774
856.996	4771
857.13	4782
857.263	4683
857.397	4790
857.53	4641
857.664	4691
857.797	4717
857.931	4797
858.064	4675
858.197	4752
858.331	4668
858.464	4615
858.597	4508
858.731	4618
858.864	4710
858.997	4611
859.13	4630
859.263	4622
859.396	4683
859.529	4580
859.662	4577
859.795	4527
859.928	4637
860.061	4774
860.194	4729
860.327	4569
860.46	4611
860.592	4733
860.725	4744
860.858	4759
860.99	4573
861.123	4493
861.256	4527
861.388	4611
861.521	5322
861.653	4451
861.786	4428
861.918	4455
862.05	4573
862.183	4554
862.315	4573
862.447	4637
862.58	4550
862.712	4379
862.844	4344
862.976	4451
863.108	4451
863.24	4862
863.372	4341
863.504	4409
863.636	4424
863.768	4474
863.9	4440
864.032	4394
864.164	4443
864.296	4459
864.428	4531
864.559	4580
864.691	4542
864.823	4519
864.954	4478
865.086	4470
865.217	4440
865.349	4417
865.48	4428
865.612	4462
865.743	4611
865.875	4428
866.006	4440
866.137	4466
866.269	4455
866.4	4455
866.531	4447
866.662	4447
866.793	4383
866.924	4447
867.055	4428
867.186	4493
867.317	4413
867.448	4371
867.579	4383
867.71	4386
867.841	4371
867.972	4470
868.103	4485
868.233	4462
868.364	4428
868.495	4493
868.625	4641
868.756	4774
868.886	4580
869.017	4607
869.147	4801
869.278	4771
869.408	4637
869.539	4607
869.669	4729
869.799	4599
869.929	4759
870.06	4675
870.19	4987
870.32	4953
870.45	4972
870.58	5010
870.71	5060
870.84	5109
870.97	4949
871.1	4934
871.23	5178
871.36	5098
871.489	5041
871.619	5090
871.749	5067
871.879	5143
872.008	5166
872.138	5071
872.267	4953
872.397	4793
872.526	4782
872.656	4702
872.785	4812
872.915	4919
873.044	5022
873.173	4938
873.303	4949
873.432	4957
873.561	4976
873.69	4892
873.819	4904
873.948	4885
874.077	4873
874.206	4736
874.335	4793
874.464	4873
874.593	5037
874.722	4908
874.851	5086
874.979	5086
875.108	4999
875.237	4892
875.365	4885
875.494	4900
875.623	4972
875.751	4854
875.88	4881
876.008	4976
876.136	5052
876.265	5216
876.393	5341
876.521	5239
876.65	5178
876.778	5124
876.906	5029
877.034	4987
877.162	5003
877.29	4953
877.418	5045
877.546	5048
877.674	5056
877.802	5003
877.93	5033
878.058	4923
878.185	4934
878.313	4957
878.441	4930
878.568	4805
878.696	4862
878.824	4949
878.951	4972
879.079	5189
879.206	5265
879.333	5128
879.461	4980
879.588	4999
879.715	5140
879.842	5250
879.97	4987
880.097	4752
880.224	4759
880.351	4793
880.478	4812
880.605	4778
880.732	4809
880.859	5060
880.986	4889
881.112	4900
881.239	4805
881.366	4645
881.493	4634
881.619	4584
881.746	4592
881.872	4618
881.999	4656
882.125	4694
882.252	4771
882.378	4828
882.505	4995
882.631	4820
882.757	4615
882.883	4706
883.01	4717
883.136	4649
883.262	4580
883.388	4637
883.514	4831
883.64	4866
883.766	4782
883.892	4649
884.018	4755
884.143	4881
884.269	4999
884.395	4679
884.52	4649
884.646	4698
884.772	4569
884.897	4500
885.023	4679
885.148	4786
885.274	4843
885.399	4767
885.524	4668
885.65	4729
885.775	4744
885.9	4767
886.025	4835
886.15	4790
886.275	4729
886.4	4630
886.525	4733
886.65	4736
886.775	4717
886.9	4892
887.025	4987
887.149	4801
887.274	4660
887.399	4603
887.523	4656
887.648	4607
887.773	4561
887.897	4729
888.021	4801
888.146	4672
888.27	4771
888.395	4911
888.519	4805
888.643	4816
888.767	4877
888.891	4668
889.015	4599
889.139	4649
889.263	4630
889.387	4763
889.511	4835
889.635	4778
889.759	4611
889.883	4622
890.006	4714
890.13	4831
890.254	4584
890.377	4740
890.501	4588
890.624	4500
890.748	4634
890.871	4493
890.995	4417
891.118	4375
891.241	4538
891.364	4546
891.488	4615
891.611	4500
891.734	4531
891.857	4607
891.98	4580
892.103	4668
892.226	4645
892.349	4497
892.471	4424
892.594	4573
892.717	4584
892.839	4565
892.962	4592
893.085	4672
893.207	4592
893.33	4516
893.452	4569
893.575	4664
893.697	4603
893.819	4801
893.941	4820
894.064	4763
894.186	4565
894.308	4546
894.43	4755
894.552	4831
894.674	4763
894.796	4546
894.918	4592
895.04	4550
895.161	4714
895.283	4649
895.405	4565
895.526	4660
895.648	4717
895.769	4622
895.891	4698
896.012	4752
896.134	4744
896.255	4683
896.376	4656
896.498	4611
896.619	4687
896.74	4580
896.861	4656
896.982	4900
897.103	5022
897.224	4809
897.345	4721
897.466	4649
897.587	4710
897.708	4831
897.828	4710
897.949	4664
898.07	4622
898.19	4664
898.311	4873
898.431	4634
898.552	4729
898.672	4831
898.792	4835
898.913	4729
899.033	4622
899.153	4451
899.273	4424
899.393	4493
899.513	4527
899.633	4474
899.753	4523
899.873	4478
899.993	4569
900.113	4561
900.232	4615
900.352	4542
900.472	4481
900.591	4432
900.711	4500
900.83	4421
900.95	4630
901.069	4611
901.189	4558
901.308	4386
901.427	4348
901.546	4390
901.665	4443
901.784	4466
901.904	4390
902.023	4333
902.141	4177
902.26	4181
902.379	4310
902.498	4230
902.617	4242
902.735	4409
902.854	4371
902.973	4344
903.091	4215
903.21	4230
903.328	4299
903.446	4242
903.565	4276
903.683	4314
903.801	4299
903.919	4402
904.038	4447
904.156	4341
904.274	4375
904.392	4413
904.51	4405
904.627	4474
904.745	4584
904.863	4626
904.981	4398
905.098	4280
905.216	4329
905.334	4428
905.451	4481
905.569	4466
905.686	4588
905.803	4615
905.921	4436
906.038	4500
906.155	4527
906.272	4390
906.389	4443
906.506	4352
906.623	4417
906.74	4417
906.857	4268
906.974	4367
907.091	4577
907.208	4634
907.324	4592
907.441	4519
907.557	4390
907.674	4348
907.79	4306
907.907	4398
908.023	4508
908.139	4451
908.256	4413
908.372	4493
908.488	4428
908.604	4371
908.72	4322
908.836	4421
908.952	4405
909.068	4405
909.184	4592
909.3	4470
909.415	4561
909.531	4538
909.647	4363
909.762	4363
909.878	4333
909.993	4474
910.108	4440
910.224	4413
910.339	4481
910.454	4386
910.57	4333
910.685	4333
910.8	4634
910.915	4641
911.03	4508
911.145	4348
911.259	4325
911.374	4363
911.489	4280
911.604	4246
911.718	4112
911.833	4272
911.947	4074
912.062	4025
912.176	4211
912.291	4249
912.405	4272
912.519	4508
912.633	4485
912.748	4371
912.862	4318
912.976	4185
913.09	4135
913.204	4173
913.318	4261
913.431	4341
913.545	4371
913.659	4481
913.772	4348
913.886	4238
914	4192
914.113	4390
914.226	4432
914.34	4413
914.453	4211
914.566	4440
914.68	4295
914.793	4352
914.906	4128
915.019	4120
915.132	4105
915.245	4192
915.358	4192
915.47	4230
915.583	4249
915.696	4299
915.809	4447
915.921	4386
916.034	4265
916.146	4268
916.259	4211
916.371	4379
916.483	4318
916.595	4265
916.708	4265
916.82	4341
916.932	4306
917.044	4360
917.156	4344
917.268	4219
917.38	4284
917.491	4280
917.603	4291
917.715	4413
917.826	4436
917.938	4337
918.049	4253
918.161	4386
918.272	4561
918.384	4512
918.495	4428
918.606	4318
918.717	4230
918.828	4325
918.939	4363
919.05	4291
919.161	4291
919.272	4067
919.383	4242
919.494	4462
919.604	4683
919.715	4455
919.826	4325
919.936	4402
920.047	4538
920.157	4516
920.267	4714
920.378	4538
920.488	4489
920.598	4748
920.708	4850
920.818	4755
920.928	4801
921.038	4904
921.148	4892
921.258	4656
921.368	4550
921.477	4478
921.587	4447
921.697	4394
921.806	4523
921.916	4413
922.025	4265
922.134	4287
922.244	4215
922.353	4341
922.462	4173
922.571	4135
922.68	4025
922.789	3987
922.898	4044
923.007	3994
923.116	4040
923.224	4048
923.333	4124
923.442	4006
923.55	3975
923.659	3994
923.767	4097
923.876	4010
923.984	4147
924.092	3937
924.201	4093
924.309	4101
924.417	4093
924.525	4051
924.633	4097
924.741	5045
924.849	3892
924.956	4109
925.064	3941
925.172	3907
925.279	3975
925.387	4055
925.494	4032
925.602	4188
925.709	4177
925.816	4032
925.924	4154
926.031	4188
926.138	4188
926.245	4230
926.352	4109
926.459	4238
926.566	4272
926.673	4154
926.779	4074
926.886	4055
926.993	3983
927.099	3945
927.206	3960
927.312	3884
927.419	4105
927.525	4032
927.631	4086
927.737	3979
927.843	3979
927.95	3869
928.056	3983
928.162	3998
928.267	4090
928.373	4656
928.479	4124
928.585	3892
928.69	4040
928.796	4048
928.901	4013
929.007	3850
929.112	4029
929.218	3991
929.323	3922
929.428	3930
929.533	4090
929.638	3911
929.743	3934
929.848	4063
929.953	3983
930.058	3953
930.163	3770
930.267	3857
930.372	3968
930.477	3819
930.581	4048
930.685	3945
930.79	3823
930.894	3911
930.998	3808
931.103	4040
931.207	3686
931.311	3679
931.415	3633
931.519	3523
931.623	3576
