Data from test_V78500241_2541.txt Node
Date: Fri Mar 25 17:06:40 CST 2022
User: usil
Spectrometer: V785-0024
Trigger mode: 0
Integration Time (sec): 4.000000E-1
Scans to average: 1
Nonlinearity correction enabled: false
Boxcar width: 0
Storing dark spectrum: false
XAxis mode: Wavelengths
Number of Pixels in Spectrum: 1024
>>>>>Begin Spectral Data<<<<<
801.071	8062
801.214	7989
801.356	7906
801.499	7860
801.641	7772
801.783	7837
801.926	7909
802.068	7890
802.211	8020
802.353	8005
802.496	7875
802.638	7833
802.78	7887
802.923	7871
803.065	7837
803.208	7902
803.35	7906
803.492	8054
803.635	8126
803.777	8031
803.919	8073
804.061	8454
804.204	8130
804.346	8046
804.488	7932
804.63	8039
804.773	8020
804.915	8062
805.057	8332
805.199	8130
805.341	8172
805.483	8282
805.626	8240
805.768	8145
805.91	8157
806.052	8214
806.194	8157
806.336	8233
806.478	8084
806.62	8073
806.762	8126
806.904	8210
807.046	8431
807.188	8347
807.33	8343
807.472	8366
807.614	8119
807.756	8145
807.898	8016
808.04	7883
808.182	7875
808.324	7868
808.465	7982
808.607	8126
808.749	8107
808.891	8199
809.033	8313
809.174	8180
809.316	8123
809.458	8103
809.6	7978
809.741	7986
809.883	8020
810.025	8107
810.166	8077
810.308	8084
810.45	7917
810.591	7822
810.733	7727
810.875	7590
811.016	7506
811.158	7449
811.299	7533
811.441	7746
811.582	7639
811.724	7575
811.865	7609
812.007	7662
812.148	7563
812.29	7658
812.431	7738
812.573	7875
812.714	8001
812.855	8103
812.997	8172
813.138	8248
813.279	8202
813.421	8103
813.562	7967
813.703	7925
813.845	7677
813.986	7400
814.127	7282
814.268	7255
814.41	7187
814.551	7133
814.692	7221
814.833	7137
814.974	7110
815.115	7065
815.256	7008
815.397	6932
815.539	6996
815.68	6821
815.821	6772
815.962	6840
816.103	6814
816.244	6642
816.385	6646
816.526	6627
816.666	6532
816.807	6311
816.948	6410
817.089	6509
817.23	6448
817.371	6380
817.512	6403
817.653	6399
817.793	6361
817.934	6357
818.075	6471
818.216	6414
818.356	6331
818.497	6319
818.638	6125
818.778	6140
818.919	6178
819.06	6117
819.2	6296
819.341	6331
819.481	6380
819.622	6532
819.762	6749
819.903	6688
820.043	6635
820.184	6540
820.324	6593
820.465	6696
820.605	6665
820.746	6662
820.886	6506
821.026	6639
821.167	6681
821.307	6840
821.447	6745
821.588	6692
821.728	6612
821.868	6498
822.008	6410
822.149	6338
822.289	6338
822.429	6175
822.569	6091
822.709	6167
822.849	5908
822.99	5901
823.13	5920
823.27	5973
823.41	5775
823.55	5813
823.69	5775
823.83	5779
823.97	5657
824.11	5528
824.25	5505
824.389	5547
824.529	5596
824.669	5478
824.809	5649
824.949	5718
825.089	5592
825.228	5585
825.368	5391
825.508	5368
825.648	5444
825.787	5315
825.927	5349
826.067	5307
826.206	5299
826.346	5376
826.485	5376
826.625	5395
826.765	5512
826.904	5535
827.044	5227
827.183	5201
827.323	5098
827.462	5223
827.601	5223
827.741	5197
827.88	5242
828.02	5128
828.159	5223
828.298	5292
828.437	5387
828.577	5265
828.716	5471
828.855	5318
828.994	5178
829.134	5166
829.273	5197
829.412	5151
829.551	5102
829.69	5159
829.829	5242
829.968	5345
830.107	5258
830.246	5322
830.385	5197
830.524	5155
830.663	5041
830.802	4961
830.941	4896
831.08	4873
831.219	4980
831.357	4965
831.496	5185
831.635	4942
831.774	4870
831.913	4812
832.051	4733
832.19	4755
832.329	4820
832.467	4698
832.606	4672
832.744	4729
832.883	4725
833.022	4744
833.16	4774
833.299	4812
833.437	4839
833.576	4828
833.714	4854
833.852	4873
833.991	4881
834.129	4961
834.267	4938
834.406	4870
834.544	4999
834.682	4953
834.821	4953
834.959	5162
835.097	4980
835.235	5174
835.373	5075
835.511	5060
835.65	5041
835.788	5029
835.926	4919
836.064	4934
836.202	4896
836.34	5269
836.478	5258
836.615	5090
836.753	5204
836.891	5284
837.029	5261
837.167	5170
837.305	5216
837.443	5140
837.58	5064
837.718	5223
837.856	5174
837.993	5185
838.131	5235
838.269	5220
838.406	5204
838.544	5143
838.681	5041
838.819	5041
838.956	4877
839.094	4900
839.231	5022
839.369	5037
839.506	5440
839.643	5303
839.781	5029
839.918	5033
840.055	5121
840.193	5098
840.33	5102
840.467	5136
840.604	5166
840.742	5421
840.879	5056
841.016	5025
841.153	5124
841.29	5360
841.427	5379
841.564	5280
841.701	5391
841.838	5273
841.975	5223
842.112	5273
842.249	5109
842.385	5071
842.522	5326
842.659	5151
842.796	5162
842.933	5208
843.069	5143
843.206	5140
843.343	5258
843.479	5223
843.616	5280
843.752	5041
843.889	5010
844.025	5216
844.162	5010
844.298	5223
844.435	5010
844.571	5094
844.708	5201
844.844	5299
844.98	5334
845.117	5292
845.253	5151
845.389	5064
845.525	5193
845.661	5113
845.798	4999
845.934	5140
846.07	5025
846.206	5193
846.342	5284
846.478	5204
846.614	5041
846.75	4949
846.886	4946
847.022	5136
847.158	5006
847.294	5037
847.429	5105
847.565	5071
847.701	5322
847.837	4873
847.972	4816
848.108	4965
848.244	4968
848.379	4767
848.515	4725
848.65	4706
848.786	4774
848.921	4767
849.057	4831
849.192	4896
849.328	4809
849.463	4858
849.598	4820
849.734	4702
849.869	4710
850.004	4611
850.14	4656
850.275	4615
850.41	4516
850.545	4554
850.68	4649
850.815	4618
850.95	4596
851.085	4843
851.22	4736
851.355	4691
851.49	4599
851.625	4615
851.76	4664
851.895	4538
852.03	4611
852.165	4637
852.299	4710
852.434	4805
852.569	4755
852.703	4824
852.838	4854
852.973	4915
853.107	4900
853.242	4763
853.376	4698
853.511	4584
853.645	4645
853.78	4759
853.914	4694
854.048	4607
854.183	4641
854.317	4733
854.451	4854
854.585	4653
854.72	4603
854.854	4790
854.988	4569
855.122	4656
855.256	4542
855.39	4675
855.524	4744
855.658	4744
855.792	4694
855.926	4744
856.06	4824
856.194	4790
856.327	4702
856.461	4656
856.595	4558
856.729	4653
856.862	4778
856.996	4702
857.13	4759
857.263	4714
857.397	4812
857.53	4641
857.664	4702
857.797	4733
857.931	4759
858.064	4668
858.197	4706
858.331	4622
858.464	4641
858.597	4512
858.731	4634
858.864	4637
858.997	4622
859.13	4615
859.263	4637
859.396	4721
859.529	4584
859.662	4561
859.795	4565
859.928	4668
860.061	4752
860.194	4752
860.327	4599
860.46	4584
860.592	4687
860.725	4698
860.858	4672
860.99	4535
861.123	4531
861.256	4504
861.388	4618
861.521	5174
861.653	4459
861.786	4440
861.918	4466
862.05	4512
862.183	4497
862.315	4584
862.447	4630
862.58	4577
862.712	4421
862.844	4348
862.976	4474
863.108	4478
863.24	4797
863.372	4333
863.504	4405
863.636	4409
863.768	4428
863.9	4451
864.032	4348
864.164	4390
864.296	4478
864.428	4538
864.559	4535
864.691	4538
864.823	4558
864.954	4504
865.086	4497
865.217	4489
865.349	4409
865.48	4481
865.612	4478
865.743	4675
865.875	4436
866.006	4386
866.137	4459
866.269	4432
866.4	4424
866.531	4417
866.662	4375
866.793	4421
866.924	4379
867.055	4493
867.186	4489
867.317	4432
867.448	4360
867.579	4390
867.71	4421
867.841	4329
867.972	4466
868.103	4478
868.233	4432
868.364	4459
868.495	4504
868.625	4641
868.756	4812
868.886	4561
869.017	4603
869.147	4759
869.278	4809
869.408	4691
869.539	4603
869.669	4744
869.799	4641
869.929	4721
870.06	4759
870.19	5003
870.32	4949
870.45	4919
870.58	4984
870.71	5029
870.84	5109
870.97	4968
871.1	4915
871.23	5083
871.36	5083
871.489	4995
871.619	5064
871.749	5102
871.879	5143
872.008	5166
872.138	5029
872.267	4957
872.397	4866
872.526	4862
872.656	4744
872.785	4793
872.915	4908
873.044	4999
873.173	4946
873.303	4942
873.432	4938
873.561	4972
873.69	4847
873.819	4866
873.948	4889
874.077	4793
874.206	4793
874.335	4729
874.464	4949
874.593	5079
874.722	4968
874.851	5086
874.979	5018
875.108	5052
875.237	4934
875.365	4896
875.494	4900
875.623	4984
875.751	4824
875.88	4892
876.008	5003
876.136	5041
876.265	5197
876.393	5322
876.521	5273
876.65	5242
876.778	5140
876.906	5064
877.034	5014
877.162	5003
877.29	5048
877.418	5067
877.546	5037
877.674	5033
877.802	5037
877.93	5010
878.058	4961
878.185	4877
878.313	4965
878.441	4957
878.568	4782
878.696	4854
878.824	4965
878.951	5006
879.079	5083
879.206	5277
879.333	5060
879.461	4999
879.588	5045
879.715	5155
879.842	5170
879.97	5014
880.097	4820
880.224	4759
880.351	4774
880.478	4820
880.605	4774
880.732	4839
880.859	5083
880.986	4900
881.112	4885
881.239	4812
881.366	4649
881.493	4641
881.619	4611
881.746	4706
881.872	4675
881.999	4626
882.125	4729
882.252	4790
882.378	4786
882.505	4942
882.631	4797
882.757	4725
882.883	4710
883.01	4774
883.136	4694
883.262	4573
883.388	4596
883.514	4809
883.64	4877
883.766	4854
883.892	4675
884.018	4698
884.143	4900
884.269	4965
884.395	4683
884.52	4660
884.646	4668
884.772	4592
884.897	4622
885.023	4653
885.148	4801
885.274	4915
885.399	4786
885.524	4740
885.65	4736
885.775	4710
885.9	4717
886.025	4847
886.15	4786
886.275	4706
886.4	4611
886.525	4801
886.65	4702
886.775	4725
886.9	4908
887.025	5045
887.149	4824
887.274	4668
887.399	4584
887.523	4607
887.648	4649
887.773	4596
887.897	4748
888.021	4786
888.146	4710
888.27	4801
888.395	4870
888.519	4736
888.643	4805
888.767	4801
888.891	4645
889.015	4615
889.139	4668
889.263	4599
889.387	4790
889.511	4866
889.635	4812
889.759	4668
889.883	4660
890.006	4706
890.13	4812
890.254	4603
890.377	4626
890.501	4508
890.624	4569
890.748	4645
890.871	4478
890.995	4428
891.118	4375
891.241	4493
891.364	4508
891.488	4618
891.611	4504
891.734	4546
891.857	4584
891.98	4527
892.103	4603
892.226	4561
892.349	4527
892.471	4459
892.594	4596
892.717	4527
892.839	4561
892.962	4580
893.085	4668
893.207	4618
893.33	4447
893.452	4531
893.575	4691
893.697	4626
893.819	4771
893.941	4877
894.064	4740
894.186	4584
894.308	4554
894.43	4767
894.552	4767
894.674	4744
894.796	4542
894.918	4592
895.04	4538
895.161	4706
895.283	4645
895.405	4584
895.526	4641
895.648	4672
895.769	4649
895.891	4687
896.012	4729
896.134	4714
896.255	4653
896.376	4634
896.498	4611
896.619	4717
896.74	4603
896.861	4626
896.982	4908
897.103	5102
897.224	4831
897.345	4778
897.466	4698
897.587	4725
897.708	4881
897.828	4782
897.949	4698
898.07	4588
898.19	4626
898.311	4839
898.431	4618
898.552	4729
898.672	4801
898.792	4835
898.913	4759
899.033	4698
899.153	4489
899.273	4459
899.393	4538
899.513	4569
899.633	4504
899.753	4531
899.873	4588
899.993	4580
900.113	4538
900.232	4546
900.352	4523
900.472	4481
900.591	4394
900.711	4489
900.83	4417
900.95	4634
901.069	4679
901.189	4527
901.308	4375
901.427	4306
901.546	4379
901.665	4493
901.784	4538
901.904	4432
902.023	4295
902.141	4181
902.26	4154
902.379	4268
902.498	4246
902.617	4284
902.735	4356
902.854	4371
902.973	4367
903.091	4192
903.21	4204
903.328	4325
903.446	4265
903.565	4265
903.683	4360
903.801	4261
903.919	4394
904.038	4405
904.156	4299
904.274	4398
904.392	4462
904.51	4470
904.627	4485
904.745	4546
904.863	4611
904.981	4386
905.098	4299
905.216	4428
905.334	4417
905.451	4432
905.569	4428
905.686	4523
905.803	4531
905.921	4402
906.038	4489
906.155	4493
906.272	4386
906.389	4512
906.506	4402
906.623	4383
906.74	4413
906.857	4295
906.974	4367
907.091	4546
907.208	4698
907.324	4538
907.441	4493
907.557	4356
907.674	4375
907.79	4329
907.907	4383
908.023	4436
908.139	4478
908.256	4432
908.372	4478
908.488	4447
908.604	4367
908.72	4337
908.836	4356
908.952	4379
909.068	4424
909.184	4565
909.3	4485
909.415	4546
909.531	4554
909.647	4344
909.762	4394
909.878	4314
909.993	4424
910.108	4428
910.224	4424
910.339	4470
910.454	4451
910.57	4314
910.685	4299
910.8	4694
910.915	4637
911.03	4500
911.145	4303
911.259	4325
911.374	4375
911.489	4287
911.604	4284
911.718	4158
911.833	4188
911.947	4105
912.062	4044
912.176	4234
912.291	4249
912.405	4200
912.519	4428
912.633	4493
912.748	4356
912.862	4314
912.976	4234
913.09	4109
913.204	4135
913.318	4223
913.431	4409
913.545	4363
913.659	4440
913.772	4367
913.886	4242
914	4253
914.113	4371
914.226	4394
914.34	4386
914.453	4284
914.566	4402
914.68	4314
914.793	4337
914.906	4154
915.019	4086
915.132	4071
915.245	4173
915.358	4246
915.47	4227
915.583	4265
915.696	4287
915.809	4424
915.921	4436
916.034	4265
916.146	4276
916.259	4215
916.371	4386
916.483	4428
916.595	4246
916.708	4306
916.82	4337
916.932	4352
917.044	4295
917.156	4341
917.268	4276
917.38	4299
917.491	4284
917.603	4299
917.715	4390
917.826	4440
917.938	4344
918.049	4253
918.161	4356
918.272	4558
918.384	4546
918.495	4489
918.606	4272
918.717	4249
918.828	4356
918.939	4363
919.05	4223
919.161	4322
919.272	4109
919.383	4238
919.494	4443
919.604	4626
919.715	4390
919.826	4367
919.936	4394
920.047	4580
920.157	4489
920.267	4675
920.378	4538
920.488	4478
920.598	4740
920.708	4915
920.818	4763
920.928	4759
921.038	4972
921.148	4953
921.258	4641
921.368	4569
921.477	4516
921.587	4447
921.697	4379
921.806	4573
921.916	4390
922.025	4295
922.134	4276
922.244	4215
922.353	4325
922.462	4150
922.571	4101
922.68	4021
922.789	4002
922.898	4002
923.007	4017
923.116	4097
923.224	4082
923.333	4112
923.442	4002
923.55	3972
923.659	4036
923.767	4109
923.876	4036
923.984	4139
924.092	3945
924.201	4071
924.309	4109
924.417	4112
924.525	4048
924.633	4150
924.741	5121
924.849	3903
924.956	4074
925.064	3949
925.172	3876
925.279	3922
925.387	4040
925.494	4036
925.602	4227
925.709	4185
925.816	4044
925.924	4162
926.031	4204
926.138	4124
926.245	4196
926.352	4055
926.459	4257
926.566	4318
926.673	4150
926.779	4101
926.886	4071
926.993	3983
927.099	3941
927.206	3937
927.312	3922
927.419	4048
927.525	4044
927.631	4074
927.737	3968
927.843	3918
927.95	3835
928.056	3907
928.162	3968
928.267	4021
928.373	4584
928.479	4078
928.585	3876
928.69	4032
928.796	4109
928.901	3926
929.007	3861
929.112	3994
929.218	3960
929.323	3918
929.428	3972
929.533	4101
929.638	3918
929.743	3941
929.848	4067
929.953	4021
930.058	3937
930.163	3797
930.267	3823
930.372	3949
930.477	3781
930.581	4093
930.685	3911
930.79	3819
930.894	3896
930.998	3808
931.103	4055
931.207	3713
931.311	3679
931.415	3675
931.519	3519
931.623	3523
