Data from test_V78500241_2237.txt Node
Date: Fri Mar 25 17:04:33 CST 2022
User: usil
Spectrometer: V785-0024
Trigger mode: 0
Integration Time (sec): 4.000000E-1
Scans to average: 1
Nonlinearity correction enabled: false
Boxcar width: 0
Storing dark spectrum: false
XAxis mode: Wavelengths
Number of Pixels in Spectrum: 1024
>>>>>Begin Spectral Data<<<<<
801.071	7947
801.214	7947
801.356	7830
801.499	7845
801.641	7807
801.783	7822
801.926	8043
802.068	7944
802.211	8054
802.353	7986
802.496	7868
802.638	7906
802.78	7894
802.923	7856
803.065	7913
803.208	7833
803.35	7955
803.492	8054
803.635	8149
803.777	7989
803.919	8077
804.061	8507
804.204	8157
804.346	8107
804.488	7932
804.63	8103
804.773	8050
804.915	8077
805.057	8282
805.199	8191
805.341	8225
805.483	8259
805.626	8221
805.768	8130
805.91	8119
806.052	8176
806.194	8069
806.336	8351
806.478	8176
806.62	8084
806.762	8210
806.904	8271
807.046	8518
807.188	8374
807.33	8313
807.472	8336
807.614	8183
807.756	8126
807.898	7963
808.04	7822
808.182	7894
808.324	7921
808.465	7902
808.607	8100
808.749	8092
808.891	8096
809.033	8301
809.174	8206
809.316	8081
809.458	8046
809.6	8039
809.741	8077
809.883	8054
810.025	8107
810.166	8126
810.308	7936
810.45	7940
810.591	7856
810.733	7704
810.875	7685
811.016	7483
811.158	7426
811.299	7491
811.441	7700
811.582	7639
811.724	7597
811.865	7510
812.007	7540
812.148	7544
812.29	7506
812.431	7784
812.573	7818
812.714	7959
812.855	8161
812.997	8225
813.138	8320
813.279	8195
813.421	8035
813.562	7978
813.703	7788
813.845	7742
813.986	7369
814.127	7213
814.268	7228
814.41	7183
814.551	7240
814.692	7225
814.833	7118
814.974	7152
815.115	7099
815.256	6962
815.397	6901
815.539	6928
815.68	6825
815.821	6818
815.962	6848
816.103	6837
816.244	6677
816.385	6601
816.526	6597
816.666	6506
816.807	6361
816.948	6414
817.089	6460
817.23	6429
817.371	6365
817.512	6376
817.653	6391
817.793	6376
817.934	6319
818.075	6471
818.216	6426
818.356	6433
818.497	6285
818.638	6136
818.778	6133
818.919	6136
819.06	6163
819.2	6277
819.341	6262
819.481	6407
819.622	6528
819.762	6772
819.903	6707
820.043	6559
820.184	6544
820.324	6623
820.465	6707
820.605	6692
820.746	6623
820.886	6509
821.026	6696
821.167	6681
821.307	6814
821.447	6810
821.588	6741
821.728	6608
821.868	6547
822.008	6334
822.149	6391
822.289	6346
822.429	6144
822.569	6049
822.709	6106
822.849	5897
822.99	5874
823.13	5958
823.27	5916
823.41	5832
823.55	5870
823.69	5775
823.83	5767
823.97	5684
824.11	5577
824.25	5474
824.389	5528
824.529	5638
824.669	5505
824.809	5657
824.949	5649
825.089	5604
825.228	5573
825.368	5414
825.508	5376
825.648	5372
825.787	5395
825.927	5368
826.067	5341
826.206	5258
826.346	5391
826.485	5402
826.625	5455
826.765	5497
826.904	5440
827.044	5220
827.183	5197
827.323	5140
827.462	5277
827.601	5136
827.741	5178
827.88	5216
828.02	5098
828.159	5178
828.298	5334
828.437	5330
828.577	5299
828.716	5471
828.855	5296
828.994	5178
829.134	5170
829.273	5189
829.412	5140
829.551	5136
829.69	5162
829.829	5227
829.968	5372
830.107	5284
830.246	5307
830.385	5197
830.524	5086
830.663	5041
830.802	4987
830.941	4919
831.08	4877
831.219	4976
831.357	4938
831.496	5155
831.635	4919
831.774	4873
831.913	4862
832.051	4752
832.19	4771
832.329	4809
832.467	4729
832.606	4641
832.744	4714
832.883	4733
833.022	4687
833.16	4790
833.299	4843
833.437	4824
833.576	4870
833.714	4850
833.852	4858
833.991	4889
834.129	4946
834.267	4919
834.406	4892
834.544	5006
834.682	4972
834.821	4961
834.959	5181
835.097	5029
835.235	5105
835.373	5086
835.511	5151
835.65	5075
835.788	4953
835.926	4843
836.064	4885
836.202	4881
836.34	5166
836.478	5235
836.615	5105
836.753	5170
836.891	5261
837.029	5227
837.167	5231
837.305	5143
837.443	5147
837.58	5098
837.718	5250
837.856	5254
837.993	5140
838.131	5189
838.269	5201
838.406	5178
838.544	5193
838.681	5033
838.819	4991
838.956	4930
839.094	4915
839.231	4968
839.369	5079
839.506	5440
839.643	5261
839.781	5033
839.918	4976
840.055	5140
840.193	5075
840.33	5170
840.467	5067
840.604	5216
840.742	5436
840.879	5083
841.016	5109
841.153	5128
841.29	5406
841.427	5364
841.564	5330
841.701	5364
841.838	5269
841.975	5239
842.112	5246
842.249	5143
842.385	5075
842.522	5334
842.659	5166
842.796	5166
842.933	5189
843.069	5140
843.206	5147
843.343	5280
843.479	5178
843.616	5227
843.752	4991
843.889	5048
844.025	5193
844.162	5006
844.298	5208
844.435	5094
844.571	5105
844.708	5193
844.844	5318
844.98	5315
845.117	5277
845.253	5231
845.389	5086
845.525	5140
845.661	5090
845.798	4976
845.934	5170
846.07	5014
846.206	5216
846.342	5254
846.478	5189
846.614	5025
846.75	4961
846.886	4949
847.022	5128
847.158	5018
847.294	5037
847.429	5181
847.565	5060
847.701	5296
847.837	4877
847.972	4828
848.108	4976
848.244	4946
848.379	4774
848.515	4763
848.65	4733
848.786	4786
848.921	4778
849.057	4889
849.192	4885
849.328	4820
849.463	4866
849.598	4759
849.734	4736
849.869	4694
850.004	4641
850.14	4645
850.275	4615
850.41	4542
850.545	4592
850.68	4577
850.815	4599
850.95	4630
851.085	4805
851.22	4733
851.355	4687
851.49	4599
851.625	4630
851.76	4649
851.895	4569
852.03	4523
852.165	4664
852.299	4721
852.434	4759
852.569	4710
852.703	4755
852.838	4828
852.973	4911
853.107	4927
853.242	4771
853.376	4653
853.511	4554
853.645	4641
853.78	4816
853.914	4683
854.048	4683
854.183	4675
854.317	4683
854.451	4831
854.585	4679
854.72	4710
854.854	4752
854.988	4588
855.122	4668
855.256	4485
855.39	4698
855.524	4763
855.658	4729
855.792	4694
855.926	4706
856.06	4759
856.194	4793
856.327	4698
856.461	4599
856.595	4615
856.729	4641
856.862	4778
856.996	4679
857.13	4687
857.263	4755
857.397	4824
857.53	4645
857.664	4740
857.797	4759
857.931	4752
858.064	4611
858.197	4710
858.331	4637
858.464	4573
858.597	4497
858.731	4626
858.864	4577
858.997	4573
859.13	4668
859.263	4649
859.396	4675
859.529	4588
859.662	4618
859.795	4531
859.928	4653
860.061	4805
860.194	4752
860.327	4599
860.46	4523
860.592	4702
860.725	4672
860.858	4736
860.99	4580
861.123	4512
861.256	4527
861.388	4580
861.521	5280
861.653	4489
861.786	4417
861.918	4443
862.05	4546
862.183	4538
862.315	4611
862.447	4664
862.58	4531
862.712	4421
862.844	4314
862.976	4443
863.108	4447
863.24	4892
863.372	4329
863.504	4417
863.636	4417
863.768	4451
863.9	4413
864.032	4379
864.164	4383
864.296	4447
864.428	4569
864.559	4542
864.691	4561
864.823	4554
864.954	4523
865.086	4489
865.217	4493
865.349	4421
865.48	4497
865.612	4474
865.743	4561
865.875	4474
866.006	4466
866.137	4428
866.269	4383
866.4	4421
866.531	4367
866.662	4386
866.793	4409
866.924	4379
867.055	4508
867.186	4424
867.317	4432
867.448	4352
867.579	4413
867.71	4413
867.841	4318
867.972	4405
868.103	4447
868.233	4459
868.364	4478
868.495	4481
868.625	4656
868.756	4793
868.886	4580
869.017	4611
869.147	4790
869.278	4714
869.408	4675
869.539	4607
869.669	4748
869.799	4626
869.929	4717
870.06	4755
870.19	4927
870.32	4896
870.45	4957
870.58	4991
870.71	5075
870.84	5067
870.97	4938
871.1	4889
871.23	5113
871.36	5147
871.489	5010
871.619	5064
871.749	5067
871.879	5143
872.008	5185
872.138	5052
872.267	4984
872.397	4854
872.526	4809
872.656	4714
872.785	4809
872.915	4957
873.044	4930
873.173	4942
873.303	4961
873.432	4938
873.561	4961
873.69	4862
873.819	4820
873.948	4866
874.077	4801
874.206	4793
874.335	4752
874.464	4900
874.593	5014
874.722	4919
874.851	5124
874.979	5052
875.108	5056
875.237	4904
875.365	4873
875.494	4915
875.623	4953
875.751	4812
875.88	4870
876.008	4946
876.136	5067
876.265	5170
876.393	5322
876.521	5284
876.65	5231
876.778	5143
876.906	5083
877.034	5018
877.162	5090
877.29	4980
877.418	5094
877.546	5003
877.674	5033
877.802	4980
877.93	5018
878.058	4995
878.185	4892
878.313	4927
878.441	4965
878.568	4717
878.696	4862
878.824	4938
878.951	5006
879.079	5105
879.206	5322
879.333	5098
879.461	4934
879.588	4984
879.715	5098
879.842	5216
879.97	4995
880.097	4793
880.224	4744
880.351	4778
880.478	4828
880.605	4782
880.732	4717
880.859	5090
880.986	4877
881.112	4858
881.239	4809
881.366	4706
881.493	4603
881.619	4569
881.746	4679
881.872	4637
881.999	4653
882.125	4645
882.252	4793
882.378	4839
882.505	4946
882.631	4755
882.757	4637
882.883	4702
883.01	4630
883.136	4683
883.262	4580
883.388	4592
883.514	4820
883.64	4805
883.766	4782
883.892	4645
884.018	4733
884.143	4885
884.269	5006
884.395	4668
884.52	4622
884.646	4618
884.772	4554
884.897	4535
885.023	4668
885.148	4744
885.274	4873
885.399	4786
885.524	4710
885.65	4706
885.775	4771
885.9	4672
886.025	4843
886.15	4786
886.275	4725
886.4	4618
886.525	4729
886.65	4675
886.775	4672
886.9	4862
887.025	5056
887.149	4786
887.274	4611
887.399	4531
887.523	4603
887.648	4561
887.773	4569
887.897	4778
888.021	4733
888.146	4672
888.27	4820
888.395	4870
888.519	4793
888.643	4801
888.767	4862
888.891	4698
889.015	4626
889.139	4645
889.263	4580
889.387	4793
889.511	4850
889.635	4786
889.759	4637
889.883	4694
890.006	4691
890.13	4809
890.254	4584
890.377	4649
890.501	4535
890.624	4478
890.748	4649
890.871	4497
890.995	4413
891.118	4356
891.241	4508
891.364	4523
891.488	4630
891.611	4451
891.734	4592
891.857	4565
891.98	4542
892.103	4611
892.226	4599
892.349	4493
892.471	4390
892.594	4554
892.717	4592
892.839	4558
892.962	4615
893.085	4645
893.207	4611
893.33	4440
893.452	4538
893.575	4664
893.697	4637
893.819	4797
893.941	4877
894.064	4790
894.186	4561
894.308	4558
894.43	4721
894.552	4790
894.674	4736
894.796	4538
894.918	4588
895.04	4519
895.161	4645
895.283	4656
895.405	4626
895.526	4626
895.648	4630
895.769	4664
895.891	4641
896.012	4694
896.134	4714
896.255	4637
896.376	4622
896.498	4588
896.619	4683
896.74	4618
896.861	4641
896.982	4892
897.103	5041
897.224	4805
897.345	4729
897.466	4668
897.587	4702
897.708	4820
897.828	4759
897.949	4664
898.07	4607
898.19	4641
898.311	4839
898.431	4683
898.552	4710
898.672	4782
898.792	4797
898.913	4744
899.033	4634
899.153	4531
899.273	4409
899.393	4474
899.513	4512
899.633	4554
899.753	4573
899.873	4542
899.993	4584
900.113	4500
900.232	4599
900.352	4523
900.472	4443
900.591	4421
900.711	4485
900.83	4409
900.95	4580
901.069	4672
901.189	4519
901.308	4379
901.427	4272
901.546	4405
901.665	4440
901.784	4531
901.904	4379
902.023	4329
902.141	4181
902.26	4207
902.379	4329
902.498	4268
902.617	4215
902.735	4329
902.854	4371
902.973	4318
903.091	4215
903.21	4253
903.328	4303
903.446	4230
903.565	4215
903.683	4375
903.801	4265
903.919	4421
904.038	4394
904.156	4306
904.274	4451
904.392	4424
904.51	4428
904.627	4478
904.745	4519
904.863	4626
904.981	4325
905.098	4276
905.216	4344
905.334	4436
905.451	4402
905.569	4451
905.686	4516
905.803	4538
905.921	4402
906.038	4558
906.155	4478
906.272	4409
906.389	4451
906.506	4348
906.623	4390
906.74	4386
906.857	4306
906.974	4341
907.091	4565
907.208	4698
907.324	4565
907.441	4497
907.557	4348
907.674	4363
907.79	4303
907.907	4402
908.023	4466
908.139	4489
908.256	4394
908.372	4428
908.488	4413
908.604	4356
908.72	4329
908.836	4394
908.952	4375
909.068	4394
909.184	4592
909.3	4455
909.415	4607
909.531	4538
909.647	4348
909.762	4363
909.878	4333
909.993	4428
910.108	4451
910.224	4451
910.339	4508
910.454	4402
910.57	4390
910.685	4265
910.8	4668
910.915	4584
911.03	4512
911.145	4352
911.259	4322
911.374	4394
911.489	4295
911.604	4318
911.718	4166
911.833	4200
911.947	4059
912.062	4040
912.176	4200
912.291	4215
912.405	4230
912.519	4485
912.633	4504
912.748	4371
912.862	4337
912.976	4169
913.09	4071
913.204	4200
913.318	4230
913.431	4375
913.545	4409
913.659	4436
913.772	4367
913.886	4227
914	4257
914.113	4375
914.226	4421
914.34	4367
914.453	4246
914.566	4413
914.68	4284
914.793	4314
914.906	4154
915.019	4082
915.132	4090
915.245	4207
915.358	4253
915.47	4215
915.583	4234
915.696	4246
915.809	4371
915.921	4413
916.034	4265
916.146	4261
916.259	4200
916.371	4383
916.483	4348
916.595	4257
916.708	4356
916.82	4333
916.932	4348
917.044	4375
917.156	4272
917.268	4227
917.38	4238
917.491	4246
917.603	4348
917.715	4405
917.826	4443
917.938	4322
918.049	4234
918.161	4375
918.272	4535
918.384	4508
918.495	4478
918.606	4280
918.717	4211
918.828	4352
918.939	4363
919.05	4246
919.161	4295
919.272	4131
919.383	4223
919.494	4459
919.604	4588
919.715	4440
919.826	4379
919.936	4383
920.047	4569
920.157	4462
920.267	4691
920.378	4599
920.488	4504
920.598	4664
920.708	4870
920.818	4744
920.928	4759
921.038	4934
921.148	4908
921.258	4558
921.368	4550
921.477	4531
921.587	4474
921.697	4356
921.806	4478
921.916	4432
922.025	4280
922.134	4299
922.244	4215
922.353	4360
922.462	4185
922.571	4154
922.68	4055
922.789	4010
922.898	4036
923.007	4010
923.116	4116
923.224	4040
923.333	4051
923.442	4013
923.55	3949
923.659	4032
923.767	4101
923.876	4013
923.984	4055
924.092	3983
924.201	4055
924.309	4078
924.417	4105
924.525	4071
924.633	4112
924.741	5067
924.849	3915
924.956	4124
925.064	3949
925.172	3956
925.279	3956
925.387	4071
925.494	4044
925.602	4196
925.709	4211
925.816	4017
925.924	4135
926.031	4215
926.138	4143
926.245	4204
926.352	4124
926.459	4246
926.566	4318
926.673	4150
926.779	4105
926.886	4055
926.993	3987
927.099	3964
927.206	3949
927.312	3876
927.419	4086
927.525	4032
927.631	4051
927.737	3945
927.843	3903
927.95	3861
928.056	3918
928.162	4006
928.267	4044
928.373	4702
928.479	4105
928.585	3907
928.69	4025
928.796	4101
928.901	3975
929.007	3865
929.112	4021
929.218	3975
929.323	3930
929.428	3941
929.533	4093
929.638	3865
929.743	3949
929.848	4067
929.953	3975
930.058	3911
930.163	3755
930.267	3827
930.372	3941
930.477	3797
930.581	4063
930.685	3987
930.79	3827
930.894	3850
930.998	3880
931.103	4051
931.207	3694
931.311	3713
931.415	3660
931.519	3511
931.623	3572
