Data from test_V78500241_605.txt Node
Date: Fri Mar 25 16:53:12 CST 2022
User: usil
Spectrometer: V785-0024
Trigger mode: 0
Integration Time (sec): 4.000000E-1
Scans to average: 1
Nonlinearity correction enabled: false
Boxcar width: 0
Storing dark spectrum: false
XAxis mode: Wavelengths
Number of Pixels in Spectrum: 1024
>>>>>Begin Spectral Data<<<<<
801.071	7989
801.214	8008
801.356	7917
801.499	7837
801.641	7830
801.783	7856
801.926	8081
802.068	7974
802.211	7982
802.353	8012
802.496	7871
802.638	7913
802.78	7959
802.923	7917
803.065	7875
803.208	7841
803.35	7925
803.492	8062
803.635	8164
803.777	8035
803.919	8119
804.061	8385
804.204	8161
804.346	8058
804.488	8050
804.63	8058
804.773	8096
804.915	8134
805.057	8320
805.199	8149
805.341	8149
805.483	8336
805.626	8259
805.768	8138
805.91	8164
806.052	8183
806.194	8100
806.336	8336
806.478	8123
806.62	8073
806.762	8172
806.904	8244
807.046	8522
807.188	8332
807.33	8267
807.472	8294
807.614	8210
807.756	8130
807.898	7974
808.04	7871
808.182	7936
808.324	7932
808.465	7879
808.607	8065
808.749	8119
808.891	8252
809.033	8290
809.174	8176
809.316	8031
809.458	8062
809.6	7970
809.741	7993
809.883	8050
810.025	8073
810.166	8062
810.308	8035
810.45	8043
810.591	7826
810.733	7803
810.875	7647
811.016	7548
811.158	7438
811.299	7601
811.441	7734
811.582	7708
811.724	7582
811.865	7499
812.007	7594
812.148	7605
812.29	7666
812.431	7746
812.573	7833
812.714	8001
812.855	8225
812.997	8210
813.138	8396
813.279	8240
813.421	8164
813.562	8077
813.703	7967
813.845	7822
813.986	7518
814.127	7320
814.268	7278
814.41	7240
814.551	7110
814.692	7152
814.833	7061
814.974	7114
815.115	7080
815.256	7004
815.397	6909
815.539	6951
815.68	6848
815.821	6833
815.962	6844
816.103	6829
816.244	6711
816.385	6650
816.526	6620
816.666	6544
816.807	6308
816.948	6479
817.089	6445
817.23	6479
817.371	6399
817.512	6357
817.653	6410
817.793	6399
817.934	6429
818.075	6467
818.216	6475
818.356	6426
818.497	6197
818.638	6136
818.778	6133
818.919	6102
819.06	6205
819.2	6353
819.341	6319
819.481	6380
819.622	6528
819.762	6722
819.903	6669
820.043	6585
820.184	6521
820.324	6532
820.465	6627
820.605	6631
820.746	6627
820.886	6559
821.026	6623
821.167	6700
821.307	6802
821.447	6681
821.588	6692
821.728	6517
821.868	6429
822.008	6311
822.149	6346
822.289	6346
822.429	6144
822.569	6060
822.709	6144
822.849	5958
822.99	5882
823.13	5908
823.27	5866
823.41	5809
823.55	5813
823.69	5790
823.83	5802
823.97	5672
824.11	5547
824.25	5478
824.389	5505
824.529	5566
824.669	5524
824.809	5665
824.949	5615
825.089	5592
825.228	5543
825.368	5402
825.508	5357
825.648	5353
825.787	5395
825.927	5368
826.067	5307
826.206	5269
826.346	5383
826.485	5402
826.625	5368
826.765	5532
826.904	5467
827.044	5299
827.183	5208
827.323	5113
827.462	5242
827.601	5162
827.741	5212
827.88	5204
828.02	5079
828.159	5223
828.298	5258
828.437	5341
828.577	5269
828.716	5493
828.855	5315
828.994	5136
829.134	5170
829.273	5124
829.412	5151
829.551	5121
829.69	5155
829.829	5284
829.968	5349
830.107	5231
830.246	5254
830.385	5140
830.524	5166
830.663	5033
830.802	5014
830.941	4908
831.08	4870
831.219	4984
831.357	4980
831.496	5147
831.635	4938
831.774	4835
831.913	4801
832.051	4702
832.19	4790
832.329	4831
832.467	4694
832.606	4615
832.744	4736
832.883	4675
833.022	4736
833.16	4763
833.299	4820
833.437	4778
833.576	4870
833.714	4866
833.852	4862
833.991	4816
834.129	4961
834.267	4946
834.406	4889
834.544	4972
834.682	4991
834.821	5022
834.959	5159
835.097	4965
835.235	5159
835.373	5083
835.511	5124
835.65	5037
835.788	4991
835.926	4942
836.064	4847
836.202	4934
836.34	5197
836.478	5246
836.615	5109
836.753	5155
836.891	5258
837.029	5265
837.167	5178
837.305	5147
837.443	5140
837.58	5045
837.718	5242
837.856	5170
837.993	5140
838.131	5235
838.269	5132
838.406	5235
838.544	5155
838.681	4984
838.819	4953
838.956	4816
839.094	4877
839.231	5022
839.369	5052
839.506	5448
839.643	5258
839.781	4980
839.918	5010
840.055	5045
840.193	5083
840.33	5147
840.467	5136
840.604	5174
840.742	5436
840.879	5113
841.016	5075
841.153	5155
841.29	5376
841.427	5326
841.564	5357
841.701	5357
841.838	5299
841.975	5299
842.112	5296
842.249	5098
842.385	5086
842.522	5345
842.659	5197
842.796	5132
842.933	5212
843.069	5136
843.206	5132
843.343	5307
843.479	5269
843.616	5280
843.752	5014
843.889	4961
844.025	5223
844.162	5003
844.298	5128
844.435	5064
844.571	4976
844.708	5147
844.844	5288
844.98	5318
845.117	5277
845.253	5105
845.389	5064
845.525	5147
845.661	5105
845.798	4991
845.934	5102
846.07	4991
846.206	5159
846.342	5265
846.478	5181
846.614	5006
846.75	4968
846.886	4942
847.022	5162
847.158	5010
847.294	5124
847.429	5102
847.565	5094
847.701	5284
847.837	4820
847.972	4797
848.108	4976
848.244	4911
848.379	4763
848.515	4771
848.65	4694
848.786	4733
848.921	4778
849.057	4831
849.192	4873
849.328	4820
849.463	4835
849.598	4767
849.734	4755
849.869	4698
850.004	4622
850.14	4664
850.275	4580
850.41	4550
850.545	4573
850.68	4599
850.815	4649
850.95	4626
851.085	4793
851.22	4733
851.355	4702
851.49	4645
851.625	4637
851.76	4641
851.895	4542
852.03	4500
852.165	4607
852.299	4714
852.434	4774
852.569	4736
852.703	4771
852.838	4831
852.973	4896
853.107	4919
853.242	4740
853.376	4611
853.511	4550
853.645	4599
853.78	4736
853.914	4733
854.048	4710
854.183	4622
854.317	4675
854.451	4873
854.585	4675
854.72	4599
854.854	4748
854.988	4603
855.122	4630
855.256	4538
855.39	4634
855.524	4786
855.658	4733
855.792	4736
855.926	4733
856.06	4759
856.194	4812
856.327	4660
856.461	4599
856.595	4630
856.729	4626
856.862	4778
856.996	4683
857.13	4702
857.263	4763
857.397	4782
857.53	4630
857.664	4744
857.797	4755
857.931	4805
858.064	4694
858.197	4736
858.331	4683
858.464	4569
858.597	4546
858.731	4618
858.864	4592
858.997	4611
859.13	4649
859.263	4691
859.396	4694
859.529	4538
859.662	4538
859.795	4519
859.928	4653
860.061	4774
860.194	4812
860.327	4611
860.46	4550
860.592	4721
860.725	4656
860.858	4759
860.99	4596
861.123	4512
861.256	4519
861.388	4592
861.521	5463
861.653	4500
861.786	4409
861.918	4451
862.05	4527
862.183	4527
862.315	4558
862.447	4630
862.58	4550
862.712	4386
862.844	4360
862.976	4478
863.108	4424
863.24	4892
863.372	4295
863.504	4383
863.636	4386
863.768	4500
863.9	4440
864.032	4383
864.164	4409
864.296	4481
864.428	4558
864.559	4550
864.691	4508
864.823	4466
864.954	4459
865.086	4489
865.217	4462
865.349	4432
865.48	4470
865.612	4500
865.743	4607
865.875	4493
866.006	4436
866.137	4447
866.269	4459
866.4	4428
866.531	4363
866.662	4379
866.793	4424
866.924	4436
867.055	4440
867.186	4485
867.317	4413
867.448	4402
867.579	4383
867.71	4402
867.841	4383
867.972	4462
868.103	4451
868.233	4398
868.364	4424
868.495	4485
868.625	4660
868.756	4759
868.886	4542
869.017	4615
869.147	4790
869.278	4831
869.408	4653
869.539	4675
869.669	4717
869.799	4660
869.929	4744
870.06	4786
870.19	4953
870.32	4911
870.45	4934
870.58	5052
870.71	5140
870.84	5098
870.97	4938
871.1	4873
871.23	5155
871.36	5113
871.489	5025
871.619	5037
871.749	5075
871.879	5121
872.008	5140
872.138	5109
872.267	4957
872.397	4854
872.526	4805
872.656	4725
872.785	4801
872.915	4942
873.044	5041
873.173	4961
873.303	4953
873.432	4927
873.561	4919
873.69	4885
873.819	4835
873.948	4930
874.077	4824
874.206	4736
874.335	4744
874.464	4930
874.593	5064
874.722	4923
874.851	5056
874.979	5064
875.108	5022
875.237	4927
875.365	4896
875.494	4850
875.623	4976
875.751	4843
875.88	4923
876.008	4976
876.136	5010
876.265	5181
876.393	5318
876.521	5235
876.65	5242
876.778	5155
876.906	5086
877.034	5090
877.162	5045
877.29	4968
877.418	5075
877.546	5037
877.674	5029
877.802	5048
877.93	5029
878.058	4892
878.185	4866
878.313	4972
878.441	4953
878.568	4752
878.696	4873
878.824	4942
878.951	4984
879.079	5159
879.206	5353
879.333	5189
879.461	4961
879.588	4957
879.715	5121
879.842	5201
879.97	5003
880.097	4782
880.224	4668
880.351	4752
880.478	4778
880.605	4828
880.732	4767
880.859	5086
880.986	4896
881.112	4942
881.239	4797
881.366	4721
881.493	4573
881.619	4603
881.746	4626
881.872	4653
881.999	4672
882.125	4656
882.252	4778
882.378	4854
882.505	4968
882.631	4809
882.757	4653
882.883	4706
883.01	4725
883.136	4668
883.262	4565
883.388	4630
883.514	4816
883.64	4889
883.766	4793
883.892	4668
884.018	4717
884.143	4892
884.269	4995
884.395	4634
884.52	4641
884.646	4660
884.772	4599
884.897	4508
885.023	4622
885.148	4873
885.274	4854
885.399	4801
885.524	4706
885.65	4672
885.775	4752
885.9	4702
886.025	4873
886.15	4786
886.275	4702
886.4	4607
886.525	4706
886.65	4687
886.775	4691
886.9	4900
887.025	5041
887.149	4790
887.274	4603
887.399	4546
887.523	4580
887.648	4615
887.773	4615
887.897	4721
888.021	4782
888.146	4675
888.27	4812
888.395	4911
888.519	4805
888.643	4805
888.767	4782
888.891	4656
889.015	4634
889.139	4630
889.263	4630
889.387	4733
889.511	4889
889.635	4854
889.759	4641
889.883	4653
890.006	4714
890.13	4843
890.254	4615
890.377	4668
890.501	4546
890.624	4516
890.748	4626
890.871	4519
890.995	4455
891.118	4394
891.241	4504
891.364	4542
891.488	4626
891.611	4516
891.734	4569
891.857	4584
891.98	4550
892.103	4588
892.226	4596
892.349	4538
892.471	4451
892.594	4546
892.717	4599
892.839	4603
892.962	4588
893.085	4626
893.207	4607
893.33	4478
893.452	4550
893.575	4664
893.697	4592
893.819	4793
893.941	4850
894.064	4763
894.186	4561
894.308	4584
894.43	4717
894.552	4843
894.674	4748
894.796	4588
894.918	4607
895.04	4565
895.161	4656
895.283	4641
895.405	4584
895.526	4626
895.648	4653
895.769	4660
895.891	4687
896.012	4645
896.134	4672
896.255	4641
896.376	4656
896.498	4592
896.619	4660
896.74	4588
896.861	4637
896.982	4961
897.103	5025
897.224	4820
897.345	4763
897.466	4656
897.587	4752
897.708	4870
897.828	4790
897.949	4702
898.07	4596
898.19	4618
898.311	4778
898.431	4687
898.552	4736
898.672	4828
898.792	4854
898.913	4767
899.033	4626
899.153	4493
899.273	4470
899.393	4481
899.513	4519
899.633	4493
899.753	4504
899.873	4531
899.993	4588
900.113	4523
900.232	4592
900.352	4561
900.472	4504
900.591	4405
900.711	4497
900.83	4428
900.95	4588
901.069	4599
901.189	4535
901.308	4348
901.427	4371
901.546	4329
901.665	4481
901.784	4504
901.904	4363
902.023	4284
902.141	4219
902.26	4139
902.379	4306
902.498	4272
902.617	4242
902.735	4386
902.854	4390
902.973	4337
903.091	4158
903.21	4200
903.328	4268
903.446	4280
903.565	4249
903.683	4363
903.801	4287
903.919	4398
904.038	4470
904.156	4303
904.274	4447
904.392	4409
904.51	4459
904.627	4481
904.745	4550
904.863	4626
904.981	4363
905.098	4329
905.216	4352
905.334	4398
905.451	4462
905.569	4447
905.686	4538
905.803	4516
905.921	4421
906.038	4497
906.155	4470
906.272	4367
906.389	4436
906.506	4333
906.623	4386
906.74	4394
906.857	4306
906.974	4352
907.091	4565
907.208	4679
907.324	4637
907.441	4459
907.557	4329
907.674	4398
907.79	4341
907.907	4383
908.023	4535
908.139	4413
908.256	4455
908.372	4493
908.488	4383
908.604	4367
908.72	4318
908.836	4333
908.952	4363
909.068	4398
909.184	4569
909.3	4462
909.415	4588
909.531	4561
909.647	4299
909.762	4333
909.878	4337
909.993	4436
910.108	4440
910.224	4432
910.339	4497
910.454	4462
910.57	4371
910.685	4325
910.8	4653
910.915	4596
911.03	4470
911.145	4310
911.259	4322
911.374	4383
911.489	4291
911.604	4234
911.718	4181
911.833	4219
911.947	4063
912.062	4071
912.176	4242
912.291	4207
912.405	4215
912.519	4504
912.633	4500
912.748	4375
912.862	4299
912.976	4185
913.09	4059
913.204	4169
913.318	4230
913.431	4348
913.545	4371
913.659	4428
913.772	4379
913.886	4249
914	4234
914.113	4375
914.226	4459
914.34	4417
914.453	4249
914.566	4398
914.68	4284
914.793	4356
914.906	4112
915.019	4124
915.132	4086
915.245	4192
915.358	4223
915.47	4242
915.583	4299
915.696	4287
915.809	4379
915.921	4462
916.034	4223
916.146	4257
916.259	4230
916.371	4417
916.483	4348
916.595	4284
916.708	4363
916.82	4276
916.932	4287
917.044	4303
917.156	4318
917.268	4200
917.38	4299
917.491	4261
917.603	4306
917.715	4402
917.826	4367
917.938	4329
918.049	4234
918.161	4440
918.272	4478
918.384	4523
918.495	4447
918.606	4310
918.717	4268
918.828	4329
918.939	4405
919.05	4249
919.161	4284
919.272	4139
919.383	4223
919.494	4405
919.604	4565
919.715	4421
919.826	4363
919.936	4405
920.047	4542
920.157	4466
920.267	4698
920.378	4561
920.488	4481
920.598	4710
920.708	4873
920.818	4736
920.928	4763
921.038	4908
921.148	4908
921.258	4596
921.368	4531
921.477	4489
921.587	4462
921.697	4352
921.806	4626
921.916	4447
922.025	4295
922.134	4341
922.244	4215
922.353	4314
922.462	4147
922.571	4101
922.68	3987
922.789	3934
922.898	4051
923.007	4048
923.116	4093
923.224	4029
923.333	4112
923.442	4010
923.55	3922
923.659	4055
923.767	4135
923.876	3998
923.984	4173
924.092	4040
924.201	4124
924.309	4097
924.417	4158
924.525	4090
924.633	4109
924.741	5064
924.849	4002
924.956	4128
925.064	4017
925.172	3941
925.279	3975
925.387	4090
925.494	4105
925.602	4276
925.709	4238
925.816	4128
925.924	4177
926.031	4280
926.138	4242
926.245	4230
926.352	4135
926.459	4291
926.566	4341
926.673	4181
926.779	4143
926.886	4128
926.993	4029
927.099	4013
927.206	4002
927.312	3960
927.419	4078
927.525	4112
927.631	4135
927.737	4017
927.843	3994
927.95	3926
928.056	4006
928.162	4071
928.267	4105
928.373	4702
928.479	4150
928.585	3896
928.69	4063
928.796	4071
928.901	4017
929.007	3865
929.112	4029
929.218	4010
929.323	3956
929.428	3983
929.533	4131
929.638	3964
929.743	4010
929.848	4055
929.953	4074
930.058	3998
930.163	3808
930.267	3873
930.372	4025
930.477	3896
930.581	4124
930.685	3983
930.79	3876
930.894	3911
930.998	3896
931.103	4071
931.207	3736
931.311	3774
931.415	3736
931.519	3561
931.623	3629
