Data from test_V78500241_1334.txt Node
Date: Fri Mar 25 16:58:16 CST 2022
User: usil
Spectrometer: V785-0024
Trigger mode: 0
Integration Time (sec): 4.000000E-1
Scans to average: 1
Nonlinearity correction enabled: false
Boxcar width: 0
Storing dark spectrum: false
XAxis mode: Wavelengths
Number of Pixels in Spectrum: 1024
>>>>>Begin Spectral Data<<<<<
801.071	8084
801.214	8039
801.356	7860
801.499	7875
801.641	7818
801.783	7719
801.926	8020
802.068	7944
802.211	7879
802.353	7955
802.496	7799
802.638	7830
802.78	7970
802.923	7944
803.065	7963
803.208	7852
803.35	7993
803.492	8134
803.635	8103
803.777	7989
803.919	8225
804.061	8442
804.204	8168
804.346	8069
804.488	8012
804.63	8145
804.773	8020
804.915	8096
805.057	8252
805.199	8199
805.341	8271
805.483	8233
805.626	8240
805.768	8088
805.91	8183
806.052	8202
806.194	8035
806.336	8286
806.478	8092
806.62	8001
806.762	8111
806.904	8294
807.046	8446
807.188	8328
807.33	8370
807.472	8328
807.614	8119
807.756	8153
807.898	7989
808.04	7909
808.182	7955
808.324	7890
808.465	7944
808.607	8103
808.749	8096
808.891	8145
809.033	8275
809.174	8206
809.316	8035
809.458	8092
809.6	7993
809.741	7978
809.883	8054
810.025	8058
810.166	8035
810.308	7978
810.45	7947
810.591	7868
810.733	7750
810.875	7662
811.016	7480
811.158	7502
811.299	7616
811.441	7712
811.582	7704
811.724	7597
811.865	7499
812.007	7586
812.148	7559
812.29	7609
812.431	7746
812.573	7852
812.714	7989
812.855	8103
812.997	8218
813.138	8320
813.279	8168
813.421	8084
813.562	8005
813.703	7792
813.845	7753
813.986	7388
814.127	7236
814.268	7217
814.41	7202
814.551	7129
814.692	7206
814.833	7076
814.974	7080
815.115	7038
815.256	6977
815.397	6920
815.539	6977
815.68	6840
815.821	6745
815.962	6871
816.103	6833
816.244	6715
816.385	6658
816.526	6570
816.666	6456
816.807	6304
816.948	6410
817.089	6525
817.23	6460
817.371	6369
817.512	6353
817.653	6410
817.793	6300
817.934	6395
818.075	6422
818.216	6452
818.356	6300
818.497	6182
818.638	6129
818.778	6106
818.919	6144
819.06	6152
819.2	6308
819.341	6311
819.481	6353
819.622	6521
819.762	6684
819.903	6654
820.043	6616
820.184	6604
820.324	6517
820.465	6639
820.605	6627
820.746	6650
820.886	6486
821.026	6688
821.167	6696
821.307	6772
821.447	6734
821.588	6700
821.728	6582
821.868	6464
822.008	6304
822.149	6369
822.289	6338
822.429	6178
822.569	6098
822.709	6110
822.849	5923
822.99	5863
823.13	5863
823.27	5885
823.41	5790
823.55	5786
823.69	5729
823.83	5771
823.97	5707
824.11	5501
824.25	5471
824.389	5501
824.529	5566
824.669	5520
824.809	5642
824.949	5661
825.089	5596
825.228	5543
825.368	5398
825.508	5372
825.648	5341
825.787	5345
825.927	5318
826.067	5292
826.206	5337
826.346	5391
826.485	5360
826.625	5376
826.765	5562
826.904	5482
827.044	5265
827.183	5170
827.323	5124
827.462	5235
827.601	5189
827.741	5216
827.88	5189
828.02	5136
828.159	5212
828.298	5296
828.437	5322
828.577	5258
828.716	5482
828.855	5273
828.994	5151
829.134	5117
829.273	5170
829.412	5121
829.551	5147
829.69	5147
829.829	5197
829.968	5421
830.107	5242
830.246	5265
830.385	5132
830.524	5124
830.663	5079
830.802	4965
830.941	4885
831.08	4858
831.219	4946
831.357	4946
831.496	5166
831.635	4889
831.774	4820
831.913	4824
832.051	4771
832.19	4725
832.329	4835
832.467	4702
832.606	4672
832.744	4721
832.883	4752
833.022	4683
833.16	4740
833.299	4793
833.437	4771
833.576	4847
833.714	4919
833.852	4862
833.991	4824
834.129	4953
834.267	4942
834.406	4957
834.544	4953
834.682	4965
834.821	4934
834.959	5189
835.097	4976
835.235	5185
835.373	5083
835.511	5128
835.65	4976
835.788	5018
835.926	4900
836.064	4873
836.202	4889
836.34	5151
836.478	5197
836.615	5067
836.753	5159
836.891	5261
837.029	5261
837.167	5193
837.305	5189
837.443	5143
837.58	5083
837.718	5220
837.856	5212
837.993	5159
838.131	5204
838.269	5201
838.406	5197
838.544	5151
838.681	5022
838.819	5037
838.956	4877
839.094	4892
839.231	5022
839.369	5079
839.506	5410
839.643	5261
839.781	5090
839.918	5052
840.055	5121
840.193	5094
840.33	5075
840.467	5136
840.604	5178
840.742	5433
840.879	5090
841.016	5071
841.153	5174
841.29	5315
841.427	5265
841.564	5265
841.701	5357
841.838	5242
841.975	5185
842.112	5269
842.249	5113
842.385	5079
842.522	5277
842.659	5181
842.796	5109
842.933	5162
843.069	5113
843.206	5181
843.343	5299
843.479	5269
843.616	5296
843.752	4980
843.889	4984
844.025	5189
844.162	5018
844.298	5174
844.435	5128
844.571	5045
844.708	5193
844.844	5277
844.98	5395
845.117	5261
845.253	5174
845.389	5140
845.525	5155
845.661	5102
845.798	5006
845.934	5121
846.07	5075
846.206	5189
846.342	5269
846.478	5170
846.614	5048
846.75	4953
846.886	4965
847.022	5075
847.158	5003
847.294	5083
847.429	5090
847.565	5029
847.701	5307
847.837	4854
847.972	4763
848.108	4919
848.244	4953
848.379	4778
848.515	4740
848.65	4668
848.786	4759
848.921	4793
849.057	4820
849.192	4866
849.328	4805
849.463	4847
849.598	4744
849.734	4740
849.869	4679
850.004	4653
850.14	4649
850.275	4596
850.41	4565
850.545	4538
850.68	4584
850.815	4584
850.95	4599
851.085	4793
851.22	4748
851.355	4668
851.49	4634
851.625	4607
851.76	4649
851.895	4538
852.03	4500
852.165	4653
852.299	4714
852.434	4763
852.569	4740
852.703	4755
852.838	4805
852.973	4885
853.107	4896
853.242	4698
853.376	4698
853.511	4519
853.645	4637
853.78	4831
853.914	4679
854.048	4630
854.183	4634
854.317	4660
854.451	4828
854.585	4683
854.72	4645
854.854	4778
854.988	4573
855.122	4656
855.256	4550
855.39	4645
855.524	4774
855.658	4721
855.792	4630
855.926	4687
856.06	4706
856.194	4809
856.327	4729
856.461	4607
856.595	4615
856.729	4611
856.862	4771
856.996	4668
857.13	4729
857.263	4809
857.397	4801
857.53	4603
857.664	4706
857.797	4740
857.931	4793
858.064	4706
858.197	4694
858.331	4710
858.464	4550
858.597	4466
858.731	4599
858.864	4645
858.997	4626
859.13	4615
859.263	4649
859.396	4702
859.529	4592
859.662	4538
859.795	4512
859.928	4596
860.061	4691
860.194	4774
860.327	4588
860.46	4573
860.592	4668
860.725	4736
860.858	4706
860.99	4500
861.123	4504
861.256	4493
861.388	4580
861.521	5201
861.653	4508
861.786	4466
861.918	4443
862.05	4542
862.183	4554
862.315	4554
862.447	4599
862.58	4527
862.712	4402
862.844	4318
862.976	4470
863.108	4432
863.24	4854
863.372	4344
863.504	4379
863.636	4356
863.768	4443
863.9	4424
864.032	4367
864.164	4383
864.296	4474
864.428	4554
864.559	4546
864.691	4504
864.823	4542
864.954	4497
865.086	4512
865.217	4413
865.349	4413
865.48	4451
865.612	4489
865.743	4634
865.875	4500
866.006	4432
866.137	4436
866.269	4436
866.4	4402
866.531	4405
866.662	4394
866.793	4436
866.924	4409
867.055	4493
867.186	4443
867.317	4394
867.448	4402
867.579	4367
867.71	4421
867.841	4333
867.972	4466
868.103	4455
868.233	4455
868.364	4386
868.495	4451
868.625	4622
868.756	4767
868.886	4542
869.017	4599
869.147	4797
869.278	4698
869.408	4637
869.539	4637
869.669	4698
869.799	4561
869.929	4752
870.06	4767
870.19	4927
870.32	4870
870.45	4968
870.58	5014
870.71	5079
870.84	5064
870.97	4923
871.1	4885
871.23	5136
871.36	5064
871.489	4999
871.619	5060
871.749	5083
871.879	5071
872.008	5178
872.138	5056
872.267	4930
872.397	4847
872.526	4801
872.656	4714
872.785	4820
872.915	4961
873.044	5033
873.173	4908
873.303	4919
873.432	4957
873.561	4892
873.69	4828
873.819	4881
873.948	4934
874.077	4820
874.206	4725
874.335	4790
874.464	4911
874.593	4995
874.722	4942
874.851	5064
874.979	5022
875.108	5029
875.237	4923
875.365	4866
875.494	4828
875.623	4984
875.751	4797
875.88	4873
876.008	4984
876.136	5064
876.265	5147
876.393	5299
876.521	5189
876.65	5223
876.778	5162
876.906	5048
877.034	4965
877.162	5071
877.29	4987
877.418	4991
877.546	5052
877.674	5041
877.802	5003
877.93	4995
878.058	4873
878.185	4885
878.313	4927
878.441	4946
878.568	4828
878.696	4831
878.824	4934
878.951	4919
879.079	5136
879.206	5265
879.333	5045
879.461	4946
879.588	4976
879.715	5128
879.842	5193
879.97	5037
880.097	4790
880.224	4759
880.351	4786
880.478	4835
880.605	4812
880.732	4797
880.859	5079
880.986	4847
881.112	4930
881.239	4782
881.366	4615
881.493	4596
881.619	4596
881.746	4622
881.872	4641
881.999	4618
882.125	4641
882.252	4782
882.378	4816
882.505	4934
882.631	4755
882.757	4622
882.883	4721
883.01	4733
883.136	4664
883.262	4588
883.388	4618
883.514	4763
883.64	4843
883.766	4786
883.892	4637
884.018	4675
884.143	4850
884.269	4980
884.395	4641
884.52	4615
884.646	4637
884.772	4565
884.897	4538
885.023	4668
885.148	4771
885.274	4858
885.399	4831
885.524	4691
885.65	4694
885.775	4729
885.9	4702
886.025	4812
886.15	4797
886.275	4736
886.4	4588
886.525	4736
886.65	4691
886.775	4683
886.9	4934
887.025	5006
887.149	4801
887.274	4596
887.399	4584
887.523	4607
887.648	4561
887.773	4558
887.897	4740
888.021	4736
888.146	4691
888.27	4812
888.395	4900
888.519	4778
888.643	4812
888.767	4854
888.891	4645
889.015	4584
889.139	4656
889.263	4641
889.387	4782
889.511	4896
889.635	4805
889.759	4615
889.883	4645
890.006	4675
890.13	4828
890.254	4645
890.377	4717
890.501	4504
890.624	4527
890.748	4683
890.871	4546
890.995	4428
891.118	4379
891.241	4470
891.364	4493
891.488	4641
891.611	4519
891.734	4546
891.857	4580
891.98	4550
892.103	4675
892.226	4531
892.349	4523
892.471	4405
892.594	4554
892.717	4641
892.839	4535
892.962	4603
893.085	4630
893.207	4596
893.33	4447
893.452	4508
893.575	4679
893.697	4535
893.819	4843
893.941	4812
894.064	4717
894.186	4580
894.308	4561
894.43	4752
894.552	4881
894.674	4782
894.796	4535
894.918	4599
895.04	4565
895.161	4649
895.283	4618
895.405	4569
895.526	4672
895.648	4664
895.769	4672
895.891	4694
896.012	4729
896.134	4729
896.255	4694
896.376	4630
896.498	4615
896.619	4668
896.74	4626
896.861	4660
896.982	4934
897.103	5022
897.224	4809
897.345	4763
897.466	4675
897.587	4752
897.708	4847
897.828	4767
897.949	4679
898.07	4554
898.19	4641
898.311	4812
898.431	4664
898.552	4744
898.672	4820
898.792	4774
898.913	4733
899.033	4584
899.153	4497
899.273	4436
899.393	4516
899.513	4516
899.633	4535
899.753	4535
899.873	4481
899.993	4527
900.113	4508
900.232	4580
900.352	4531
900.472	4512
900.591	4390
900.711	4512
900.83	4451
900.95	4615
901.069	4656
901.189	4508
901.308	4360
901.427	4314
901.546	4363
901.665	4470
901.784	4508
901.904	4405
902.023	4284
902.141	4196
902.26	4169
902.379	4303
902.498	4242
902.617	4215
902.735	4402
902.854	4413
902.973	4360
903.091	4215
903.21	4211
903.328	4299
903.446	4234
903.565	4257
903.683	4314
903.801	4287
903.919	4436
904.038	4424
904.156	4268
904.274	4440
904.392	4417
904.51	4451
904.627	4459
904.745	4554
904.863	4622
904.981	4390
905.098	4310
905.216	4379
905.334	4405
905.451	4417
905.569	4394
905.686	4573
905.803	4531
905.921	4417
906.038	4523
906.155	4459
906.272	4360
906.389	4455
906.506	4284
906.623	4402
906.74	4348
906.857	4287
906.974	4360
907.091	4573
907.208	4664
907.324	4577
907.441	4459
907.557	4337
907.674	4367
907.79	4341
907.907	4413
908.023	4428
908.139	4466
908.256	4386
908.372	4405
908.488	4470
908.604	4322
908.72	4318
908.836	4363
908.952	4379
909.068	4417
909.184	4580
909.3	4489
909.415	4577
909.531	4599
909.647	4356
909.762	4356
909.878	4322
909.993	4443
910.108	4402
910.224	4398
910.339	4390
910.454	4394
910.57	4367
910.685	4276
910.8	4599
910.915	4577
911.03	4519
911.145	4306
911.259	4341
911.374	4341
911.489	4276
911.604	4272
911.718	4116
911.833	4177
911.947	4051
912.062	4010
912.176	4227
912.291	4234
912.405	4253
912.519	4428
912.633	4478
912.748	4394
912.862	4341
912.976	4192
913.09	4059
913.204	4169
913.318	4227
913.431	4356
913.545	4409
913.659	4405
913.772	4367
913.886	4211
914	4181
914.113	4352
914.226	4428
914.34	4428
914.453	4185
914.566	4409
914.68	4295
914.793	4318
914.906	4135
915.019	4135
915.132	4063
915.245	4166
915.358	4188
915.47	4234
915.583	4280
915.696	4272
915.809	4413
915.921	4398
916.034	4234
916.146	4219
916.259	4185
916.371	4424
916.483	4344
916.595	4215
916.708	4280
916.82	4325
916.932	4344
917.044	4306
917.156	4291
917.268	4268
917.38	4253
917.491	4242
917.603	4356
917.715	4383
917.826	4455
917.938	4318
918.049	4230
918.161	4405
918.272	4531
918.384	4561
918.495	4466
918.606	4261
918.717	4268
918.828	4318
918.939	4314
919.05	4280
919.161	4276
919.272	4120
919.383	4211
919.494	4432
919.604	4592
919.715	4440
919.826	4344
919.936	4405
920.047	4550
920.157	4478
920.267	4664
920.378	4580
920.488	4474
920.598	4683
920.708	4831
920.818	4675
920.928	4748
921.038	4930
921.148	4923
921.258	4626
921.368	4577
921.477	4455
921.587	4417
921.697	4367
921.806	4504
921.916	4432
922.025	4291
922.134	4215
922.244	4238
922.353	4363
922.462	4185
922.571	4131
922.68	3960
922.789	3949
922.898	4032
923.007	3972
923.116	4131
923.224	4067
923.333	4078
923.442	3987
923.55	3991
923.659	4063
923.767	4109
923.876	3991
923.984	4124
924.092	4002
924.201	4071
924.309	4071
924.417	4120
924.525	4040
924.633	4120
924.741	4987
924.849	3934
924.956	4158
925.064	3964
925.172	3880
925.279	3960
925.387	4010
925.494	4131
925.602	4215
925.709	4162
925.816	4036
925.924	4105
926.031	4211
926.138	4166
926.245	4158
926.352	4074
926.459	4246
926.566	4291
926.673	4177
926.779	4071
926.886	4082
926.993	3930
927.099	3922
927.206	3968
927.312	3915
927.419	4017
927.525	3972
927.631	4078
927.737	3949
927.843	3941
927.95	3797
928.056	3968
928.162	3979
928.267	4067
928.373	4668
928.479	4097
928.585	3812
928.69	3998
928.796	4086
928.901	3998
929.007	3804
929.112	4017
929.218	3934
929.323	3941
929.428	3979
929.533	4112
929.638	3880
929.743	3964
929.848	4051
929.953	3987
930.058	3911
930.163	3755
930.267	3823
930.372	3972
930.477	3816
930.581	4074
930.685	3975
930.79	3835
930.894	3937
930.998	3854
931.103	4029
931.207	3713
931.311	3698
931.415	3713
931.519	3545
931.623	3564
