Data from test_V78500241_1281.txt Node
Date: Fri Mar 25 16:57:54 CST 2022
User: usil
Spectrometer: V785-0024
Trigger mode: 0
Integration Time (sec): 4.000000E-1
Scans to average: 1
Nonlinearity correction enabled: false
Boxcar width: 0
Storing dark spectrum: false
XAxis mode: Wavelengths
Number of Pixels in Spectrum: 1024
>>>>>Begin Spectral Data<<<<<
801.071	8024
801.214	8005
801.356	7894
801.499	7887
801.641	7769
801.783	7833
801.926	7955
802.068	7932
802.211	7974
802.353	7928
802.496	7868
802.638	7890
802.78	7936
802.923	7871
803.065	7932
803.208	7837
803.35	7986
803.492	8020
803.635	8168
803.777	8020
803.919	8172
804.061	8476
804.204	8172
804.346	8077
804.488	8008
804.63	8062
804.773	7997
804.915	8183
805.057	8305
805.199	8225
805.341	8233
805.483	8301
805.626	8187
805.768	8149
805.91	8210
806.052	8218
806.194	8016
806.336	8282
806.478	8142
806.62	8100
806.762	8168
806.904	8206
807.046	8457
807.188	8347
807.33	8290
807.472	8332
807.614	8195
807.756	8161
807.898	8046
808.04	7875
808.182	7913
808.324	7902
808.465	7955
808.607	8119
808.749	8195
808.891	8214
809.033	8271
809.174	8180
809.316	8050
809.458	8039
809.6	8027
809.741	8027
809.883	8065
810.025	8081
810.166	8088
810.308	8046
810.45	8031
810.591	7849
810.733	7719
810.875	7734
811.016	7537
811.158	7468
811.299	7605
811.441	7723
811.582	7712
811.724	7537
811.865	7510
812.007	7620
812.148	7578
812.29	7594
812.431	7719
812.573	7925
812.714	7967
812.855	8046
812.997	8233
813.138	8263
813.279	8134
813.421	8119
813.562	7947
813.703	7868
813.845	7799
813.986	7506
814.127	7255
814.268	7255
814.41	7236
814.551	7141
814.692	7202
814.833	7069
814.974	7107
815.115	7129
815.256	7008
815.397	6920
815.539	6905
815.68	6818
815.821	6844
815.962	6848
816.103	6791
816.244	6760
816.385	6578
816.526	6593
816.666	6464
816.807	6357
816.948	6418
817.089	6490
817.23	6471
817.371	6334
817.512	6388
817.653	6448
817.793	6384
817.934	6403
818.075	6445
818.216	6426
818.356	6357
818.497	6254
818.638	6087
818.778	6117
818.919	6098
819.06	6190
819.2	6380
819.341	6342
819.481	6399
819.622	6471
819.762	6795
819.903	6692
820.043	6635
820.184	6574
820.324	6551
820.465	6669
820.605	6677
820.746	6612
820.886	6502
821.026	6604
821.167	6654
821.307	6798
821.447	6764
821.588	6665
821.728	6544
821.868	6464
822.008	6334
822.149	6357
822.289	6365
822.429	6148
822.569	6072
822.709	6129
822.849	5904
822.99	5942
823.13	5942
823.27	5946
823.41	5764
823.55	5847
823.69	5767
823.83	5821
823.97	5676
824.11	5505
824.25	5512
824.389	5581
824.529	5600
824.669	5532
824.809	5653
824.949	5657
825.089	5615
825.228	5554
825.368	5417
825.508	5364
825.648	5341
825.787	5391
825.927	5379
826.067	5288
826.206	5250
826.346	5341
826.485	5376
826.625	5414
826.765	5539
826.904	5463
827.044	5269
827.183	5174
827.323	5147
827.462	5273
827.601	5220
827.741	5204
827.88	5223
828.02	5109
828.159	5242
828.298	5341
828.437	5345
828.577	5277
828.716	5471
828.855	5292
828.994	5105
829.134	5162
829.273	5109
829.412	5117
829.551	5109
829.69	5181
829.829	5269
829.968	5322
830.107	5223
830.246	5261
830.385	5227
830.524	5124
830.663	5067
830.802	4965
830.941	4877
831.08	4877
831.219	4999
831.357	4965
831.496	5143
831.635	4946
831.774	4824
831.913	4847
832.051	4805
832.19	4755
832.329	4820
832.467	4706
832.606	4615
832.744	4706
832.883	4649
833.022	4752
833.16	4847
833.299	4816
833.437	4854
833.576	4820
833.714	4866
833.852	4900
833.991	4839
834.129	4999
834.267	4927
834.406	4961
834.544	4961
834.682	4972
834.821	4957
834.959	5159
835.097	4965
835.235	5147
835.373	5067
835.511	5121
835.65	4987
835.788	4999
835.926	4862
836.064	4881
836.202	4892
836.34	5181
836.478	5189
836.615	5109
836.753	5220
836.891	5246
837.029	5277
837.167	5189
837.305	5166
837.443	5147
837.58	5109
837.718	5250
837.856	5178
837.993	5067
838.131	5220
838.269	5204
838.406	5212
838.544	5166
838.681	5071
838.819	5041
838.956	4900
839.094	4927
839.231	4984
839.369	5105
839.506	5395
839.643	5322
839.781	5052
839.918	4991
840.055	5075
840.193	5060
840.33	5109
840.467	5132
840.604	5189
840.742	5414
840.879	5064
841.016	5056
841.153	5189
841.29	5417
841.427	5330
841.564	5349
841.701	5337
841.838	5288
841.975	5204
842.112	5277
842.249	5170
842.385	5102
842.522	5330
842.659	5166
842.796	5132
842.933	5128
843.069	5166
843.206	5159
843.343	5284
843.479	5216
843.616	5284
843.752	5025
843.889	5010
844.025	5204
844.162	5022
844.298	5204
844.435	5048
844.571	5079
844.708	5181
844.844	5292
844.98	5284
845.117	5277
845.253	5113
845.389	5079
845.525	5090
845.661	5105
845.798	5010
845.934	5128
846.07	5045
846.206	5174
846.342	5288
846.478	5181
846.614	5060
846.75	5003
846.886	4995
847.022	5121
847.158	5018
847.294	5045
847.429	5083
847.565	5037
847.701	5322
847.837	4850
847.972	4797
848.108	4946
848.244	4919
848.379	4759
848.515	4755
848.65	4767
848.786	4702
848.921	4759
849.057	4873
849.192	4900
849.328	4839
849.463	4862
849.598	4828
849.734	4752
849.869	4660
850.004	4599
850.14	4656
850.275	4618
850.41	4573
850.545	4565
850.68	4607
850.815	4577
850.95	4664
851.085	4877
851.22	4740
851.355	4645
851.49	4611
851.625	4645
851.76	4660
851.895	4618
852.03	4531
852.165	4649
852.299	4752
852.434	4801
852.569	4763
852.703	4755
852.838	4816
852.973	4927
853.107	4930
853.242	4790
853.376	4596
853.511	4531
853.645	4584
853.78	4771
853.914	4744
854.048	4672
854.183	4618
854.317	4656
854.451	4828
854.585	4664
854.72	4615
854.854	4744
854.988	4626
855.122	4653
855.256	4535
855.39	4656
855.524	4801
855.658	4675
855.792	4714
855.926	4725
856.06	4744
856.194	4729
856.327	4618
856.461	4622
856.595	4558
856.729	4618
856.862	4759
856.996	4603
857.13	4755
857.263	4790
857.397	4782
857.53	4626
857.664	4721
857.797	4782
857.931	4786
858.064	4736
858.197	4733
858.331	4672
858.464	4649
858.597	4500
858.731	4618
858.864	4626
858.997	4573
859.13	4641
859.263	4641
859.396	4714
859.529	4611
859.662	4554
859.795	4523
859.928	4554
860.061	4767
860.194	4752
860.327	4607
860.46	4561
860.592	4687
860.725	4691
860.858	4717
860.99	4580
861.123	4550
861.256	4474
861.388	4580
861.521	5140
861.653	4512
861.786	4443
861.918	4489
862.05	4481
862.183	4554
862.315	4561
862.447	4691
862.58	4512
862.712	4371
862.844	4337
862.976	4481
863.108	4443
863.24	4873
863.372	4322
863.504	4443
863.636	4371
863.768	4504
863.9	4443
864.032	4367
864.164	4428
864.296	4432
864.428	4561
864.559	4573
864.691	4500
864.823	4493
864.954	4493
865.086	4474
865.217	4474
865.349	4428
865.48	4421
865.612	4485
865.743	4615
865.875	4470
866.006	4424
866.137	4485
866.269	4386
866.4	4455
866.531	4481
866.662	4417
866.793	4413
866.924	4386
867.055	4504
867.186	4466
867.317	4405
867.448	4375
867.579	4363
867.71	4363
867.841	4348
867.972	4470
868.103	4455
868.233	4474
868.364	4409
868.495	4474
868.625	4672
868.756	4740
868.886	4561
869.017	4584
869.147	4774
869.278	4744
869.408	4660
869.539	4637
869.669	4714
869.799	4634
869.929	4752
870.06	4782
870.19	4961
870.32	4885
870.45	4930
870.58	4976
870.71	5102
870.84	5045
870.97	4919
871.1	4850
871.23	5109
871.36	5079
871.489	5014
871.619	5041
871.749	5045
871.879	5083
872.008	5102
872.138	5098
872.267	4885
872.397	4843
872.526	4748
872.656	4679
872.785	4778
872.915	4980
873.044	4984
873.173	4930
873.303	4953
873.432	4968
873.561	4968
873.69	4919
873.819	4839
873.948	4881
874.077	4828
874.206	4793
874.335	4790
874.464	4953
874.593	5041
874.722	4930
874.851	5121
874.979	5025
875.108	5022
875.237	4919
875.365	4889
875.494	4862
875.623	4961
875.751	4839
875.88	4847
876.008	4984
876.136	5056
876.265	5208
876.393	5292
876.521	5242
876.65	5170
876.778	5166
876.906	5037
877.034	5014
877.162	5037
877.29	4938
877.418	5113
877.546	5037
877.674	5006
877.802	5075
877.93	5025
878.058	4942
878.185	4881
878.313	4942
878.441	4946
878.568	4778
878.696	4873
878.824	4957
878.951	4965
879.079	5124
879.206	5280
879.333	5105
879.461	4987
879.588	5029
879.715	5121
879.842	5231
879.97	4987
880.097	4733
880.224	4717
880.351	4831
880.478	4801
880.605	4797
880.732	4771
880.859	5037
880.986	4896
881.112	4885
881.239	4763
881.366	4649
881.493	4618
881.619	4607
881.746	4626
881.872	4656
881.999	4675
882.125	4721
882.252	4835
882.378	4816
882.505	4968
882.631	4778
882.757	4683
882.883	4714
883.01	4706
883.136	4611
883.262	4637
883.388	4656
883.514	4782
883.64	4801
883.766	4839
883.892	4683
884.018	4721
884.143	4889
884.269	4987
884.395	4691
884.52	4596
884.646	4645
884.772	4580
884.897	4554
885.023	4702
885.148	4771
885.274	4843
885.399	4790
885.524	4668
885.65	4706
885.775	4733
885.9	4679
886.025	4809
886.15	4767
886.275	4740
886.4	4637
886.525	4725
886.65	4687
886.775	4729
886.9	4889
887.025	5003
887.149	4824
887.274	4649
887.399	4569
887.523	4577
887.648	4550
887.773	4561
887.897	4687
888.021	4786
888.146	4698
888.27	4771
888.395	4946
888.519	4790
888.643	4801
888.767	4812
888.891	4675
889.015	4569
889.139	4630
889.263	4596
889.387	4740
889.511	4839
889.635	4767
889.759	4603
889.883	4596
890.006	4714
890.13	4816
890.254	4599
890.377	4630
890.501	4497
890.624	4527
890.748	4645
890.871	4493
890.995	4466
891.118	4363
891.241	4508
891.364	4577
891.488	4656
891.611	4474
891.734	4508
891.857	4615
891.98	4493
892.103	4641
892.226	4588
892.349	4535
892.471	4405
892.594	4497
892.717	4596
892.839	4561
892.962	4592
893.085	4634
893.207	4607
893.33	4443
893.452	4497
893.575	4656
893.697	4554
893.819	4812
893.941	4786
894.064	4786
894.186	4569
894.308	4569
894.43	4725
894.552	4782
894.674	4725
894.796	4542
894.918	4538
895.04	4596
895.161	4698
895.283	4618
895.405	4569
895.526	4622
895.648	4668
895.769	4649
895.891	4679
896.012	4717
896.134	4744
896.255	4656
896.376	4622
896.498	4580
896.619	4645
896.74	4607
896.861	4622
896.982	4854
897.103	5102
897.224	4831
897.345	4729
897.466	4618
897.587	4725
897.708	4862
897.828	4828
897.949	4641
898.07	4546
898.19	4626
898.311	4805
898.431	4645
898.552	4752
898.672	4801
898.792	4786
898.913	4687
899.033	4641
899.153	4489
899.273	4466
899.393	4462
899.513	4542
899.633	4523
899.753	4531
899.873	4481
899.993	4618
900.113	4508
900.232	4580
900.352	4519
900.472	4455
900.591	4367
900.711	4538
900.83	4428
900.95	4519
901.069	4717
901.189	4554
901.308	4341
901.427	4295
901.546	4375
901.665	4455
901.784	4523
901.904	4383
902.023	4310
902.141	4169
902.26	4185
902.379	4291
902.498	4253
902.617	4219
902.735	4379
902.854	4409
902.973	4314
903.091	4246
903.21	4242
903.328	4249
903.446	4295
903.565	4211
903.683	4375
903.801	4268
903.919	4383
904.038	4413
904.156	4272
904.274	4394
904.392	4405
904.51	4470
904.627	4436
904.745	4584
904.863	4634
904.981	4443
905.098	4333
905.216	4386
905.334	4405
905.451	4428
905.569	4394
905.686	4489
905.803	4459
905.921	4379
906.038	4573
906.155	4432
906.272	4390
906.389	4428
906.506	4356
906.623	4363
906.74	4371
906.857	4291
906.974	4367
907.091	4538
907.208	4694
907.324	4558
907.441	4535
907.557	4337
907.674	4341
907.79	4352
907.907	4371
908.023	4455
908.139	4447
908.256	4379
908.372	4413
908.488	4443
908.604	4352
908.72	4325
908.836	4375
908.952	4325
909.068	4481
909.184	4489
909.3	4478
909.415	4592
909.531	4542
909.647	4348
909.762	4367
909.878	4352
909.993	4421
910.108	4443
910.224	4367
910.339	4474
910.454	4405
910.57	4344
910.685	4337
910.8	4634
910.915	4641
911.03	4462
911.145	4310
911.259	4322
911.374	4341
911.489	4253
911.604	4253
911.718	4169
911.833	4147
911.947	4051
912.062	4048
912.176	4200
912.291	4219
912.405	4238
912.519	4455
912.633	4523
912.748	4344
912.862	4337
912.976	4185
913.09	4071
913.204	4169
913.318	4261
913.431	4379
913.545	4329
913.659	4466
913.772	4383
913.886	4230
914	4219
914.113	4303
914.226	4390
914.34	4428
914.453	4215
914.566	4424
914.68	4310
914.793	4295
914.906	4147
915.019	4097
915.132	4055
915.245	4154
915.358	4177
915.47	4215
915.583	4291
915.696	4310
915.809	4333
915.921	4405
916.034	4253
916.146	4238
916.259	4181
916.371	4386
916.483	4360
916.595	4242
916.708	4322
916.82	4306
916.932	4394
917.044	4386
917.156	4287
917.268	4238
917.38	4238
917.491	4230
917.603	4363
917.715	4375
917.826	4470
917.938	4360
918.049	4280
918.161	4383
918.272	4516
918.384	4554
918.495	4409
918.606	4318
918.717	4223
918.828	4337
918.939	4341
919.05	4287
919.161	4318
919.272	4124
919.383	4234
919.494	4405
919.604	4611
919.715	4428
919.826	4333
919.936	4344
920.047	4519
920.157	4508
920.267	4714
920.378	4596
920.488	4519
920.598	4740
920.708	4908
920.818	4717
920.928	4774
921.038	4934
921.148	4881
921.258	4599
921.368	4550
921.477	4500
921.587	4481
921.697	4386
921.806	4527
921.916	4421
922.025	4287
922.134	4306
922.244	4196
922.353	4306
922.462	4177
922.571	4090
922.68	3972
922.789	3987
922.898	4051
923.007	4010
923.116	4090
923.224	4086
923.333	4036
923.442	3956
923.55	4010
923.659	4059
923.767	4074
923.876	3998
923.984	4093
924.092	4021
924.201	4074
924.309	4131
924.417	4128
924.525	4078
924.633	4082
924.741	5033
924.849	3922
924.956	4139
925.064	3991
925.172	3903
925.279	3934
925.387	4071
925.494	4032
925.602	4211
925.709	4177
925.816	4051
925.924	4128
926.031	4192
926.138	4192
926.245	4196
926.352	4086
926.459	4246
926.566	4310
926.673	4147
926.779	4040
926.886	4071
926.993	3983
927.099	3983
927.206	3949
927.312	3918
927.419	4017
927.525	4048
927.631	4051
927.737	3956
927.843	3975
927.95	3850
928.056	3979
928.162	4010
928.267	4006
928.373	4664
928.479	4116
928.585	3915
928.69	3956
928.796	4086
928.901	4010
929.007	3861
929.112	3975
929.218	3983
929.323	3918
929.428	3922
929.533	4097
929.638	3903
929.743	3949
929.848	4010
929.953	4010
930.058	3896
930.163	3800
930.267	3785
930.372	3972
930.477	3819
930.581	4090
930.685	3953
930.79	3850
930.894	3876
930.998	3835
931.103	4010
931.207	3728
931.311	3713
931.415	3660
931.519	3504
931.623	3545
