Data from test_V78500241_910.txt Node
Date: Fri Mar 25 16:55:19 CST 2022
User: usil
Spectrometer: V785-0024
Trigger mode: 0
Integration Time (sec): 4.000000E-1
Scans to average: 1
Nonlinearity correction enabled: false
Boxcar width: 0
Storing dark spectrum: false
XAxis mode: Wavelengths
Number of Pixels in Spectrum: 1024
>>>>>Begin Spectral Data<<<<<
801.071	7974
801.214	7978
801.356	7898
801.499	7917
801.641	7811
801.783	7845
801.926	7925
802.068	7947
802.211	7970
802.353	7928
802.496	7757
802.638	7864
802.78	7833
802.923	7909
803.065	7879
803.208	7750
803.35	7944
803.492	8142
803.635	8115
803.777	8050
803.919	8050
804.061	8434
804.204	8081
804.346	8046
804.488	7970
804.63	8126
804.773	7997
804.915	8005
805.057	8279
805.199	8107
805.341	8248
805.483	8252
805.626	8164
805.768	8088
805.91	8157
806.052	8221
806.194	8024
806.336	8259
806.478	8062
806.62	8054
806.762	8111
806.904	8256
807.046	8446
807.188	8259
807.33	8320
807.472	8233
807.614	8077
807.756	8142
807.898	7986
808.04	7845
808.182	7902
808.324	7856
808.465	7902
808.607	8001
808.749	8016
808.891	8195
809.033	8290
809.174	8195
809.316	8065
809.458	8050
809.6	7932
809.741	8035
809.883	7890
810.025	8115
810.166	8096
810.308	7986
810.45	8016
810.591	7917
810.733	7715
810.875	7738
811.016	7460
811.158	7483
811.299	7510
811.441	7708
811.582	7689
811.724	7552
811.865	7468
812.007	7548
812.148	7575
812.29	7563
812.431	7700
812.573	7811
812.714	7978
812.855	8138
812.997	8138
813.138	8286
813.279	8161
813.421	8103
813.562	8054
813.703	7879
813.845	7811
813.986	7400
814.127	7331
814.268	7209
814.41	7187
814.551	7160
814.692	7179
814.833	7038
814.974	7126
815.115	7179
815.256	6966
815.397	6966
815.539	7038
815.68	6802
815.821	6795
815.962	6901
816.103	6837
816.244	6730
816.385	6642
816.526	6665
816.666	6544
816.807	6331
816.948	6445
817.089	6494
817.23	6418
817.371	6410
817.512	6471
817.653	6372
817.793	6445
817.934	6433
818.075	6467
818.216	6509
818.356	6448
818.497	6228
818.638	6125
818.778	6178
818.919	6125
819.06	6167
819.2	6350
819.341	6357
819.481	6315
819.622	6551
819.762	6684
819.903	6696
820.043	6646
820.184	6551
820.324	6589
820.465	6730
820.605	6673
820.746	6703
820.886	6532
821.026	6654
821.167	6764
821.307	6776
821.447	6753
821.588	6700
821.728	6563
821.868	6513
822.008	6391
822.149	6342
822.289	6433
822.429	6190
822.569	6087
822.709	6098
822.849	5939
822.99	5946
823.13	5946
823.27	5935
823.41	5783
823.55	5813
823.69	5779
823.83	5821
823.97	5695
824.11	5554
824.25	5543
824.389	5554
824.529	5634
824.669	5592
824.809	5672
824.949	5619
825.089	5630
825.228	5615
825.368	5455
825.508	5349
825.648	5357
825.787	5414
825.927	5421
826.067	5322
826.206	5337
826.346	5406
826.485	5452
826.625	5429
826.765	5592
826.904	5520
827.044	5292
827.183	5258
827.323	5166
827.462	5223
827.601	5178
827.741	5178
827.88	5280
828.02	5132
828.159	5288
828.298	5303
828.437	5349
828.577	5299
828.716	5512
828.855	5315
828.994	5220
829.134	5113
829.273	5162
829.412	5113
829.551	5151
829.69	5132
829.829	5307
829.968	5360
830.107	5258
830.246	5318
830.385	5254
830.524	5124
830.663	5098
830.802	4999
830.941	4896
831.08	4873
831.219	4957
831.357	5018
831.496	5185
831.635	4911
831.774	4862
831.913	4892
832.051	4733
832.19	4782
832.329	4873
832.467	4698
832.606	4656
832.744	4721
832.883	4790
833.022	4679
833.16	4767
833.299	4881
833.437	4790
833.576	4839
833.714	4889
833.852	4896
833.991	4934
834.129	4972
834.267	4995
834.406	4942
834.544	4991
834.682	5003
834.821	4991
834.959	5143
835.097	5006
835.235	5189
835.373	5128
835.511	5155
835.65	5014
835.788	5041
835.926	4927
836.064	4881
836.202	4938
836.34	5147
836.478	5235
836.615	5090
836.753	5250
836.891	5337
837.029	5242
837.167	5223
837.305	5216
837.443	5162
837.58	5071
837.718	5235
837.856	5159
837.993	5197
838.131	5254
838.269	5208
838.406	5212
838.544	5235
838.681	5064
838.819	5010
838.956	4923
839.094	4885
839.231	4984
839.369	5025
839.506	5425
839.643	5307
839.781	5067
839.918	5014
840.055	5079
840.193	5102
840.33	5143
840.467	5056
840.604	5174
840.742	5455
840.879	5102
841.016	5109
841.153	5201
841.29	5368
841.427	5288
841.564	5307
841.701	5410
841.838	5292
841.975	5250
842.112	5280
842.249	5159
842.385	5159
842.522	5322
842.659	5204
842.796	5208
842.933	5193
843.069	5162
843.206	5140
843.343	5322
843.479	5254
843.616	5288
843.752	5064
843.889	5056
844.025	5235
844.162	5037
844.298	5204
844.435	5083
844.571	5079
844.708	5239
844.844	5315
844.98	5296
845.117	5322
845.253	5197
845.389	5121
845.525	5166
845.661	5159
845.798	5090
845.934	5140
846.07	5090
846.206	5212
846.342	5258
846.478	5178
846.614	5025
846.75	4953
846.886	4957
847.022	5178
847.158	5014
847.294	5094
847.429	5098
847.565	5041
847.701	5292
847.837	4889
847.972	4812
848.108	4968
848.244	4946
848.379	4793
848.515	4748
848.65	4702
848.786	4771
848.921	4771
849.057	4900
849.192	4911
849.328	4816
849.463	4862
849.598	4812
849.734	4740
849.869	4733
850.004	4649
850.14	4615
850.275	4611
850.41	4546
850.545	4561
850.68	4592
850.815	4634
850.95	4649
851.085	4885
851.22	4771
851.355	4687
851.49	4580
851.625	4596
851.76	4683
851.895	4546
852.03	4577
852.165	4683
852.299	4744
852.434	4797
852.569	4771
852.703	4710
852.838	4881
852.973	4904
853.107	4919
853.242	4744
853.376	4668
853.511	4561
853.645	4634
853.78	4782
853.914	4725
854.048	4740
854.183	4698
854.317	4714
854.451	4835
854.585	4656
854.72	4618
854.854	4790
854.988	4618
855.122	4664
855.256	4535
855.39	4672
855.524	4755
855.658	4793
855.792	4691
855.926	4748
856.06	4733
856.194	4771
856.327	4687
856.461	4615
856.595	4611
856.729	4687
856.862	4797
856.996	4733
857.13	4774
857.263	4778
857.397	4790
857.53	4679
857.664	4710
857.797	4740
857.931	4805
858.064	4668
858.197	4755
858.331	4683
858.464	4611
858.597	4596
858.731	4622
858.864	4653
858.997	4611
859.13	4706
859.263	4679
859.396	4721
859.529	4580
859.662	4611
859.795	4573
859.928	4687
860.061	4809
860.194	4790
860.327	4596
860.46	4577
860.592	4702
860.725	4729
860.858	4706
860.99	4573
861.123	4519
861.256	4584
861.388	4618
861.521	5250
861.653	4470
861.786	4440
861.918	4470
862.05	4542
862.183	4588
862.315	4649
862.447	4637
862.58	4500
862.712	4398
862.844	4360
862.976	4470
863.108	4516
863.24	4755
863.372	4314
863.504	4417
863.636	4436
863.768	4512
863.9	4405
864.032	4352
864.164	4409
864.296	4485
864.428	4512
864.559	4618
864.691	4554
864.823	4497
864.954	4485
865.086	4485
865.217	4470
865.349	4421
865.48	4474
865.612	4493
865.743	4672
865.875	4447
866.006	4394
866.137	4424
866.269	4440
866.4	4413
866.531	4390
866.662	4394
866.793	4413
866.924	4402
867.055	4573
867.186	4436
867.317	4474
867.448	4455
867.579	4405
867.71	4360
867.841	4367
867.972	4470
868.103	4421
868.233	4440
868.364	4466
868.495	4451
868.625	4710
868.756	4771
868.886	4542
869.017	4649
869.147	4797
869.278	4797
869.408	4702
869.539	4675
869.669	4717
869.799	4683
869.929	4797
870.06	4725
870.19	4953
870.32	4908
870.45	4953
870.58	5029
870.71	5075
870.84	5170
870.97	4965
871.1	4927
871.23	5143
871.36	5128
871.489	5048
871.619	5094
871.749	5102
871.879	5109
872.008	5178
872.138	5098
872.267	4980
872.397	4843
872.526	4828
872.656	4744
872.785	4805
872.915	4923
873.044	4965
873.173	4881
873.303	4987
873.432	4957
873.561	4968
873.69	4889
873.819	4866
873.948	4934
874.077	4854
874.206	4744
874.335	4767
874.464	4877
874.593	5071
874.722	4987
874.851	5056
874.979	5094
875.108	5060
875.237	4923
875.365	4881
875.494	4892
875.623	5003
875.751	4812
875.88	4812
876.008	4976
876.136	5014
876.265	5159
876.393	5318
876.521	5273
876.65	5174
876.778	5151
876.906	5060
877.034	4999
877.162	5060
877.29	4968
877.418	5025
877.546	5064
877.674	5086
877.802	5022
877.93	4976
878.058	5006
878.185	4824
878.313	4930
878.441	4987
878.568	4805
878.696	4854
878.824	4995
878.951	4999
879.079	5124
879.206	5288
879.333	5109
879.461	4968
879.588	5025
879.715	5079
879.842	5204
879.97	5025
880.097	4767
880.224	4774
880.351	4812
880.478	4854
880.605	4793
880.732	4774
880.859	5052
880.986	4847
881.112	4896
881.239	4790
881.366	4683
881.493	4634
881.619	4599
881.746	4580
881.872	4683
881.999	4653
882.125	4687
882.252	4816
882.378	4854
882.505	4980
882.631	4824
882.757	4691
882.883	4744
883.01	4733
883.136	4656
883.262	4588
883.388	4558
883.514	4812
883.64	4908
883.766	4771
883.892	4714
884.018	4725
884.143	4896
884.269	5014
884.395	4653
884.52	4641
884.646	4641
884.772	4599
884.897	4535
885.023	4672
885.148	4793
885.274	4885
885.399	4786
885.524	4706
885.65	4698
885.775	4717
885.9	4630
886.025	4858
886.15	4801
886.275	4740
886.4	4664
886.525	4717
886.65	4683
886.775	4710
886.9	4908
887.025	5014
887.149	4782
887.274	4626
887.399	4622
887.523	4588
887.648	4580
887.773	4599
887.897	4740
888.021	4816
888.146	4694
888.27	4805
888.395	4877
888.519	4790
888.643	4782
888.767	4866
888.891	4687
889.015	4653
889.139	4656
889.263	4588
889.387	4740
889.511	4824
889.635	4801
889.759	4634
889.883	4645
890.006	4714
890.13	4809
890.254	4675
890.377	4653
890.501	4558
890.624	4523
890.748	4607
890.871	4512
890.995	4424
891.118	4398
891.241	4497
891.364	4542
891.488	4664
891.611	4478
891.734	4474
891.857	4592
891.98	4577
892.103	4675
892.226	4542
892.349	4565
892.471	4398
892.594	4558
892.717	4611
892.839	4611
892.962	4599
893.085	4637
893.207	4607
893.33	4466
893.452	4504
893.575	4656
893.697	4558
893.819	4816
893.941	4820
894.064	4774
894.186	4611
894.308	4554
894.43	4706
894.552	4885
894.674	4725
894.796	4527
894.918	4603
895.04	4611
895.161	4694
895.283	4630
895.405	4573
895.526	4675
895.648	4683
895.769	4702
895.891	4660
896.012	4759
896.134	4733
896.255	4637
896.376	4603
896.498	4573
896.619	4702
896.74	4607
896.861	4645
896.982	4942
897.103	5128
897.224	4904
897.345	4752
897.466	4641
897.587	4710
897.708	4877
897.828	4744
897.949	4691
898.07	4516
898.19	4618
898.311	4850
898.431	4672
898.552	4733
898.672	4854
898.792	4820
898.913	4793
899.033	4634
899.153	4538
899.273	4383
899.393	4504
899.513	4500
899.633	4508
899.753	4538
899.873	4497
899.993	4580
900.113	4558
900.232	4546
900.352	4622
900.472	4512
900.591	4398
900.711	4451
900.83	4443
900.95	4645
901.069	4706
901.189	4577
901.308	4348
901.427	4306
901.546	4348
901.665	4535
901.784	4519
901.904	4409
902.023	4314
902.141	4188
902.26	4185
902.379	4287
902.498	4253
902.617	4196
902.735	4356
902.854	4386
902.973	4310
903.091	4211
903.21	4227
903.328	4284
903.446	4230
903.565	4306
903.683	4299
903.801	4314
903.919	4367
904.038	4424
904.156	4306
904.274	4466
904.392	4356
904.51	4447
904.627	4481
904.745	4622
904.863	4592
904.981	4379
905.098	4344
905.216	4310
905.334	4383
905.451	4493
905.569	4447
905.686	4546
905.803	4554
905.921	4390
906.038	4588
906.155	4443
906.272	4409
906.389	4485
906.506	4318
906.623	4337
906.74	4375
906.857	4303
906.974	4341
907.091	4531
907.208	4694
907.324	4561
907.441	4512
907.557	4337
907.674	4360
907.79	4303
907.907	4383
908.023	4485
908.139	4478
908.256	4436
908.372	4462
908.488	4459
908.604	4348
908.72	4284
908.836	4394
908.952	4348
909.068	4402
909.184	4550
909.3	4478
909.415	4569
909.531	4569
909.647	4333
909.762	4398
909.878	4310
909.993	4379
910.108	4417
910.224	4421
910.339	4443
910.454	4363
910.57	4375
910.685	4261
910.8	4607
910.915	4615
911.03	4466
911.145	4325
911.259	4348
911.374	4352
911.489	4325
911.604	4284
911.718	4162
911.833	4234
911.947	4086
912.062	4013
912.176	4192
912.291	4272
912.405	4249
912.519	4451
912.633	4523
912.748	4348
912.862	4310
912.976	4158
913.09	4063
913.204	4112
913.318	4276
913.431	4352
913.545	4360
913.659	4462
913.772	4356
913.886	4234
914	4211
914.113	4344
914.226	4436
914.34	4348
914.453	4207
914.566	4402
914.68	4322
914.793	4299
914.906	4128
915.019	4101
915.132	4109
915.245	4162
915.358	4253
915.47	4227
915.583	4230
915.696	4306
915.809	4348
915.921	4413
916.034	4242
916.146	4272
916.259	4192
916.371	4352
916.483	4360
916.595	4287
916.708	4276
916.82	4310
916.932	4314
917.044	4325
917.156	4344
917.268	4238
917.38	4234
917.491	4287
917.603	4379
917.715	4413
917.826	4428
917.938	4360
918.049	4249
918.161	4363
918.272	4519
918.384	4474
918.495	4470
918.606	4249
918.717	4234
918.828	4280
918.939	4367
919.05	4253
919.161	4367
919.272	4109
919.383	4223
919.494	4405
919.604	4622
919.715	4428
919.826	4322
919.936	4402
920.047	4512
920.157	4413
920.267	4656
920.378	4538
920.488	4493
920.598	4653
920.708	4904
920.818	4782
920.928	4721
921.038	4919
921.148	4919
921.258	4596
921.368	4546
921.477	4470
921.587	4447
921.697	4417
921.806	4569
921.916	4443
922.025	4268
922.134	4280
922.244	4181
922.353	4284
922.462	4158
922.571	4112
922.68	3987
922.789	3956
922.898	4025
923.007	3949
923.116	4097
923.224	4055
923.333	4078
923.442	3991
923.55	3975
923.659	4017
923.767	4124
923.876	4021
923.984	4093
924.092	3998
924.201	4090
924.309	4078
924.417	4162
924.525	4051
924.633	4139
924.741	4881
924.849	3892
924.956	4124
925.064	3975
925.172	3876
925.279	3937
925.387	4063
925.494	4040
925.602	4207
925.709	4166
925.816	4025
925.924	4109
926.031	4211
926.138	4181
926.245	4147
926.352	4071
926.459	4268
926.566	4276
926.673	4185
926.779	4059
926.886	4105
926.993	3930
927.099	3987
927.206	3945
927.312	3903
927.419	4048
927.525	4002
927.631	4086
927.737	3937
927.843	3934
927.95	3876
928.056	3953
928.162	3987
928.267	4006
928.373	4546
928.479	4101
928.585	3827
928.69	4010
928.796	4055
928.901	3937
929.007	3823
929.112	3991
929.218	3941
929.323	3930
929.428	3937
929.533	4048
929.638	3850
929.743	3953
929.848	4040
929.953	4010
930.058	3930
930.163	3793
930.267	3850
930.372	3945
930.477	3804
930.581	4082
930.685	3979
930.79	3842
930.894	3842
930.998	3835
931.103	4025
931.207	3686
931.311	3671
931.415	3667
931.519	3530
931.623	3545
