Data from test_V78500241_2049.txt Node
Date: Fri Mar 25 17:03:14 CST 2022
User: usil
Spectrometer: V785-0024
Trigger mode: 0
Integration Time (sec): 4.000000E-1
Scans to average: 1
Nonlinearity correction enabled: false
Boxcar width: 0
Storing dark spectrum: false
XAxis mode: Wavelengths
Number of Pixels in Spectrum: 1024
>>>>>Begin Spectral Data<<<<<
801.071	7986
801.214	7944
801.356	7849
801.499	7883
801.641	7753
801.783	7811
801.926	8005
802.068	7928
802.211	8012
802.353	7978
802.496	7833
802.638	7871
802.78	7917
802.923	7811
803.065	7811
803.208	7868
803.35	7940
803.492	8054
803.635	8168
803.777	8043
803.919	8107
804.061	8499
804.204	8130
804.346	8012
804.488	7993
804.63	8134
804.773	7982
804.915	8088
805.057	8286
805.199	8145
805.341	8126
805.483	8221
805.626	8233
805.768	8069
805.91	8153
806.052	8214
806.194	8031
806.336	8263
806.478	8073
806.62	8126
806.762	8103
806.904	8263
807.046	8438
807.188	8336
807.33	8305
807.472	8320
807.614	8221
807.756	8088
807.898	8054
808.04	7864
808.182	7879
808.324	7833
808.465	7921
808.607	8035
808.749	8115
808.891	8157
809.033	8328
809.174	8252
809.316	8020
809.458	8073
809.6	8016
809.741	8001
809.883	8065
810.025	8062
810.166	8062
810.308	7997
810.45	7845
810.591	7860
810.733	7693
810.875	7651
811.016	7438
811.158	7502
811.299	7582
811.441	7734
811.582	7715
811.724	7556
811.865	7514
812.007	7624
812.148	7620
812.29	7601
812.431	7814
812.573	7868
812.714	8005
812.855	8096
812.997	8180
813.138	8298
813.279	8130
813.421	8115
813.562	7959
813.703	7719
813.845	7723
813.986	7491
814.127	7228
814.268	7232
814.41	7133
814.551	7206
814.692	7232
814.833	7031
814.974	7118
815.115	7118
815.256	6993
815.397	6856
815.539	6905
815.68	6787
815.821	6810
815.962	6886
816.103	6844
816.244	6684
816.385	6650
816.526	6578
816.666	6532
816.807	6391
816.948	6483
817.089	6525
817.23	6445
817.371	6331
817.512	6369
817.653	6395
817.793	6304
817.934	6460
818.075	6429
818.216	6414
818.356	6448
818.497	6232
818.638	6125
818.778	6152
818.919	6106
819.06	6117
819.2	6285
819.341	6289
819.481	6426
819.622	6532
819.762	6749
819.903	6669
820.043	6540
820.184	6593
820.324	6627
820.465	6681
820.605	6658
820.746	6654
820.886	6502
821.026	6662
821.167	6703
821.307	6806
821.447	6749
821.588	6627
821.728	6597
821.868	6460
822.008	6327
822.149	6376
822.289	6376
822.429	6110
822.569	6057
822.709	6068
822.849	5893
822.99	5927
823.13	5893
823.27	5916
823.41	5798
823.55	5798
823.69	5737
823.83	5733
823.97	5600
824.11	5497
824.25	5474
824.389	5528
824.529	5600
824.669	5509
824.809	5596
824.949	5646
825.089	5604
825.228	5532
825.368	5414
825.508	5360
825.648	5357
825.787	5372
825.927	5368
826.067	5334
826.206	5250
826.346	5372
826.485	5395
826.625	5436
826.765	5558
826.904	5455
827.044	5197
827.183	5193
827.323	5124
827.462	5250
827.601	5143
827.741	5166
827.88	5193
828.02	5147
828.159	5254
828.298	5326
828.437	5322
828.577	5242
828.716	5497
828.855	5318
828.994	5166
829.134	5124
829.273	5178
829.412	5189
829.551	5136
829.69	5117
829.829	5197
829.968	5357
830.107	5269
830.246	5258
830.385	5208
830.524	5079
830.663	5075
830.802	4999
830.941	4858
831.08	4896
831.219	4991
831.357	4980
831.496	5170
831.635	4908
831.774	4816
831.913	4820
832.051	4752
832.19	4771
832.329	4790
832.467	4691
832.606	4641
832.744	4698
832.883	4687
833.022	4767
833.16	4767
833.299	4801
833.437	4843
833.576	4820
833.714	4820
833.852	4847
833.991	4870
834.129	4934
834.267	4949
834.406	4862
834.544	4987
834.682	4934
834.821	4942
834.959	5147
835.097	4972
835.235	5094
835.373	5109
835.511	5128
835.65	5067
835.788	5003
835.926	4919
836.064	4835
836.202	4915
836.34	5147
836.478	5269
836.615	5102
836.753	5231
836.891	5193
837.029	5223
837.167	5193
837.305	5132
837.443	5132
837.58	5071
837.718	5197
837.856	5166
837.993	5181
838.131	5235
838.269	5185
838.406	5197
838.544	5181
838.681	5056
838.819	5037
838.956	4915
839.094	4904
839.231	4942
839.369	5079
839.506	5417
839.643	5280
839.781	5048
839.918	4968
840.055	5098
840.193	5067
840.33	5105
840.467	5064
840.604	5193
840.742	5440
840.879	5025
841.016	5025
841.153	5181
841.29	5349
841.427	5360
841.564	5296
841.701	5349
841.838	5227
841.975	5239
842.112	5227
842.249	5113
842.385	5071
842.522	5277
842.659	5113
842.796	5109
842.933	5170
843.069	5113
843.206	5189
843.343	5311
843.479	5216
843.616	5242
843.752	5014
843.889	4991
844.025	5216
844.162	5083
844.298	5208
844.435	5128
844.571	5071
844.708	5223
844.844	5280
844.98	5337
845.117	5273
845.253	5170
845.389	5090
845.525	5136
845.661	5071
845.798	5033
845.934	5132
846.07	5052
846.206	5162
846.342	5242
846.478	5216
846.614	5006
846.75	5003
846.886	4953
847.022	5121
847.158	5018
847.294	5056
847.429	5056
847.565	5048
847.701	5303
847.837	4835
847.972	4805
848.108	4942
848.244	4946
848.379	4778
848.515	4710
848.65	4714
848.786	4717
848.921	4767
849.057	4870
849.192	4873
849.328	4812
849.463	4820
849.598	4790
849.734	4740
849.869	4641
850.004	4603
850.14	4653
850.275	4618
850.41	4550
850.545	4558
850.68	4603
850.815	4599
850.95	4649
851.085	4820
851.22	4729
851.355	4660
851.49	4603
851.625	4592
851.76	4622
851.895	4558
852.03	4508
852.165	4622
852.299	4683
852.434	4816
852.569	4771
852.703	4767
852.838	4850
852.973	4942
853.107	4911
853.242	4729
853.376	4656
853.511	4565
853.645	4588
853.78	4797
853.914	4744
854.048	4679
854.183	4626
854.317	4664
854.451	4820
854.585	4687
854.72	4618
854.854	4710
854.988	4630
855.122	4630
855.256	4535
855.39	4672
855.524	4809
855.658	4714
855.792	4683
855.926	4675
856.06	4767
856.194	4801
856.327	4710
856.461	4599
856.595	4596
856.729	4634
856.862	4759
856.996	4698
857.13	4710
857.263	4786
857.397	4793
857.53	4630
857.664	4706
857.797	4729
857.931	4782
858.064	4679
858.197	4683
858.331	4668
858.464	4649
858.597	4481
858.731	4641
858.864	4649
858.997	4580
859.13	4656
859.263	4637
859.396	4679
859.529	4611
859.662	4565
859.795	4535
859.928	4615
860.061	4736
860.194	4759
860.327	4569
860.46	4558
860.592	4675
860.725	4736
860.858	4729
860.99	4592
861.123	4573
861.256	4573
861.388	4630
861.521	5284
861.653	4481
861.786	4462
861.918	4432
862.05	4478
862.183	4561
862.315	4607
862.447	4660
862.58	4561
862.712	4379
862.844	4329
862.976	4459
863.108	4459
863.24	4748
863.372	4344
863.504	4394
863.636	4405
863.768	4459
863.9	4440
864.032	4333
864.164	4371
864.296	4447
864.428	4550
864.559	4550
864.691	4538
864.823	4550
864.954	4470
865.086	4428
865.217	4409
865.349	4402
865.48	4432
865.612	4481
865.743	4550
865.875	4478
866.006	4428
866.137	4459
866.269	4417
866.4	4402
866.531	4451
866.662	4390
866.793	4383
866.924	4379
867.055	4481
867.186	4424
867.317	4440
867.448	4367
867.579	4379
867.71	4394
867.841	4348
867.972	4459
868.103	4436
868.233	4432
868.364	4443
868.495	4470
868.625	4687
868.756	4736
868.886	4588
869.017	4649
869.147	4793
869.278	4755
869.408	4672
869.539	4618
869.669	4717
869.799	4641
869.929	4755
870.06	4702
870.19	4908
870.32	4900
870.45	4942
870.58	5022
870.71	5094
870.84	5056
870.97	4854
871.1	4915
871.23	5162
871.36	5098
871.489	5014
871.619	5098
871.749	5113
871.879	5102
872.008	5155
872.138	5037
872.267	4984
872.397	4831
872.526	4847
872.656	4729
872.785	4805
872.915	4968
873.044	4980
873.173	4934
873.303	4976
873.432	5003
873.561	4976
873.69	4938
873.819	4858
873.948	4885
874.077	4812
874.206	4736
874.335	4774
874.464	4949
874.593	5045
874.722	4972
874.851	5124
874.979	5033
875.108	4987
875.237	4911
875.365	4904
875.494	4866
875.623	5014
875.751	4824
875.88	4911
876.008	4930
876.136	5060
876.265	5140
876.393	5337
876.521	5269
876.65	5220
876.778	5117
876.906	5079
877.034	5014
877.162	5086
877.29	5006
877.418	5079
877.546	5067
877.674	5079
877.802	5033
877.93	5022
878.058	4930
878.185	4862
878.313	4900
878.441	4930
878.568	4828
878.696	4828
878.824	4968
878.951	5037
879.079	5094
879.206	5307
879.333	5136
879.461	4949
879.588	5037
879.715	5121
879.842	5242
879.97	4987
880.097	4763
880.224	4729
880.351	4763
880.478	4847
880.605	4812
880.732	4820
880.859	5064
880.986	4908
881.112	4908
881.239	4816
881.366	4637
881.493	4634
881.619	4588
881.746	4641
881.872	4626
881.999	4656
882.125	4691
882.252	4774
882.378	4782
882.505	4949
882.631	4793
882.757	4634
882.883	4687
883.01	4733
883.136	4656
883.262	4603
883.388	4569
883.514	4816
883.64	4877
883.766	4816
883.892	4694
884.018	4679
884.143	4885
884.269	4987
884.395	4698
884.52	4649
884.646	4664
884.772	4592
884.897	4527
885.023	4645
885.148	4828
885.274	4889
885.399	4824
885.524	4679
885.65	4675
885.775	4759
885.9	4698
886.025	4812
886.15	4752
886.275	4683
886.4	4645
886.525	4771
886.65	4660
886.775	4691
886.9	4873
887.025	5003
887.149	4812
887.274	4672
887.399	4580
887.523	4596
887.648	4569
887.773	4546
887.897	4706
888.021	4778
888.146	4653
888.27	4839
888.395	4873
888.519	4797
888.643	4801
888.767	4877
888.891	4641
889.015	4599
889.139	4626
889.263	4634
889.387	4759
889.511	4892
889.635	4782
889.759	4580
889.883	4641
890.006	4774
890.13	4824
890.254	4596
890.377	4729
890.501	4535
890.624	4478
890.748	4645
890.871	4512
890.995	4443
891.118	4390
891.241	4512
891.364	4535
891.488	4637
891.611	4519
891.734	4550
891.857	4584
891.98	4531
892.103	4679
892.226	4588
892.349	4561
892.471	4447
892.594	4573
892.717	4573
892.839	4542
892.962	4573
893.085	4653
893.207	4558
893.33	4474
893.452	4535
893.575	4687
893.697	4599
893.819	4812
893.941	4824
894.064	4752
894.186	4565
894.308	4542
894.43	4691
894.552	4778
894.674	4759
894.796	4565
894.918	4580
895.04	4565
895.161	4694
895.283	4675
895.405	4535
895.526	4649
895.648	4656
895.769	4679
895.891	4694
896.012	4755
896.134	4702
896.255	4683
896.376	4679
896.498	4584
896.619	4698
896.74	4573
896.861	4668
896.982	4889
897.103	5056
897.224	4831
897.345	4721
897.466	4660
897.587	4717
897.708	4862
897.828	4759
897.949	4679
898.07	4561
898.19	4656
898.311	4797
898.431	4637
898.552	4698
898.672	4797
898.792	4812
898.913	4752
899.033	4641
899.153	4508
899.273	4398
899.393	4493
899.513	4580
899.633	4535
899.753	4542
899.873	4523
899.993	4550
900.113	4584
900.232	4573
900.352	4558
900.472	4493
900.591	4379
900.711	4470
900.83	4474
900.95	4588
901.069	4649
901.189	4546
901.308	4352
901.427	4310
901.546	4375
901.665	4489
901.784	4538
901.904	4402
902.023	4306
902.141	4181
902.26	4166
902.379	4303
902.498	4211
902.617	4310
902.735	4352
902.854	4371
902.973	4287
903.091	4188
903.21	4310
903.328	4322
903.446	4272
903.565	4211
903.683	4371
903.801	4299
903.919	4413
904.038	4474
904.156	4310
904.274	4436
904.392	4390
904.51	4466
904.627	4455
904.745	4561
904.863	4664
904.981	4375
905.098	4272
905.216	4383
905.334	4413
905.451	4447
905.569	4474
905.686	4546
905.803	4592
905.921	4409
906.038	4588
906.155	4455
906.272	4409
906.389	4459
906.506	4299
906.623	4394
906.74	4383
906.857	4333
906.974	4333
907.091	4538
907.208	4691
907.324	4554
907.441	4478
907.557	4375
907.674	4299
907.79	4322
907.907	4413
908.023	4474
908.139	4508
908.256	4424
908.372	4500
908.488	4459
908.604	4337
908.72	4322
908.836	4402
908.952	4405
909.068	4390
909.184	4596
909.3	4462
909.415	4596
909.531	4531
909.647	4356
909.762	4356
909.878	4318
909.993	4390
910.108	4405
910.224	4424
910.339	4493
910.454	4367
910.57	4390
910.685	4363
910.8	4714
910.915	4618
911.03	4512
911.145	4299
911.259	4367
911.374	4329
911.489	4265
911.604	4249
911.718	4173
911.833	4162
911.947	4074
912.062	4021
912.176	4158
912.291	4207
912.405	4246
912.519	4455
912.633	4478
912.748	4386
912.862	4314
912.976	4181
913.09	4063
913.204	4177
913.318	4238
913.431	4394
913.545	4383
913.659	4383
913.772	4348
913.886	4227
914	4234
914.113	4386
914.226	4466
914.34	4341
914.453	4249
914.566	4417
914.68	4268
914.793	4318
914.906	4162
915.019	4131
915.132	4086
915.245	4188
915.358	4185
915.47	4223
915.583	4261
915.696	4272
915.809	4360
915.921	4443
916.034	4211
916.146	4227
916.259	4219
916.371	4348
916.483	4344
916.595	4261
916.708	4314
916.82	4295
916.932	4314
917.044	4375
917.156	4363
917.268	4219
917.38	4310
917.491	4276
917.603	4310
917.715	4432
917.826	4409
917.938	4344
918.049	4230
918.161	4379
918.272	4497
918.384	4561
918.495	4421
918.606	4303
918.717	4246
918.828	4356
918.939	4360
919.05	4234
919.161	4306
919.272	4120
919.383	4257
919.494	4424
919.604	4599
919.715	4489
919.826	4303
919.936	4383
920.047	4527
920.157	4519
920.267	4721
920.378	4554
920.488	4436
920.598	4767
920.708	4892
920.818	4790
920.928	4691
921.038	4919
921.148	4991
921.258	4637
921.368	4546
921.477	4470
921.587	4459
921.697	4367
921.806	4512
921.916	4432
922.025	4215
922.134	4246
922.244	4166
922.353	4318
922.462	4177
922.571	4124
922.68	4006
922.789	3975
922.898	4059
923.007	3994
923.116	4105
923.224	4078
923.333	4086
923.442	3991
923.55	4017
923.659	4021
923.767	4090
923.876	3991
923.984	4135
924.092	3964
924.201	4093
924.309	4109
924.417	4097
924.525	4044
924.633	4116
924.741	5064
924.849	3903
924.956	4086
925.064	3991
925.172	3915
925.279	3956
925.387	4036
925.494	4025
925.602	4204
925.709	4139
925.816	4044
925.924	4166
926.031	4215
926.138	4139
926.245	4200
926.352	4120
926.459	4249
926.566	4333
926.673	4128
926.779	4078
926.886	4051
926.993	3998
927.099	3960
927.206	3941
927.312	3880
927.419	4055
927.525	4006
927.631	4051
927.737	3968
927.843	3956
927.95	3835
928.056	3941
928.162	3941
928.267	4044
928.373	4592
928.479	4112
928.585	3812
928.69	4017
928.796	4029
928.901	3941
929.007	3876
929.112	3998
929.218	3949
929.323	3972
929.428	3934
929.533	4093
929.638	3915
929.743	3937
929.848	4032
929.953	4006
930.058	3911
930.163	3766
930.267	3835
930.372	3968
930.477	3831
930.581	4086
930.685	3964
930.79	3838
930.894	3934
930.998	3873
931.103	4025
931.207	3728
931.311	3679
931.415	3682
931.519	3545
931.623	3530
