Data from test_V78500241_2158.txt Node
Date: Fri Mar 25 17:04:00 CST 2022
User: usil
Spectrometer: V785-0024
Trigger mode: 0
Integration Time (sec): 4.000000E-1
Scans to average: 1
Nonlinearity correction enabled: false
Boxcar width: 0
Storing dark spectrum: false
XAxis mode: Wavelengths
Number of Pixels in Spectrum: 1024
>>>>>Begin Spectral Data<<<<<
801.071	7986
801.214	8008
801.356	7902
801.499	7807
801.641	7799
801.783	7822
801.926	7982
802.068	7925
802.211	8046
802.353	8016
802.496	7833
802.638	7849
802.78	7864
802.923	7883
803.065	7830
803.208	7833
803.35	7967
803.492	8054
803.635	8149
803.777	8054
803.919	8119
804.061	8457
804.204	8202
804.346	8039
804.488	7894
804.63	8126
804.773	8001
804.915	8119
805.057	8256
805.199	8149
805.341	8183
805.483	8282
805.626	8240
805.768	8107
805.91	8183
806.052	8252
806.194	8100
806.336	8237
806.478	8058
806.62	8062
806.762	8103
806.904	8210
807.046	8404
807.188	8320
807.33	8301
807.472	8351
807.614	8187
807.756	8100
807.898	8035
808.04	7864
808.182	7826
808.324	7807
808.465	7909
808.607	8035
808.749	8081
808.891	8275
809.033	8320
809.174	8130
809.316	8107
809.458	8115
809.6	8058
809.741	8084
809.883	8005
810.025	8096
810.166	8031
810.308	8024
810.45	8016
810.591	7822
810.733	7708
810.875	7620
811.016	7499
811.158	7491
811.299	7571
811.441	7643
811.582	7685
811.724	7567
811.865	7506
812.007	7552
812.148	7567
812.29	7655
812.431	7814
812.573	7856
812.714	7925
812.855	8130
812.997	8187
813.138	8290
813.279	8157
813.421	7982
813.562	7947
813.703	7826
813.845	7696
813.986	7502
814.127	7305
814.268	7263
814.41	7171
814.551	7103
814.692	7213
814.833	7141
814.974	7103
815.115	7065
815.256	7034
815.397	6954
815.539	6909
815.68	6821
815.821	6852
815.962	6852
816.103	6798
816.244	6715
816.385	6608
816.526	6540
816.666	6486
816.807	6289
816.948	6460
817.089	6517
817.23	6403
817.371	6334
817.512	6380
817.653	6372
817.793	6308
817.934	6407
818.075	6471
818.216	6399
818.356	6433
818.497	6232
818.638	6163
818.778	6148
818.919	6182
819.06	6129
819.2	6331
819.341	6372
819.481	6403
819.622	6528
819.762	6669
819.903	6711
820.043	6627
820.184	6616
820.324	6555
820.465	6673
820.605	6650
820.746	6650
820.886	6456
821.026	6642
821.167	6696
821.307	6837
821.447	6722
821.588	6642
821.728	6540
821.868	6486
822.008	6331
822.149	6350
822.289	6289
822.429	6136
822.569	6117
822.709	6155
822.849	5992
822.99	5893
823.13	5965
823.27	5950
823.41	5805
823.55	5786
823.69	5760
823.83	5737
823.97	5699
824.11	5543
824.25	5520
824.389	5505
824.529	5611
824.669	5577
824.809	5634
824.949	5657
825.089	5600
825.228	5558
825.368	5406
825.508	5376
825.648	5357
825.787	5379
825.927	5425
826.067	5261
826.206	5284
826.346	5360
826.485	5425
826.625	5410
826.765	5547
826.904	5463
827.044	5193
827.183	5231
827.323	5086
827.462	5250
827.601	5140
827.741	5201
827.88	5178
828.02	5090
828.159	5216
828.298	5334
828.437	5360
828.577	5261
828.716	5444
828.855	5265
828.994	5121
829.134	5178
829.273	5181
829.412	5136
829.551	5109
829.69	5201
829.829	5239
829.968	5345
830.107	5223
830.246	5254
830.385	5181
830.524	5128
830.663	5083
830.802	5018
830.941	4847
831.08	4828
831.219	4995
831.357	4965
831.496	5102
831.635	4942
831.774	4862
831.913	4866
832.051	4710
832.19	4725
832.329	4908
832.467	4736
832.606	4664
832.744	4752
832.883	4710
833.022	4733
833.16	4740
833.299	4816
833.437	4820
833.576	4870
833.714	4870
833.852	4828
833.991	4908
834.129	4965
834.267	4965
834.406	4911
834.544	4953
834.682	4968
834.821	4991
834.959	5147
835.097	4995
835.235	5102
835.373	5132
835.511	5071
835.65	4965
835.788	5014
835.926	4915
836.064	4835
836.202	4870
836.34	5151
836.478	5201
836.615	5128
836.753	5201
836.891	5311
837.029	5254
837.167	5212
837.305	5136
837.443	5181
837.58	5045
837.718	5250
837.856	5132
837.993	5174
838.131	5220
838.269	5181
838.406	5201
838.544	5151
838.681	5064
838.819	4984
838.956	4885
839.094	4896
839.231	4968
839.369	5094
839.506	5387
839.643	5296
839.781	5071
839.918	5052
840.055	5102
840.193	5102
840.33	5083
840.467	5083
840.604	5223
840.742	5421
840.879	5056
841.016	5094
841.153	5155
841.29	5349
841.427	5296
841.564	5337
841.701	5360
841.838	5292
841.975	5258
842.112	5265
842.249	5132
842.385	5117
842.522	5258
842.659	5181
842.796	5201
842.933	5124
843.069	5201
843.206	5132
843.343	5246
843.479	5269
843.616	5277
843.752	5048
843.889	5029
844.025	5204
844.162	4980
844.298	5208
844.435	5128
844.571	5090
844.708	5159
844.844	5292
844.98	5292
845.117	5292
845.253	5105
845.389	5083
845.525	5147
845.661	5136
845.798	4991
845.934	5075
846.07	5045
846.206	5231
846.342	5254
846.478	5185
846.614	5006
846.75	4965
846.886	4911
847.022	5147
847.158	5037
847.294	5105
847.429	5067
847.565	5083
847.701	5258
847.837	4866
847.972	4828
848.108	4984
848.244	4927
848.379	4752
848.515	4645
848.65	4687
848.786	4725
848.921	4782
849.057	4866
849.192	4930
849.328	4752
849.463	4866
849.598	4816
849.734	4710
849.869	4649
850.004	4607
850.14	4660
850.275	4580
850.41	4546
850.545	4531
850.68	4618
850.815	4649
850.95	4615
851.085	4831
851.22	4755
851.355	4656
851.49	4573
851.625	4550
851.76	4630
851.895	4607
852.03	4580
852.165	4630
852.299	4710
852.434	4782
852.569	4721
852.703	4797
852.838	4809
852.973	4930
853.107	4927
853.242	4748
853.376	4691
853.511	4481
853.645	4645
853.78	4847
853.914	4698
854.048	4618
854.183	4626
854.317	4729
854.451	4820
854.585	4687
854.72	4618
854.854	4702
854.988	4599
855.122	4592
855.256	4478
855.39	4660
855.524	4797
855.658	4714
855.792	4637
855.926	4710
856.06	4744
856.194	4759
856.327	4683
856.461	4596
856.595	4626
856.729	4649
856.862	4767
856.996	4679
857.13	4698
857.263	4755
857.397	4820
857.53	4630
857.664	4725
857.797	4706
857.931	4820
858.064	4729
858.197	4714
858.331	4641
858.464	4607
858.597	4535
858.731	4630
858.864	4618
858.997	4603
859.13	4618
859.263	4664
859.396	4687
859.529	4611
859.662	4519
859.795	4546
859.928	4599
860.061	4710
860.194	4763
860.327	4599
860.46	4538
860.592	4714
860.725	4668
860.858	4694
860.99	4611
861.123	4550
861.256	4519
861.388	4603
861.521	5452
861.653	4443
861.786	4459
861.918	4466
862.05	4538
862.183	4588
862.315	4622
862.447	4691
862.58	4577
862.712	4394
862.844	4329
862.976	4481
863.108	4462
863.24	4782
863.372	4310
863.504	4451
863.636	4417
863.768	4485
863.9	4424
864.032	4352
864.164	4356
864.296	4421
864.428	4550
864.559	4538
864.691	4523
864.823	4565
864.954	4493
865.086	4508
865.217	4428
865.349	4409
865.48	4493
865.612	4489
865.743	4660
865.875	4470
866.006	4417
866.137	4462
866.269	4462
866.4	4440
866.531	4432
866.662	4455
866.793	4337
866.924	4428
867.055	4417
867.186	4447
867.317	4436
867.448	4356
867.579	4371
867.71	4402
867.841	4352
867.972	4432
868.103	4432
868.233	4443
868.364	4413
868.495	4493
868.625	4656
868.756	4809
868.886	4546
869.017	4584
869.147	4710
869.278	4801
869.408	4634
869.539	4622
869.669	4672
869.799	4672
869.929	4752
870.06	4759
870.19	4923
870.32	4927
870.45	4930
870.58	5048
870.71	5048
870.84	5098
870.97	4915
871.1	4873
871.23	5105
871.36	5170
871.489	5071
871.619	5033
871.749	5052
871.879	5075
872.008	5113
872.138	4972
872.267	4965
872.397	4828
872.526	4797
872.656	4771
872.785	4839
872.915	4892
873.044	5025
873.173	4911
873.303	4965
873.432	4961
873.561	4961
873.69	4839
873.819	4797
873.948	4930
874.077	4797
874.206	4778
874.335	4793
874.464	4946
874.593	5079
874.722	4999
874.851	5113
874.979	5075
875.108	5003
875.237	4919
875.365	4881
875.494	4892
875.623	4965
875.751	4805
875.88	4889
876.008	5014
876.136	5052
876.265	5181
876.393	5307
876.521	5231
876.65	5208
876.778	5181
876.906	5121
877.034	5003
877.162	5037
877.29	5006
877.418	5060
877.546	5033
877.674	5071
877.802	5067
877.93	5029
878.058	4942
878.185	4889
878.313	4972
878.441	4892
878.568	4812
878.696	4835
878.824	4972
878.951	4987
879.079	5128
879.206	5303
879.333	5102
879.461	5018
879.588	4968
879.715	5086
879.842	5197
879.97	5025
880.097	4771
880.224	4717
880.351	4797
880.478	4805
880.605	4786
880.732	4774
880.859	5117
880.986	4877
881.112	4927
881.239	4771
881.366	4660
881.493	4599
881.619	4592
881.746	4618
881.872	4672
881.999	4675
882.125	4729
882.252	4774
882.378	4809
882.505	4976
882.631	4774
882.757	4675
882.883	4725
883.01	4744
883.136	4649
883.262	4588
883.388	4592
883.514	4858
883.64	4847
883.766	4786
883.892	4683
884.018	4710
884.143	4866
884.269	5029
884.395	4660
884.52	4637
884.646	4626
884.772	4634
884.897	4542
885.023	4683
885.148	4759
885.274	4824
885.399	4767
885.524	4740
885.65	4694
885.775	4763
885.9	4698
886.025	4850
886.15	4793
886.275	4698
886.4	4672
886.525	4691
886.65	4660
886.775	4668
886.9	4904
887.025	5041
887.149	4809
887.274	4611
887.399	4558
887.523	4641
887.648	4630
887.773	4565
887.897	4721
888.021	4744
888.146	4615
888.27	4797
888.395	4896
888.519	4812
888.643	4816
888.767	4778
888.891	4679
889.015	4592
889.139	4603
889.263	4596
889.387	4759
889.511	4850
889.635	4729
889.759	4637
889.883	4641
890.006	4729
890.13	4816
890.254	4611
890.377	4668
890.501	4538
890.624	4481
890.748	4592
890.871	4493
890.995	4375
891.118	4386
891.241	4535
891.364	4550
891.488	4645
891.611	4504
891.734	4519
891.857	4569
891.98	4558
892.103	4664
892.226	4607
892.349	4493
892.471	4440
892.594	4577
892.717	4573
892.839	4550
892.962	4558
893.085	4611
893.207	4634
893.33	4436
893.452	4497
893.575	4664
893.697	4558
893.819	4839
893.941	4843
894.064	4752
894.186	4561
894.308	4546
894.43	4698
894.552	4805
894.674	4748
894.796	4512
894.918	4599
895.04	4565
895.161	4683
895.283	4702
895.405	4580
895.526	4588
895.648	4660
895.769	4645
895.891	4687
896.012	4702
896.134	4691
896.255	4649
896.376	4558
896.498	4584
896.619	4717
896.74	4599
896.861	4664
896.982	4930
897.103	5048
897.224	4809
897.345	4736
897.466	4645
897.587	4721
897.708	4854
897.828	4790
897.949	4679
898.07	4573
898.19	4653
898.311	4854
898.431	4649
898.552	4752
898.672	4805
898.792	4755
898.913	4744
899.033	4611
899.153	4489
899.273	4443
899.393	4523
899.513	4519
899.633	4531
899.753	4558
899.873	4497
899.993	4577
900.113	4478
900.232	4584
900.352	4546
900.472	4462
900.591	4424
900.711	4474
900.83	4470
900.95	4592
901.069	4702
901.189	4485
901.308	4390
901.427	4295
901.546	4390
901.665	4478
901.784	4497
901.904	4356
902.023	4337
902.141	4219
902.26	4154
902.379	4284
902.498	4265
902.617	4257
902.735	4360
902.854	4394
902.973	4329
903.091	4143
903.21	4253
903.328	4287
903.446	4253
903.565	4268
903.683	4348
903.801	4299
903.919	4436
904.038	4405
904.156	4299
904.274	4413
904.392	4383
904.51	4352
904.627	4497
904.745	4550
904.863	4592
904.981	4390
905.098	4295
905.216	4337
905.334	4440
905.451	4447
905.569	4440
905.686	4519
905.803	4588
905.921	4398
906.038	4558
906.155	4455
906.272	4386
906.389	4462
906.506	4318
906.623	4405
906.74	4333
906.857	4333
906.974	4371
907.091	4546
907.208	4641
907.324	4577
907.441	4459
907.557	4337
907.674	4325
907.79	4322
907.907	4322
908.023	4478
908.139	4428
908.256	4405
908.372	4474
908.488	4394
908.604	4360
908.72	4383
908.836	4383
908.952	4329
909.068	4440
909.184	4558
909.3	4455
909.415	4622
909.531	4538
909.647	4352
909.762	4371
909.878	4363
909.993	4459
910.108	4375
910.224	4398
910.339	4485
910.454	4421
910.57	4337
910.685	4322
910.8	4634
910.915	4580
911.03	4478
911.145	4268
911.259	4371
911.374	4379
911.489	4280
911.604	4272
911.718	4166
911.833	4192
911.947	4086
912.062	3998
912.176	4227
912.291	4207
912.405	4246
912.519	4466
912.633	4535
912.748	4341
912.862	4386
912.976	4204
913.09	4112
913.204	4200
913.318	4242
913.431	4318
913.545	4360
913.659	4428
913.772	4383
913.886	4253
914	4246
914.113	4394
914.226	4470
914.34	4356
914.453	4227
914.566	4462
914.68	4303
914.793	4352
914.906	4154
915.019	4105
915.132	4082
915.245	4204
915.358	4162
915.47	4207
915.583	4287
915.696	4295
915.809	4356
915.921	4417
916.034	4196
916.146	4196
916.259	4242
916.371	4371
916.483	4344
916.595	4219
916.708	4284
916.82	4344
916.932	4299
917.044	4306
917.156	4299
917.268	4249
917.38	4268
917.491	4265
917.603	4398
917.715	4379
917.826	4455
917.938	4310
918.049	4253
918.161	4356
918.272	4554
918.384	4550
918.495	4451
918.606	4310
918.717	4223
918.828	4322
918.939	4318
919.05	4280
919.161	4344
919.272	4128
919.383	4223
919.494	4451
919.604	4588
919.715	4413
919.826	4329
919.936	4428
920.047	4531
920.157	4523
920.267	4694
920.378	4478
920.488	4481
920.598	4729
920.708	4881
920.818	4706
920.928	4744
921.038	4900
921.148	4889
921.258	4615
921.368	4546
921.477	4527
921.587	4451
921.697	4402
921.806	4508
921.916	4405
922.025	4207
922.134	4234
922.244	4215
922.353	4322
922.462	4230
922.571	4082
922.68	3991
922.789	3991
922.898	4010
923.007	3998
923.116	4051
923.224	4055
923.333	4063
923.442	3991
923.55	3949
923.659	4032
923.767	4109
923.876	3991
923.984	4143
924.092	4002
924.201	4048
924.309	4135
924.417	4101
924.525	4063
924.633	4120
924.741	5102
924.849	3884
924.956	4112
925.064	3960
925.172	3884
925.279	3983
925.387	4101
925.494	4048
925.602	4253
925.709	4135
925.816	4048
925.924	4147
926.031	4192
926.138	4162
926.245	4238
926.352	4078
926.459	4242
926.566	4341
926.673	4143
926.779	4063
926.886	4048
926.993	3983
927.099	3979
927.206	3949
927.312	3903
927.419	4090
927.525	4002
927.631	4071
927.737	3972
927.843	3968
927.95	3850
928.056	3937
928.162	3979
928.267	4051
928.373	4702
928.479	4101
928.585	3892
928.69	4029
928.796	4048
928.901	4013
929.007	3800
929.112	4006
929.218	3941
929.323	3926
929.428	3945
929.533	4097
929.638	3949
929.743	3941
929.848	4017
929.953	4017
930.058	3945
930.163	3800
930.267	3835
930.372	3975
930.477	3835
930.581	4120
930.685	3979
930.79	3846
930.894	3876
930.998	3865
931.103	4051
931.207	3705
931.311	3701
931.415	3652
931.519	3511
931.623	3576
