Data from test_V78500241_838.txt Node
Date: Fri Mar 25 16:54:49 CST 2022
User: usil
Spectrometer: V785-0024
Trigger mode: 0
Integration Time (sec): 4.000000E-1
Scans to average: 1
Nonlinearity correction enabled: false
Boxcar width: 0
Storing dark spectrum: false
XAxis mode: Wavelengths
Number of Pixels in Spectrum: 1024
>>>>>Begin Spectral Data<<<<<
801.071	8020
801.214	8005
801.356	7871
801.499	7841
801.641	7807
801.783	7833
801.926	7883
802.068	7909
802.211	7963
802.353	7959
802.496	7826
802.638	7875
802.78	7883
802.923	7928
803.065	7799
803.208	7940
803.35	7959
803.492	8096
803.635	8145
803.777	8043
803.919	8046
804.061	8385
804.204	8046
804.346	8016
804.488	7993
804.63	8111
804.773	7970
804.915	8046
805.057	8290
805.199	8172
805.341	8134
805.483	8225
805.626	8142
805.768	8096
805.91	8195
806.052	8221
806.194	8050
806.336	8240
806.478	8016
806.62	8039
806.762	8172
806.904	8275
807.046	8495
807.188	8317
807.33	8263
807.472	8275
807.614	8161
807.756	8126
807.898	8020
808.04	7875
808.182	7826
808.324	7841
808.465	7894
808.607	8046
808.749	8096
808.891	8195
809.033	8313
809.174	8221
809.316	8065
809.458	8065
809.6	7944
809.741	8001
809.883	7993
810.025	8001
810.166	8001
810.308	8039
810.45	8035
810.591	7883
810.733	7715
810.875	7643
811.016	7518
811.158	7434
811.299	7594
811.441	7704
811.582	7636
811.724	7567
811.865	7502
812.007	7540
812.148	7559
812.29	7609
812.431	7738
812.573	7852
812.714	7902
812.855	8073
812.997	8202
813.138	8320
813.279	8168
813.421	8103
813.562	8027
813.703	7807
813.845	7738
813.986	7487
814.127	7255
814.268	7236
814.41	7137
814.551	7095
814.692	7099
814.833	7061
814.974	7031
815.115	7149
815.256	6954
815.397	6886
815.539	6935
815.68	6802
815.821	6734
815.962	6840
816.103	6806
816.244	6768
816.385	6589
816.526	6681
816.666	6464
816.807	6224
816.948	6464
817.089	6448
817.23	6414
817.371	6353
817.512	6365
817.653	6410
817.793	6334
817.934	6422
818.075	6460
818.216	6388
818.356	6384
818.497	6182
818.638	6102
818.778	6129
818.919	6121
819.06	6076
819.2	6300
819.341	6300
819.481	6327
819.622	6528
819.762	6703
819.903	6620
820.043	6593
820.184	6570
820.324	6502
820.465	6616
820.605	6650
820.746	6547
820.886	6494
821.026	6593
821.167	6700
821.307	6791
821.447	6745
821.588	6597
821.728	6544
821.868	6452
822.008	6304
822.149	6327
822.289	6334
822.429	6133
822.569	6136
822.709	6125
822.849	5927
822.99	5927
823.13	5859
823.27	5916
823.41	5764
823.55	5741
823.69	5726
823.83	5786
823.97	5661
824.11	5543
824.25	5482
824.389	5562
824.529	5566
824.669	5566
824.809	5604
824.949	5691
825.089	5528
825.228	5558
825.368	5376
825.508	5341
825.648	5311
825.787	5322
825.927	5383
826.067	5277
826.206	5269
826.346	5372
826.485	5387
826.625	5414
826.765	5528
826.904	5452
827.044	5296
827.183	5166
827.323	5094
827.462	5269
827.601	5181
827.741	5170
827.88	5155
828.02	5136
828.159	5254
828.298	5231
828.437	5345
828.577	5227
828.716	5493
828.855	5307
828.994	5166
829.134	5162
829.273	5174
829.412	5147
829.551	5098
829.69	5155
829.829	5235
829.968	5349
830.107	5277
830.246	5235
830.385	5113
830.524	5094
830.663	5090
830.802	4949
830.941	4877
831.08	4820
831.219	4946
831.357	4976
831.496	5124
831.635	4873
831.774	4771
831.913	4812
832.051	4733
832.19	4740
832.329	4831
832.467	4702
832.606	4637
832.744	4694
832.883	4714
833.022	4752
833.16	4767
833.299	4854
833.437	4767
833.576	4797
833.714	4820
833.852	4831
833.991	4885
834.129	4949
834.267	4938
834.406	4858
834.544	5014
834.682	4949
834.821	4972
834.959	5166
835.097	4953
835.235	5162
835.373	5094
835.511	5075
835.65	5033
835.788	5010
835.926	4904
836.064	4904
836.202	4923
836.34	5147
836.478	5239
836.615	5151
836.753	5166
836.891	5288
837.029	5258
837.167	5204
837.305	5155
837.443	5162
837.58	5052
837.718	5223
837.856	5155
837.993	5151
838.131	5178
838.269	5193
838.406	5204
838.544	5159
838.681	5003
838.819	5060
838.956	4877
839.094	4873
839.231	4965
839.369	5105
839.506	5395
839.643	5254
839.781	5041
839.918	4957
840.055	5075
840.193	5006
840.33	5041
840.467	5147
840.604	5162
840.742	5410
840.879	5086
841.016	5090
841.153	5109
841.29	5326
841.427	5337
841.564	5349
841.701	5364
841.838	5288
841.975	5166
842.112	5250
842.249	5121
842.385	5056
842.522	5334
842.659	5170
842.796	5128
842.933	5197
843.069	5105
843.206	5151
843.343	5239
843.479	5212
843.616	5242
843.752	5086
843.889	4976
844.025	5239
844.162	5006
844.298	5204
844.435	5048
844.571	5045
844.708	5216
844.844	5201
844.98	5318
845.117	5311
845.253	5102
845.389	5109
845.525	5181
845.661	5159
845.798	5014
845.934	5113
846.07	4999
846.206	5212
846.342	5223
846.478	5170
846.614	5003
846.75	4972
846.886	4930
847.022	5117
847.158	5025
847.294	5048
847.429	5090
847.565	5037
847.701	5299
847.837	4847
847.972	4835
848.108	4877
848.244	4923
848.379	4812
848.515	4702
848.65	4721
848.786	4729
848.921	4786
849.057	4828
849.192	4889
849.328	4831
849.463	4862
849.598	4801
849.734	4691
849.869	4675
850.004	4634
850.14	4622
850.275	4675
850.41	4538
850.545	4558
850.68	4580
850.815	4649
850.95	4603
851.085	4790
851.22	4736
851.355	4626
851.49	4577
851.625	4607
851.76	4603
851.895	4580
852.03	4512
852.165	4626
852.299	4710
852.434	4790
852.569	4744
852.703	4782
852.838	4847
852.973	4889
853.107	4908
853.242	4771
853.376	4698
853.511	4500
853.645	4592
853.78	4801
853.914	4679
854.048	4615
854.183	4672
854.317	4702
854.451	4881
854.585	4675
854.72	4630
854.854	4717
854.988	4626
855.122	4637
855.256	4527
855.39	4645
855.524	4786
855.658	4653
855.792	4649
855.926	4668
856.06	4771
856.194	4744
856.327	4710
856.461	4618
856.595	4573
856.729	4637
856.862	4755
856.996	4649
857.13	4759
857.263	4805
857.397	4763
857.53	4649
857.664	4710
857.797	4755
857.931	4771
858.064	4687
858.197	4706
858.331	4691
858.464	4561
858.597	4504
858.731	4641
858.864	4645
858.997	4561
859.13	4649
859.263	4630
859.396	4668
859.529	4565
859.662	4577
859.795	4565
859.928	4569
860.061	4733
860.194	4771
860.327	4607
860.46	4531
860.592	4714
860.725	4702
860.858	4729
860.99	4565
861.123	4516
861.256	4493
861.388	4580
861.521	5307
861.653	4497
861.786	4455
861.918	4440
862.05	4474
862.183	4546
862.315	4592
862.447	4649
862.58	4535
862.712	4363
862.844	4344
862.976	4478
863.108	4405
863.24	4748
863.372	4341
863.504	4421
863.636	4409
863.768	4462
863.9	4413
864.032	4417
864.164	4424
864.296	4447
864.428	4550
864.559	4565
864.691	4504
864.823	4531
864.954	4470
865.086	4489
865.217	4459
865.349	4417
865.48	4462
865.612	4500
865.743	4641
865.875	4459
866.006	4417
866.137	4398
866.269	4409
866.4	4390
866.531	4386
866.662	4371
866.793	4360
866.924	4402
867.055	4478
867.186	4459
867.317	4421
867.448	4409
867.579	4371
867.71	4409
867.841	4402
867.972	4432
868.103	4390
868.233	4394
868.364	4447
868.495	4474
868.625	4649
868.756	4729
868.886	4558
869.017	4615
869.147	4812
869.278	4740
869.408	4615
869.539	4618
869.669	4714
869.799	4630
869.929	4778
870.06	4721
870.19	4938
870.32	4934
870.45	4957
870.58	4961
870.71	5075
870.84	5060
870.97	4949
871.1	4870
871.23	5086
871.36	5132
871.489	5003
871.619	5067
871.749	5079
871.879	5113
872.008	5170
872.138	5045
872.267	4930
872.397	4862
872.526	4786
872.656	4698
872.785	4831
872.915	4946
873.044	5025
873.173	4919
873.303	4984
873.432	4942
873.561	4965
873.69	4858
873.819	4881
873.948	4828
874.077	4774
874.206	4702
874.335	4801
874.464	4911
874.593	5071
874.722	4953
874.851	5094
874.979	5071
875.108	5025
875.237	4942
875.365	4892
875.494	4927
875.623	4991
875.751	4835
875.88	4858
876.008	5041
876.136	4961
876.265	5204
876.393	5307
876.521	5212
876.65	5189
876.778	5098
876.906	5048
877.034	5025
877.162	5041
877.29	4961
877.418	5014
877.546	5022
877.674	5060
877.802	5056
877.93	4991
878.058	4930
878.185	4889
878.313	4930
878.441	4919
878.568	4778
878.696	4850
878.824	4938
878.951	4991
879.079	5071
879.206	5265
879.333	5075
879.461	4942
879.588	5003
879.715	5086
879.842	5181
879.97	5014
880.097	4793
880.224	4725
880.351	4828
880.478	4858
880.605	4782
880.732	4790
880.859	5045
880.986	4900
881.112	4881
881.239	4786
881.366	4683
881.493	4618
881.619	4561
881.746	4645
881.872	4630
881.999	4641
882.125	4691
882.252	4767
882.378	4824
882.505	4953
882.631	4828
882.757	4656
882.883	4714
883.01	4717
883.136	4641
883.262	4626
883.388	4607
883.514	4782
883.64	4847
883.766	4793
883.892	4683
884.018	4698
884.143	4885
884.269	5037
884.395	4668
884.52	4596
884.646	4660
884.772	4558
884.897	4565
885.023	4660
885.148	4744
885.274	4839
885.399	4839
885.524	4755
885.65	4694
885.775	4752
885.9	4698
886.025	4835
886.15	4771
886.275	4706
886.4	4645
886.525	4714
886.65	4706
886.775	4733
886.9	4889
887.025	5006
887.149	4797
887.274	4618
887.399	4542
887.523	4573
887.648	4603
887.773	4554
887.897	4778
888.021	4782
888.146	4668
888.27	4793
888.395	4877
888.519	4793
888.643	4820
888.767	4839
888.891	4668
889.015	4622
889.139	4626
889.263	4588
889.387	4721
889.511	4847
889.635	4793
889.759	4675
889.883	4634
890.006	4717
890.13	4820
890.254	4611
890.377	4660
890.501	4550
890.624	4542
890.748	4649
890.871	4542
890.995	4447
891.118	4360
891.241	4485
891.364	4508
891.488	4618
891.611	4493
891.734	4500
891.857	4611
891.98	4596
892.103	4626
892.226	4580
892.349	4508
892.471	4443
892.594	4523
892.717	4653
892.839	4561
892.962	4580
893.085	4702
893.207	4573
893.33	4394
893.452	4500
893.575	4615
893.697	4561
893.819	4801
893.941	4793
894.064	4831
894.186	4523
894.308	4531
894.43	4744
894.552	4816
894.674	4748
894.796	4561
894.918	4611
895.04	4577
895.161	4698
895.283	4649
895.405	4603
895.526	4603
895.648	4660
895.769	4691
895.891	4694
896.012	4672
896.134	4725
896.255	4630
896.376	4603
896.498	4592
896.619	4687
896.74	4599
896.861	4664
896.982	4877
897.103	5071
897.224	4812
897.345	4717
897.466	4626
897.587	4759
897.708	4820
897.828	4786
897.949	4672
898.07	4573
898.19	4596
898.311	4831
898.431	4679
898.552	4733
898.672	4755
898.792	4778
898.913	4698
899.033	4634
899.153	4485
899.273	4436
899.393	4478
899.513	4527
899.633	4497
899.753	4527
899.873	4485
899.993	4542
900.113	4596
900.232	4558
900.352	4512
900.472	4485
900.591	4402
900.711	4485
900.83	4367
900.95	4554
901.069	4641
901.189	4516
901.308	4348
901.427	4310
901.546	4356
901.665	4451
901.784	4462
901.904	4417
902.023	4322
902.141	4181
902.26	4173
902.379	4284
902.498	4272
902.617	4223
902.735	4421
902.854	4394
902.973	4344
903.091	4192
903.21	4204
903.328	4318
903.446	4318
903.565	4257
903.683	4329
903.801	4310
903.919	4363
904.038	4390
904.156	4261
904.274	4440
904.392	4383
904.51	4409
904.627	4436
904.745	4618
904.863	4615
904.981	4432
905.098	4284
905.216	4363
905.334	4466
905.451	4417
905.569	4424
905.686	4573
905.803	4527
905.921	4417
906.038	4512
906.155	4451
906.272	4367
906.389	4432
906.506	4337
906.623	4337
906.74	4402
906.857	4287
906.974	4337
907.091	4569
907.208	4683
907.324	4645
907.441	4436
907.557	4299
907.674	4356
907.79	4295
907.907	4337
908.023	4447
908.139	4462
908.256	4470
908.372	4451
908.488	4409
908.604	4325
908.72	4291
908.836	4379
908.952	4318
909.068	4447
909.184	4561
909.3	4485
909.415	4580
909.531	4550
909.647	4367
909.762	4383
909.878	4325
909.993	4451
910.108	4417
910.224	4386
910.339	4470
910.454	4398
910.57	4379
910.685	4314
910.8	4672
910.915	4603
911.03	4474
911.145	4352
911.259	4341
911.374	4341
911.489	4314
911.604	4242
911.718	4166
911.833	4196
911.947	4055
912.062	4029
912.176	4162
912.291	4215
912.405	4207
912.519	4421
912.633	4512
912.748	4371
912.862	4249
912.976	4200
913.09	4120
913.204	4124
913.318	4238
913.431	4333
913.545	4344
913.659	4405
913.772	4360
913.886	4207
914	4223
914.113	4363
914.226	4413
914.34	4398
914.453	4215
914.566	4443
914.68	4291
914.793	4306
914.906	4166
915.019	4173
915.132	4128
915.245	4177
915.358	4192
915.47	4158
915.583	4253
915.696	4287
915.809	4383
915.921	4398
916.034	4257
916.146	4230
916.259	4215
916.371	4375
916.483	4375
916.595	4242
916.708	4295
916.82	4287
916.932	4348
917.044	4322
917.156	4375
917.268	4234
917.38	4314
917.491	4249
917.603	4363
917.715	4474
917.826	4405
917.938	4310
918.049	4268
918.161	4367
918.272	4573
918.384	4527
918.495	4421
918.606	4303
918.717	4284
918.828	4352
918.939	4375
919.05	4257
919.161	4329
919.272	4101
919.383	4207
919.494	4428
919.604	4618
919.715	4462
919.826	4363
919.936	4409
920.047	4527
920.157	4451
920.267	4702
920.378	4519
920.488	4512
920.598	4714
920.708	4927
920.818	4744
920.928	4748
921.038	4961
921.148	4850
921.258	4630
921.368	4531
921.477	4485
921.587	4451
921.697	4402
921.806	4516
921.916	4432
922.025	4223
922.134	4204
922.244	4215
922.353	4299
922.462	4139
922.571	4143
922.68	3975
922.789	3964
922.898	4010
923.007	4002
923.116	4082
923.224	3994
923.333	4048
923.442	3953
923.55	3964
923.659	3998
923.767	4082
923.876	4013
923.984	4105
924.092	3975
924.201	4074
924.309	4097
924.417	4116
924.525	4063
924.633	4112
924.741	4885
924.849	3880
924.956	4124
925.064	3968
925.172	3907
925.279	3937
925.387	4078
925.494	4048
925.602	4230
925.709	4196
925.816	4010
925.924	4147
926.031	4223
926.138	4166
926.245	4238
926.352	4074
926.459	4234
926.566	4352
926.673	4128
926.779	4101
926.886	4059
926.993	3998
927.099	3956
927.206	3949
927.312	3918
927.419	4086
927.525	3994
927.631	4097
927.737	3964
927.843	3911
927.95	3888
928.056	3972
928.162	3956
928.267	4048
928.373	4702
928.479	4078
928.585	3873
928.69	3975
928.796	4051
928.901	3979
929.007	3827
929.112	4040
929.218	3968
929.323	3896
929.428	3899
929.533	4082
929.638	3903
929.743	3960
929.848	4017
929.953	4021
930.058	3911
930.163	3778
930.267	3812
930.372	3945
930.477	3789
930.581	4051
930.685	3953
930.79	3823
930.894	3918
930.998	3800
931.103	4059
931.207	3724
931.311	3717
931.415	3663
931.519	3485
931.623	3553
