Data from test_V78500241_953.txt Node
Date: Fri Mar 25 16:55:37 CST 2022
User: usil
Spectrometer: V785-0024
Trigger mode: 0
Integration Time (sec): 4.000000E-1
Scans to average: 1
Nonlinearity correction enabled: false
Boxcar width: 0
Storing dark spectrum: false
XAxis mode: Wavelengths
Number of Pixels in Spectrum: 1024
>>>>>Begin Spectral Data<<<<<
801.071	8062
801.214	8043
801.356	7906
801.499	7811
801.641	7776
801.783	7826
801.926	7967
802.068	7909
802.211	7986
802.353	7909
802.496	7776
802.638	7833
802.78	7868
802.923	7883
803.065	7890
803.208	7868
803.35	7986
803.492	8126
803.635	8153
803.777	7944
803.919	8142
804.061	8393
804.204	8107
804.346	8081
804.488	7982
804.63	8100
804.773	8058
804.915	8111
805.057	8256
805.199	8221
805.341	8244
805.483	8225
805.626	8119
805.768	8115
805.91	8191
806.052	8199
806.194	8123
806.336	8313
806.478	8046
806.62	8058
806.762	8214
806.904	8237
807.046	8457
807.188	8381
807.33	8294
807.472	8259
807.614	8153
807.756	8084
807.898	8054
808.04	7940
808.182	7849
808.324	7875
808.465	7955
808.607	8024
808.749	8081
808.891	8176
809.033	8259
809.174	8195
809.316	8020
809.458	8062
809.6	7902
809.741	8031
809.883	8096
810.025	8077
810.166	8103
810.308	7944
810.45	8012
810.591	7978
810.733	7738
810.875	7605
811.016	7472
811.158	7426
811.299	7571
811.441	7658
811.582	7700
811.724	7540
811.865	7480
812.007	7514
812.148	7537
812.29	7586
812.431	7666
812.573	7837
812.714	7940
812.855	8134
812.997	8221
813.138	8377
813.279	8218
813.421	8142
813.562	7974
813.703	7917
813.845	7757
813.986	7468
814.127	7251
814.268	7225
814.41	7171
814.551	7122
814.692	7137
814.833	7000
814.974	7084
815.115	7175
815.256	6951
815.397	6913
815.539	6909
815.68	6852
815.821	6806
815.962	6871
816.103	6833
816.244	6722
816.385	6616
816.526	6703
816.666	6502
816.807	6292
816.948	6418
817.089	6475
817.23	6471
817.371	6376
817.512	6429
817.653	6426
817.793	6391
817.934	6372
818.075	6433
818.216	6410
818.356	6372
818.497	6205
818.638	6106
818.778	6155
818.919	6155
819.06	6163
819.2	6311
819.341	6323
819.481	6319
819.622	6551
819.762	6768
819.903	6677
820.043	6551
820.184	6574
820.324	6563
820.465	6658
820.605	6684
820.746	6620
820.886	6486
821.026	6593
821.167	6646
821.307	6753
821.447	6665
821.588	6654
821.728	6597
821.868	6513
822.008	6357
822.149	6365
822.289	6346
822.429	6171
822.569	6060
822.709	6117
822.849	5904
822.99	5893
823.13	5904
823.27	5893
823.41	5767
823.55	5813
823.69	5760
823.83	5802
823.97	5619
824.11	5501
824.25	5501
824.389	5482
824.529	5592
824.669	5467
824.809	5596
824.949	5623
825.089	5551
825.228	5547
825.368	5417
825.508	5345
825.648	5303
825.787	5364
825.927	5360
826.067	5330
826.206	5250
826.346	5395
826.485	5387
826.625	5402
826.765	5501
826.904	5493
827.044	5288
827.183	5197
827.323	5132
827.462	5242
827.601	5208
827.741	5178
827.88	5189
828.02	5071
828.159	5235
828.298	5273
828.437	5345
828.577	5212
828.716	5471
828.855	5265
828.994	5136
829.134	5151
829.273	5193
829.412	5109
829.551	5060
829.69	5159
829.829	5265
829.968	5341
830.107	5265
830.246	5307
830.385	5235
830.524	5124
830.663	5048
830.802	5003
830.941	4900
831.08	4858
831.219	4972
831.357	4942
831.496	5147
831.635	4942
831.774	4839
831.913	4831
832.051	4736
832.19	4645
832.329	4797
832.467	4660
832.606	4615
832.744	4729
832.883	4721
833.022	4679
833.16	4778
833.299	4759
833.437	4797
833.576	4801
833.714	4866
833.852	4870
833.991	4873
834.129	4934
834.267	4908
834.406	4900
834.544	4946
834.682	4938
834.821	5018
834.959	5140
835.097	5006
835.235	5098
835.373	5067
835.511	5124
835.65	5045
835.788	5003
835.926	4919
836.064	4911
836.202	4858
836.34	5128
836.478	5235
836.615	5094
836.753	5185
836.891	5311
837.029	5227
837.167	5166
837.305	5128
837.443	5090
837.58	5071
837.718	5174
837.856	5140
837.993	5128
838.131	5212
838.269	5147
838.406	5132
838.544	5159
838.681	5037
838.819	4991
838.956	4927
839.094	4892
839.231	4995
839.369	5048
839.506	5410
839.643	5231
839.781	5102
839.918	4991
840.055	5064
840.193	5083
840.33	5083
840.467	5128
840.604	5178
840.742	5417
840.879	5105
841.016	5083
841.153	5105
841.29	5353
841.427	5265
841.564	5280
841.701	5353
841.838	5254
841.975	5273
842.112	5246
842.249	5155
842.385	5143
842.522	5334
842.659	5197
842.796	5124
842.933	5140
843.069	5147
843.206	5162
843.343	5303
843.479	5220
843.616	5239
843.752	5022
843.889	5022
844.025	5178
844.162	4972
844.298	5231
844.435	5033
844.571	5048
844.708	5147
844.844	5261
844.98	5364
845.117	5330
845.253	5159
845.389	5094
845.525	5151
845.661	5143
845.798	5056
845.934	5124
846.07	5025
846.206	5166
846.342	5284
846.478	5185
846.614	5014
846.75	4972
846.886	4915
847.022	5064
847.158	4980
847.294	5102
847.429	5102
847.565	5052
847.701	5261
847.837	4850
847.972	4790
848.108	4930
848.244	4919
848.379	4740
848.515	4729
848.65	4729
848.786	4748
848.921	4752
849.057	4870
849.192	4847
849.328	4763
849.463	4828
849.598	4786
849.734	4782
849.869	4725
850.004	4580
850.14	4630
850.275	4611
850.41	4554
850.545	4531
850.68	4592
850.815	4569
850.95	4611
851.085	4847
851.22	4755
851.355	4679
851.49	4641
851.625	4626
851.76	4599
851.895	4497
852.03	4478
852.165	4611
852.299	4725
852.434	4801
852.569	4763
852.703	4774
852.838	4835
852.973	4915
853.107	4896
853.242	4706
853.376	4637
853.511	4538
853.645	4641
853.78	4820
853.914	4687
854.048	4675
854.183	4607
854.317	4675
854.451	4858
854.585	4626
854.72	4615
854.854	4717
854.988	4554
855.122	4630
855.256	4550
855.39	4618
855.524	4782
855.658	4721
855.792	4675
855.926	4683
856.06	4793
856.194	4809
856.327	4698
856.461	4584
856.595	4630
856.729	4611
856.862	4706
856.996	4679
857.13	4687
857.263	4729
857.397	4778
857.53	4634
857.664	4710
857.797	4740
857.931	4767
858.064	4660
858.197	4721
858.331	4618
858.464	4599
858.597	4508
858.731	4626
858.864	4615
858.997	4588
859.13	4664
859.263	4653
859.396	4668
859.529	4584
859.662	4577
859.795	4550
859.928	4561
860.061	4759
860.194	4736
860.327	4565
860.46	4550
860.592	4683
860.725	4725
860.858	4675
860.99	4523
861.123	4523
861.256	4504
861.388	4580
861.521	5170
861.653	4474
861.786	4432
861.918	4421
862.05	4527
862.183	4584
862.315	4561
862.447	4641
862.58	4573
862.712	4402
862.844	4306
862.976	4478
863.108	4417
863.24	4885
863.372	4325
863.504	4409
863.636	4390
863.768	4478
863.9	4455
864.032	4379
864.164	4371
864.296	4451
864.428	4580
864.559	4584
864.691	4512
864.823	4546
864.954	4466
865.086	4516
865.217	4481
865.349	4379
865.48	4466
865.612	4466
865.743	4641
865.875	4462
866.006	4440
866.137	4443
866.269	4413
866.4	4451
866.531	4409
866.662	4398
866.793	4379
866.924	4405
867.055	4481
867.186	4455
867.317	4417
867.448	4337
867.579	4383
867.71	4363
867.841	4383
867.972	4462
868.103	4417
868.233	4443
868.364	4424
868.495	4500
868.625	4660
868.756	4763
868.886	4592
869.017	4634
869.147	4771
869.278	4759
869.408	4618
869.539	4653
869.669	4687
869.799	4683
869.929	4805
870.06	4748
870.19	4976
870.32	4870
870.45	4915
870.58	4987
870.71	5052
870.84	5083
870.97	4946
871.1	4847
871.23	5083
871.36	5136
871.489	5018
871.619	5029
871.749	5048
871.879	5121
872.008	5220
872.138	5018
872.267	5014
872.397	4831
872.526	4793
872.656	4729
872.785	4820
872.915	4965
873.044	4987
873.173	4972
873.303	4923
873.432	4961
873.561	4968
873.69	4850
873.819	4858
873.948	4870
874.077	4752
874.206	4714
874.335	4801
874.464	4892
874.593	5048
874.722	4953
874.851	5071
874.979	5041
875.108	5010
875.237	4839
875.365	4805
875.494	4885
875.623	4991
875.751	4809
875.88	4854
876.008	4987
876.136	5048
876.265	5170
876.393	5292
876.521	5220
876.65	5189
876.778	5174
876.906	5033
877.034	4972
877.162	5018
877.29	5022
877.418	5048
877.546	5067
877.674	5045
877.802	5041
877.93	4976
878.058	4987
878.185	4843
878.313	4919
878.441	4953
878.568	4812
878.696	4877
878.824	4942
878.951	4968
879.079	5109
879.206	5261
879.333	5102
879.461	4946
879.588	5018
879.715	5075
879.842	5208
879.97	5014
880.097	4797
880.224	4755
880.351	4771
880.478	4748
880.605	4790
880.732	4790
880.859	5067
880.986	4870
881.112	4934
881.239	4744
881.366	4672
881.493	4596
881.619	4588
881.746	4649
881.872	4637
881.999	4634
882.125	4679
882.252	4854
882.378	4786
882.505	4953
882.631	4778
882.757	4664
882.883	4744
883.01	4755
883.136	4653
883.262	4645
883.388	4615
883.514	4759
883.64	4801
883.766	4736
883.892	4656
884.018	4744
884.143	4873
884.269	4995
884.395	4645
884.52	4615
884.646	4596
884.772	4607
884.897	4535
885.023	4664
885.148	4774
885.274	4873
885.399	4816
885.524	4672
885.65	4702
885.775	4729
885.9	4691
886.025	4850
886.15	4816
886.275	4706
886.4	4672
886.525	4714
886.65	4698
886.775	4683
886.9	4900
887.025	5033
887.149	4831
887.274	4656
887.399	4603
887.523	4573
887.648	4565
887.773	4546
887.897	4740
888.021	4729
888.146	4645
888.27	4793
888.395	4915
888.519	4782
888.643	4809
888.767	4835
888.891	4649
889.015	4554
889.139	4698
889.263	4607
889.387	4721
889.511	4831
889.635	4767
889.759	4577
889.883	4672
890.006	4729
890.13	4797
890.254	4565
890.377	4687
890.501	4508
890.624	4519
890.748	4649
890.871	4478
890.995	4424
891.118	4394
891.241	4523
891.364	4554
891.488	4607
891.611	4478
891.734	4485
891.857	4618
891.98	4538
892.103	4656
892.226	4660
892.349	4538
892.471	4405
892.594	4531
892.717	4630
892.839	4596
892.962	4592
893.085	4645
893.207	4561
893.33	4432
893.452	4542
893.575	4626
893.697	4565
893.819	4706
893.941	4828
894.064	4755
894.186	4561
894.308	4569
894.43	4740
894.552	4805
894.674	4736
894.796	4561
894.918	4592
895.04	4550
895.161	4755
895.283	4672
895.405	4531
895.526	4630
895.648	4702
895.769	4687
895.891	4698
896.012	4752
896.134	4656
896.255	4675
896.376	4618
896.498	4618
896.619	4645
896.74	4588
896.861	4641
896.982	4908
897.103	5128
897.224	4771
897.345	4721
897.466	4714
897.587	4706
897.708	4862
897.828	4790
897.949	4698
898.07	4561
898.19	4630
898.311	4755
898.431	4698
898.552	4752
898.672	4767
898.792	4778
898.913	4767
899.033	4588
899.153	4466
899.273	4424
899.393	4462
899.513	4550
899.633	4527
899.753	4558
899.873	4489
899.993	4569
900.113	4497
900.232	4603
900.352	4527
900.472	4478
900.591	4344
900.711	4493
900.83	4405
900.95	4588
901.069	4588
901.189	4493
901.308	4344
901.427	4272
901.546	4379
901.665	4443
901.784	4512
901.904	4383
902.023	4337
902.141	4207
902.26	4185
902.379	4352
902.498	4204
902.617	4181
902.735	4383
902.854	4379
902.973	4409
903.091	4192
903.21	4303
903.328	4261
903.446	4253
903.565	4246
903.683	4363
903.801	4234
903.919	4375
904.038	4417
904.156	4284
904.274	4428
904.392	4394
904.51	4405
904.627	4459
904.745	4580
904.863	4622
904.981	4394
905.098	4371
905.216	4356
905.334	4409
905.451	4436
905.569	4413
905.686	4519
905.803	4542
905.921	4462
906.038	4561
906.155	4478
906.272	4451
906.389	4455
906.506	4333
906.623	4337
906.74	4363
906.857	4299
906.974	4360
907.091	4531
907.208	4687
907.324	4531
907.441	4523
907.557	4329
907.674	4306
907.79	4303
907.907	4379
908.023	4519
908.139	4493
908.256	4417
908.372	4451
908.488	4440
908.604	4363
908.72	4325
908.836	4379
908.952	4367
909.068	4417
909.184	4542
909.3	4428
909.415	4599
909.531	4577
909.647	4329
909.762	4344
909.878	4341
909.993	4417
910.108	4398
910.224	4398
910.339	4481
910.454	4390
910.57	4375
910.685	4299
910.8	4641
910.915	4588
911.03	4527
911.145	4337
911.259	4333
911.374	4386
911.489	4280
911.604	4280
911.718	4166
911.833	4196
911.947	4097
912.062	4025
912.176	4227
912.291	4249
912.405	4299
912.519	4432
912.633	4489
912.748	4360
912.862	4299
912.976	4162
913.09	4124
913.204	4158
913.318	4204
913.431	4348
913.545	4375
913.659	4436
913.772	4375
913.886	4211
914	4196
914.113	4383
914.226	4428
914.34	4367
914.453	4284
914.566	4470
914.68	4287
914.793	4318
914.906	4131
915.019	4067
915.132	4112
915.245	4211
915.358	4230
915.47	4249
915.583	4272
915.696	4291
915.809	4356
915.921	4451
916.034	4238
916.146	4265
916.259	4188
916.371	4325
916.483	4371
916.595	4299
916.708	4299
916.82	4344
916.932	4299
917.044	4352
917.156	4352
917.268	4230
917.38	4303
917.491	4276
917.603	4352
917.715	4424
917.826	4455
917.938	4363
918.049	4227
918.161	4405
918.272	4538
918.384	4470
918.495	4443
918.606	4284
918.717	4207
918.828	4310
918.939	4383
919.05	4223
919.161	4306
919.272	4128
919.383	4207
919.494	4424
919.604	4584
919.715	4383
919.826	4325
919.936	4432
920.047	4497
920.157	4535
920.267	4683
920.378	4523
920.488	4500
920.598	4733
920.708	4889
920.818	4793
920.928	4778
921.038	4942
921.148	4862
921.258	4664
921.368	4542
921.477	4470
921.587	4436
921.697	4424
921.806	4516
921.916	4398
922.025	4249
922.134	4280
922.244	4196
922.353	4310
922.462	4196
922.571	4116
922.68	3994
922.789	3979
922.898	4032
923.007	3998
923.116	4063
923.224	4086
923.333	4078
923.442	3972
923.55	3991
923.659	4063
923.767	4120
923.876	4006
923.984	4109
924.092	3956
924.201	4139
924.309	4105
924.417	4135
924.525	4067
924.633	4090
924.741	5041
924.849	3922
924.956	4131
925.064	3899
925.172	3873
925.279	3949
925.387	4048
925.494	4116
925.602	4215
925.709	4166
925.816	4055
925.924	4135
926.031	4227
926.138	4131
926.245	4154
926.352	4059
926.459	4227
926.566	4303
926.673	4185
926.779	4090
926.886	4040
926.993	3998
927.099	3922
927.206	3949
927.312	3911
927.419	4059
927.525	4040
927.631	4063
927.737	3975
927.843	3918
927.95	3797
928.056	3926
928.162	3975
928.267	4021
928.373	4660
928.479	4124
928.585	3854
928.69	3968
928.796	4093
928.901	3994
929.007	3846
929.112	3994
929.218	3956
929.323	3968
929.428	3953
929.533	4101
929.638	3907
929.743	3994
929.848	4086
929.953	4013
930.058	3926
930.163	3793
930.267	3816
930.372	3960
930.477	3857
930.581	4071
930.685	3915
930.79	3800
930.894	3873
930.998	3850
931.103	4021
931.207	3705
931.311	3686
931.415	3625
931.519	3523
931.623	3549
