Data from test_V78500241_73.txt Node
Date: Fri Mar 25 16:49:30 CST 2022
User: usil
Spectrometer: V785-0024
Trigger mode: 0
Integration Time (sec): 4.000000E-1
Scans to average: 1
Nonlinearity correction enabled: false
Boxcar width: 0
Storing dark spectrum: false
XAxis mode: Wavelengths
Number of Pixels in Spectrum: 1024
>>>>>Begin Spectral Data<<<<<
801.071	8031
801.214	8084
801.356	7913
801.499	7875
801.641	7826
801.783	7913
801.926	8027
802.068	8012
802.211	8035
802.353	8035
802.496	7906
802.638	7959
802.78	7978
802.923	8077
803.065	7955
803.208	7849
803.35	8024
803.492	8088
803.635	8168
803.777	7940
803.919	8081
804.061	8423
804.204	8191
804.346	8134
804.488	7974
804.63	8126
804.773	8050
804.915	8145
805.057	8229
805.199	8168
805.341	8218
805.483	8301
805.626	8206
805.768	8145
805.91	8221
806.052	8176
806.194	8176
806.336	8309
806.478	8138
806.62	8134
806.762	8298
806.904	8259
807.046	8434
807.188	8389
807.33	8298
807.472	8351
807.614	8164
807.756	8225
807.898	7989
808.04	7925
808.182	7967
808.324	7909
808.465	7944
808.607	7993
808.749	8130
808.891	8244
809.033	8298
809.174	8202
809.316	8020
809.458	8115
809.6	7974
809.741	8043
809.883	8115
810.025	8092
810.166	8134
810.308	8065
810.45	8069
810.591	7921
810.733	7784
810.875	7662
811.016	7590
811.158	7575
811.299	7632
811.441	7712
811.582	7742
811.724	7624
811.865	7628
812.007	7636
812.148	7643
812.29	7723
812.431	7826
812.573	7955
812.714	8024
812.855	8237
812.997	8290
813.138	8400
813.279	8229
813.421	8157
813.562	7997
813.703	8005
813.845	7814
813.986	7529
814.127	7285
814.268	7285
814.41	7244
814.551	7278
814.692	7266
814.833	7160
814.974	7179
815.115	7206
815.256	6977
815.397	6943
815.539	7000
815.68	6818
815.821	6825
815.962	6871
816.103	6863
816.244	6814
816.385	6658
816.526	6635
816.666	6506
816.807	6342
816.948	6490
817.089	6486
817.23	6433
817.371	6433
817.512	6479
817.653	6429
817.793	6483
817.934	6456
818.075	6441
818.216	6506
818.356	6475
818.497	6273
818.638	6167
818.778	6258
818.919	6220
819.06	6159
819.2	6323
819.341	6399
819.481	6433
819.622	6585
819.762	6802
819.903	6719
820.043	6681
820.184	6616
820.324	6589
820.465	6734
820.605	6669
820.746	6631
820.886	6532
821.026	6700
821.167	6703
821.307	6833
821.447	6867
821.588	6719
821.728	6612
821.868	6460
822.008	6350
822.149	6475
822.289	6429
822.429	6213
822.569	6102
822.709	6144
822.849	5969
822.99	5988
823.13	5973
823.27	5954
823.41	5821
823.55	5783
823.69	5866
823.83	5790
823.97	5764
824.11	5554
824.25	5589
824.389	5646
824.529	5611
824.669	5581
824.809	5668
824.949	5680
825.089	5604
825.228	5600
825.368	5440
825.508	5425
825.648	5368
825.787	5471
825.927	5406
826.067	5372
826.206	5315
826.346	5444
826.485	5429
826.625	5429
826.765	5627
826.904	5509
827.044	5296
827.183	5216
827.323	5197
827.462	5277
827.601	5227
827.741	5239
827.88	5246
828.02	5201
828.159	5250
828.298	5376
828.437	5379
828.577	5303
828.716	5509
828.855	5353
828.994	5208
829.134	5212
829.273	5239
829.412	5204
829.551	5166
829.69	5220
829.829	5269
829.968	5341
830.107	5280
830.246	5345
830.385	5220
830.524	5117
830.663	5071
830.802	4972
830.941	4980
831.08	4862
831.219	5010
831.357	5003
831.496	5265
831.635	5006
831.774	4881
831.913	4900
832.051	4782
832.19	4748
832.329	4816
832.467	4733
832.606	4687
832.744	4744
832.883	4790
833.022	4763
833.16	4824
833.299	4862
833.437	4877
833.576	4854
833.714	4858
833.852	4900
833.991	4927
834.129	4995
834.267	4968
834.406	4934
834.544	5037
834.682	5010
834.821	4987
834.959	5239
835.097	5048
835.235	5181
835.373	5132
835.511	5147
835.65	5102
835.788	5067
835.926	4987
836.064	4892
836.202	4938
836.34	5204
836.478	5269
836.615	5140
836.753	5227
836.891	5330
837.029	5330
837.167	5231
837.305	5246
837.443	5227
837.58	5136
837.718	5353
837.856	5265
837.993	5208
838.131	5284
838.269	5242
838.406	5174
838.544	5185
838.681	5090
838.819	5045
838.956	4957
839.094	4938
839.231	5052
839.369	5090
839.506	5444
839.643	5273
839.781	5056
839.918	5025
840.055	5102
840.193	5121
840.33	5147
840.467	5181
840.604	5239
840.742	5452
840.879	5117
841.016	5124
841.153	5185
841.29	5429
841.427	5379
841.564	5391
841.701	5406
841.838	5334
841.975	5261
842.112	5318
842.249	5151
842.385	5159
842.522	5360
842.659	5174
842.796	5170
842.933	5246
843.069	5223
843.206	5162
843.343	5341
843.479	5261
843.616	5273
843.752	5045
843.889	5086
844.025	5273
844.162	5086
844.298	5220
844.435	5117
844.571	5052
844.708	5212
844.844	5349
844.98	5341
845.117	5311
845.253	5193
845.389	5140
845.525	5197
845.661	5128
845.798	5041
845.934	5162
846.07	5052
846.206	5239
846.342	5357
846.478	5197
846.614	5029
846.75	5014
846.886	4965
847.022	5166
847.158	5052
847.294	5098
847.429	5170
847.565	5083
847.701	5330
847.837	4911
847.972	4843
848.108	4961
848.244	4980
848.379	4809
848.515	4725
848.65	4698
848.786	4759
848.921	4786
849.057	4904
849.192	4953
849.328	4850
849.463	4870
849.598	4843
849.734	4782
849.869	4691
850.004	4626
850.14	4721
850.275	4634
850.41	4554
850.545	4554
850.68	4683
850.815	4645
850.95	4668
851.085	4877
851.22	4782
851.355	4725
851.49	4649
851.625	4645
851.76	4634
851.895	4550
852.03	4558
852.165	4653
852.299	4763
852.434	4771
852.569	4786
852.703	4782
852.838	4847
852.973	4953
853.107	4938
853.242	4782
853.376	4679
853.511	4588
853.645	4630
853.78	4847
853.914	4694
854.048	4698
854.183	4653
854.317	4767
854.451	4877
854.585	4698
854.72	4641
854.854	4816
854.988	4611
855.122	4683
855.256	4512
855.39	4683
855.524	4809
855.658	4729
855.792	4721
855.926	4805
856.06	4793
856.194	4816
856.327	4725
856.461	4645
856.595	4672
856.729	4622
856.862	4786
856.996	4675
857.13	4744
857.263	4767
857.397	4889
857.53	4675
857.664	4725
857.797	4778
857.931	4812
858.064	4740
858.197	4809
858.331	4717
858.464	4596
858.597	4546
858.731	4691
858.864	4645
858.997	4653
859.13	4679
859.263	4702
859.396	4736
859.529	4618
859.662	4588
859.795	4516
859.928	4679
860.061	4831
860.194	4801
860.327	4649
860.46	4615
860.592	4740
860.725	4740
860.858	4725
860.99	4596
861.123	4516
861.256	4584
861.388	4653
861.521	5299
861.653	4470
861.786	4516
861.918	4519
862.05	4535
862.183	4588
862.315	4634
862.447	4637
862.58	4603
862.712	4470
862.844	4341
862.976	4523
863.108	4462
863.24	4953
863.372	4363
863.504	4436
863.636	4443
863.768	4474
863.9	4447
864.032	4383
864.164	4379
864.296	4519
864.428	4634
864.559	4588
864.691	4546
864.823	4485
864.954	4523
865.086	4512
865.217	4466
865.349	4462
865.48	4512
865.612	4516
865.743	4641
865.875	4527
866.006	4447
866.137	4500
866.269	4451
866.4	4459
866.531	4470
866.662	4436
866.793	4424
866.924	4523
867.055	4535
867.186	4466
867.317	4421
867.448	4428
867.579	4440
867.71	4447
867.841	4428
867.972	4497
868.103	4489
868.233	4512
868.364	4451
868.495	4489
868.625	4694
868.756	4786
868.886	4580
869.017	4634
869.147	4793
869.278	4782
869.408	4672
869.539	4706
869.669	4759
869.799	4717
869.929	4752
870.06	4793
870.19	5003
870.32	5003
870.45	4938
870.58	5052
870.71	5079
870.84	5166
870.97	4896
871.1	4908
871.23	5155
871.36	5162
871.489	5048
871.619	5094
871.749	5132
871.879	5178
872.008	5189
872.138	5094
872.267	4987
872.397	4896
872.526	4881
872.656	4748
872.785	4831
872.915	5003
873.044	5045
873.173	4972
873.303	4980
873.432	5022
873.561	4980
873.69	4831
873.819	4892
873.948	4957
874.077	4873
874.206	4759
874.335	4824
874.464	4984
874.593	5094
874.722	5029
874.851	5124
874.979	5140
875.108	5064
875.237	4915
875.365	4957
875.494	4911
875.623	4995
875.751	4858
875.88	4862
876.008	4976
876.136	5052
876.265	5239
876.393	5383
876.521	5303
876.65	5231
876.778	5170
876.906	5090
877.034	5003
877.162	5056
877.29	5086
877.418	5071
877.546	5143
877.674	5056
877.802	5045
877.93	5060
878.058	4946
878.185	4915
878.313	4923
878.441	5003
878.568	4828
878.696	4919
878.824	5014
878.951	5022
879.079	5113
879.206	5345
879.333	5109
879.461	5033
879.588	4987
879.715	5105
879.842	5254
879.97	5037
880.097	4820
880.224	4710
880.351	4820
880.478	4870
880.605	4805
880.732	4820
880.859	5140
880.986	4961
881.112	4942
881.239	4812
881.366	4714
881.493	4611
881.619	4588
881.746	4664
881.872	4714
881.999	4660
882.125	4714
882.252	4824
882.378	4835
882.505	4987
882.631	4862
882.757	4691
882.883	4763
883.01	4755
883.136	4675
883.262	4634
883.388	4649
883.514	4843
883.64	4911
883.766	4801
883.892	4683
884.018	4771
884.143	4870
884.269	5048
884.395	4694
884.52	4626
884.646	4710
884.772	4580
884.897	4565
885.023	4660
885.148	4797
885.274	4858
885.399	4870
885.524	4729
885.65	4687
885.775	4763
885.9	4733
886.025	4915
886.15	4793
886.275	4778
886.4	4675
886.525	4729
886.65	4717
886.775	4702
886.9	4919
887.025	5102
887.149	4828
887.274	4702
887.399	4588
887.523	4596
887.648	4649
887.773	4588
887.897	4786
888.021	4820
888.146	4706
888.27	4854
888.395	4866
888.519	4805
888.643	4862
888.767	4911
888.891	4702
889.015	4672
889.139	4687
889.263	4607
889.387	4759
889.511	4892
889.635	4854
889.759	4656
889.883	4656
890.006	4767
890.13	4801
890.254	4637
890.377	4740
890.501	4573
890.624	4535
890.748	4664
890.871	4519
890.995	4478
891.118	4428
891.241	4535
891.364	4561
891.488	4653
891.611	4519
891.734	4573
891.857	4664
891.98	4569
892.103	4675
892.226	4634
892.349	4550
892.471	4455
892.594	4584
892.717	4622
892.839	4626
892.962	4611
893.085	4687
893.207	4672
893.33	4500
893.452	4535
893.575	4615
893.697	4607
893.819	4805
893.941	4896
894.064	4786
894.186	4607
894.308	4611
894.43	4809
894.552	4854
894.674	4835
894.796	4550
894.918	4653
895.04	4538
895.161	4725
895.283	4656
895.405	4653
895.526	4687
895.648	4714
895.769	4736
895.891	4706
896.012	4755
896.134	4748
896.255	4668
896.376	4694
896.498	4653
896.619	4729
896.74	4554
896.861	4702
896.982	4999
897.103	5140
897.224	4866
897.345	4744
897.466	4694
897.587	4744
897.708	4908
897.828	4812
897.949	4714
898.07	4588
898.19	4672
898.311	4831
898.431	4733
898.552	4752
898.672	4824
898.792	4805
898.913	4793
899.033	4691
899.153	4573
899.273	4462
899.393	4512
899.513	4565
899.633	4538
899.753	4569
899.873	4512
899.993	4592
900.113	4599
900.232	4626
900.352	4569
900.472	4531
900.591	4398
900.711	4535
900.83	4481
900.95	4645
901.069	4748
901.189	4569
901.308	4417
901.427	4341
901.546	4402
901.665	4462
901.784	4527
901.904	4409
902.023	4325
902.141	4227
902.26	4181
902.379	4341
902.498	4314
902.617	4265
902.735	4344
902.854	4409
902.973	4390
903.091	4246
903.21	4230
903.328	4325
903.446	4310
903.565	4295
903.683	4352
903.801	4280
903.919	4432
904.038	4455
904.156	4348
904.274	4455
904.392	4470
904.51	4432
904.627	4470
904.745	4569
904.863	4599
904.981	4386
905.098	4341
905.216	4371
905.334	4402
905.451	4447
905.569	4466
905.686	4603
905.803	4607
905.921	4436
906.038	4596
906.155	4550
906.272	4447
906.389	4508
906.506	4348
906.623	4390
906.74	4405
906.857	4371
906.974	4383
907.091	4550
907.208	4637
907.324	4607
907.441	4519
907.557	4348
907.674	4360
907.79	4367
907.907	4432
908.023	4500
908.139	4535
908.256	4497
908.372	4542
908.488	4474
908.604	4409
908.72	4352
908.836	4421
908.952	4394
909.068	4451
909.184	4554
909.3	4489
909.415	4622
909.531	4588
909.647	4405
909.762	4413
909.878	4344
909.993	4447
910.108	4440
910.224	4481
910.339	4519
910.454	4405
910.57	4371
910.685	4325
910.8	4683
910.915	4653
911.03	4535
911.145	4341
911.259	4363
911.374	4413
911.489	4329
911.604	4261
911.718	4200
911.833	4265
911.947	4071
912.062	4090
912.176	4257
912.291	4249
912.405	4242
912.519	4455
912.633	4542
912.748	4424
912.862	4322
912.976	4253
913.09	4101
913.204	4207
913.318	4303
913.431	4421
913.545	4421
913.659	4478
913.772	4394
913.886	4280
914	4272
914.113	4440
914.226	4462
914.34	4398
914.453	4246
914.566	4428
914.68	4341
914.793	4348
914.906	4177
915.019	4150
915.132	4090
915.245	4196
915.358	4265
915.47	4310
915.583	4303
915.696	4318
915.809	4440
915.921	4402
916.034	4310
916.146	4299
916.259	4230
916.371	4398
916.483	4409
916.595	4306
916.708	4367
916.82	4337
916.932	4367
917.044	4318
917.156	4333
917.268	4268
917.38	4322
917.491	4287
917.603	4417
917.715	4474
917.826	4497
917.938	4367
918.049	4295
918.161	4440
918.272	4569
918.384	4603
918.495	4519
918.606	4344
918.717	4276
918.828	4386
918.939	4447
919.05	4299
919.161	4314
919.272	4158
919.383	4249
919.494	4428
919.604	4653
919.715	4424
919.826	4318
919.936	4481
920.047	4542
920.157	4531
920.267	4725
920.378	4565
920.488	4535
920.598	4755
920.708	4900
920.818	4744
920.928	4801
921.038	4972
921.148	4923
921.258	4637
921.368	4588
921.477	4546
921.587	4478
921.697	4363
921.806	4573
921.916	4428
922.025	4299
922.134	4284
922.244	4246
922.353	4333
922.462	4211
922.571	4128
922.68	4051
922.789	4010
922.898	4059
923.007	3998
923.116	4128
923.224	4112
923.333	4074
923.442	3994
923.55	3991
923.659	4036
923.767	4120
923.876	4036
923.984	4162
924.092	4002
924.201	4082
924.309	4086
924.417	4158
924.525	4101
924.633	4158
924.741	4896
924.849	3945
924.956	4150
925.064	4032
925.172	3972
925.279	3945
925.387	4086
925.494	4116
925.602	4234
925.709	4223
925.816	4036
925.924	4185
926.031	4272
926.138	4177
926.245	4230
926.352	4090
926.459	4303
926.566	4310
926.673	4215
926.779	4181
926.886	4116
926.993	3998
927.099	3949
927.206	3934
927.312	3949
927.419	4036
927.525	4013
927.631	4101
927.737	3994
927.843	3991
927.95	3892
928.056	3972
928.162	3975
928.267	4055
928.373	4744
928.479	4166
928.585	3903
928.69	4063
928.796	4101
928.901	3994
929.007	3876
929.112	4021
929.218	4010
929.323	3972
929.428	4013
929.533	4158
929.638	3926
929.743	4006
929.848	4074
929.953	4044
930.058	3945
930.163	3804
930.267	3857
930.372	3968
930.477	3797
930.581	4105
930.685	3960
930.79	3850
930.894	3876
930.998	3876
931.103	4029
931.207	3743
931.311	3713
931.415	3705
931.519	3523
931.623	3599
