Data from test_V78500241_1483.txt Node
Date: Fri Mar 25 16:59:18 CST 2022
User: usil
Spectrometer: V785-0024
Trigger mode: 0
Integration Time (sec): 4.000000E-1
Scans to average: 1
Nonlinearity correction enabled: false
Boxcar width: 0
Storing dark spectrum: false
XAxis mode: Wavelengths
Number of Pixels in Spectrum: 1024
>>>>>Begin Spectral Data<<<<<
801.071	8039
801.214	7993
801.356	7875
801.499	7818
801.641	7746
801.783	7811
801.926	7944
802.068	7909
802.211	7993
802.353	7909
802.496	7841
802.638	7890
802.78	7909
802.923	7940
803.065	7822
803.208	7822
803.35	7940
803.492	8100
803.635	8164
803.777	7970
803.919	8103
804.061	8461
804.204	8111
804.346	8020
804.488	7951
804.63	8157
804.773	8031
804.915	8065
805.057	8317
805.199	8176
805.341	8229
805.483	8199
805.626	8202
805.768	8088
805.91	8210
806.052	8218
806.194	8126
806.336	8218
806.478	8088
806.62	8043
806.762	8187
806.904	8164
807.046	8499
807.188	8343
807.33	8279
807.472	8275
807.614	8172
807.756	8172
807.898	7955
808.04	7906
808.182	7849
808.324	7890
808.465	7947
808.607	8123
808.749	8111
808.891	8138
809.033	8195
809.174	8225
809.316	8081
809.458	8058
809.6	8016
809.741	8035
809.883	7997
810.025	8130
810.166	8031
810.308	7959
810.45	7993
810.591	7875
810.733	7655
810.875	7647
811.016	7510
811.158	7529
811.299	7578
811.441	7674
811.582	7628
811.724	7563
811.865	7495
812.007	7571
812.148	7571
812.29	7559
812.431	7750
812.573	7894
812.714	7940
812.855	8069
812.997	8134
813.138	8229
813.279	8214
813.421	8081
813.562	7921
813.703	7807
813.845	7700
813.986	7457
814.127	7278
814.268	7213
814.41	7206
814.551	7156
814.692	7251
814.833	7095
814.974	7069
815.115	7103
815.256	6947
815.397	6924
815.539	6947
815.68	6806
815.821	6798
815.962	6848
816.103	6802
816.244	6711
816.385	6585
816.526	6608
816.666	6563
816.807	6304
816.948	6433
817.089	6445
817.23	6433
817.371	6346
817.512	6327
817.653	6365
817.793	6418
817.934	6376
818.075	6422
818.216	6372
818.356	6395
818.497	6289
818.638	6136
818.778	6155
818.919	6159
819.06	6133
819.2	6327
819.341	6292
819.481	6346
819.622	6525
819.762	6741
819.903	6688
820.043	6623
820.184	6578
820.324	6566
820.465	6703
820.605	6696
820.746	6658
820.886	6509
821.026	6631
821.167	6707
821.307	6783
821.447	6757
821.588	6696
821.728	6544
821.868	6464
822.008	6224
822.149	6376
822.289	6391
822.429	6171
822.569	6076
822.709	6098
822.849	5935
822.99	5927
823.13	5950
823.27	5893
823.41	5813
823.55	5821
823.69	5760
823.83	5790
823.97	5676
824.11	5551
824.25	5505
824.389	5570
824.529	5589
824.669	5539
824.809	5627
824.949	5615
825.089	5611
825.228	5585
825.368	5372
825.508	5303
825.648	5353
825.787	5368
825.927	5353
826.067	5288
826.206	5296
826.346	5433
826.485	5376
826.625	5383
826.765	5551
826.904	5463
827.044	5273
827.183	5212
827.323	5086
827.462	5254
827.601	5121
827.741	5181
827.88	5227
828.02	5147
828.159	5258
828.298	5307
828.437	5372
828.577	5299
828.716	5471
828.855	5277
828.994	5159
829.134	5155
829.273	5132
829.412	5052
829.551	5143
829.69	5227
829.829	5250
829.968	5376
830.107	5273
830.246	5280
830.385	5159
830.524	5071
830.663	5064
830.802	4965
830.941	4866
831.08	4866
831.219	5033
831.357	4999
831.496	5132
831.635	4930
831.774	4862
831.913	4889
832.051	4702
832.19	4729
832.329	4820
832.467	4649
832.606	4599
832.744	4702
832.883	4721
833.022	4714
833.16	4771
833.299	4820
833.437	4828
833.576	4820
833.714	4839
833.852	4873
833.991	4862
834.129	4972
834.267	4904
834.406	4885
834.544	5014
834.682	4961
834.821	4930
834.959	5136
835.097	5014
835.235	5166
835.373	5060
835.511	5083
835.65	4987
835.788	5033
835.926	4885
836.064	4885
836.202	4923
836.34	5083
836.478	5204
836.615	5162
836.753	5189
836.891	5261
837.029	5185
837.167	5174
837.305	5151
837.443	5143
837.58	5014
837.718	5201
837.856	5140
837.993	5174
838.131	5170
838.269	5223
838.406	5170
838.544	5140
838.681	5064
838.819	5037
838.956	4900
839.094	4957
839.231	4953
839.369	5052
839.506	5417
839.643	5246
839.781	4999
839.918	5029
840.055	5109
840.193	5075
840.33	5086
840.467	5140
840.604	5181
840.742	5387
840.879	5079
841.016	5094
841.153	5113
841.29	5379
841.427	5341
841.564	5318
841.701	5303
841.838	5235
841.975	5204
842.112	5216
842.249	5151
842.385	5121
842.522	5345
842.659	5159
842.796	5079
842.933	5220
843.069	5117
843.206	5162
843.343	5318
843.479	5181
843.616	5227
843.752	4984
843.889	4995
844.025	5159
844.162	4991
844.298	5223
844.435	5052
844.571	5086
844.708	5166
844.844	5307
844.98	5357
845.117	5296
845.253	5204
845.389	5079
845.525	5128
845.661	5159
845.798	4972
845.934	5109
846.07	5060
846.206	5151
846.342	5254
846.478	5178
846.614	5025
846.75	4965
846.886	4858
847.022	5090
847.158	5003
847.294	5102
847.429	5105
847.565	5075
847.701	5341
847.837	4812
847.972	4797
848.108	4972
848.244	4953
848.379	4778
848.515	4752
848.65	4717
848.786	4748
848.921	4774
849.057	4850
849.192	4911
849.328	4824
849.463	4835
849.598	4740
849.734	4717
849.869	4675
850.004	4584
850.14	4660
850.275	4603
850.41	4519
850.545	4615
850.68	4599
850.815	4615
850.95	4588
851.085	4847
851.22	4755
851.355	4653
851.49	4588
851.625	4626
851.76	4588
851.895	4523
852.03	4542
852.165	4641
852.299	4717
852.434	4759
852.569	4729
852.703	4729
852.838	4801
852.973	4904
853.107	4854
853.242	4702
853.376	4748
853.511	4504
853.645	4599
853.78	4774
853.914	4683
854.048	4679
854.183	4641
854.317	4683
854.451	4835
854.585	4668
854.72	4618
854.854	4725
854.988	4611
855.122	4622
855.256	4523
855.39	4660
855.524	4786
855.658	4767
855.792	4683
855.926	4717
856.06	4702
856.194	4801
856.327	4694
856.461	4596
856.595	4569
856.729	4596
856.862	4752
856.996	4702
857.13	4714
857.263	4729
857.397	4820
857.53	4637
857.664	4710
857.797	4752
857.931	4752
858.064	4664
858.197	4759
858.331	4626
858.464	4599
858.597	4508
858.731	4649
858.864	4615
858.997	4577
859.13	4664
859.263	4634
859.396	4668
859.529	4592
859.662	4558
859.795	4519
859.928	4668
860.061	4721
860.194	4767
860.327	4569
860.46	4554
860.592	4691
860.725	4668
860.858	4778
860.99	4580
861.123	4500
861.256	4538
861.388	4615
861.521	5360
861.653	4512
861.786	4383
861.918	4443
862.05	4508
862.183	4546
862.315	4584
862.447	4649
862.58	4580
862.712	4379
862.844	4303
862.976	4478
863.108	4447
863.24	4710
863.372	4310
863.504	4405
863.636	4402
863.768	4474
863.9	4383
864.032	4329
864.164	4443
864.296	4459
864.428	4516
864.559	4573
864.691	4512
864.823	4508
864.954	4462
865.086	4516
865.217	4443
865.349	4409
865.48	4470
865.612	4443
865.743	4596
865.875	4428
866.006	4413
866.137	4508
866.269	4451
866.4	4424
866.531	4398
866.662	4383
866.793	4375
866.924	4440
867.055	4462
867.186	4485
867.317	4409
867.448	4367
867.579	4379
867.71	4383
867.841	4325
867.972	4417
868.103	4436
868.233	4478
868.364	4470
868.495	4478
868.625	4618
868.756	4759
868.886	4599
869.017	4653
869.147	4748
869.278	4759
869.408	4683
869.539	4611
869.669	4721
869.799	4599
869.929	4755
870.06	4744
870.19	4961
870.32	4949
870.45	4942
870.58	4980
870.71	5060
870.84	5121
870.97	4946
871.1	4881
871.23	5109
871.36	5109
871.489	4999
871.619	5033
871.749	5056
871.879	5143
872.008	5174
872.138	5064
872.267	4938
872.397	4873
872.526	4873
872.656	4740
872.785	4793
872.915	4946
873.044	5018
873.173	4908
873.303	5003
873.432	4915
873.561	4942
873.69	4809
873.819	4862
873.948	4908
874.077	4824
874.206	4748
874.335	4752
874.464	4934
874.593	5045
874.722	4987
874.851	5151
874.979	5052
875.108	5064
875.237	4892
875.365	4858
875.494	4919
875.623	4957
875.751	4801
875.88	4889
876.008	4915
876.136	5029
876.265	5204
876.393	5311
876.521	5292
876.65	5204
876.778	5166
876.906	5048
877.034	4984
877.162	5079
877.29	4911
877.418	5018
877.546	5006
877.674	5094
877.802	4991
877.93	5025
878.058	4915
878.185	4850
878.313	4949
878.441	4934
878.568	4778
878.696	4885
878.824	4904
878.951	4965
879.079	5109
879.206	5280
879.333	5109
879.461	4965
879.588	4976
879.715	5128
879.842	5212
879.97	4980
880.097	4824
880.224	4744
880.351	4835
880.478	4809
880.605	4793
880.732	4812
880.859	5056
880.986	4911
881.112	4911
881.239	4767
881.366	4706
881.493	4607
881.619	4611
881.746	4603
881.872	4683
881.999	4656
882.125	4649
882.252	4748
882.378	4767
882.505	4889
882.631	4812
882.757	4679
882.883	4744
883.01	4653
883.136	4702
883.262	4634
883.388	4637
883.514	4763
883.64	4866
883.766	4805
883.892	4687
884.018	4721
884.143	4930
884.269	4953
884.395	4637
884.52	4634
884.646	4634
884.772	4626
884.897	4561
885.023	4603
885.148	4717
885.274	4873
885.399	4843
885.524	4729
885.65	4660
885.775	4736
885.9	4683
886.025	4805
886.15	4767
886.275	4702
886.4	4653
886.525	4736
886.65	4717
886.775	4702
886.9	4896
887.025	5014
887.149	4793
887.274	4637
887.399	4588
887.523	4569
887.648	4558
887.773	4607
887.897	4694
888.021	4793
888.146	4675
888.27	4812
888.395	4892
888.519	4782
888.643	4752
888.767	4839
888.891	4717
889.015	4596
889.139	4672
889.263	4630
889.387	4774
889.511	4866
889.635	4793
889.759	4634
889.883	4664
890.006	4725
890.13	4828
890.254	4634
890.377	4687
890.501	4558
890.624	4512
890.748	4580
890.871	4512
890.995	4459
891.118	4375
891.241	4519
891.364	4493
891.488	4637
891.611	4489
891.734	4558
891.857	4615
891.98	4512
892.103	4596
892.226	4554
892.349	4538
892.471	4455
892.594	4550
892.717	4637
892.839	4554
892.962	4550
893.085	4664
893.207	4565
893.33	4459
893.452	4573
893.575	4634
893.697	4569
893.819	4816
893.941	4793
894.064	4744
894.186	4611
894.308	4592
894.43	4679
894.552	4812
894.674	4702
894.796	4508
894.918	4531
895.04	4615
895.161	4698
895.283	4660
895.405	4546
895.526	4618
895.648	4698
895.769	4683
895.891	4721
896.012	4733
896.134	4717
896.255	4675
896.376	4637
896.498	4630
896.619	4668
896.74	4622
896.861	4603
896.982	4930
897.103	5064
897.224	4824
897.345	4763
897.466	4725
897.587	4710
897.708	4881
897.828	4790
897.949	4637
898.07	4580
898.19	4634
898.311	4885
898.431	4634
898.552	4721
898.672	4831
898.792	4786
898.913	4717
899.033	4656
899.153	4512
899.273	4417
899.393	4500
899.513	4538
899.633	4497
899.753	4554
899.873	4497
899.993	4561
900.113	4523
900.232	4580
900.352	4516
900.472	4459
900.591	4436
900.711	4493
900.83	4436
900.95	4577
901.069	4653
901.189	4561
901.308	4371
901.427	4306
901.546	4428
901.665	4497
901.784	4523
901.904	4394
902.023	4318
902.141	4204
902.26	4219
902.379	4310
902.498	4192
902.617	4207
902.735	4356
902.854	4348
902.973	4310
903.091	4177
903.21	4249
903.328	4291
903.446	4234
903.565	4299
903.683	4344
903.801	4249
903.919	4394
904.038	4451
904.156	4363
904.274	4413
904.392	4432
904.51	4402
904.627	4508
904.745	4565
904.863	4668
904.981	4413
905.098	4291
905.216	4375
905.334	4402
905.451	4474
905.569	4443
905.686	4531
905.803	4554
905.921	4394
906.038	4542
906.155	4462
906.272	4333
906.389	4447
906.506	4402
906.623	4356
906.74	4421
906.857	4257
906.974	4329
907.091	4558
907.208	4622
907.324	4580
907.441	4493
907.557	4356
907.674	4310
907.79	4337
907.907	4360
908.023	4493
908.139	4462
908.256	4436
908.372	4500
908.488	4459
908.604	4341
908.72	4360
908.836	4329
908.952	4352
909.068	4398
909.184	4554
909.3	4470
909.415	4538
909.531	4542
909.647	4367
909.762	4375
909.878	4333
909.993	4436
910.108	4390
910.224	4470
910.339	4462
910.454	4352
910.57	4360
910.685	4303
910.8	4634
910.915	4596
911.03	4470
911.145	4329
911.259	4344
911.374	4367
911.489	4303
911.604	4268
911.718	4158
911.833	4246
911.947	4093
912.062	4010
912.176	4166
912.291	4265
912.405	4242
912.519	4417
912.633	4512
912.748	4325
912.862	4276
912.976	4196
913.09	4051
913.204	4207
913.318	4223
913.431	4341
913.545	4356
913.659	4481
913.772	4310
913.886	4276
914	4188
914.113	4352
914.226	4455
914.34	4356
914.453	4211
914.566	4455
914.68	4268
914.793	4280
914.906	4173
915.019	4166
915.132	4078
915.245	4173
915.358	4181
915.47	4215
915.583	4291
915.696	4280
915.809	4417
915.921	4379
916.034	4249
916.146	4249
916.259	4207
916.371	4356
916.483	4394
916.595	4253
916.708	4291
916.82	4318
916.932	4272
917.044	4325
917.156	4310
917.268	4230
917.38	4246
917.491	4284
917.603	4344
917.715	4394
917.826	4386
917.938	4348
918.049	4257
918.161	4386
918.272	4561
918.384	4516
918.495	4485
918.606	4314
918.717	4230
918.828	4337
918.939	4306
919.05	4291
919.161	4314
919.272	4093
919.383	4249
919.494	4455
919.604	4660
919.715	4409
919.826	4310
919.936	4379
920.047	4519
920.157	4481
920.267	4634
920.378	4535
920.488	4481
920.598	4714
920.708	4877
920.818	4729
920.928	4729
921.038	4911
921.148	4934
921.258	4618
921.368	4527
921.477	4451
921.587	4409
921.697	4375
921.806	4550
921.916	4409
922.025	4234
922.134	4280
922.244	4200
922.353	4318
922.462	4181
922.571	4166
922.68	3991
922.789	3972
922.898	4067
923.007	4013
923.116	4090
923.224	4029
923.333	4063
923.442	3979
923.55	3937
923.659	3968
923.767	4063
923.876	3991
923.984	4116
924.092	3956
924.201	4071
924.309	4109
924.417	4143
924.525	4040
924.633	4097
924.741	5064
924.849	3918
924.956	4116
925.064	3918
925.172	3892
925.279	3937
925.387	4029
925.494	4048
925.602	4207
925.709	4166
925.816	3991
925.924	4086
926.031	4234
926.138	4128
926.245	4230
926.352	4093
926.459	4272
926.566	4303
926.673	4131
926.779	4090
926.886	4112
926.993	3979
927.099	3994
927.206	3941
927.312	3918
927.419	4010
927.525	4055
927.631	4109
927.737	3941
927.843	3960
927.95	3865
928.056	3968
928.162	3994
928.267	4101
928.373	4603
928.479	4112
928.585	3884
928.69	4017
928.796	4105
928.901	3964
929.007	3835
929.112	3975
929.218	3987
929.323	3960
929.428	3918
929.533	4128
929.638	3911
929.743	3964
929.848	4025
929.953	3930
930.058	3918
930.163	3774
930.267	3842
930.372	3994
930.477	3800
930.581	4067
930.685	3941
930.79	3861
930.894	3892
930.998	3835
931.103	4021
931.207	3713
931.311	3698
931.415	3682
931.519	3496
931.623	3587
