Data from test_V78500241_1842.txt Node
Date: Fri Mar 25 17:01:48 CST 2022
User: usil
Spectrometer: V785-0024
Trigger mode: 0
Integration Time (sec): 4.000000E-1
Scans to average: 1
Nonlinearity correction enabled: false
Boxcar width: 0
Storing dark spectrum: false
XAxis mode: Wavelengths
Number of Pixels in Spectrum: 1024
>>>>>Begin Spectral Data<<<<<
801.071	8005
801.214	8016
801.356	7898
801.499	7890
801.641	7761
801.783	7803
801.926	8012
802.068	7944
802.211	7982
802.353	7940
802.496	7811
802.638	7879
802.78	7875
802.923	7890
803.065	7890
803.208	7849
803.35	8008
803.492	8119
803.635	8081
803.777	8054
803.919	8138
804.061	8396
804.204	8161
804.346	8062
804.488	7951
804.63	8134
804.773	8016
804.915	8115
805.057	8252
805.199	8168
805.341	8210
805.483	8271
805.626	8191
805.768	8126
805.91	8229
806.052	8195
806.194	8180
806.336	8336
806.478	8164
806.62	8107
806.762	8119
806.904	8332
807.046	8450
807.188	8431
807.33	8343
807.472	8362
807.614	8172
807.756	8138
807.898	8046
808.04	7932
808.182	7860
808.324	7902
808.465	7986
808.607	8084
808.749	8206
808.891	8214
809.033	8290
809.174	8298
809.316	8100
809.458	8065
809.6	8031
809.741	8027
809.883	8054
810.025	8123
810.166	8069
810.308	8012
810.45	7963
810.591	7803
810.733	7753
810.875	7624
811.016	7521
811.158	7491
811.299	7609
811.441	7655
811.582	7636
811.724	7563
811.865	7487
812.007	7563
812.148	7597
812.29	7639
812.431	7750
812.573	7883
812.714	8084
812.855	8172
812.997	8248
813.138	8237
813.279	8210
813.421	8043
813.562	7970
813.703	7879
813.845	7807
813.986	7339
814.127	7232
814.268	7259
814.41	7168
814.551	7187
814.692	7217
814.833	7088
814.974	7088
815.115	7168
815.256	6954
815.397	6947
815.539	6951
815.68	6825
815.821	6795
815.962	6829
816.103	6787
816.244	6684
816.385	6593
816.526	6623
816.666	6513
816.807	6369
816.948	6506
817.089	6456
817.23	6452
817.371	6369
817.512	6384
817.653	6372
817.793	6334
817.934	6429
818.075	6456
818.216	6388
818.356	6426
818.497	6201
818.638	6091
818.778	6178
818.919	6175
819.06	6155
819.2	6331
819.341	6296
819.481	6334
819.622	6517
819.762	6681
819.903	6749
820.043	6612
820.184	6570
820.324	6566
820.465	6726
820.605	6726
820.746	6673
820.886	6502
821.026	6658
821.167	6726
821.307	6795
821.447	6760
821.588	6677
821.728	6612
821.868	6498
822.008	6304
822.149	6357
822.289	6346
822.429	6182
822.569	6102
822.709	6152
822.849	5939
822.99	5969
823.13	5889
823.27	5859
823.41	5863
823.55	5805
823.69	5805
823.83	5775
823.97	5680
824.11	5520
824.25	5512
824.389	5577
824.529	5604
824.669	5532
824.809	5615
824.949	5668
825.089	5566
825.228	5611
825.368	5353
825.508	5402
825.648	5360
825.787	5326
825.927	5372
826.067	5280
826.206	5315
826.346	5433
826.485	5391
826.625	5383
826.765	5581
826.904	5459
827.044	5280
827.183	5170
827.323	5094
827.462	5227
827.601	5147
827.741	5178
827.88	5246
828.02	5151
828.159	5201
828.298	5311
828.437	5360
828.577	5299
828.716	5490
828.855	5296
828.994	5197
829.134	5124
829.273	5197
829.412	5128
829.551	5174
829.69	5208
829.829	5265
829.968	5330
830.107	5254
830.246	5307
830.385	5254
830.524	5109
830.663	5067
830.802	4987
830.941	4923
831.08	4877
831.219	4976
831.357	4957
831.496	5155
831.635	4911
831.774	4866
831.913	4858
832.051	4729
832.19	4736
832.329	4805
832.467	4744
832.606	4679
832.744	4744
832.883	4748
833.022	4755
833.16	4793
833.299	4835
833.437	4801
833.576	4847
833.714	4866
833.852	4885
833.991	4930
834.129	4934
834.267	4965
834.406	4885
834.544	5003
834.682	4953
834.821	4976
834.959	5185
835.097	4999
835.235	5159
835.373	5102
835.511	5113
835.65	5029
835.788	4968
835.926	4896
836.064	4870
836.202	4908
836.34	5159
836.478	5235
836.615	5136
836.753	5261
836.891	5280
837.029	5201
837.167	5220
837.305	5223
837.443	5170
837.58	5121
837.718	5185
837.856	5189
837.993	5128
838.131	5197
838.269	5181
838.406	5216
838.544	5223
838.681	5075
838.819	5022
838.956	4961
839.094	4892
839.231	4953
839.369	5075
839.506	5452
839.643	5307
839.781	5079
839.918	5056
840.055	5090
840.193	5109
840.33	5067
840.467	5220
840.604	5185
840.742	5444
840.879	5128
841.016	5060
841.153	5166
841.29	5334
841.427	5322
841.564	5296
841.701	5311
841.838	5280
841.975	5258
842.112	5273
842.249	5155
842.385	5124
842.522	5345
842.659	5170
842.796	5117
842.933	5189
843.069	5151
843.206	5170
843.343	5284
843.479	5273
843.616	5288
843.752	5056
843.889	4984
844.025	5227
844.162	4980
844.298	5162
844.435	5079
844.571	5079
844.708	5235
844.844	5292
844.98	5334
845.117	5303
845.253	5147
845.389	5083
845.525	5193
845.661	5140
845.798	5060
845.934	5094
846.07	5041
846.206	5223
846.342	5265
846.478	5181
846.614	5056
846.75	4984
846.886	4946
847.022	5162
847.158	5048
847.294	5060
847.429	5132
847.565	5018
847.701	5337
847.837	4847
847.972	4862
848.108	4923
848.244	4965
848.379	4778
848.515	4744
848.65	4763
848.786	4797
848.921	4748
849.057	4858
849.192	4938
849.328	4805
849.463	4820
849.598	4774
849.734	4782
849.869	4717
850.004	4675
850.14	4672
850.275	4656
850.41	4504
850.545	4561
850.68	4656
850.815	4607
850.95	4660
851.085	4835
851.22	4759
851.355	4645
851.49	4618
851.625	4622
851.76	4645
851.895	4554
852.03	4538
852.165	4618
852.299	4706
852.434	4786
852.569	4687
852.703	4782
852.838	4847
852.973	4938
853.107	4930
853.242	4748
853.376	4649
853.511	4542
853.645	4565
853.78	4809
853.914	4694
854.048	4641
854.183	4588
854.317	4710
854.451	4847
854.585	4698
854.72	4660
854.854	4733
854.988	4580
855.122	4603
855.256	4504
855.39	4714
855.524	4831
855.658	4664
855.792	4717
855.926	4717
856.06	4774
856.194	4820
856.327	4656
856.461	4622
856.595	4599
856.729	4634
856.862	4774
856.996	4634
857.13	4729
857.263	4790
857.397	4805
857.53	4653
857.664	4706
857.797	4717
857.931	4797
858.064	4687
858.197	4736
858.331	4634
858.464	4565
858.597	4504
858.731	4599
858.864	4641
858.997	4584
859.13	4675
859.263	4702
859.396	4691
859.529	4596
859.662	4558
859.795	4519
859.928	4599
860.061	4679
860.194	4736
860.327	4630
860.46	4565
860.592	4710
860.725	4725
860.858	4679
860.99	4516
861.123	4538
861.256	4558
861.388	4649
861.521	5357
861.653	4447
861.786	4421
861.918	4455
862.05	4592
862.183	4588
862.315	4558
862.447	4592
862.58	4561
862.712	4413
862.844	4333
862.976	4478
863.108	4447
863.24	4881
863.372	4352
863.504	4443
863.636	4386
863.768	4512
863.9	4440
864.032	4356
864.164	4344
864.296	4485
864.428	4527
864.559	4531
864.691	4519
864.823	4508
864.954	4489
865.086	4500
865.217	4443
865.349	4443
865.48	4478
865.612	4512
865.743	4603
865.875	4432
866.006	4459
866.137	4459
866.269	4428
866.4	4409
866.531	4447
866.662	4402
866.793	4390
866.924	4432
867.055	4470
867.186	4440
867.317	4421
867.448	4356
867.579	4390
867.71	4356
867.841	4333
867.972	4436
868.103	4440
868.233	4436
868.364	4459
868.495	4474
868.625	4675
868.756	4759
868.886	4550
869.017	4611
869.147	4763
869.278	4721
869.408	4675
869.539	4668
869.669	4733
869.799	4653
869.929	4771
870.06	4717
870.19	4930
870.32	4889
870.45	4957
870.58	5033
870.71	5060
870.84	5064
870.97	4968
871.1	4908
871.23	5170
871.36	5151
871.489	4999
871.619	5071
871.749	5102
871.879	5128
872.008	5181
872.138	5060
872.267	4976
872.397	4831
872.526	4812
872.656	4717
872.785	4748
872.915	4938
873.044	5014
873.173	4953
873.303	4949
873.432	4938
873.561	4934
873.69	4828
873.819	4847
873.948	4896
874.077	4847
874.206	4771
874.335	4805
874.464	4896
874.593	5060
874.722	4995
874.851	5056
874.979	5075
875.108	4980
875.237	4927
875.365	4873
875.494	4873
875.623	4949
875.751	4801
875.88	4900
876.008	5022
876.136	4995
876.265	5231
876.393	5345
876.521	5212
876.65	5204
876.778	5136
876.906	5083
877.034	5075
877.162	5025
877.29	4980
877.418	5033
877.546	5037
877.674	5041
877.802	5010
877.93	5022
878.058	4968
878.185	4858
878.313	4999
878.441	4934
878.568	4805
878.696	4858
878.824	4972
878.951	4976
879.079	5102
879.206	5223
879.333	5098
879.461	4957
879.588	5006
879.715	5098
879.842	5231
879.97	5025
880.097	4714
880.224	4767
880.351	4774
880.478	4778
880.605	4843
880.732	4805
880.859	5098
880.986	4873
881.112	4934
881.239	4740
881.366	4626
881.493	4596
881.619	4599
881.746	4622
881.872	4634
881.999	4641
882.125	4656
882.252	4824
882.378	4828
882.505	4968
882.631	4771
882.757	4660
882.883	4717
883.01	4748
883.136	4683
883.262	4592
883.388	4615
883.514	4786
883.64	4820
883.766	4774
883.892	4649
884.018	4698
884.143	4900
884.269	4999
884.395	4717
884.52	4615
884.646	4634
884.772	4596
884.897	4542
885.023	4645
885.148	4740
885.274	4862
885.399	4839
885.524	4717
885.65	4664
885.775	4733
885.9	4683
886.025	4866
886.15	4733
886.275	4710
886.4	4672
886.525	4694
886.65	4653
886.775	4691
886.9	4843
887.025	5060
887.149	4839
887.274	4668
887.399	4607
887.523	4573
887.648	4569
887.773	4584
887.897	4774
888.021	4786
888.146	4698
888.27	4752
888.395	4930
888.519	4816
888.643	4831
888.767	4801
888.891	4687
889.015	4603
889.139	4653
889.263	4569
889.387	4740
889.511	4828
889.635	4767
889.759	4626
889.883	4599
890.006	4778
890.13	4820
890.254	4569
890.377	4687
890.501	4554
890.624	4550
890.748	4626
890.871	4481
890.995	4447
891.118	4367
891.241	4462
891.364	4519
891.488	4649
891.611	4519
891.734	4512
891.857	4596
891.98	4634
892.103	4672
892.226	4592
892.349	4558
892.471	4451
892.594	4538
892.717	4634
892.839	4561
892.962	4580
893.085	4668
893.207	4588
893.33	4459
893.452	4516
893.575	4637
893.697	4603
893.819	4793
893.941	4805
894.064	4824
894.186	4618
894.308	4588
894.43	4714
894.552	4812
894.674	4793
894.796	4550
894.918	4535
895.04	4546
895.161	4702
895.283	4672
895.405	4580
895.526	4622
895.648	4668
895.769	4668
895.891	4706
896.012	4797
896.134	4714
896.255	4664
896.376	4668
896.498	4588
896.619	4702
896.74	4607
896.861	4694
896.982	4957
897.103	5060
897.224	4828
897.345	4752
897.466	4664
897.587	4744
897.708	4873
897.828	4744
897.949	4679
898.07	4565
898.19	4634
898.311	4843
898.431	4698
898.552	4672
898.672	4862
898.792	4763
898.913	4710
899.033	4656
899.153	4527
899.273	4375
899.393	4497
899.513	4523
899.633	4500
899.753	4550
899.873	4489
899.993	4561
900.113	4550
900.232	4584
900.352	4558
900.472	4474
900.591	4455
900.711	4451
900.83	4409
900.95	4634
901.069	4679
901.189	4603
901.308	4383
901.427	4318
901.546	4314
901.665	4470
901.784	4485
901.904	4402
902.023	4352
902.141	4188
902.26	4154
902.379	4314
902.498	4223
902.617	4162
902.735	4352
902.854	4466
902.973	4337
903.091	4181
903.21	4219
903.328	4329
903.446	4261
903.565	4257
903.683	4363
903.801	4276
903.919	4424
904.038	4455
904.156	4303
904.274	4455
904.392	4367
904.51	4421
904.627	4489
904.745	4565
904.863	4580
904.981	4405
905.098	4310
905.216	4363
905.334	4409
905.451	4405
905.569	4424
905.686	4504
905.803	4554
905.921	4409
906.038	4538
906.155	4447
906.272	4371
906.389	4443
906.506	4363
906.623	4352
906.74	4375
906.857	4253
906.974	4367
907.091	4531
907.208	4710
907.324	4588
907.441	4485
907.557	4333
907.674	4352
907.79	4299
907.907	4344
908.023	4500
908.139	4451
908.256	4383
908.372	4451
908.488	4451
908.604	4371
908.72	4306
908.836	4352
908.952	4386
909.068	4424
909.184	4573
909.3	4440
909.415	4516
909.531	4546
909.647	4363
909.762	4337
909.878	4333
909.993	4432
910.108	4424
910.224	4424
910.339	4462
910.454	4409
910.57	4348
910.685	4276
910.8	4687
910.915	4607
911.03	4485
911.145	4341
911.259	4314
911.374	4344
911.489	4318
911.604	4223
911.718	4173
911.833	4207
911.947	4059
912.062	4025
912.176	4219
912.291	4261
912.405	4158
912.519	4398
912.633	4512
912.748	4348
912.862	4310
912.976	4207
913.09	4086
913.204	4169
913.318	4238
913.431	4367
913.545	4398
913.659	4379
913.772	4325
913.886	4219
914	4185
914.113	4337
914.226	4413
914.34	4375
914.453	4230
914.566	4394
914.68	4306
914.793	4295
914.906	4135
915.019	4109
915.132	4071
915.245	4158
915.358	4207
915.47	4246
915.583	4284
915.696	4314
915.809	4424
915.921	4398
916.034	4246
916.146	4253
916.259	4246
916.371	4383
916.483	4310
916.595	4276
916.708	4337
916.82	4356
916.932	4322
917.044	4337
917.156	4375
917.268	4238
917.38	4227
917.491	4261
917.603	4379
917.715	4402
917.826	4409
917.938	4356
918.049	4185
918.161	4352
918.272	4481
918.384	4508
918.495	4421
918.606	4322
918.717	4276
918.828	4360
918.939	4375
919.05	4253
919.161	4352
919.272	4128
919.383	4261
919.494	4455
919.604	4618
919.715	4421
919.826	4329
919.936	4402
920.047	4535
920.157	4497
920.267	4740
920.378	4546
920.488	4481
920.598	4702
920.708	4870
920.818	4759
920.928	4752
921.038	4923
921.148	4927
921.258	4649
921.368	4523
921.477	4470
921.587	4489
921.697	4398
921.806	4516
921.916	4459
922.025	4280
922.134	4291
922.244	4253
922.353	4322
922.462	4219
922.571	4139
922.68	3994
922.789	3934
922.898	3979
923.007	3949
923.116	4078
923.224	4090
923.333	4074
923.442	3949
923.55	3998
923.659	4048
923.767	4040
923.876	4029
923.984	4116
924.092	3975
924.201	4097
924.309	4082
924.417	4154
924.525	4044
924.633	4131
924.741	5079
924.849	3873
924.956	4139
925.064	3960
925.172	3876
925.279	3956
925.387	4017
925.494	4048
925.602	4215
925.709	4158
925.816	4044
925.924	4131
926.031	4204
926.138	4147
926.245	4215
926.352	4105
926.459	4242
926.566	4295
926.673	4116
926.779	4105
926.886	4063
926.993	3991
927.099	3937
927.206	3907
927.312	3930
927.419	4048
927.525	3991
927.631	4097
927.737	3956
927.843	3926
927.95	3819
928.056	3949
928.162	3983
928.267	4048
928.373	4558
928.479	4120
928.585	3854
928.69	4063
928.796	4105
928.901	3937
929.007	3816
929.112	4025
929.218	3998
929.323	3907
929.428	3926
929.533	4109
929.638	3915
929.743	3930
929.848	4017
929.953	4017
930.058	3926
930.163	3793
930.267	3797
930.372	3972
930.477	3816
930.581	4071
930.685	3941
930.79	3835
930.894	3903
930.998	3835
931.103	4051
931.207	3751
931.311	3701
931.415	3682
931.519	3504
931.623	3587
