Data from test_V78500241_1190.txt Node
Date: Fri Mar 25 16:57:16 CST 2022
User: usil
Spectrometer: V785-0024
Trigger mode: 0
Integration Time (sec): 4.000000E-1
Scans to average: 1
Nonlinearity correction enabled: false
Boxcar width: 0
Storing dark spectrum: false
XAxis mode: Wavelengths
Number of Pixels in Spectrum: 1024
>>>>>Begin Spectral Data<<<<<
801.071	7982
801.214	8069
801.356	7963
801.499	7875
801.641	7708
801.783	7784
801.926	8001
802.068	7936
802.211	7963
802.353	7982
802.496	7811
802.638	7890
802.78	7955
802.923	7982
803.065	7864
803.208	7883
803.35	8027
803.492	8119
803.635	8157
803.777	8043
803.919	8126
804.061	8438
804.204	8153
804.346	8111
804.488	7993
804.63	8077
804.773	7989
804.915	8096
805.057	8305
805.199	8180
805.341	8176
805.483	8324
805.626	8195
805.768	8100
805.91	8183
806.052	8218
806.194	8123
806.336	8263
806.478	8088
806.62	8058
806.762	8142
806.904	8199
807.046	8488
807.188	8317
807.33	8309
807.472	8355
807.614	8130
807.756	8073
807.898	8024
808.04	7989
808.182	7917
808.324	7845
808.465	7925
808.607	8126
808.749	8107
808.891	8256
809.033	8237
809.174	8240
809.316	8024
809.458	8035
809.6	8027
809.741	7970
809.883	7982
810.025	8153
810.166	8088
810.308	8077
810.45	8020
810.591	7875
810.733	7723
810.875	7670
811.016	7590
811.158	7480
811.299	7544
811.441	7715
811.582	7636
811.724	7540
811.865	7491
812.007	7609
812.148	7552
812.29	7616
812.431	7693
812.573	7852
812.714	7932
812.855	8096
812.997	8130
813.138	8244
813.279	8161
813.421	8050
813.562	7921
813.703	7852
813.845	7750
813.986	7460
814.127	7228
814.268	7183
814.41	7126
814.551	7145
814.692	7160
814.833	7057
814.974	7069
815.115	7133
815.256	7015
815.397	6913
815.539	6970
815.68	6833
815.821	6776
815.962	6894
816.103	6833
816.244	6722
816.385	6696
816.526	6658
816.666	6494
816.807	6308
816.948	6422
817.089	6502
817.23	6441
817.371	6384
817.512	6403
817.653	6410
817.793	6277
817.934	6395
818.075	6376
818.216	6399
818.356	6445
818.497	6273
818.638	6087
818.778	6140
818.919	6129
819.06	6159
819.2	6323
819.341	6296
819.481	6292
819.622	6544
819.762	6719
819.903	6700
820.043	6601
820.184	6547
820.324	6563
820.465	6711
820.605	6620
820.746	6620
820.886	6486
821.026	6658
821.167	6677
821.307	6783
821.447	6768
821.588	6623
821.728	6593
821.868	6536
822.008	6369
822.149	6331
822.289	6289
822.429	6121
822.569	6034
822.709	6072
822.849	5885
822.99	5897
823.13	5889
823.27	5878
823.41	5805
823.55	5790
823.69	5756
823.83	5783
823.97	5638
824.11	5455
824.25	5455
824.389	5532
824.529	5573
824.669	5509
824.809	5604
824.949	5638
825.089	5611
825.228	5516
825.368	5315
825.508	5303
825.648	5303
825.787	5391
825.927	5364
826.067	5280
826.206	5315
826.346	5406
826.485	5376
826.625	5436
826.765	5516
826.904	5474
827.044	5254
827.183	5132
827.323	5136
827.462	5235
827.601	5181
827.741	5170
827.88	5220
828.02	5113
828.159	5239
828.298	5296
828.437	5353
828.577	5250
828.716	5455
828.855	5318
828.994	5159
829.134	5151
829.273	5174
829.412	5121
829.551	5102
829.69	5151
829.829	5246
829.968	5337
830.107	5212
830.246	5242
830.385	5147
830.524	5079
830.663	5060
830.802	4984
830.941	4850
831.08	4881
831.219	4957
831.357	4923
831.496	5136
831.635	4942
831.774	4782
831.913	4839
832.051	4672
832.19	4778
832.329	4843
832.467	4672
832.606	4626
832.744	4691
832.883	4691
833.022	4698
833.16	4786
833.299	4797
833.437	4801
833.576	4824
833.714	4824
833.852	4873
833.991	4839
834.129	5010
834.267	4942
834.406	4911
834.544	5018
834.682	4946
834.821	5010
834.959	5147
835.097	4968
835.235	5124
835.373	5094
835.511	5067
835.65	5010
835.788	5029
835.926	4885
836.064	4881
836.202	4858
836.34	5140
836.478	5223
836.615	5128
836.753	5162
836.891	5288
837.029	5189
837.167	5181
837.305	5162
837.443	5113
837.58	5083
837.718	5178
837.856	5136
837.993	5140
838.131	5216
838.269	5223
838.406	5223
838.544	5166
838.681	4968
838.819	5006
838.956	4900
839.094	4866
839.231	4968
839.369	5060
839.506	5406
839.643	5250
839.781	5075
839.918	5006
840.055	5155
840.193	5067
840.33	5155
840.467	5136
840.604	5197
840.742	5433
840.879	5105
841.016	5136
841.153	5155
841.29	5414
841.427	5337
841.564	5220
841.701	5345
841.838	5318
841.975	5265
842.112	5273
842.249	5143
842.385	5048
842.522	5326
842.659	5121
842.796	5124
842.933	5174
843.069	5121
843.206	5140
843.343	5277
843.479	5227
843.616	5265
843.752	5010
843.889	5022
844.025	5159
844.162	4999
844.298	5231
844.435	5071
844.571	5037
844.708	5201
844.844	5280
844.98	5330
845.117	5273
845.253	5140
845.389	5064
845.525	5170
845.661	5098
845.798	5018
845.934	5109
846.07	5045
846.206	5174
846.342	5299
846.478	5166
846.614	4991
846.75	4999
846.886	4942
847.022	5132
847.158	5029
847.294	5041
847.429	5064
847.565	5006
847.701	5349
847.837	4828
847.972	4801
848.108	4904
848.244	4949
848.379	4733
848.515	4698
848.65	4694
848.786	4736
848.921	4752
849.057	4866
849.192	4866
849.328	4809
849.463	4816
849.598	4755
849.734	4755
849.869	4630
850.004	4641
850.14	4660
850.275	4634
850.41	4470
850.545	4535
850.68	4634
850.815	4611
850.95	4599
851.085	4782
851.22	4733
851.355	4611
851.49	4580
851.625	4637
851.76	4592
851.895	4519
852.03	4531
852.165	4622
852.299	4706
852.434	4782
852.569	4721
852.703	4801
852.838	4843
852.973	4923
853.107	4850
853.242	4759
853.376	4675
853.511	4554
853.645	4561
853.78	4763
853.914	4714
854.048	4596
854.183	4615
854.317	4706
854.451	4850
854.585	4679
854.72	4641
854.854	4740
854.988	4607
855.122	4683
855.256	4531
855.39	4664
855.524	4801
855.658	4691
855.792	4656
855.926	4725
856.06	4744
856.194	4786
856.327	4675
856.461	4596
856.595	4626
856.729	4630
856.862	4740
856.996	4679
857.13	4698
857.263	4755
857.397	4740
857.53	4683
857.664	4748
857.797	4694
857.931	4767
858.064	4675
858.197	4733
858.331	4603
858.464	4573
858.597	4542
858.731	4611
858.864	4615
858.997	4607
859.13	4668
859.263	4645
859.396	4687
859.529	4550
859.662	4538
859.795	4516
859.928	4641
860.061	4740
860.194	4714
860.327	4580
860.46	4565
860.592	4672
860.725	4755
860.858	4725
860.99	4558
861.123	4527
861.256	4474
861.388	4584
861.521	5296
861.653	4489
861.786	4432
861.918	4413
862.05	4531
862.183	4561
862.315	4588
862.447	4679
862.58	4558
862.712	4352
862.844	4352
862.976	4481
863.108	4443
863.24	4831
863.372	4341
863.504	4386
863.636	4352
863.768	4462
863.9	4424
864.032	4344
864.164	4390
864.296	4493
864.428	4558
864.559	4523
864.691	4535
864.823	4497
864.954	4440
865.086	4504
865.217	4424
865.349	4379
865.48	4409
865.612	4451
865.743	4596
865.875	4440
866.006	4394
866.137	4485
866.269	4432
866.4	4440
866.531	4405
866.662	4363
866.793	4447
866.924	4443
867.055	4519
867.186	4462
867.317	4390
867.448	4367
867.579	4367
867.71	4398
867.841	4318
867.972	4413
868.103	4432
868.233	4447
868.364	4459
868.495	4459
868.625	4634
868.756	4736
868.886	4500
869.017	4656
869.147	4675
869.278	4752
869.408	4656
869.539	4660
869.669	4733
869.799	4668
869.929	4755
870.06	4710
870.19	4870
870.32	4911
870.45	4911
870.58	5022
870.71	5086
870.84	5048
870.97	4957
871.1	4843
871.23	5121
871.36	5079
871.489	5006
871.619	5064
871.749	5121
871.879	5124
872.008	5166
872.138	5041
872.267	4953
872.397	4824
872.526	4824
872.656	4725
872.785	4843
872.915	4930
873.044	5052
873.173	4965
873.303	4957
873.432	4957
873.561	4934
873.69	4892
873.819	4862
873.948	4919
874.077	4774
874.206	4714
874.335	4820
874.464	4938
874.593	5003
874.722	4991
874.851	5086
874.979	5033
875.108	5029
875.237	4889
875.365	4812
875.494	4870
875.623	4946
875.751	4816
875.88	4854
876.008	4980
876.136	5022
876.265	5216
876.393	5254
876.521	5246
876.65	5223
876.778	5132
876.906	5071
877.034	4991
877.162	5018
877.29	4987
877.418	5003
877.546	5075
877.674	4995
877.802	4999
877.93	5025
878.058	4889
878.185	4854
878.313	4877
878.441	4953
878.568	4816
878.696	4854
878.824	4987
878.951	4957
879.079	5124
879.206	5288
879.333	5060
879.461	4968
879.588	4980
879.715	5064
879.842	5265
879.97	4968
880.097	4782
880.224	4748
880.351	4793
880.478	4858
880.605	4839
880.732	4790
880.859	5086
880.986	4850
881.112	4908
881.239	4774
881.366	4683
881.493	4607
881.619	4607
881.746	4634
881.872	4641
881.999	4649
882.125	4675
882.252	4809
882.378	4809
882.505	4968
882.631	4778
882.757	4698
882.883	4717
883.01	4710
883.136	4656
883.262	4565
883.388	4592
883.514	4809
883.64	4885
883.766	4790
883.892	4683
884.018	4733
884.143	4885
884.269	4972
884.395	4656
884.52	4603
884.646	4618
884.772	4584
884.897	4569
885.023	4630
885.148	4790
885.274	4828
885.399	4767
885.524	4710
885.65	4752
885.775	4752
885.9	4691
886.025	4816
886.15	4812
886.275	4683
886.4	4565
886.525	4740
886.65	4687
886.775	4714
886.9	4896
887.025	5033
887.149	4801
887.274	4630
887.399	4527
887.523	4615
887.648	4550
887.773	4554
887.897	4748
888.021	4736
888.146	4691
888.27	4782
888.395	4831
888.519	4778
888.643	4771
888.767	4797
888.891	4626
889.015	4599
889.139	4599
889.263	4599
889.387	4774
889.511	4778
889.635	4744
889.759	4611
889.883	4660
890.006	4714
890.13	4828
890.254	4554
890.377	4664
890.501	4519
890.624	4516
890.748	4656
890.871	4485
890.995	4421
891.118	4375
891.241	4546
891.364	4558
891.488	4630
891.611	4481
891.734	4550
891.857	4592
891.98	4577
892.103	4660
892.226	4565
892.349	4516
892.471	4424
892.594	4535
892.717	4603
892.839	4580
892.962	4607
893.085	4653
893.207	4569
893.33	4432
893.452	4523
893.575	4645
893.697	4561
893.819	4774
893.941	4824
894.064	4790
894.186	4588
894.308	4523
894.43	4687
894.552	4786
894.674	4771
894.796	4546
894.918	4603
895.04	4558
895.161	4702
895.283	4645
895.405	4523
895.526	4675
895.648	4664
895.769	4675
895.891	4721
896.012	4755
896.134	4729
896.255	4653
896.376	4645
896.498	4615
896.619	4660
896.74	4645
896.861	4649
896.982	4934
897.103	5067
897.224	4824
897.345	4759
897.466	4675
897.587	4744
897.708	4873
897.828	4767
897.949	4611
898.07	4588
898.19	4649
898.311	4816
898.431	4634
898.552	4759
898.672	4847
898.792	4786
898.913	4706
899.033	4637
899.153	4519
899.273	4402
899.393	4474
899.513	4481
899.633	4538
899.753	4500
899.873	4497
899.993	4580
900.113	4531
900.232	4558
900.352	4508
900.472	4504
900.591	4428
900.711	4474
900.83	4375
900.95	4584
901.069	4683
901.189	4497
901.308	4356
901.427	4310
901.546	4360
901.665	4470
901.784	4462
901.904	4409
902.023	4337
902.141	4200
902.26	4135
902.379	4314
902.498	4276
902.617	4246
902.735	4333
902.854	4394
902.973	4329
903.091	4169
903.21	4223
903.328	4314
903.446	4238
903.565	4223
903.683	4337
903.801	4268
903.919	4394
904.038	4470
904.156	4344
904.274	4432
904.392	4402
904.51	4443
904.627	4447
904.745	4592
904.863	4592
904.981	4428
905.098	4284
905.216	4379
905.334	4402
905.451	4417
905.569	4451
905.686	4527
905.803	4558
905.921	4409
906.038	4538
906.155	4504
906.272	4386
906.389	4424
906.506	4386
906.623	4268
906.74	4402
906.857	4291
906.974	4306
907.091	4519
907.208	4649
907.324	4565
907.441	4478
907.557	4329
907.674	4303
907.79	4306
907.907	4428
908.023	4516
908.139	4459
908.256	4398
908.372	4428
908.488	4478
908.604	4360
908.72	4314
908.836	4371
908.952	4348
909.068	4428
909.184	4546
909.3	4466
909.415	4596
909.531	4497
909.647	4356
909.762	4337
909.878	4371
909.993	4424
910.108	4394
910.224	4398
910.339	4417
910.454	4398
910.57	4371
910.685	4303
910.8	4653
910.915	4615
911.03	4470
911.145	4318
911.259	4371
911.374	4344
911.489	4284
911.604	4322
911.718	4185
911.833	4207
911.947	4082
912.062	4013
912.176	4204
912.291	4204
912.405	4185
912.519	4470
912.633	4485
912.748	4367
912.862	4291
912.976	4188
913.09	4120
913.204	4143
913.318	4249
913.431	4375
913.545	4363
913.659	4421
913.772	4356
913.886	4284
914	4230
914.113	4367
914.226	4390
914.34	4398
914.453	4234
914.566	4417
914.68	4268
914.793	4310
914.906	4166
915.019	4139
915.132	4090
915.245	4192
915.358	4219
915.47	4223
915.583	4246
915.696	4284
915.809	4383
915.921	4413
916.034	4219
916.146	4265
916.259	4238
916.371	4318
916.483	4386
916.595	4299
916.708	4234
916.82	4295
916.932	4314
917.044	4318
917.156	4306
917.268	4257
917.38	4265
917.491	4268
917.603	4344
917.715	4417
917.826	4402
917.938	4310
918.049	4246
918.161	4386
918.272	4542
918.384	4554
918.495	4447
918.606	4272
918.717	4246
918.828	4360
918.939	4375
919.05	4257
919.161	4341
919.272	4135
919.383	4192
919.494	4413
919.604	4611
919.715	4398
919.826	4325
919.936	4360
920.047	4535
920.157	4508
920.267	4721
920.378	4561
920.488	4485
920.598	4706
920.708	4877
920.818	4767
920.928	4759
921.038	4957
921.148	4889
921.258	4596
921.368	4569
921.477	4493
921.587	4455
921.697	4352
921.806	4554
921.916	4417
922.025	4257
922.134	4246
922.244	4219
922.353	4333
922.462	4147
922.571	4112
922.68	4002
922.789	3956
922.898	4029
923.007	4017
923.116	4078
923.224	4051
923.333	4093
923.442	3998
923.55	3983
923.659	4002
923.767	4116
923.876	3987
923.984	4109
924.092	3983
924.201	4063
924.309	4086
924.417	4097
924.525	4059
924.633	4093
924.741	5075
924.849	3884
924.956	4116
925.064	3964
925.172	3937
925.279	3949
925.387	4067
925.494	4059
925.602	4234
925.709	4181
925.816	4002
925.924	4101
926.031	4181
926.138	4150
926.245	4207
926.352	4082
926.459	4196
926.566	4291
926.673	4150
926.779	4093
926.886	4059
926.993	4013
927.099	3956
927.206	3945
927.312	3918
927.419	4032
927.525	4067
927.631	4086
927.737	3941
927.843	3945
927.95	3850
928.056	3960
928.162	4010
928.267	4029
928.373	4672
928.479	4086
928.585	3899
928.69	3994
928.796	4078
928.901	3945
929.007	3831
929.112	3960
929.218	3937
929.323	3998
929.428	3922
929.533	4128
929.638	3896
929.743	3949
929.848	4071
929.953	3983
930.058	3926
930.163	3755
930.267	3827
930.372	3941
930.477	3778
930.581	4074
930.685	3960
930.79	3804
930.894	3896
930.998	3854
931.103	4029
931.207	3728
931.311	3743
931.415	3660
931.519	3507
931.623	3553
