Data from test_V78500241_2619.txt Node
Date: Fri Mar 25 17:07:12 CST 2022
User: usil
Spectrometer: V785-0024
Trigger mode: 0
Integration Time (sec): 4.000000E-1
Scans to average: 1
Nonlinearity correction enabled: false
Boxcar width: 0
Storing dark spectrum: false
XAxis mode: Wavelengths
Number of Pixels in Spectrum: 1024
>>>>>Begin Spectral Data<<<<<
801.071	7997
801.214	8016
801.356	7890
801.499	7871
801.641	7830
801.783	7742
801.926	7936
802.068	7963
802.211	7986
802.353	7932
802.496	7906
802.638	7868
802.78	7967
802.923	7906
803.065	7852
803.208	7906
803.35	8012
803.492	8149
803.635	8126
803.777	8111
803.919	8180
804.061	8473
804.204	8077
804.346	7974
804.488	7890
804.63	8138
804.773	7997
804.915	8077
805.057	8309
805.199	8142
805.341	8229
805.483	8279
805.626	8237
805.768	8142
805.91	8195
806.052	8183
806.194	8103
806.336	8320
806.478	8111
806.62	8027
806.762	8107
806.904	8252
807.046	8423
807.188	8366
807.33	8320
807.472	8286
807.614	8092
807.756	8164
807.898	8008
808.04	7856
808.182	7925
808.324	7887
808.465	7906
808.607	8077
808.749	8145
808.891	8237
809.033	8358
809.174	8210
809.316	8069
809.458	8077
809.6	7986
809.741	8027
809.883	8024
810.025	8039
810.166	8039
810.308	8058
810.45	8024
810.591	7864
810.733	7792
810.875	7613
811.016	7537
811.158	7472
811.299	7575
811.441	7674
811.582	7651
811.724	7575
811.865	7514
812.007	7552
812.148	7624
812.29	7624
812.431	7826
812.573	7852
812.714	7940
812.855	8081
812.997	8164
813.138	8301
813.279	8103
813.421	8088
813.562	7989
813.703	7803
813.845	7765
813.986	7457
814.127	7240
814.268	7217
814.41	7152
814.551	7164
814.692	7202
814.833	7122
814.974	7107
815.115	7126
815.256	6981
815.397	6951
815.539	6996
815.68	6795
815.821	6772
815.962	6825
816.103	6863
816.244	6681
816.385	6650
816.526	6688
816.666	6486
816.807	6346
816.948	6395
817.089	6506
817.23	6422
817.371	6391
817.512	6433
817.653	6350
817.793	6372
817.934	6380
818.075	6445
818.216	6380
818.356	6391
818.497	6220
818.638	6140
818.778	6178
818.919	6140
819.06	6152
819.2	6308
819.341	6414
819.481	6380
819.622	6494
819.762	6753
819.903	6726
820.043	6578
820.184	6589
820.324	6608
820.465	6642
820.605	6642
820.746	6665
820.886	6540
821.026	6703
821.167	6730
821.307	6859
821.447	6745
821.588	6738
821.728	6540
821.868	6551
822.008	6308
822.149	6342
822.289	6353
822.429	6167
822.569	6064
822.709	6171
822.849	5931
822.99	5927
823.13	5996
823.27	5946
823.41	5878
823.55	5786
823.69	5775
823.83	5798
823.97	5714
824.11	5566
824.25	5532
824.389	5615
824.529	5554
824.669	5539
824.809	5638
824.949	5668
825.089	5619
825.228	5528
825.368	5402
825.508	5387
825.648	5364
825.787	5379
825.927	5391
826.067	5288
826.206	5334
826.346	5364
826.485	5402
826.625	5406
826.765	5520
826.904	5459
827.044	5246
827.183	5197
827.323	5124
827.462	5254
827.601	5079
827.741	5197
827.88	5174
828.02	5079
828.159	5261
828.298	5254
828.437	5353
828.577	5292
828.716	5467
828.855	5322
828.994	5185
829.134	5090
829.273	5189
829.412	5136
829.551	5136
829.69	5151
829.829	5273
829.968	5398
830.107	5254
830.246	5265
830.385	5166
830.524	5136
830.663	5094
830.802	5003
830.941	4858
831.08	4847
831.219	4991
831.357	4961
831.496	5124
831.635	4938
831.774	4873
831.913	4862
832.051	4706
832.19	4740
832.329	4828
832.467	4706
832.606	4611
832.744	4702
832.883	4733
833.022	4744
833.16	4786
833.299	4820
833.437	4816
833.576	4831
833.714	4850
833.852	4908
833.991	4889
834.129	4999
834.267	4965
834.406	4911
834.544	4987
834.682	5037
834.821	4961
834.959	5121
835.097	5003
835.235	5124
835.373	5075
835.511	5052
835.65	5064
835.788	5041
835.926	4870
836.064	4892
836.202	4942
836.34	5124
836.478	5250
836.615	5067
836.753	5151
836.891	5235
837.029	5223
837.167	5170
837.305	5185
837.443	5216
837.58	5098
837.718	5223
837.856	5162
837.993	5121
838.131	5284
838.269	5166
838.406	5223
838.544	5181
838.681	5029
838.819	4976
838.956	4850
839.094	4930
839.231	4957
839.369	5052
839.506	5433
839.643	5254
839.781	5064
839.918	5025
840.055	5155
840.193	5105
840.33	5071
840.467	5162
840.604	5185
840.742	5478
840.879	5079
841.016	5113
841.153	5162
841.29	5315
841.427	5296
841.564	5307
841.701	5296
841.838	5292
841.975	5201
842.112	5239
842.249	5143
842.385	5117
842.522	5326
842.659	5117
842.796	5143
842.933	5216
843.069	5121
843.206	5159
843.343	5296
843.479	5235
843.616	5269
843.752	5029
843.889	5037
844.025	5246
844.162	5010
844.298	5193
844.435	5075
844.571	5052
844.708	5174
844.844	5296
844.98	5318
845.117	5307
845.253	5220
845.389	5075
845.525	5105
845.661	5147
845.798	5060
845.934	5128
846.07	5071
846.206	5124
846.342	5280
846.478	5102
846.614	5029
846.75	4949
846.886	4965
847.022	5140
847.158	4999
847.294	5048
847.429	5098
847.565	5041
847.701	5299
847.837	4812
847.972	4805
848.108	4938
848.244	4904
848.379	4733
848.515	4755
848.65	4714
848.786	4710
848.921	4767
849.057	4839
849.192	4934
849.328	4870
849.463	4858
849.598	4816
849.734	4748
849.869	4706
850.004	4683
850.14	4637
850.275	4592
850.41	4481
850.545	4554
850.68	4588
850.815	4630
850.95	4679
851.085	4843
851.22	4710
851.355	4630
851.49	4607
851.625	4626
851.76	4599
851.895	4558
852.03	4538
852.165	4653
852.299	4721
852.434	4812
852.569	4729
852.703	4763
852.838	4828
852.973	4927
853.107	4854
853.242	4748
853.376	4641
853.511	4519
853.645	4603
853.78	4782
853.914	4683
854.048	4634
854.183	4649
854.317	4691
854.451	4831
854.585	4668
854.72	4630
854.854	4748
854.988	4535
855.122	4630
855.256	4462
855.39	4675
855.524	4790
855.658	4759
855.792	4729
855.926	4725
856.06	4748
856.194	4801
856.327	4706
856.461	4607
856.595	4626
856.729	4653
856.862	4736
856.996	4748
857.13	4694
857.263	4763
857.397	4831
857.53	4622
857.664	4714
857.797	4755
857.931	4710
858.064	4710
858.197	4755
858.331	4641
858.464	4580
858.597	4538
858.731	4615
858.864	4634
858.997	4580
859.13	4702
859.263	4645
859.396	4687
859.529	4569
859.662	4561
859.795	4554
859.928	4580
860.061	4736
860.194	4721
860.327	4626
860.46	4546
860.592	4759
860.725	4725
860.858	4706
860.99	4538
861.123	4500
861.256	4523
861.388	4630
861.521	5398
861.653	4462
861.786	4459
861.918	4451
862.05	4497
862.183	4577
862.315	4596
862.447	4679
862.58	4516
862.712	4413
862.844	4352
862.976	4474
863.108	4500
863.24	4786
863.372	4322
863.504	4413
863.636	4436
863.768	4508
863.9	4466
864.032	4363
864.164	4417
864.296	4466
864.428	4573
864.559	4558
864.691	4535
864.823	4519
864.954	4500
865.086	4523
865.217	4489
865.349	4417
865.48	4470
865.612	4474
865.743	4618
865.875	4451
866.006	4440
866.137	4455
866.269	4417
866.4	4447
866.531	4409
866.662	4421
866.793	4386
866.924	4447
867.055	4462
867.186	4459
867.317	4413
867.448	4356
867.579	4375
867.71	4341
867.841	4356
867.972	4440
868.103	4443
868.233	4478
868.364	4500
868.495	4478
868.625	4637
868.756	4752
868.886	4577
869.017	4626
869.147	4736
869.278	4778
869.408	4641
869.539	4592
869.669	4725
869.799	4664
869.929	4778
870.06	4744
870.19	4949
870.32	4927
870.45	4908
870.58	5003
870.71	5075
870.84	5098
870.97	4942
871.1	4889
871.23	5140
871.36	5121
871.489	5006
871.619	5048
871.749	5117
871.879	5117
872.008	5220
872.138	5045
872.267	4961
872.397	4820
872.526	4782
872.656	4710
872.785	4831
872.915	4900
873.044	5064
873.173	4900
873.303	4957
873.432	4934
873.561	4927
873.69	4881
873.819	4873
873.948	4949
874.077	4820
874.206	4733
874.335	4744
874.464	4942
874.593	5033
874.722	4953
874.851	5048
874.979	5014
875.108	5094
875.237	4930
875.365	4892
875.494	4835
875.623	4953
875.751	4782
875.88	4896
876.008	4934
876.136	5045
876.265	5151
876.393	5372
876.521	5204
876.65	5185
876.778	5155
876.906	5022
877.034	4991
877.162	5010
877.29	4999
877.418	4991
877.546	4980
877.674	5006
877.802	5010
877.93	4957
878.058	4911
878.185	4900
878.313	4957
878.441	4927
878.568	4847
878.696	4854
878.824	4995
878.951	4991
879.079	5136
879.206	5258
879.333	5117
879.461	4984
879.588	4987
879.715	5124
879.842	5204
879.97	5018
880.097	4805
880.224	4786
880.351	4877
880.478	4793
880.605	4797
880.732	4854
880.859	5067
880.986	4900
881.112	4942
881.239	4778
881.366	4656
881.493	4618
881.619	4603
881.746	4653
881.872	4679
881.999	4634
882.125	4729
882.252	4805
882.378	4824
882.505	5014
882.631	4850
882.757	4675
882.883	4759
883.01	4755
883.136	4679
883.262	4596
883.388	4634
883.514	4831
883.64	4877
883.766	4824
883.892	4660
884.018	4782
884.143	4961
884.269	5037
884.395	4740
884.52	4599
884.646	4714
884.772	4588
884.897	4622
885.023	4698
885.148	4831
885.274	4904
885.399	4904
885.524	4748
885.65	4740
885.775	4816
885.9	4759
886.025	4911
886.15	4847
886.275	4721
886.4	4694
886.525	4733
886.65	4767
886.775	4782
886.9	4946
887.025	5079
887.149	4870
887.274	4679
887.399	4664
887.523	4660
887.648	4599
887.773	4626
887.897	4858
888.021	4831
888.146	4694
888.27	4793
888.395	4949
888.519	4793
888.643	4862
888.767	4877
888.891	4717
889.015	4660
889.139	4725
889.263	4645
889.387	4759
889.511	4877
889.635	4824
889.759	4649
889.883	4679
890.006	4771
890.13	4858
890.254	4660
890.377	4736
890.501	4607
890.624	4580
890.748	4653
890.871	4535
890.995	4481
891.118	4428
891.241	4516
891.364	4622
891.488	4691
891.611	4569
891.734	4565
891.857	4626
891.98	4634
892.103	4679
892.226	4634
892.349	4519
892.471	4375
892.594	4554
892.717	4679
892.839	4615
892.962	4653
893.085	4710
893.207	4603
893.33	4474
893.452	4596
893.575	4714
893.697	4588
893.819	4862
893.941	4889
894.064	4805
894.186	4630
894.308	4603
894.43	4755
894.552	4900
894.674	4774
894.796	4626
894.918	4622
895.04	4641
895.161	4714
895.283	4706
895.405	4569
895.526	4706
895.648	4664
895.769	4721
895.891	4740
896.012	4774
896.134	4759
896.255	4691
896.376	4664
896.498	4626
896.619	4717
896.74	4634
896.861	4649
896.982	4968
897.103	5041
897.224	4866
897.345	4717
897.466	4691
897.587	4771
897.708	4881
897.828	4805
897.949	4679
898.07	4603
898.19	4694
898.311	4873
898.431	4630
898.552	4790
898.672	4858
898.792	4812
898.913	4759
899.033	4626
899.153	4493
899.273	4455
899.393	4542
899.513	4573
899.633	4542
899.753	4550
899.873	4512
899.993	4637
900.113	4550
900.232	4607
900.352	4573
900.472	4523
900.591	4478
900.711	4565
900.83	4474
900.95	4618
901.069	4763
901.189	4584
901.308	4405
901.427	4413
901.546	4432
901.665	4538
901.784	4523
901.904	4455
902.023	4341
902.141	4185
902.26	4238
902.379	4325
902.498	4306
902.617	4227
902.735	4402
902.854	4462
902.973	4363
903.091	4207
903.21	4276
903.328	4352
903.446	4265
903.565	4295
903.683	4409
903.801	4299
903.919	4424
904.038	4500
904.156	4371
904.274	4428
904.392	4421
904.51	4504
904.627	4512
904.745	4615
904.863	4679
904.981	4451
905.098	4402
905.216	4394
905.334	4436
905.451	4485
905.569	4478
905.686	4592
905.803	4588
905.921	4436
906.038	4607
906.155	4478
906.272	4443
906.389	4478
906.506	4402
906.623	4409
906.74	4436
906.857	4325
906.974	4432
907.091	4634
907.208	4710
907.324	4611
907.441	4512
907.557	4390
907.674	4424
907.79	4348
907.907	4417
908.023	4546
908.139	4481
908.256	4485
908.372	4516
908.488	4535
908.604	4386
908.72	4348
908.836	4455
908.952	4383
909.068	4459
909.184	4599
909.3	4455
909.415	4580
909.531	4580
909.647	4394
909.762	4360
909.878	4383
909.993	4500
910.108	4421
910.224	4527
910.339	4500
910.454	4421
910.57	4337
910.685	4352
910.8	4679
910.915	4630
911.03	4546
911.145	4405
911.259	4386
911.374	4398
911.489	4310
911.604	4299
911.718	4200
911.833	4238
911.947	4131
912.062	4082
912.176	4223
912.291	4268
912.405	4291
912.519	4523
912.633	4504
912.748	4386
912.862	4329
912.976	4238
913.09	4124
913.204	4219
913.318	4322
913.431	4413
913.545	4443
913.659	4474
913.772	4363
913.886	4280
914	4299
914.113	4390
914.226	4428
914.34	4394
914.453	4284
914.566	4466
914.68	4344
914.793	4344
914.906	4154
915.019	4162
915.132	4109
915.245	4188
915.358	4249
915.47	4295
915.583	4318
915.696	4333
915.809	4451
915.921	4443
916.034	4322
916.146	4242
916.259	4227
916.371	4371
916.483	4390
916.595	4284
916.708	4329
916.82	4348
916.932	4325
917.044	4287
917.156	4360
917.268	4318
917.38	4246
917.491	4295
917.603	4394
917.715	4447
917.826	4500
917.938	4459
918.049	4272
918.161	4413
918.272	4554
918.384	4523
918.495	4516
918.606	4375
918.717	4234
918.828	4371
918.939	4417
919.05	4268
919.161	4344
919.272	4131
919.383	4249
919.494	4478
919.604	4660
919.715	4428
919.826	4398
919.936	4409
920.047	4535
920.157	4516
920.267	4740
920.378	4561
920.488	4523
920.598	4763
920.708	4923
920.818	4759
920.928	4778
921.038	5014
921.148	4938
921.258	4698
921.368	4546
921.477	4497
921.587	4493
921.697	4375
921.806	4603
921.916	4432
922.025	4295
922.134	4272
922.244	4265
922.353	4363
922.462	4177
922.571	4173
922.68	4040
922.789	4025
922.898	4109
923.007	4021
923.116	4181
923.224	4051
923.333	4105
923.442	4010
923.55	4010
923.659	4074
923.767	4112
923.876	4006
923.984	4109
924.092	3979
924.201	4082
924.309	4120
924.417	4150
924.525	4093
924.633	4135
924.741	5102
924.849	3903
924.956	4181
925.064	3964
925.172	3945
925.279	3972
925.387	4059
925.494	4086
925.602	4200
925.709	4200
925.816	4044
925.924	4158
926.031	4276
926.138	4185
926.245	4234
926.352	4135
926.459	4257
926.566	4348
926.673	4169
926.779	4143
926.886	4112
926.993	3975
927.099	4010
927.206	3983
927.312	3979
927.419	4067
927.525	4025
927.631	4101
927.737	4010
927.843	3994
927.95	3838
928.056	3930
928.162	4017
928.267	4036
928.373	4637
928.479	4139
928.585	3884
928.69	4063
928.796	4093
928.901	3964
929.007	3854
929.112	4013
929.218	4021
929.323	3975
929.428	3956
929.533	4097
929.638	3899
929.743	3972
929.848	4032
929.953	4051
930.058	3987
930.163	3793
930.267	3816
930.372	3956
930.477	3850
930.581	4097
930.685	3987
930.79	3876
930.894	3899
930.998	3876
931.103	4067
931.207	3740
931.311	3740
931.415	3705
931.519	3545
931.623	3576
