Data from test_V78500241_1119.txt Node
Date: Fri Mar 25 16:56:46 CST 2022
User: usil
Spectrometer: V785-0024
Trigger mode: 0
Integration Time (sec): 4.000000E-1
Scans to average: 1
Nonlinearity correction enabled: false
Boxcar width: 0
Storing dark spectrum: false
XAxis mode: Wavelengths
Number of Pixels in Spectrum: 1024
>>>>>Begin Spectral Data<<<<<
801.071	8084
801.214	8005
801.356	7852
801.499	7845
801.641	7811
801.783	7818
801.926	7921
802.068	7868
802.211	7955
802.353	8035
802.496	7875
802.638	7822
802.78	7951
802.923	7940
803.065	7879
803.208	7845
803.35	7913
803.492	8157
803.635	8191
803.777	8005
803.919	8115
804.061	8434
804.204	8180
804.346	7982
804.488	7963
804.63	8183
804.773	8027
804.915	8062
805.057	8263
805.199	8130
805.341	8153
805.483	8259
805.626	8149
805.768	8088
805.91	8214
806.052	8221
806.194	8058
806.336	8218
806.478	8012
806.62	8035
806.762	8046
806.904	8389
807.046	8446
807.188	8317
807.33	8256
807.472	8328
807.614	8130
807.756	8077
807.898	8020
808.04	7967
808.182	7868
808.324	7944
808.465	7970
808.607	8111
808.749	8096
808.891	8199
809.033	8256
809.174	8206
809.316	8069
809.458	8020
809.6	7974
809.741	7982
809.883	8008
810.025	8081
810.166	8100
810.308	7989
810.45	7997
810.591	7890
810.733	7734
810.875	7632
811.016	7529
811.158	7457
811.299	7563
811.441	7689
811.582	7662
811.724	7639
811.865	7552
812.007	7544
812.148	7548
812.29	7613
812.431	7693
812.573	7864
812.714	7887
812.855	8100
812.997	8229
813.138	8309
813.279	8176
813.421	8069
813.562	8001
813.703	7818
813.845	7708
813.986	7434
814.127	7179
814.268	7206
814.41	7149
814.551	7069
814.692	7187
814.833	6996
814.974	7015
815.115	7129
815.256	6890
815.397	6916
815.539	6947
815.68	6833
815.821	6814
815.962	6863
816.103	6837
816.244	6665
816.385	6631
816.526	6593
816.666	6422
816.807	6311
816.948	6418
817.089	6509
817.23	6452
817.371	6327
817.512	6323
817.653	6410
817.793	6395
817.934	6410
818.075	6445
818.216	6433
818.356	6429
818.497	6224
818.638	6140
818.778	6098
818.919	6178
819.06	6175
819.2	6277
819.341	6334
819.481	6300
819.622	6551
819.762	6700
819.903	6753
820.043	6658
820.184	6555
820.324	6540
820.465	6669
820.605	6646
820.746	6631
820.886	6517
821.026	6627
821.167	6681
821.307	6787
821.447	6741
821.588	6578
821.728	6532
821.868	6433
822.008	6281
822.149	6353
822.289	6266
822.429	6117
822.569	6049
822.709	6117
822.849	5950
822.99	5916
823.13	5965
823.27	5961
823.41	5798
823.55	5771
823.69	5779
823.83	5756
823.97	5688
824.11	5520
824.25	5493
824.389	5505
824.529	5619
824.669	5501
824.809	5653
824.949	5623
825.089	5604
825.228	5547
825.368	5391
825.508	5349
825.648	5364
825.787	5318
825.927	5334
826.067	5261
826.206	5223
826.346	5383
826.485	5391
826.625	5414
826.765	5532
826.904	5440
827.044	5201
827.183	5201
827.323	5136
827.462	5201
827.601	5140
827.741	5201
827.88	5201
828.02	5094
828.159	5261
828.298	5299
828.437	5360
828.577	5212
828.716	5493
828.855	5284
828.994	5162
829.134	5128
829.273	5174
829.412	5136
829.551	5143
829.69	5170
829.829	5250
829.968	5376
830.107	5254
830.246	5292
830.385	5231
830.524	5079
830.663	5086
830.802	4927
830.941	4900
831.08	4858
831.219	4953
831.357	4980
831.496	5170
831.635	4911
831.774	4850
831.913	4858
832.051	4702
832.19	4748
832.329	4797
832.467	4675
832.606	4675
832.744	4694
832.883	4740
833.022	4725
833.16	4752
833.299	4805
833.437	4820
833.576	4824
833.714	4850
833.852	4873
833.991	4904
834.129	4930
834.267	4946
834.406	4873
834.544	4976
834.682	4965
834.821	4968
834.959	5197
835.097	4995
835.235	5109
835.373	5083
835.511	5140
835.65	4995
835.788	5045
835.926	4881
836.064	4885
836.202	4854
836.34	5155
836.478	5227
836.615	5083
836.753	5223
836.891	5277
837.029	5235
837.167	5162
837.305	5128
837.443	5151
837.58	5094
837.718	5239
837.856	5166
837.993	5132
838.131	5212
838.269	5227
838.406	5208
838.544	5128
838.681	4991
838.819	4942
838.956	4908
839.094	4927
839.231	4953
839.369	5060
839.506	5395
839.643	5273
839.781	4995
839.918	5029
840.055	5060
840.193	5098
840.33	5121
840.467	5155
840.604	5162
840.742	5417
840.879	5022
841.016	5045
841.153	5132
841.29	5315
841.427	5330
841.564	5315
841.701	5311
841.838	5231
841.975	5204
842.112	5246
842.249	5136
842.385	5098
842.522	5303
842.659	5140
842.796	5147
842.933	5166
843.069	5159
843.206	5201
843.343	5220
843.479	5189
843.616	5250
843.752	5029
843.889	5014
844.025	5185
844.162	4961
844.298	5227
844.435	5045
844.571	5052
844.708	5197
844.844	5318
844.98	5311
845.117	5288
845.253	5166
845.389	5064
845.525	5181
845.661	5105
845.798	5037
845.934	5121
846.07	5029
846.206	5143
846.342	5292
846.478	5178
846.614	5029
846.75	4942
846.886	4930
847.022	5189
847.158	5033
847.294	5067
847.429	5071
847.565	5033
847.701	5280
847.837	4854
847.972	4755
848.108	4957
848.244	4942
848.379	4805
848.515	4744
848.65	4748
848.786	4755
848.921	4767
849.057	4847
849.192	4911
849.328	4824
849.463	4847
849.598	4774
849.734	4748
849.869	4653
850.004	4672
850.14	4649
850.275	4577
850.41	4493
850.545	4561
850.68	4622
850.815	4615
850.95	4584
851.085	4809
851.22	4710
851.355	4691
851.49	4584
851.625	4615
851.76	4596
851.895	4512
852.03	4489
852.165	4596
852.299	4675
852.434	4805
852.569	4706
852.703	4790
852.838	4839
852.973	4885
853.107	4911
853.242	4733
853.376	4691
853.511	4531
853.645	4565
853.78	4812
853.914	4630
854.048	4637
854.183	4645
854.317	4634
854.451	4839
854.585	4615
854.72	4603
854.854	4714
854.988	4584
855.122	4622
855.256	4493
855.39	4645
855.524	4771
855.658	4725
855.792	4672
855.926	4714
856.06	4759
856.194	4801
856.327	4645
856.461	4580
856.595	4637
856.729	4634
856.862	4801
856.996	4702
857.13	4736
857.263	4736
857.397	4778
857.53	4660
857.664	4694
857.797	4729
857.931	4778
858.064	4725
858.197	4755
858.331	4645
858.464	4599
858.597	4493
858.731	4596
858.864	4626
858.997	4603
859.13	4649
859.263	4618
859.396	4691
859.529	4596
859.662	4542
859.795	4481
859.928	4653
860.061	4721
860.194	4736
860.327	4588
860.46	4516
860.592	4675
860.725	4702
860.858	4706
860.99	4558
861.123	4546
861.256	4512
861.388	4653
861.521	5410
861.653	4489
861.786	4478
861.918	4447
862.05	4481
862.183	4527
862.315	4565
862.447	4634
862.58	4546
862.712	4341
862.844	4287
862.976	4459
863.108	4447
863.24	4729
863.372	4291
863.504	4394
863.636	4470
863.768	4440
863.9	4402
864.032	4344
864.164	4383
864.296	4455
864.428	4519
864.559	4565
864.691	4512
864.823	4565
864.954	4508
865.086	4478
865.217	4375
865.349	4421
865.48	4451
865.612	4455
865.743	4615
865.875	4402
866.006	4485
866.137	4440
866.269	4455
866.4	4405
866.531	4409
866.662	4398
866.793	4379
866.924	4402
867.055	4478
867.186	4485
867.317	4371
867.448	4348
867.579	4337
867.71	4356
867.841	4352
867.972	4432
868.103	4462
868.233	4371
868.364	4417
868.495	4447
868.625	4683
868.756	4725
868.886	4531
869.017	4592
869.147	4763
869.278	4752
869.408	4675
869.539	4622
869.669	4694
869.799	4656
869.929	4767
870.06	4660
870.19	4930
870.32	4919
870.45	4915
870.58	4946
870.71	5098
870.84	5052
870.97	4953
871.1	4927
871.23	5109
871.36	5166
871.489	5018
871.619	5022
871.749	5064
871.879	5124
872.008	5140
872.138	5052
872.267	4972
872.397	4839
872.526	4812
872.656	4755
872.785	4828
872.915	4976
873.044	5014
873.173	4946
873.303	4908
873.432	4911
873.561	4919
873.69	4870
873.819	4839
873.948	4904
874.077	4774
874.206	4733
874.335	4797
874.464	4881
874.593	5079
874.722	4972
874.851	5105
874.979	5041
875.108	5018
875.237	4900
875.365	4793
875.494	4877
875.623	4976
875.751	4793
875.88	4858
876.008	4942
876.136	5018
876.265	5166
876.393	5315
876.521	5258
876.65	5239
876.778	5136
876.906	5060
877.034	4976
877.162	5052
877.29	4980
877.418	5060
877.546	5048
877.674	4991
877.802	4987
877.93	5033
878.058	4957
878.185	4843
878.313	4965
878.441	4911
878.568	4736
878.696	4839
878.824	4934
878.951	4953
879.079	5121
879.206	5212
879.333	5060
879.461	4942
879.588	4968
879.715	5117
879.842	5189
879.97	4991
880.097	4744
880.224	4755
880.351	4797
880.478	4862
880.605	4755
880.732	4752
880.859	5079
880.986	4881
881.112	4908
881.239	4740
881.366	4656
881.493	4596
881.619	4535
881.746	4634
881.872	4641
881.999	4626
882.125	4668
882.252	4790
882.378	4790
882.505	4942
882.631	4809
882.757	4626
882.883	4691
883.01	4710
883.136	4664
883.262	4542
883.388	4660
883.514	4809
883.64	4831
883.766	4786
883.892	4687
884.018	4702
884.143	4892
884.269	5003
884.395	4675
884.52	4615
884.646	4596
884.772	4592
884.897	4493
885.023	4580
885.148	4752
885.274	4873
885.399	4767
885.524	4683
885.65	4691
885.775	4774
885.9	4717
886.025	4839
886.15	4786
886.275	4717
886.4	4691
886.525	4691
886.65	4634
886.775	4683
886.9	4870
887.025	5022
887.149	4866
887.274	4660
887.399	4577
887.523	4607
887.648	4558
887.773	4603
887.897	4710
888.021	4793
888.146	4645
888.27	4793
888.395	4847
888.519	4759
888.643	4763
888.767	4854
888.891	4672
889.015	4542
889.139	4626
889.263	4599
889.387	4740
889.511	4885
889.635	4809
889.759	4645
889.883	4645
890.006	4710
890.13	4812
890.254	4577
890.377	4637
890.501	4550
890.624	4481
890.748	4653
890.871	4569
890.995	4421
891.118	4375
891.241	4523
891.364	4523
891.488	4618
891.611	4485
891.734	4538
891.857	4622
891.98	4584
892.103	4637
892.226	4531
892.349	4531
892.471	4474
892.594	4538
892.717	4573
892.839	4596
892.962	4596
893.085	4691
893.207	4626
893.33	4447
893.452	4546
893.575	4618
893.697	4565
893.819	4763
893.941	4858
894.064	4729
894.186	4565
894.308	4500
894.43	4733
894.552	4816
894.674	4759
894.796	4546
894.918	4573
895.04	4580
895.161	4687
895.283	4664
895.405	4535
895.526	4634
895.648	4691
895.769	4668
895.891	4694
896.012	4721
896.134	4752
896.255	4592
896.376	4634
896.498	4592
896.619	4717
896.74	4618
896.861	4630
896.982	4942
897.103	5086
897.224	4778
897.345	4755
897.466	4653
897.587	4702
897.708	4873
897.828	4790
897.949	4664
898.07	4535
898.19	4656
898.311	4858
898.431	4660
898.552	4744
898.672	4767
898.792	4767
898.913	4664
899.033	4607
899.153	4512
899.273	4459
899.393	4459
899.513	4485
899.633	4493
899.753	4504
899.873	4497
899.993	4561
900.113	4546
900.232	4554
900.352	4519
900.472	4489
900.591	4337
900.711	4455
900.83	4443
900.95	4577
901.069	4672
901.189	4542
901.308	4409
901.427	4318
901.546	4367
901.665	4485
901.784	4485
901.904	4352
902.023	4356
902.141	4181
902.26	4112
902.379	4299
902.498	4257
902.617	4200
902.735	4371
902.854	4417
902.973	4383
903.091	4150
903.21	4223
903.328	4318
903.446	4261
903.565	4230
903.683	4322
903.801	4306
903.919	4386
904.038	4428
904.156	4303
904.274	4371
904.392	4390
904.51	4424
904.627	4424
904.745	4565
904.863	4615
904.981	4462
905.098	4306
905.216	4360
905.334	4398
905.451	4436
905.569	4466
905.686	4459
905.803	4550
905.921	4421
906.038	4584
906.155	4451
906.272	4413
906.389	4470
906.506	4333
906.623	4348
906.74	4371
906.857	4227
906.974	4413
907.091	4538
907.208	4717
907.324	4603
907.441	4489
907.557	4348
907.674	4337
907.79	4284
907.907	4383
908.023	4447
908.139	4455
908.256	4417
908.372	4455
908.488	4390
908.604	4344
908.72	4280
908.836	4341
908.952	4348
909.068	4440
909.184	4542
909.3	4462
909.415	4516
909.531	4558
909.647	4371
909.762	4348
909.878	4344
909.993	4417
910.108	4394
910.224	4428
910.339	4489
910.454	4375
910.57	4291
910.685	4291
910.8	4637
910.915	4580
911.03	4474
911.145	4310
911.259	4344
911.374	4363
911.489	4303
911.604	4257
911.718	4181
911.833	4154
911.947	4101
912.062	4055
912.176	4188
912.291	4223
912.405	4219
912.519	4447
912.633	4485
912.748	4375
912.862	4284
912.976	4150
913.09	4105
913.204	4166
913.318	4238
913.431	4356
913.545	4318
913.659	4432
913.772	4402
913.886	4253
914	4196
914.113	4371
914.226	4436
914.34	4375
914.453	4219
914.566	4440
914.68	4287
914.793	4337
914.906	4124
915.019	4116
915.132	4036
915.245	4185
915.358	4227
915.47	4238
915.583	4299
915.696	4295
915.809	4432
915.921	4424
916.034	4249
916.146	4204
916.259	4177
916.371	4371
916.483	4348
916.595	4238
916.708	4295
916.82	4303
916.932	4306
917.044	4314
917.156	4318
917.268	4185
917.38	4272
917.491	4280
917.603	4322
917.715	4386
917.826	4436
917.938	4356
918.049	4272
918.161	4360
918.272	4584
918.384	4573
918.495	4462
918.606	4322
918.717	4249
918.828	4310
918.939	4409
919.05	4268
919.161	4295
919.272	4112
919.383	4227
919.494	4462
919.604	4626
919.715	4451
919.826	4360
919.936	4413
920.047	4500
920.157	4493
920.267	4679
920.378	4493
920.488	4508
920.598	4679
920.708	4854
920.818	4729
920.928	4793
921.038	4881
921.148	4866
921.258	4672
921.368	4561
921.477	4462
921.587	4451
921.697	4409
921.806	4531
921.916	4436
922.025	4253
922.134	4280
922.244	4192
922.353	4314
922.462	4177
922.571	4128
922.68	3994
922.789	3979
922.898	4032
923.007	3991
923.116	4101
923.224	4055
923.333	4055
923.442	3949
923.55	3956
923.659	3987
923.767	4105
923.876	3994
923.984	4124
924.092	3983
924.201	4063
924.309	4090
924.417	4116
924.525	4021
924.633	4131
924.741	5018
924.849	3922
924.956	4128
925.064	3979
925.172	3911
925.279	3911
925.387	4063
925.494	4082
925.602	4249
925.709	4150
925.816	4032
925.924	4139
926.031	4196
926.138	4124
926.245	4211
926.352	4082
926.459	4234
926.566	4284
926.673	4150
926.779	4055
926.886	4017
926.993	3994
927.099	3937
927.206	3907
927.312	3930
927.419	4082
927.525	4055
927.631	4055
927.737	4040
927.843	3972
927.95	3812
928.056	3968
928.162	3998
928.267	4048
928.373	4694
928.479	4135
928.585	3907
928.69	3945
928.796	3991
928.901	3945
929.007	3876
929.112	4002
929.218	3964
929.323	3956
929.428	3888
929.533	4093
929.638	3899
929.743	3941
929.848	4048
929.953	3972
930.058	3903
930.163	3774
930.267	3804
930.372	3979
930.477	3793
930.581	4090
930.685	3945
930.79	3816
930.894	3896
930.998	3838
931.103	4059
931.207	3720
931.311	3698
931.415	3671
931.519	3504
931.623	3538
