Data from test_V78500241_1261.txt Node
Date: Fri Mar 25 16:57:46 CST 2022
User: usil
Spectrometer: V785-0024
Trigger mode: 0
Integration Time (sec): 4.000000E-1
Scans to average: 1
Nonlinearity correction enabled: false
Boxcar width: 0
Storing dark spectrum: false
XAxis mode: Wavelengths
Number of Pixels in Spectrum: 1024
>>>>>Begin Spectral Data<<<<<
801.071	8001
801.214	8050
801.356	7967
801.499	7856
801.641	7799
801.783	7845
801.926	7963
802.068	8001
802.211	7932
802.353	7993
802.496	7849
802.638	7852
802.78	7879
802.923	7967
803.065	7860
803.208	7837
803.35	8039
803.492	8069
803.635	8157
803.777	8077
803.919	8176
804.061	8438
804.204	8115
804.346	8100
804.488	8012
804.63	8123
804.773	8016
804.915	8126
805.057	8305
805.199	8092
805.341	8282
805.483	8286
805.626	8206
805.768	8153
805.91	8244
806.052	8180
806.194	8111
806.336	8256
806.478	8035
806.62	7967
806.762	8149
806.904	8290
807.046	8454
807.188	8389
807.33	8229
807.472	8313
807.614	8145
807.756	8187
807.898	7970
808.04	7928
808.182	7883
808.324	7940
808.465	7947
808.607	8142
808.749	8020
808.891	8176
809.033	8225
809.174	8164
809.316	8001
809.458	8084
809.6	8005
809.741	8088
809.883	8012
810.025	8043
810.166	8016
810.308	8039
810.45	8027
810.591	7875
810.733	7685
810.875	7719
811.016	7533
811.158	7518
811.299	7533
811.441	7734
811.582	7685
811.724	7693
811.865	7472
812.007	7472
812.148	7571
812.29	7590
812.431	7761
812.573	7864
812.714	7986
812.855	8100
812.997	8103
813.138	8294
813.279	8195
813.421	8069
813.562	8001
813.703	7940
813.845	7822
813.986	7426
814.127	7259
814.268	7285
814.41	7202
814.551	7110
814.692	7236
814.833	7057
814.974	7103
815.115	7050
815.256	6916
815.397	6871
815.539	6897
815.68	6837
815.821	6741
815.962	6909
816.103	6703
816.244	6681
816.385	6601
816.526	6555
816.666	6498
816.807	6243
816.948	6460
817.089	6433
817.23	6441
817.371	6346
817.512	6346
817.653	6391
817.793	6372
817.934	6418
818.075	6399
818.216	6391
818.356	6346
818.497	6224
818.638	6144
818.778	6152
818.919	6136
819.06	6171
819.2	6311
819.341	6323
819.481	6319
819.622	6486
819.762	6696
819.903	6760
820.043	6566
820.184	6570
820.324	6604
820.465	6677
820.605	6673
820.746	6620
820.886	6483
821.026	6650
821.167	6684
821.307	6772
821.447	6779
821.588	6707
821.728	6631
821.868	6437
822.008	6338
822.149	6365
822.289	6350
822.429	6171
822.569	6083
822.709	6121
822.849	5889
822.99	5904
823.13	5866
823.27	5946
823.41	5809
823.55	5760
823.69	5764
823.83	5813
823.97	5657
824.11	5535
824.25	5539
824.389	5581
824.529	5600
824.669	5570
824.809	5665
824.949	5710
825.089	5611
825.228	5573
825.368	5398
825.508	5383
825.648	5376
825.787	5429
825.927	5421
826.067	5307
826.206	5341
826.346	5395
826.485	5421
826.625	5455
826.765	5547
826.904	5547
827.044	5265
827.183	5250
827.323	5136
827.462	5261
827.601	5265
827.741	5239
827.88	5296
828.02	5140
828.159	5277
828.298	5311
828.437	5368
828.577	5299
828.716	5539
828.855	5330
828.994	5235
829.134	5204
829.273	5235
829.412	5189
829.551	5181
829.69	5170
829.829	5330
829.968	5433
830.107	5296
830.246	5303
830.385	5223
830.524	5212
830.663	5117
830.802	5014
830.941	4873
831.08	4930
831.219	4930
831.357	5041
831.496	5235
831.635	4934
831.774	4877
831.913	4847
832.051	4767
832.19	4759
832.329	4858
832.467	4782
832.606	4649
832.744	4725
832.883	4721
833.022	4721
833.16	4790
833.299	4835
833.437	4847
833.576	4831
833.714	4828
833.852	4835
833.991	4908
834.129	4942
834.267	5003
834.406	4927
834.544	5045
834.682	4965
834.821	4976
834.959	5246
835.097	5029
835.235	5204
835.373	5098
835.511	5162
835.65	5090
835.788	5033
835.926	4930
836.064	4919
836.202	4980
836.34	5178
836.478	5242
836.615	5155
836.753	5254
836.891	5292
837.029	5277
837.167	5239
837.305	5162
837.443	5212
837.58	5102
837.718	5322
837.856	5204
837.993	5185
838.131	5254
838.269	5246
838.406	5235
838.544	5216
838.681	5071
838.819	5014
838.956	4870
839.094	4949
839.231	4976
839.369	5083
839.506	5436
839.643	5292
839.781	5140
839.918	5060
840.055	5075
840.193	5151
840.33	5113
840.467	5140
840.604	5235
840.742	5417
840.879	5121
841.016	5052
841.153	5181
841.29	5406
841.427	5334
841.564	5345
841.701	5383
841.838	5311
841.975	5269
842.112	5269
842.249	5193
842.385	5143
842.522	5414
842.659	5193
842.796	5201
842.933	5231
843.069	5166
843.206	5189
843.343	5383
843.479	5250
843.616	5311
843.752	5014
843.889	5052
844.025	5223
844.162	5014
844.298	5178
844.435	5071
844.571	5064
844.708	5220
844.844	5292
844.98	5337
845.117	5349
845.253	5181
845.389	5075
845.525	5242
845.661	5124
845.798	5060
845.934	5140
846.07	5121
846.206	5204
846.342	5341
846.478	5212
846.614	5014
846.75	4961
846.886	4980
847.022	5174
847.158	5025
847.294	5025
847.429	5105
847.565	5064
847.701	5406
847.837	4889
847.972	4843
848.108	4957
848.244	4972
848.379	4820
848.515	4786
848.65	4790
848.786	4748
848.921	4850
849.057	4839
849.192	4900
849.328	4835
849.463	4885
849.598	4850
849.734	4752
849.869	4698
850.004	4615
850.14	4683
850.275	4573
850.41	4561
850.545	4561
850.68	4656
850.815	4641
850.95	4664
851.085	4812
851.22	4755
851.355	4683
851.49	4584
851.625	4679
851.76	4668
851.895	4588
852.03	4508
852.165	4618
852.299	4736
852.434	4831
852.569	4653
852.703	4809
852.838	4877
852.973	4946
853.107	4953
853.242	4733
853.376	4630
853.511	4569
853.645	4645
853.78	4820
853.914	4748
854.048	4660
854.183	4618
854.317	4774
854.451	4858
854.585	4691
854.72	4664
854.854	4797
854.988	4592
855.122	4702
855.256	4599
855.39	4641
855.524	4752
855.658	4767
855.792	4721
855.926	4736
856.06	4771
856.194	4805
856.327	4733
856.461	4588
856.595	4607
856.729	4672
856.862	4763
856.996	4714
857.13	4759
857.263	4782
857.397	4793
857.53	4691
857.664	4763
857.797	4790
857.931	4809
858.064	4702
858.197	4767
858.331	4672
858.464	4615
858.597	4577
858.731	4637
858.864	4660
858.997	4637
859.13	4653
859.263	4660
859.396	4694
859.529	4565
859.662	4573
859.795	4516
859.928	4603
860.061	4790
860.194	4763
860.327	4592
860.46	4580
860.592	4694
860.725	4736
860.858	4725
860.99	4596
861.123	4546
861.256	4508
861.388	4569
861.521	5288
861.653	4493
861.786	4481
861.918	4466
862.05	4531
862.183	4527
862.315	4630
862.447	4637
862.58	4599
862.712	4424
862.844	4352
862.976	4440
863.108	4535
863.24	4873
863.372	4360
863.504	4428
863.636	4398
863.768	4470
863.9	4485
864.032	4424
864.164	4413
864.296	4455
864.428	4596
864.559	4535
864.691	4573
864.823	4584
864.954	4512
865.086	4497
865.217	4512
865.349	4424
865.48	4519
865.612	4531
865.743	4611
865.875	4512
866.006	4440
866.137	4455
866.269	4447
866.4	4459
866.531	4417
866.662	4375
866.793	4379
866.924	4432
867.055	4500
867.186	4485
867.317	4447
867.448	4443
867.579	4409
867.71	4421
867.841	4413
867.972	4504
868.103	4462
868.233	4481
868.364	4504
868.495	4462
868.625	4675
868.756	4755
868.886	4538
869.017	4618
869.147	4801
869.278	4782
869.408	4687
869.539	4668
869.669	4786
869.799	4641
869.929	4744
870.06	4740
870.19	4980
870.32	4908
870.45	4889
870.58	5033
870.71	5067
870.84	5102
870.97	4938
871.1	4961
871.23	5166
871.36	5132
871.489	5014
871.619	5048
871.749	5098
871.879	5151
872.008	5155
872.138	5090
872.267	4987
872.397	4847
872.526	4805
872.656	4744
872.785	4797
872.915	4991
873.044	5045
873.173	4961
873.303	4938
873.432	4915
873.561	4927
873.69	4915
873.819	4854
873.948	4911
874.077	4839
874.206	4771
874.335	4805
874.464	4927
874.593	5079
874.722	4991
874.851	5109
874.979	5056
875.108	5003
875.237	4949
875.365	4915
875.494	4934
875.623	4991
875.751	4866
875.88	4892
876.008	4987
876.136	5037
876.265	5166
876.393	5330
876.521	5265
876.65	5273
876.778	5162
876.906	5094
877.034	5064
877.162	5018
877.29	5003
877.418	5090
877.546	5071
877.674	5018
877.802	5037
877.93	5014
878.058	4946
878.185	4866
878.313	4942
878.441	4930
878.568	4847
878.696	4908
878.824	4938
878.951	5003
879.079	5113
879.206	5292
879.333	5121
879.461	4999
879.588	5025
879.715	5105
879.842	5246
879.97	4987
880.097	4843
880.224	4774
880.351	4809
880.478	4847
880.605	4790
880.732	4816
880.859	5094
880.986	4911
881.112	4904
881.239	4763
881.366	4653
881.493	4637
881.619	4615
881.746	4622
881.872	4668
881.999	4634
882.125	4767
882.252	4805
882.378	4835
882.505	4946
882.631	4801
882.757	4710
882.883	4774
883.01	4702
883.136	4603
883.262	4596
883.388	4599
883.514	4839
883.64	4889
883.766	4782
883.892	4660
884.018	4702
884.143	4904
884.269	4999
884.395	4683
884.52	4622
884.646	4672
884.772	4580
884.897	4577
885.023	4675
885.148	4786
885.274	4870
885.399	4805
885.524	4725
885.65	4668
885.775	4729
885.9	4733
886.025	4831
886.15	4767
886.275	4786
886.4	4675
886.525	4706
886.65	4717
886.775	4717
886.9	4927
887.025	4991
887.149	4805
887.274	4664
887.399	4580
887.523	4596
887.648	4615
887.773	4588
887.897	4733
888.021	4744
888.146	4653
888.27	4816
888.395	4915
888.519	4778
888.643	4831
888.767	4816
888.891	4656
889.015	4607
889.139	4660
889.263	4607
889.387	4778
889.511	4862
889.635	4812
889.759	4679
889.883	4630
890.006	4721
890.13	4839
890.254	4599
890.377	4702
890.501	4546
890.624	4531
890.748	4664
890.871	4500
890.995	4459
891.118	4424
891.241	4542
891.364	4580
891.488	4668
891.611	4493
891.734	4565
891.857	4622
891.98	4561
892.103	4675
892.226	4641
892.349	4523
892.471	4432
892.594	4573
892.717	4592
892.839	4558
892.962	4550
893.085	4618
893.207	4596
893.33	4428
893.452	4550
893.575	4626
893.697	4565
893.819	4778
893.941	4858
894.064	4831
894.186	4573
894.308	4596
894.43	4790
894.552	4809
894.674	4729
894.796	4546
894.918	4577
895.04	4558
895.161	4710
895.283	4645
895.405	4550
895.526	4618
895.648	4698
895.769	4675
895.891	4736
896.012	4763
896.134	4706
896.255	4687
896.376	4615
896.498	4634
896.619	4668
896.74	4622
896.861	4679
896.982	4911
897.103	5075
897.224	4862
897.345	4714
897.466	4615
897.587	4736
897.708	4850
897.828	4755
897.949	4679
898.07	4588
898.19	4660
898.311	4850
898.431	4691
898.552	4733
898.672	4812
898.792	4759
898.913	4702
899.033	4634
899.153	4485
899.273	4443
899.393	4466
899.513	4546
899.633	4474
899.753	4542
899.873	4508
899.993	4580
900.113	4531
900.232	4596
900.352	4558
900.472	4504
900.591	4379
900.711	4478
900.83	4375
900.95	4603
901.069	4694
901.189	4580
901.308	4383
901.427	4348
901.546	4405
901.665	4436
901.784	4485
901.904	4356
902.023	4310
902.141	4227
902.26	4177
902.379	4284
902.498	4265
902.617	4257
902.735	4375
902.854	4363
902.973	4314
903.091	4242
903.21	4169
903.328	4325
903.446	4310
903.565	4265
903.683	4341
903.801	4303
903.919	4367
904.038	4421
904.156	4287
904.274	4455
904.392	4409
904.51	4478
904.627	4519
904.745	4596
904.863	4660
904.981	4375
905.098	4310
905.216	4356
905.334	4413
905.451	4436
905.569	4474
905.686	4569
905.803	4573
905.921	4405
906.038	4546
906.155	4466
906.272	4375
906.389	4500
906.506	4325
906.623	4367
906.74	4413
906.857	4291
906.974	4322
907.091	4531
907.208	4649
907.324	4626
907.441	4538
907.557	4322
907.674	4375
907.79	4280
907.907	4367
908.023	4497
908.139	4436
908.256	4443
908.372	4455
908.488	4436
908.604	4379
908.72	4306
908.836	4405
908.952	4344
909.068	4451
909.184	4538
909.3	4478
909.415	4535
909.531	4561
909.647	4344
909.762	4352
909.878	4318
909.993	4470
910.108	4341
910.224	4432
910.339	4504
910.454	4394
910.57	4379
910.685	4276
910.8	4656
910.915	4546
911.03	4474
911.145	4356
911.259	4310
911.374	4356
911.489	4299
911.604	4291
911.718	4158
911.833	4196
911.947	4074
912.062	4029
912.176	4211
912.291	4230
912.405	4207
912.519	4481
912.633	4523
912.748	4394
912.862	4348
912.976	4204
913.09	4063
913.204	4169
913.318	4265
913.431	4390
913.545	4333
913.659	4421
913.772	4367
913.886	4238
914	4223
914.113	4367
914.226	4402
914.34	4405
914.453	4207
914.566	4455
914.68	4344
914.793	4303
914.906	4143
915.019	4131
915.132	4101
915.245	4128
915.358	4223
915.47	4230
915.583	4234
915.696	4314
915.809	4421
915.921	4436
916.034	4249
916.146	4257
916.259	4227
916.371	4390
916.483	4409
916.595	4276
916.708	4268
916.82	4276
916.932	4356
917.044	4352
917.156	4356
917.268	4223
917.38	4230
917.491	4299
917.603	4325
917.715	4405
917.826	4451
917.938	4329
918.049	4291
918.161	4356
918.272	4584
918.384	4558
918.495	4443
918.606	4325
918.717	4249
918.828	4295
918.939	4348
919.05	4261
919.161	4329
919.272	4120
919.383	4253
919.494	4462
919.604	4618
919.715	4432
919.826	4386
919.936	4402
920.047	4459
920.157	4443
920.267	4691
920.378	4535
920.488	4485
920.598	4721
920.708	4873
920.818	4759
920.928	4774
921.038	4930
921.148	4892
921.258	4622
921.368	4580
921.477	4455
921.587	4478
921.697	4348
921.806	4504
921.916	4455
922.025	4227
922.134	4265
922.244	4185
922.353	4337
922.462	4150
922.571	4105
922.68	3945
922.789	3983
922.898	4071
923.007	3953
923.116	4105
923.224	4074
923.333	4078
923.442	3983
923.55	3983
923.659	4048
923.767	4086
923.876	4006
923.984	4177
924.092	3968
924.201	4017
924.309	4063
924.417	4131
924.525	4067
924.633	4071
924.741	5067
924.849	3926
924.956	4128
925.064	3975
925.172	3903
925.279	3979
925.387	4067
925.494	4059
925.602	4242
925.709	4196
925.816	4067
925.924	4101
926.031	4192
926.138	4177
926.245	4200
926.352	4109
926.459	4268
926.566	4284
926.673	4166
926.779	4059
926.886	4059
926.993	3979
927.099	3949
927.206	3937
927.312	3918
927.419	4040
927.525	4055
927.631	4120
927.737	3926
927.843	3964
927.95	3804
928.056	3911
928.162	3994
928.267	4029
928.373	4622
928.479	4093
928.585	3861
928.69	4051
928.796	4063
928.901	3949
929.007	3869
929.112	3956
929.218	3968
929.323	3941
929.428	3945
929.533	4071
929.638	3892
929.743	3987
929.848	4090
929.953	4010
930.058	3907
930.163	3762
930.267	3812
930.372	3975
930.477	3797
930.581	4032
930.685	3956
930.79	3884
930.894	3869
930.998	3857
931.103	3991
931.207	3671
931.311	3656
931.415	3660
931.519	3534
931.623	3538
