Data from test_V78500241_1015.txt Node
Date: Fri Mar 25 16:56:03 CST 2022
User: usil
Spectrometer: V785-0024
Trigger mode: 0
Integration Time (sec): 4.000000E-1
Scans to average: 1
Nonlinearity correction enabled: false
Boxcar width: 0
Storing dark spectrum: false
XAxis mode: Wavelengths
Number of Pixels in Spectrum: 1024
>>>>>Begin Spectral Data<<<<<
801.071	8043
801.214	8012
801.356	7955
801.499	7871
801.641	7799
801.783	7902
801.926	7875
802.068	7909
802.211	7974
802.353	7959
802.496	7784
802.638	7879
802.78	7944
802.923	7951
803.065	7875
803.208	7864
803.35	7978
803.492	8096
803.635	8157
803.777	8016
803.919	8119
804.061	8419
804.204	8183
804.346	7982
804.488	8024
804.63	8084
804.773	7993
804.915	8088
805.057	8305
805.199	8153
805.341	8183
805.483	8263
805.626	8145
805.768	8073
805.91	8183
806.052	8187
806.194	8039
806.336	8279
806.478	8180
806.62	8065
806.762	8111
806.904	8252
807.046	8434
807.188	8332
807.33	8202
807.472	8320
807.614	8134
807.756	8123
807.898	8035
808.04	7974
808.182	7875
808.324	7818
808.465	7909
808.607	7951
808.749	8134
808.891	8199
809.033	8309
809.174	8221
809.316	8016
809.458	8027
809.6	7875
809.741	8027
809.883	8016
810.025	8100
810.166	8084
810.308	7947
810.45	7963
810.591	7887
810.733	7765
810.875	7693
811.016	7529
811.158	7491
811.299	7643
811.441	7719
811.582	7655
811.724	7563
811.865	7476
812.007	7521
812.148	7571
812.29	7658
812.431	7658
812.573	7822
812.714	7970
812.855	8088
812.997	8221
813.138	8332
813.279	8202
813.421	8081
813.562	8035
813.703	7887
813.845	7780
813.986	7472
814.127	7213
814.268	7179
814.41	7232
814.551	7072
814.692	7149
814.833	7069
814.974	7053
815.115	7042
815.256	6939
815.397	6886
815.539	6970
815.68	6757
815.821	6757
815.962	6913
816.103	6791
816.244	6764
816.385	6642
816.526	6650
816.666	6475
816.807	6311
816.948	6380
817.089	6460
817.23	6445
817.371	6418
817.512	6407
817.653	6357
817.793	6353
817.934	6433
818.075	6365
818.216	6448
818.356	6372
818.497	6194
818.638	6159
818.778	6133
818.919	6148
819.06	6186
819.2	6258
819.341	6251
819.481	6388
819.622	6513
819.762	6654
819.903	6658
820.043	6597
820.184	6555
820.324	6566
820.465	6639
820.605	6650
820.746	6662
820.886	6475
821.026	6623
821.167	6719
821.307	6776
821.447	6730
821.588	6646
821.728	6521
821.868	6490
822.008	6334
822.149	6380
822.289	6338
822.429	6136
822.569	6045
822.709	6144
822.849	5916
822.99	5885
823.13	5908
823.27	5859
823.41	5794
823.55	5809
823.69	5775
823.83	5745
823.97	5642
824.11	5532
824.25	5535
824.389	5554
824.529	5528
824.669	5497
824.809	5596
824.949	5627
825.089	5589
825.228	5592
825.368	5364
825.508	5296
825.648	5307
825.787	5368
825.927	5360
826.067	5322
826.206	5288
826.346	5311
826.485	5433
826.625	5387
826.765	5524
826.904	5417
827.044	5208
827.183	5162
827.323	5132
827.462	5239
827.601	5193
827.741	5189
827.88	5208
828.02	5045
828.159	5216
828.298	5322
828.437	5318
828.577	5239
828.716	5452
828.855	5353
828.994	5086
829.134	5147
829.273	5162
829.412	5159
829.551	5155
829.69	5117
829.829	5265
829.968	5349
830.107	5204
830.246	5254
830.385	5109
830.524	5105
830.663	5010
830.802	4984
830.941	4892
831.08	4828
831.219	4946
831.357	4976
831.496	5128
831.635	4908
831.774	4835
831.913	4847
832.051	4687
832.19	4687
832.329	4870
832.467	4729
832.606	4672
832.744	4698
832.883	4672
833.022	4721
833.16	4767
833.299	4790
833.437	4790
833.576	4809
833.714	4862
833.852	4850
833.991	4885
834.129	4942
834.267	4919
834.406	4915
834.544	4987
834.682	4915
834.821	4957
834.959	5132
835.097	4972
835.235	5162
835.373	5121
835.511	5098
835.65	5018
835.788	4984
835.926	4873
836.064	4908
836.202	4892
836.34	5113
836.478	5250
836.615	5090
836.753	5174
836.891	5242
837.029	5273
837.167	5170
837.305	5159
837.443	5083
837.58	5083
837.718	5250
837.856	5178
837.993	5147
838.131	5277
838.269	5174
838.406	5105
838.544	5174
838.681	5052
838.819	4976
838.956	4889
839.094	4930
839.231	4927
839.369	5079
839.506	5376
839.643	5254
839.781	5090
839.918	5041
840.055	5083
840.193	5052
840.33	5136
840.467	5067
840.604	5159
840.742	5459
840.879	5071
841.016	5128
841.153	5124
841.29	5322
841.427	5318
841.564	5322
841.701	5360
841.838	5273
841.975	5231
842.112	5246
842.249	5155
842.385	5124
842.522	5330
842.659	5185
842.796	5128
842.933	5162
843.069	5151
843.206	5189
843.343	5242
843.479	5204
843.616	5303
843.752	5045
843.889	5010
844.025	5174
844.162	4999
844.298	5193
844.435	5045
844.571	5056
844.708	5140
844.844	5318
844.98	5341
845.117	5277
845.253	5155
845.389	5098
845.525	5174
845.661	5128
845.798	4965
845.934	5083
846.07	5056
846.206	5181
846.342	5261
846.478	5124
846.614	4995
846.75	4930
846.886	4942
847.022	5117
847.158	4991
847.294	5079
847.429	5079
847.565	5010
847.701	5261
847.837	4824
847.972	4759
848.108	4923
848.244	4900
848.379	4790
848.515	4710
848.65	4702
848.786	4736
848.921	4748
849.057	4839
849.192	4904
849.328	4828
849.463	4850
849.598	4797
849.734	4759
849.869	4660
850.004	4558
850.14	4694
850.275	4626
850.41	4535
850.545	4527
850.68	4592
850.815	4622
850.95	4618
851.085	4816
851.22	4740
851.355	4672
851.49	4554
851.625	4664
851.76	4577
851.895	4542
852.03	4535
852.165	4653
852.299	4710
852.434	4828
852.569	4668
852.703	4744
852.838	4790
852.973	4930
853.107	4862
853.242	4691
853.376	4649
853.511	4523
853.645	4641
853.78	4759
853.914	4687
854.048	4660
854.183	4573
854.317	4763
854.451	4782
854.585	4622
854.72	4607
854.854	4733
854.988	4573
855.122	4618
855.256	4485
855.39	4687
855.524	4744
855.658	4721
855.792	4687
855.926	4714
856.06	4748
856.194	4812
856.327	4668
856.461	4599
856.595	4637
856.729	4641
856.862	4755
856.996	4679
857.13	4755
857.263	4729
857.397	4759
857.53	4660
857.664	4725
857.797	4729
857.931	4733
858.064	4668
858.197	4668
858.331	4618
858.464	4558
858.597	4527
858.731	4634
858.864	4618
858.997	4599
859.13	4683
859.263	4710
859.396	4679
859.529	4580
859.662	4577
859.795	4542
859.928	4569
860.061	4733
860.194	4805
860.327	4596
860.46	4588
860.592	4683
860.725	4710
860.858	4668
860.99	4497
861.123	4516
861.256	4500
861.388	4554
861.521	5246
861.653	4516
861.786	4440
861.918	4451
862.05	4504
862.183	4497
862.315	4569
862.447	4645
862.58	4527
862.712	4356
862.844	4322
862.976	4447
863.108	4394
863.24	4858
863.372	4379
863.504	4409
863.636	4409
863.768	4443
863.9	4417
864.032	4383
864.164	4386
864.296	4432
864.428	4512
864.559	4516
864.691	4550
864.823	4493
864.954	4474
865.086	4523
865.217	4462
865.349	4367
865.48	4440
865.612	4459
865.743	4573
865.875	4398
866.006	4356
866.137	4489
866.269	4470
866.4	4371
866.531	4402
866.662	4383
866.793	4394
866.924	4390
867.055	4493
867.186	4417
867.317	4428
867.448	4329
867.579	4367
867.71	4371
867.841	4375
867.972	4440
868.103	4455
868.233	4409
868.364	4428
868.495	4500
868.625	4599
868.756	4710
868.886	4546
869.017	4611
869.147	4748
869.278	4729
869.408	4653
869.539	4630
869.669	4683
869.799	4630
869.929	4710
870.06	4752
870.19	4911
870.32	4915
870.45	4904
870.58	4946
870.71	5056
870.84	5117
870.97	4919
871.1	4858
871.23	5102
871.36	5117
871.489	4987
871.619	5083
871.749	5048
871.879	5143
872.008	5132
872.138	5067
872.267	4987
872.397	4824
872.526	4752
872.656	4687
872.785	4812
872.915	4881
873.044	5014
873.173	4957
873.303	4957
873.432	4919
873.561	4946
873.69	4839
873.819	4839
873.948	4900
874.077	4797
874.206	4721
874.335	4820
874.464	4873
874.593	5071
874.722	4915
874.851	5067
874.979	5033
875.108	5045
875.237	4892
875.365	4862
875.494	4892
875.623	4930
875.751	4828
875.88	4908
876.008	4976
876.136	5025
876.265	5181
876.393	5353
876.521	5208
876.65	5246
876.778	5147
876.906	5083
877.034	4987
877.162	5094
877.29	4976
877.418	5067
877.546	5033
877.674	4984
877.802	5006
877.93	5014
878.058	4911
878.185	4843
878.313	4968
878.441	4946
878.568	4736
878.696	4889
878.824	4904
878.951	5041
879.079	5079
879.206	5284
879.333	5052
879.461	4968
879.588	4995
879.715	5109
879.842	5231
879.97	4946
880.097	4767
880.224	4736
880.351	4706
880.478	4816
880.605	4786
880.732	4755
880.859	5094
880.986	4911
881.112	4850
881.239	4812
881.366	4702
881.493	4630
881.619	4626
881.746	4634
881.872	4656
881.999	4615
882.125	4634
882.252	4786
882.378	4736
882.505	4953
882.631	4786
882.757	4664
882.883	4706
883.01	4691
883.136	4641
883.262	4618
883.388	4573
883.514	4805
883.64	4854
883.766	4774
883.892	4641
884.018	4675
884.143	4881
884.269	4965
884.395	4637
884.52	4603
884.646	4607
884.772	4550
884.897	4497
885.023	4637
885.148	4752
885.274	4858
885.399	4771
885.524	4717
885.65	4679
885.775	4771
885.9	4736
886.025	4820
886.15	4763
886.275	4714
886.4	4645
886.525	4691
886.65	4683
886.775	4702
886.9	4904
887.025	5022
887.149	4790
887.274	4611
887.399	4580
887.523	4588
887.648	4618
887.773	4546
887.897	4714
888.021	4755
888.146	4630
888.27	4763
888.395	4915
888.519	4820
888.643	4828
888.767	4748
888.891	4645
889.015	4584
889.139	4596
889.263	4607
889.387	4763
889.511	4835
889.635	4729
889.759	4584
889.883	4660
890.006	4698
890.13	4828
890.254	4622
890.377	4679
890.501	4542
890.624	4516
890.748	4592
890.871	4527
890.995	4443
891.118	4409
891.241	4493
891.364	4573
891.488	4622
891.611	4497
891.734	4523
891.857	4596
891.98	4588
892.103	4714
892.226	4611
892.349	4512
892.471	4466
892.594	4535
892.717	4634
892.839	4584
892.962	4622
893.085	4683
893.207	4649
893.33	4508
893.452	4527
893.575	4714
893.697	4603
893.819	4812
893.941	4904
894.064	4790
894.186	4588
894.308	4611
894.43	4782
894.552	4854
894.674	4786
894.796	4618
894.918	4626
895.04	4607
895.161	4687
895.283	4649
895.405	4565
895.526	4634
895.648	4710
895.769	4687
895.891	4721
896.012	4816
896.134	4767
896.255	4660
896.376	4683
896.498	4641
896.619	4721
896.74	4645
896.861	4679
896.982	4885
897.103	5113
897.224	4892
897.345	4748
897.466	4683
897.587	4774
897.708	4904
897.828	4824
897.949	4740
898.07	4599
898.19	4672
898.311	4915
898.431	4752
898.552	4797
898.672	4824
898.792	4862
898.913	4790
899.033	4675
899.153	4538
899.273	4489
899.393	4542
899.513	4535
899.633	4531
899.753	4603
899.873	4519
899.993	4649
900.113	4519
900.232	4569
900.352	4546
900.472	4550
900.591	4485
900.711	4519
900.83	4493
900.95	4596
901.069	4721
901.189	4535
901.308	4417
901.427	4337
901.546	4405
901.665	4489
901.784	4569
901.904	4386
902.023	4329
902.141	4185
902.26	4196
902.379	4367
902.498	4280
902.617	4272
902.735	4383
902.854	4443
902.973	4443
903.091	4211
903.21	4280
903.328	4314
903.446	4306
903.565	4306
903.683	4386
903.801	4344
903.919	4390
904.038	4481
904.156	4363
904.274	4478
904.392	4440
904.51	4440
904.627	4485
904.745	4607
904.863	4634
904.981	4485
905.098	4314
905.216	4413
905.334	4440
905.451	4462
905.569	4470
905.686	4550
905.803	4596
905.921	4432
906.038	4630
906.155	4500
906.272	4417
906.389	4474
906.506	4394
906.623	4402
906.74	4443
906.857	4375
906.974	4436
907.091	4550
907.208	4744
907.324	4603
907.441	4542
907.557	4386
907.674	4367
907.79	4325
907.907	4371
908.023	4516
908.139	4523
908.256	4466
908.372	4481
908.488	4459
908.604	4344
908.72	4379
908.836	4390
908.952	4402
909.068	4459
909.184	4592
909.3	4561
909.415	4592
909.531	4577
909.647	4348
909.762	4348
909.878	4394
909.993	4443
910.108	4398
910.224	4417
910.339	4508
910.454	4413
910.57	4394
910.685	4280
910.8	4664
910.915	4611
911.03	4504
911.145	4344
911.259	4367
911.374	4398
911.489	4341
911.604	4314
911.718	4253
911.833	4238
911.947	4101
912.062	4078
912.176	4238
912.291	4295
912.405	4284
912.519	4508
912.633	4523
912.748	4375
912.862	4325
912.976	4246
913.09	4143
913.204	4188
913.318	4280
913.431	4363
913.545	4341
913.659	4443
913.772	4390
913.886	4291
914	4223
914.113	4478
914.226	4470
914.34	4413
914.453	4287
914.566	4436
914.68	4333
914.793	4341
914.906	4200
915.019	4166
915.132	4109
915.245	4204
915.358	4227
915.47	4249
915.583	4284
915.696	4341
915.809	4417
915.921	4474
916.034	4261
916.146	4325
916.259	4280
916.371	4402
916.483	4424
916.595	4204
916.708	4322
916.82	4356
916.932	4375
917.044	4363
917.156	4363
917.268	4280
917.38	4268
917.491	4261
917.603	4367
917.715	4462
917.826	4451
917.938	4344
918.049	4265
918.161	4474
918.272	4592
918.384	4592
918.495	4440
918.606	4310
918.717	4318
918.828	4306
918.939	4383
919.05	4219
919.161	4344
919.272	4147
919.383	4238
919.494	4459
919.604	4626
919.715	4451
919.826	4341
919.936	4447
920.047	4554
920.157	4531
920.267	4687
920.378	4561
920.488	4512
920.598	4763
920.708	4885
920.818	4782
920.928	4824
921.038	4961
921.148	4968
921.258	4626
921.368	4577
921.477	4519
921.587	4478
921.697	4447
921.806	4596
921.916	4428
922.025	4291
922.134	4310
922.244	4257
922.353	4352
922.462	4204
922.571	4135
922.68	4044
922.789	4010
922.898	4032
923.007	3991
923.116	4090
923.224	4093
923.333	4116
923.442	4010
923.55	4021
923.659	4048
923.767	4128
923.876	4017
923.984	4158
924.092	4010
924.201	4112
924.309	4109
924.417	4181
924.525	4082
924.633	4131
924.741	5056
924.849	3968
924.956	4135
925.064	3956
925.172	3937
925.279	3983
925.387	4090
925.494	4025
925.602	4276
925.709	4185
925.816	4002
925.924	4181
926.031	4242
926.138	4154
926.245	4257
926.352	4093
926.459	4246
926.566	4295
926.673	4162
926.779	4086
926.886	4093
926.993	3983
927.099	3998
927.206	3930
927.312	3972
927.419	4063
927.525	4055
927.631	4120
927.737	3975
927.843	3949
927.95	3846
928.056	3934
928.162	3968
928.267	4082
928.373	4683
928.479	4135
928.585	3888
928.69	4013
928.796	4074
928.901	3998
929.007	3873
929.112	4017
929.218	4006
929.323	3922
929.428	3934
929.533	4120
929.638	3949
929.743	4006
929.848	4071
929.953	3991
930.058	3941
930.163	3770
930.267	3819
930.372	4002
930.477	3880
930.581	4074
930.685	3964
930.79	3850
930.894	3941
930.998	3854
931.103	4055
931.207	3709
931.311	3755
931.415	3690
931.519	3538
931.623	3561
