Data from test_V78500241_981.txt Node
Date: Fri Mar 25 16:55:49 CST 2022
User: usil
Spectrometer: V785-0024
Trigger mode: 0
Integration Time (sec): 4.000000E-1
Scans to average: 1
Nonlinearity correction enabled: false
Boxcar width: 0
Storing dark spectrum: false
XAxis mode: Wavelengths
Number of Pixels in Spectrum: 1024
>>>>>Begin Spectral Data<<<<<
801.071	8035
801.214	8031
801.356	7902
801.499	7913
801.641	7757
801.783	7837
801.926	7947
802.068	7921
802.211	7932
802.353	7986
802.496	7887
802.638	7807
802.78	7883
802.923	7974
803.065	7887
803.208	7921
803.35	8035
803.492	8130
803.635	8161
803.777	8046
803.919	8187
804.061	8366
804.204	8218
804.346	8081
804.488	7967
804.63	8115
804.773	8012
804.915	8172
805.057	8313
805.199	8176
805.341	8229
805.483	8229
805.626	8218
805.768	8115
805.91	8149
806.052	8183
806.194	8119
806.336	8267
806.478	8115
806.62	8103
806.762	8240
806.904	8286
807.046	8431
807.188	8279
807.33	8275
807.472	8374
807.614	8100
807.756	8065
807.898	7982
808.04	7917
808.182	7890
808.324	7894
808.465	7871
808.607	8073
808.749	8024
808.891	8199
809.033	8271
809.174	8225
809.316	8107
809.458	8016
809.6	7951
809.741	8073
809.883	8016
810.025	8145
810.166	8084
810.308	8043
810.45	8008
810.591	7864
810.733	7731
810.875	7605
811.016	7499
811.158	7445
811.299	7540
811.441	7655
811.582	7647
811.724	7552
811.865	7521
812.007	7548
812.148	7616
812.29	7636
812.431	7719
812.573	7860
812.714	7982
812.855	8119
812.997	8202
813.138	8328
813.279	8161
813.421	8096
813.562	8012
813.703	7902
813.845	7833
813.986	7491
814.127	7293
814.268	7236
814.41	7198
814.551	7137
814.692	7088
814.833	7088
814.974	7141
815.115	7107
815.256	6943
815.397	6894
815.539	6954
815.68	6863
815.821	6787
815.962	6871
816.103	6833
816.244	6722
816.385	6688
816.526	6662
816.666	6509
816.807	6273
816.948	6399
817.089	6486
817.23	6437
817.371	6315
817.512	6369
817.653	6433
817.793	6346
817.934	6399
818.075	6414
818.216	6376
818.356	6418
818.497	6258
818.638	6098
818.778	6140
818.919	6068
819.06	6117
819.2	6323
819.341	6350
819.481	6346
819.622	6566
819.762	6764
819.903	6635
820.043	6612
820.184	6601
820.324	6563
820.465	6711
820.605	6734
820.746	6673
820.886	6513
821.026	6658
821.167	6749
821.307	6791
821.447	6753
821.588	6635
821.728	6582
821.868	6570
822.008	6334
822.149	6437
822.289	6369
822.429	6171
822.569	6049
822.709	6136
822.849	5961
822.99	5984
823.13	5977
823.27	5901
823.41	5775
823.55	5809
823.69	5832
823.83	5786
823.97	5680
824.11	5566
824.25	5577
824.389	5570
824.529	5611
824.669	5577
824.809	5691
824.949	5729
825.089	5676
825.228	5615
825.368	5433
825.508	5360
825.648	5368
825.787	5410
825.927	5368
826.067	5334
826.206	5337
826.346	5368
826.485	5471
826.625	5425
826.765	5512
826.904	5486
827.044	5265
827.183	5246
827.323	5193
827.462	5277
827.601	5246
827.741	5193
827.88	5284
828.02	5242
828.159	5239
828.298	5296
828.437	5410
828.577	5307
828.716	5497
828.855	5353
828.994	5216
829.134	5155
829.273	5216
829.412	5193
829.551	5162
829.69	5204
829.829	5239
829.968	5345
830.107	5345
830.246	5299
830.385	5185
830.524	5124
830.663	5086
830.802	4999
830.941	4976
831.08	4881
831.219	5041
831.357	4957
831.496	5216
831.635	4953
831.774	4877
831.913	4915
832.051	4736
832.19	4812
832.329	4858
832.467	4729
832.606	4687
832.744	4698
832.883	4767
833.022	4767
833.16	4820
833.299	4831
833.437	4854
833.576	4809
833.714	4896
833.852	4889
833.991	4923
834.129	5014
834.267	5014
834.406	4885
834.544	4987
834.682	5018
834.821	4961
834.959	5174
835.097	5010
835.235	5178
835.373	5083
835.511	5128
835.65	5102
835.788	5060
835.926	4934
836.064	4911
836.202	4980
836.34	5170
836.478	5212
836.615	5109
836.753	5250
836.891	5265
837.029	5303
837.167	5242
837.305	5201
837.443	5178
837.58	5170
837.718	5250
837.856	5250
837.993	5201
838.131	5197
838.269	5174
838.406	5216
838.544	5204
838.681	5105
838.819	5056
838.956	4919
839.094	4896
839.231	4999
839.369	5105
839.506	5444
839.643	5284
839.781	5109
839.918	5052
840.055	5124
840.193	5170
840.33	5117
840.467	5151
840.604	5212
840.742	5436
840.879	5121
841.016	5083
841.153	5159
841.29	5387
841.427	5311
841.564	5341
841.701	5379
841.838	5265
841.975	5223
842.112	5273
842.249	5170
842.385	5113
842.522	5391
842.659	5174
842.796	5178
842.933	5193
843.069	5159
843.206	5121
843.343	5299
843.479	5239
843.616	5299
843.752	5075
843.889	5018
844.025	5242
844.162	5018
844.298	5265
844.435	5090
844.571	5071
844.708	5239
844.844	5296
844.98	5345
845.117	5337
845.253	5181
845.389	5105
845.525	5185
845.661	5155
845.798	5075
845.934	5117
846.07	5071
846.206	5170
846.342	5280
846.478	5193
846.614	5010
846.75	5003
846.886	4953
847.022	5170
847.158	5056
847.294	5037
847.429	5079
847.565	5121
847.701	5326
847.837	4870
847.972	4843
848.108	4915
848.244	4961
848.379	4824
848.515	4778
848.65	4721
848.786	4801
848.921	4835
849.057	4877
849.192	4934
849.328	4774
849.463	4904
849.598	4816
849.734	4805
849.869	4721
850.004	4645
850.14	4714
850.275	4618
850.41	4588
850.545	4531
850.68	4634
850.815	4668
850.95	4710
851.085	4862
851.22	4782
851.355	4702
851.49	4577
851.625	4672
851.76	4660
851.895	4588
852.03	4531
852.165	4691
852.299	4774
852.434	4805
852.569	4782
852.703	4801
852.838	4816
852.973	4987
853.107	4946
853.242	4725
853.376	4672
853.511	4573
853.645	4664
853.78	4797
853.914	4729
854.048	4714
854.183	4721
854.317	4786
854.451	4892
854.585	4691
854.72	4634
854.854	4797
854.988	4618
855.122	4683
855.256	4546
855.39	4641
855.524	4767
855.658	4771
855.792	4717
855.926	4740
856.06	4786
856.194	4835
856.327	4717
856.461	4630
856.595	4691
856.729	4714
856.862	4801
856.996	4736
857.13	4736
857.263	4839
857.397	4816
857.53	4668
857.664	4771
857.797	4793
857.931	4828
858.064	4706
858.197	4736
858.331	4664
858.464	4618
858.597	4531
858.731	4683
858.864	4702
858.997	4615
859.13	4710
859.263	4717
859.396	4714
859.529	4573
859.662	4603
859.795	4542
859.928	4641
860.061	4778
860.194	4774
860.327	4615
860.46	4561
860.592	4733
860.725	4698
860.858	4721
860.99	4622
861.123	4527
861.256	4523
861.388	4634
861.521	5261
861.653	4500
861.786	4402
861.918	4497
862.05	4485
862.183	4584
862.315	4611
862.447	4672
862.58	4584
862.712	4428
862.844	4352
862.976	4504
863.108	4504
863.24	4889
863.372	4371
863.504	4424
863.636	4455
863.768	4538
863.9	4466
864.032	4398
864.164	4421
864.296	4481
864.428	4561
864.559	4584
864.691	4550
864.823	4527
864.954	4485
865.086	4569
865.217	4478
865.349	4402
865.48	4485
865.612	4512
865.743	4634
865.875	4500
866.006	4436
866.137	4542
866.269	4485
866.4	4398
866.531	4428
866.662	4443
866.793	4405
866.924	4386
867.055	4508
867.186	4474
867.317	4451
867.448	4383
867.579	4417
867.71	4367
867.841	4424
867.972	4497
868.103	4474
868.233	4443
868.364	4440
868.495	4493
868.625	4675
868.756	4793
868.886	4603
869.017	4645
869.147	4771
869.278	4767
869.408	4683
869.539	4622
869.669	4729
869.799	4736
869.929	4816
870.06	4744
870.19	4991
870.32	5003
870.45	4927
870.58	5056
870.71	5079
870.84	5102
870.97	4961
871.1	4896
871.23	5113
871.36	5136
871.489	5022
871.619	5124
871.749	5132
871.879	5128
872.008	5193
872.138	5029
872.267	5029
872.397	4915
872.526	4812
872.656	4710
872.785	4793
872.915	4980
873.044	5037
873.173	4946
873.303	4987
873.432	4968
873.561	4949
873.69	4896
873.819	4858
873.948	4923
874.077	4824
874.206	4740
874.335	4793
874.464	4949
874.593	5102
874.722	4999
874.851	5086
874.979	5052
875.108	4976
875.237	4965
875.365	4877
875.494	4877
875.623	4965
875.751	4862
875.88	4915
876.008	4987
876.136	5033
876.265	5189
876.393	5379
876.521	5292
876.65	5284
876.778	5216
876.906	5094
877.034	5086
877.162	5056
877.29	5018
877.418	5079
877.546	5052
877.674	5079
877.802	5045
877.93	5025
878.058	4930
878.185	4889
878.313	4961
878.441	4854
878.568	4793
878.696	4904
878.824	4949
878.951	5037
879.079	5147
879.206	5372
879.333	5136
879.461	5022
879.588	5010
879.715	5162
879.842	5227
879.97	5037
880.097	4755
880.224	4778
880.351	4812
880.478	4835
880.605	4828
880.732	4778
880.859	5094
880.986	4877
881.112	4908
881.239	4820
881.366	4683
881.493	4630
881.619	4554
881.746	4626
881.872	4622
881.999	4626
882.125	4714
882.252	4782
882.378	4824
882.505	4946
882.631	4790
882.757	4714
882.883	4714
883.01	4698
883.136	4641
883.262	4611
883.388	4611
883.514	4805
883.64	4889
883.766	4793
883.892	4653
884.018	4733
884.143	4934
884.269	5006
884.395	4641
884.52	4660
884.646	4653
884.772	4554
884.897	4592
885.023	4660
885.148	4809
885.274	4896
885.399	4805
885.524	4748
885.65	4694
885.775	4801
885.9	4790
886.025	4854
886.15	4782
886.275	4694
886.4	4672
886.525	4721
886.65	4702
886.775	4694
886.9	4892
887.025	5048
887.149	4831
887.274	4630
887.399	4618
887.523	4596
887.648	4584
887.773	4573
887.897	4748
888.021	4809
888.146	4660
888.27	4831
888.395	4927
888.519	4858
888.643	4786
888.767	4801
888.891	4694
889.015	4592
889.139	4641
889.263	4660
889.387	4763
889.511	4889
889.635	4771
889.759	4626
889.883	4618
890.006	4733
890.13	4835
890.254	4599
890.377	4694
890.501	4470
890.624	4565
890.748	4645
890.871	4527
890.995	4443
891.118	4428
891.241	4538
891.364	4588
891.488	4599
891.611	4493
891.734	4550
891.857	4558
891.98	4535
892.103	4645
892.226	4649
892.349	4470
892.471	4398
892.594	4565
892.717	4634
892.839	4626
892.962	4622
893.085	4637
893.207	4561
893.33	4500
893.452	4535
893.575	4683
893.697	4550
893.819	4801
893.941	4831
894.064	4733
894.186	4603
894.308	4565
894.43	4733
894.552	4809
894.674	4763
894.796	4569
894.918	4622
895.04	4618
895.161	4691
895.283	4691
895.405	4577
895.526	4637
895.648	4717
895.769	4653
895.891	4733
896.012	4744
896.134	4706
896.255	4672
896.376	4622
896.498	4618
896.619	4694
896.74	4618
896.861	4656
896.982	4957
897.103	5045
897.224	4839
897.345	4759
897.466	4672
897.587	4698
897.708	4843
897.828	4797
897.949	4683
898.07	4580
898.19	4626
898.311	4816
898.431	4717
898.552	4702
898.672	4797
898.792	4801
898.913	4729
899.033	4637
899.153	4508
899.273	4459
899.393	4516
899.513	4497
899.633	4519
899.753	4542
899.873	4497
899.993	4577
900.113	4523
900.232	4573
900.352	4542
900.472	4516
900.591	4413
900.711	4493
900.83	4424
900.95	4615
901.069	4721
901.189	4558
901.308	4341
901.427	4379
901.546	4405
901.665	4443
901.784	4519
901.904	4356
902.023	4306
902.141	4227
902.26	4128
902.379	4367
902.498	4265
902.617	4253
902.735	4348
902.854	4352
902.973	4375
903.091	4204
903.21	4242
903.328	4276
903.446	4261
903.565	4238
903.683	4390
903.801	4268
903.919	4360
904.038	4466
904.156	4341
904.274	4455
904.392	4390
904.51	4481
904.627	4485
904.745	4561
904.863	4637
904.981	4455
905.098	4291
905.216	4363
905.334	4481
905.451	4459
905.569	4440
905.686	4596
905.803	4554
905.921	4447
906.038	4554
906.155	4497
906.272	4379
906.389	4466
906.506	4363
906.623	4356
906.74	4383
906.857	4375
906.974	4383
907.091	4611
907.208	4649
907.324	4588
907.441	4519
907.557	4333
907.674	4344
907.79	4314
907.907	4440
908.023	4481
908.139	4504
908.256	4451
908.372	4504
908.488	4478
908.604	4344
908.72	4371
908.836	4371
908.952	4363
909.068	4455
909.184	4630
909.3	4493
909.415	4588
909.531	4531
909.647	4333
909.762	4402
909.878	4318
909.993	4417
910.108	4417
910.224	4440
910.339	4523
910.454	4432
910.57	4386
910.685	4310
910.8	4622
910.915	4588
911.03	4474
911.145	4341
911.259	4352
911.374	4383
911.489	4303
911.604	4246
911.718	4158
911.833	4204
911.947	4055
912.062	4010
912.176	4192
912.291	4223
912.405	4242
912.519	4504
912.633	4489
912.748	4337
912.862	4318
912.976	4196
913.09	4097
913.204	4192
913.318	4287
913.431	4390
913.545	4352
913.659	4424
913.772	4310
913.886	4276
914	4200
914.113	4371
914.226	4424
914.34	4337
914.453	4295
914.566	4424
914.68	4295
914.793	4348
914.906	4147
915.019	4071
915.132	4105
915.245	4207
915.358	4204
915.47	4215
915.583	4310
915.696	4265
915.809	4360
915.921	4470
916.034	4242
916.146	4230
916.259	4227
916.371	4375
916.483	4284
916.595	4280
916.708	4337
916.82	4322
916.932	4310
917.044	4344
917.156	4322
917.268	4173
917.38	4295
917.491	4280
917.603	4329
917.715	4432
917.826	4432
917.938	4352
918.049	4265
918.161	4440
918.272	4577
918.384	4531
918.495	4443
918.606	4272
918.717	4238
918.828	4325
918.939	4367
919.05	4249
919.161	4318
919.272	4147
919.383	4234
919.494	4424
919.604	4622
919.715	4466
919.826	4295
919.936	4333
920.047	4493
920.157	4481
920.267	4675
920.378	4554
920.488	4523
920.598	4694
920.708	4923
920.818	4782
920.928	4752
921.038	4904
921.148	4934
921.258	4603
921.368	4577
921.477	4546
921.587	4394
921.697	4375
921.806	4542
921.916	4447
922.025	4268
922.134	4230
922.244	4223
922.353	4303
922.462	4169
922.571	4135
922.68	4025
922.789	3968
922.898	4067
923.007	3983
923.116	4090
923.224	4059
923.333	4078
923.442	4010
923.55	3975
923.659	4002
923.767	4116
923.876	4044
923.984	4120
924.092	4029
924.201	4074
924.309	4067
924.417	4143
924.525	4059
924.633	4120
924.741	5048
924.849	3922
924.956	4143
925.064	3949
925.172	3884
925.279	3964
925.387	4063
925.494	4074
925.602	4249
925.709	4230
925.816	4051
925.924	4116
926.031	4211
926.138	4169
926.245	4207
926.352	4044
926.459	4291
926.566	4280
926.673	4147
926.779	4101
926.886	4116
926.993	3934
927.099	3979
927.206	3987
927.312	3918
927.419	4055
927.525	3987
927.631	4067
927.737	3945
927.843	3956
927.95	3823
928.056	3998
928.162	4006
928.267	4067
928.373	4641
928.479	4116
928.585	3884
928.69	3991
928.796	4090
928.901	4021
929.007	3808
929.112	3987
929.218	3983
929.323	3918
929.428	3941
929.533	4097
929.638	3934
929.743	3934
929.848	4036
929.953	4010
930.058	3930
930.163	3751
930.267	3827
930.372	3972
930.477	3842
930.581	4063
930.685	3994
930.79	3831
930.894	3880
930.998	3835
931.103	4025
931.207	3709
931.311	3701
931.415	3679
931.519	3526
931.623	3576
