Data from test_V78500241_2292.txt Node
Date: Fri Mar 25 17:04:56 CST 2022
User: usil
Spectrometer: V785-0024
Trigger mode: 0
Integration Time (sec): 4.000000E-1
Scans to average: 1
Nonlinearity correction enabled: false
Boxcar width: 0
Storing dark spectrum: false
XAxis mode: Wavelengths
Number of Pixels in Spectrum: 1024
>>>>>Begin Spectral Data<<<<<
801.071	7974
801.214	8050
801.356	7887
801.499	7833
801.641	7788
801.783	7833
801.926	8001
802.068	7974
802.211	8012
802.353	8024
802.496	7864
802.638	7913
802.78	7894
802.923	7947
803.065	7860
803.208	7890
803.35	7955
803.492	8050
803.635	8210
803.777	8062
803.919	8119
804.061	8499
804.204	8206
804.346	8107
804.488	7947
804.63	8065
804.773	8035
804.915	8180
805.057	8362
805.199	8237
805.341	8157
805.483	8218
805.626	8248
805.768	8126
805.91	8229
806.052	8233
806.194	8115
806.336	8305
806.478	8111
806.62	8062
806.762	8153
806.904	8195
807.046	8450
807.188	8434
807.33	8267
807.472	8290
807.614	8119
807.756	8195
807.898	8043
808.04	7845
808.182	7947
808.324	7856
808.465	7921
808.607	8088
808.749	8149
808.891	8229
809.033	8377
809.174	8221
809.316	8130
809.458	8149
809.6	8039
809.741	8153
809.883	8020
810.025	8058
810.166	8111
810.308	7955
810.45	8027
810.591	7917
810.733	7746
810.875	7647
811.016	7506
811.158	7480
811.299	7605
811.441	7715
811.582	7681
811.724	7578
811.865	7601
812.007	7582
812.148	7601
812.29	7639
812.431	7788
812.573	7909
812.714	7936
812.855	8145
812.997	8279
813.138	8259
813.279	8161
813.421	8138
813.562	7932
813.703	7818
813.845	7685
813.986	7430
814.127	7255
814.268	7270
814.41	7156
814.551	7175
814.692	7244
814.833	7114
814.974	7129
815.115	7076
815.256	7012
815.397	6989
815.539	6973
815.68	6856
815.821	6798
815.962	6897
816.103	6840
816.244	6715
816.385	6700
816.526	6631
816.666	6494
816.807	6331
816.948	6467
817.089	6513
817.23	6479
817.371	6414
817.512	6353
817.653	6388
817.793	6433
817.934	6429
818.075	6471
818.216	6498
818.356	6456
818.497	6258
818.638	6171
818.778	6209
818.919	6136
819.06	6163
819.2	6376
819.341	6350
819.481	6388
819.622	6502
819.762	6745
819.903	6688
820.043	6585
820.184	6597
820.324	6582
820.465	6741
820.605	6703
820.746	6654
820.886	6540
821.026	6620
821.167	6692
821.307	6833
821.447	6772
821.588	6700
821.728	6631
821.868	6479
822.008	6353
822.149	6418
822.289	6388
822.429	6144
822.569	6098
822.709	6167
822.849	5916
822.99	5942
823.13	5954
823.27	5908
823.41	5813
823.55	5786
823.69	5805
823.83	5805
823.97	5672
824.11	5581
824.25	5524
824.389	5562
824.529	5627
824.669	5573
824.809	5642
824.949	5668
825.089	5589
825.228	5608
825.368	5402
825.508	5345
825.648	5345
825.787	5406
825.927	5391
826.067	5303
826.206	5322
826.346	5357
826.485	5410
826.625	5429
826.765	5589
826.904	5554
827.044	5204
827.183	5223
827.323	5140
827.462	5265
827.601	5170
827.741	5208
827.88	5303
828.02	5181
828.159	5220
828.298	5315
828.437	5360
828.577	5250
828.716	5535
828.855	5315
828.994	5166
829.134	5147
829.273	5166
829.412	5151
829.551	5181
829.69	5189
829.829	5201
829.968	5391
830.107	5288
830.246	5250
830.385	5162
830.524	5208
830.663	5052
830.802	5006
830.941	4839
831.08	4923
831.219	4984
831.357	4968
831.496	5197
831.635	4942
831.774	4896
831.913	4866
832.051	4763
832.19	4717
832.329	4881
832.467	4729
832.606	4664
832.744	4725
832.883	4714
833.022	4725
833.16	4839
833.299	4831
833.437	4805
833.576	4862
833.714	4881
833.852	4873
833.991	4904
834.129	4987
834.267	4991
834.406	4953
834.544	4972
834.682	4984
834.821	4949
834.959	5178
835.097	5022
835.235	5166
835.373	5083
835.511	5143
835.65	5037
835.788	5022
835.926	4896
836.064	4881
836.202	4896
836.34	5155
836.478	5239
836.615	5147
836.753	5178
836.891	5322
837.029	5254
837.167	5227
837.305	5166
837.443	5162
837.58	5090
837.718	5265
837.856	5201
837.993	5162
838.131	5265
838.269	5208
838.406	5220
838.544	5124
838.681	5056
838.819	5003
838.956	4927
839.094	4900
839.231	5018
839.369	5132
839.506	5421
839.643	5303
839.781	5056
839.918	5018
840.055	5132
840.193	5105
840.33	5117
840.467	5151
840.604	5235
840.742	5463
840.879	5071
841.016	5166
841.153	5181
841.29	5395
841.427	5337
841.564	5296
841.701	5406
841.838	5265
841.975	5201
842.112	5296
842.249	5128
842.385	5094
842.522	5364
842.659	5212
842.796	5162
842.933	5155
843.069	5185
843.206	5147
843.343	5326
843.479	5220
843.616	5258
843.752	5018
843.889	5014
844.025	5185
844.162	5079
844.298	5277
844.435	5086
844.571	5117
844.708	5242
844.844	5322
844.98	5326
845.117	5299
845.253	5147
845.389	5086
845.525	5170
845.661	5143
845.798	5010
845.934	5102
846.07	5025
846.206	5166
846.342	5292
846.478	5189
846.614	5048
846.75	4995
846.886	4957
847.022	5121
847.158	5060
847.294	5060
847.429	5113
847.565	5079
847.701	5337
847.837	4850
847.972	4835
848.108	4942
848.244	4980
848.379	4797
848.515	4733
848.65	4752
848.786	4767
848.921	4797
849.057	4843
849.192	4866
849.328	4870
849.463	4892
849.598	4824
849.734	4744
849.869	4702
850.004	4615
850.14	4645
850.275	4637
850.41	4519
850.545	4588
850.68	4603
850.815	4630
850.95	4645
851.085	4862
851.22	4752
851.355	4675
851.49	4596
851.625	4630
851.76	4649
851.895	4599
852.03	4569
852.165	4664
852.299	4714
852.434	4801
852.569	4752
852.703	4809
852.838	4824
852.973	4923
853.107	4900
853.242	4725
853.376	4687
853.511	4523
853.645	4630
853.78	4862
853.914	4706
854.048	4672
854.183	4637
854.317	4672
854.451	4824
854.585	4694
854.72	4656
854.854	4767
854.988	4561
855.122	4660
855.256	4531
855.39	4691
855.524	4786
855.658	4740
855.792	4668
855.926	4729
856.06	4778
856.194	4812
856.327	4721
856.461	4634
856.595	4626
856.729	4630
856.862	4793
856.996	4725
857.13	4778
857.263	4786
857.397	4786
857.53	4683
857.664	4717
857.797	4816
857.931	4820
858.064	4721
858.197	4752
858.331	4664
858.464	4656
858.597	4538
858.731	4615
858.864	4672
858.997	4679
859.13	4702
859.263	4694
859.396	4740
859.529	4656
859.662	4618
859.795	4577
859.928	4694
860.061	4733
860.194	4797
860.327	4660
860.46	4603
860.592	4809
860.725	4771
860.858	4759
860.99	4584
861.123	4607
861.256	4592
861.388	4710
861.521	5326
861.653	4535
861.786	4500
861.918	4512
862.05	4618
862.183	4607
862.315	4603
862.447	4668
862.58	4588
862.712	4504
862.844	4379
862.976	4546
863.108	4489
863.24	4889
863.372	4360
863.504	4485
863.636	4478
863.768	4508
863.9	4500
864.032	4402
864.164	4436
864.296	4481
864.428	4599
864.559	4569
864.691	4569
864.823	4546
864.954	4550
865.086	4535
865.217	4466
865.349	4466
865.48	4474
865.612	4523
865.743	4653
865.875	4535
866.006	4451
866.137	4519
866.269	4462
866.4	4535
866.531	4485
866.662	4375
866.793	4409
866.924	4497
867.055	4508
867.186	4531
867.317	4440
867.448	4390
867.579	4455
867.71	4455
867.841	4413
867.972	4516
868.103	4519
868.233	4485
868.364	4459
868.495	4516
868.625	4736
868.756	4744
868.886	4596
869.017	4656
869.147	4820
869.278	4759
869.408	4698
869.539	4687
869.669	4702
869.799	4702
869.929	4752
870.06	4755
870.19	5010
870.32	4965
870.45	4984
870.58	5067
870.71	5128
870.84	5113
870.97	4995
871.1	4904
871.23	5231
871.36	5178
871.489	5037
871.619	5094
871.749	5151
871.879	5147
872.008	5181
872.138	5025
872.267	5025
872.397	4896
872.526	4835
872.656	4759
872.785	4877
872.915	4991
873.044	5094
873.173	4980
873.303	5006
873.432	4984
873.561	4987
873.69	4919
873.819	4919
873.948	4949
874.077	4839
874.206	4767
874.335	4820
874.464	4949
874.593	5109
874.722	4957
874.851	5143
874.979	5098
875.108	5056
875.237	4877
875.365	4900
875.494	4919
875.623	5045
875.751	4911
875.88	4927
876.008	4999
876.136	5071
876.265	5159
876.393	5398
876.521	5288
876.65	5208
876.778	5201
876.906	5109
877.034	5052
877.162	5075
877.29	4991
877.418	5052
877.546	5045
877.674	5117
877.802	5056
877.93	5067
878.058	5052
878.185	4923
878.313	4908
878.441	4946
878.568	4881
878.696	4919
878.824	4995
878.951	5029
879.079	5174
879.206	5376
879.333	5155
879.461	5010
879.588	5064
879.715	5113
879.842	5277
879.97	5025
880.097	4820
880.224	4793
880.351	4828
880.478	4850
880.605	4805
880.732	4850
880.859	5128
880.986	4946
881.112	4911
881.239	4767
881.366	4729
881.493	4630
881.619	4637
881.746	4622
881.872	4717
881.999	4668
882.125	4721
882.252	4801
882.378	4862
882.505	4968
882.631	4820
882.757	4721
882.883	4790
883.01	4752
883.136	4748
883.262	4592
883.388	4668
883.514	4831
883.64	4854
883.766	4881
883.892	4725
884.018	4786
884.143	4957
884.269	5056
884.395	4721
884.52	4645
884.646	4668
884.772	4599
884.897	4653
885.023	4729
885.148	4843
885.274	4896
885.399	4805
885.524	4778
885.65	4679
885.775	4805
885.9	4752
886.025	4850
886.15	4790
886.275	4691
886.4	4653
886.525	4763
886.65	4714
886.775	4729
886.9	4911
887.025	5075
887.149	4847
887.274	4660
887.399	4588
887.523	4615
887.648	4599
887.773	4561
887.897	4782
888.021	4790
888.146	4656
888.27	4831
888.395	4938
888.519	4805
888.643	4862
888.767	4824
888.891	4752
889.015	4615
889.139	4634
889.263	4592
889.387	4805
889.511	4881
889.635	4790
889.759	4588
889.883	4672
890.006	4702
890.13	4858
890.254	4664
890.377	4683
890.501	4523
890.624	4603
890.748	4672
890.871	4577
890.995	4497
891.118	4417
891.241	4565
891.364	4561
891.488	4637
891.611	4489
891.734	4554
891.857	4660
891.98	4569
892.103	4675
892.226	4645
892.349	4546
892.471	4455
892.594	4588
892.717	4641
892.839	4592
892.962	4592
893.085	4694
893.207	4653
893.33	4527
893.452	4527
893.575	4645
893.697	4561
893.819	4862
893.941	4820
894.064	4736
894.186	4611
894.308	4615
894.43	4733
894.552	4862
894.674	4786
894.796	4565
894.918	4618
895.04	4580
895.161	4748
895.283	4668
895.405	4588
895.526	4649
895.648	4721
895.769	4687
895.891	4740
896.012	4721
896.134	4748
896.255	4675
896.376	4664
896.498	4630
896.619	4683
896.74	4641
896.861	4645
896.982	4976
897.103	5075
897.224	4816
897.345	4774
897.466	4721
897.587	4687
897.708	4885
897.828	4767
897.949	4694
898.07	4637
898.19	4675
898.311	4839
898.431	4721
898.552	4740
898.672	4854
898.792	4828
898.913	4763
899.033	4645
899.153	4500
899.273	4451
899.393	4519
899.513	4569
899.633	4542
899.753	4558
899.873	4569
899.993	4630
900.113	4558
900.232	4599
900.352	4531
900.472	4519
900.591	4371
900.711	4519
900.83	4417
900.95	4649
901.069	4691
901.189	4554
901.308	4379
901.427	4329
901.546	4413
901.665	4466
901.784	4508
901.904	4383
902.023	4371
902.141	4185
902.26	4211
902.379	4310
902.498	4253
902.617	4261
902.735	4356
902.854	4436
902.973	4314
903.091	4211
903.21	4261
903.328	4257
903.446	4318
903.565	4265
903.683	4405
903.801	4322
903.919	4417
904.038	4436
904.156	4402
904.274	4459
904.392	4394
904.51	4443
904.627	4512
904.745	4584
904.863	4649
904.981	4436
905.098	4337
905.216	4383
905.334	4504
905.451	4462
905.569	4447
905.686	4592
905.803	4565
905.921	4402
906.038	4554
906.155	4523
906.272	4428
906.389	4459
906.506	4375
906.623	4371
906.74	4390
906.857	4287
906.974	4383
907.091	4611
907.208	4691
907.324	4569
907.441	4466
907.557	4344
907.674	4375
907.79	4356
907.907	4402
908.023	4478
908.139	4493
908.256	4466
908.372	4519
908.488	4451
908.604	4337
908.72	4333
908.836	4424
908.952	4356
909.068	4405
909.184	4607
909.3	4466
909.415	4569
909.531	4607
909.647	4417
909.762	4390
909.878	4352
909.993	4424
910.108	4470
910.224	4405
910.339	4508
910.454	4424
910.57	4402
910.685	4310
910.8	4683
910.915	4637
911.03	4485
911.145	4341
911.259	4314
911.374	4363
911.489	4310
911.604	4318
911.718	4139
911.833	4227
911.947	4097
912.062	4044
912.176	4234
912.291	4242
912.405	4234
912.519	4512
912.633	4527
912.748	4398
912.862	4295
912.976	4207
913.09	4116
913.204	4211
913.318	4268
913.431	4363
913.545	4379
913.659	4428
913.772	4363
913.886	4265
914	4280
914.113	4398
914.226	4470
914.34	4409
914.453	4211
914.566	4451
914.68	4314
914.793	4371
914.906	4188
915.019	4150
915.132	4135
915.245	4181
915.358	4211
915.47	4234
915.583	4265
915.696	4310
915.809	4436
915.921	4474
916.034	4337
916.146	4265
916.259	4230
916.371	4413
916.483	4402
916.595	4280
916.708	4325
916.82	4341
916.932	4352
917.044	4379
917.156	4322
917.268	4287
917.38	4253
917.491	4253
917.603	4325
917.715	4459
917.826	4459
917.938	4337
918.049	4261
918.161	4424
918.272	4561
918.384	4538
918.495	4478
918.606	4329
918.717	4223
918.828	4333
918.939	4337
919.05	4265
919.161	4337
919.272	4166
919.383	4192
919.494	4489
919.604	4634
919.715	4481
919.826	4310
919.936	4390
920.047	4558
920.157	4478
920.267	4736
920.378	4542
920.488	4550
920.598	4691
920.708	4923
920.818	4767
920.928	4790
921.038	4957
921.148	4938
921.258	4592
921.368	4577
921.477	4516
921.587	4478
921.697	4375
921.806	4569
921.916	4470
922.025	4329
922.134	4265
922.244	4238
922.353	4352
922.462	4207
922.571	4162
922.68	4090
922.789	3975
922.898	4021
923.007	4051
923.116	4128
923.224	4090
923.333	4093
923.442	4002
923.55	3975
923.659	4063
923.767	4078
923.876	4013
923.984	4071
924.092	3949
924.201	4082
924.309	4109
924.417	4147
924.525	4086
924.633	4093
924.741	5079
924.849	3918
924.956	4143
925.064	3975
925.172	3892
925.279	3968
925.387	4055
925.494	4055
925.602	4200
925.709	4207
925.816	3987
925.924	4158
926.031	4215
926.138	4185
926.245	4188
926.352	4093
926.459	4276
926.566	4284
926.673	4166
926.779	4109
926.886	4078
926.993	3994
927.099	3930
927.206	4006
927.312	3956
927.419	4067
927.525	4017
927.631	4135
927.737	3918
927.843	3945
927.95	3896
928.056	3983
928.162	3987
928.267	4048
928.373	4702
928.479	4143
928.585	3857
928.69	4067
928.796	4063
928.901	3994
929.007	3827
929.112	4002
929.218	3975
929.323	3941
929.428	3979
929.533	4116
929.638	3915
929.743	3960
929.848	4067
929.953	3998
930.058	3941
930.163	3774
930.267	3831
930.372	3987
930.477	3812
930.581	4109
930.685	3956
930.79	3770
930.894	3888
930.998	3827
931.103	4044
931.207	3732
931.311	3709
931.415	3682
931.519	3545
931.623	3538
