Data from test_V78500241_2558.txt Node
Date: Fri Mar 25 17:06:47 CST 2022
User: usil
Spectrometer: V785-0024
Trigger mode: 0
Integration Time (sec): 4.000000E-1
Scans to average: 1
Nonlinearity correction enabled: false
Boxcar width: 0
Storing dark spectrum: false
XAxis mode: Wavelengths
Number of Pixels in Spectrum: 1024
>>>>>Begin Spectral Data<<<<<
801.071	8012
801.214	7997
801.356	7841
801.499	7849
801.641	7799
801.783	7788
801.926	7879
802.068	7921
802.211	7989
802.353	8035
802.496	7913
802.638	7845
802.78	7890
802.923	7875
803.065	7906
803.208	7894
803.35	7978
803.492	8054
803.635	8275
803.777	8020
803.919	8176
804.061	8450
804.204	8153
804.346	8054
804.488	7944
804.63	8088
804.773	7989
804.915	8084
805.057	8244
805.199	8134
805.341	8248
805.483	8282
805.626	8256
805.768	8157
805.91	8180
806.052	8233
806.194	8119
806.336	8233
806.478	8096
806.62	8084
806.762	8107
806.904	8233
807.046	8385
807.188	8347
807.33	8282
807.472	8339
807.614	8119
807.756	8126
807.898	8005
808.04	7860
808.182	7879
808.324	7841
808.465	7890
808.607	8058
808.749	8145
808.891	8252
809.033	8313
809.174	8187
809.316	8077
809.458	8027
809.6	7978
809.741	8020
809.883	7959
810.025	8130
810.166	8050
810.308	8001
810.45	8031
810.591	7852
810.733	7715
810.875	7636
811.016	7575
811.158	7468
811.299	7563
811.441	7677
811.582	7674
811.724	7609
811.865	7540
812.007	7586
812.148	7632
812.29	7685
812.431	7723
812.573	7887
812.714	7963
812.855	8084
812.997	8176
813.138	8324
813.279	8149
813.421	8081
813.562	7986
813.703	7818
813.845	7723
813.986	7483
814.127	7236
814.268	7179
814.41	7244
814.551	7190
814.692	7209
814.833	7129
814.974	7069
815.115	7072
815.256	6905
815.397	6947
815.539	6985
815.68	6829
815.821	6764
815.962	6882
816.103	6787
816.244	6707
816.385	6631
816.526	6585
816.666	6486
816.807	6315
816.948	6448
817.089	6467
817.23	6418
817.371	6372
817.512	6403
817.653	6426
817.793	6327
817.934	6467
818.075	6422
818.216	6418
818.356	6426
818.497	6258
818.638	6148
818.778	6133
818.919	6102
819.06	6136
819.2	6361
819.341	6334
819.481	6350
819.622	6479
819.762	6696
819.903	6757
820.043	6559
820.184	6635
820.324	6547
820.465	6692
820.605	6623
820.746	6665
820.886	6494
821.026	6692
821.167	6715
821.307	6818
821.447	6776
821.588	6669
821.728	6601
821.868	6471
822.008	6311
822.149	6395
822.289	6369
822.429	6201
822.569	6068
822.709	6152
822.849	5939
822.99	5946
823.13	5988
823.27	5927
823.41	5794
823.55	5786
823.69	5802
823.83	5786
823.97	5646
824.11	5505
824.25	5467
824.389	5585
824.529	5615
824.669	5562
824.809	5585
824.949	5707
825.089	5665
825.228	5573
825.368	5376
825.508	5326
825.648	5353
825.787	5376
825.927	5360
826.067	5299
826.206	5254
826.346	5383
826.485	5406
826.625	5398
826.765	5539
826.904	5433
827.044	5250
827.183	5181
827.323	5105
827.462	5246
827.601	5170
827.741	5166
827.88	5246
828.02	5083
828.159	5189
828.298	5364
828.437	5337
828.577	5288
828.716	5444
828.855	5311
828.994	5178
829.134	5147
829.273	5178
829.412	5155
829.551	5109
829.69	5147
829.829	5216
829.968	5360
830.107	5227
830.246	5246
830.385	5197
830.524	5098
830.663	5083
830.802	4972
830.941	4843
831.08	4877
831.219	4976
831.357	4965
831.496	5136
831.635	4911
831.774	4824
831.913	4847
832.051	4755
832.19	4717
832.329	4809
832.467	4653
832.606	4660
832.744	4702
832.883	4672
833.022	4759
833.16	4793
833.299	4778
833.437	4790
833.576	4824
833.714	4828
833.852	4843
833.991	4881
834.129	4938
834.267	4927
834.406	4889
834.544	4930
834.682	4987
834.821	4987
834.959	5132
835.097	4987
835.235	5178
835.373	5064
835.511	5162
835.65	5064
835.788	4987
835.926	4885
836.064	4847
836.202	4934
836.34	5132
836.478	5189
836.615	5159
836.753	5204
836.891	5273
837.029	5273
837.167	5277
837.305	5170
837.443	5143
837.58	5060
837.718	5235
837.856	5280
837.993	5185
838.131	5273
838.269	5227
838.406	5216
838.544	5208
838.681	5090
838.819	5029
838.956	4877
839.094	4949
839.231	5018
839.369	5117
839.506	5459
839.643	5315
839.781	5071
839.918	5048
840.055	5151
840.193	5090
840.33	5136
840.467	5147
840.604	5227
840.742	5520
840.879	5086
841.016	5189
841.153	5143
841.29	5379
841.427	5360
841.564	5345
841.701	5421
841.838	5330
841.975	5246
842.112	5330
842.249	5147
842.385	5159
842.522	5402
842.659	5162
842.796	5197
842.933	5227
843.069	5254
843.206	5174
843.343	5353
843.479	5235
843.616	5345
843.752	5109
843.889	5025
844.025	5277
844.162	5086
844.298	5258
844.435	5162
844.571	5052
844.708	5216
844.844	5288
844.98	5372
845.117	5322
845.253	5193
845.389	5136
845.525	5189
845.661	5143
845.798	5098
845.934	5166
846.07	5029
846.206	5242
846.342	5311
846.478	5269
846.614	5060
846.75	5025
846.886	5014
847.022	5128
847.158	5064
847.294	5124
847.429	5124
847.565	5086
847.701	5353
847.837	4896
847.972	4824
848.108	4984
848.244	4987
848.379	4805
848.515	4782
848.65	4748
848.786	4752
848.921	4862
849.057	4900
849.192	4919
849.328	4847
849.463	4877
849.598	4828
849.734	4778
849.869	4725
850.004	4679
850.14	4675
850.275	4653
850.41	4607
850.545	4588
850.68	4649
850.815	4649
850.95	4698
851.085	4881
851.22	4763
851.355	4710
851.49	4645
851.625	4664
851.76	4675
851.895	4618
852.03	4561
852.165	4721
852.299	4767
852.434	4801
852.569	4752
852.703	4824
852.838	4877
852.973	4942
853.107	4881
853.242	4797
853.376	4694
853.511	4588
853.645	4637
853.78	4847
853.914	4725
854.048	4672
854.183	4668
854.317	4725
854.451	4892
854.585	4706
854.72	4637
854.854	4843
854.988	4603
855.122	4664
855.256	4516
855.39	4729
855.524	4820
855.658	4774
855.792	4679
855.926	4767
856.06	4854
856.194	4809
856.327	4721
856.461	4618
856.595	4634
856.729	4653
856.862	4771
856.996	4736
857.13	4793
857.263	4790
857.397	4820
857.53	4679
857.664	4782
857.797	4831
857.931	4831
858.064	4752
858.197	4793
858.331	4656
858.464	4641
858.597	4550
858.731	4714
858.864	4694
858.997	4630
859.13	4664
859.263	4694
859.396	4740
859.529	4599
859.662	4580
859.795	4573
859.928	4691
860.061	4774
860.194	4809
860.327	4649
860.46	4653
860.592	4717
860.725	4748
860.858	4797
860.99	4592
861.123	4577
861.256	4531
861.388	4710
861.521	5307
861.653	4466
861.786	4478
861.918	4542
862.05	4565
862.183	4580
862.315	4615
862.447	4675
862.58	4592
862.712	4470
862.844	4356
862.976	4500
863.108	4508
863.24	4793
863.372	4383
863.504	4485
863.636	4394
863.768	4512
863.9	4485
864.032	4409
864.164	4462
864.296	4470
864.428	4599
864.559	4538
864.691	4542
864.823	4550
864.954	4519
865.086	4554
865.217	4527
865.349	4428
865.48	4497
865.612	4489
865.743	4687
865.875	4497
866.006	4436
866.137	4508
866.269	4436
866.4	4424
866.531	4443
866.662	4481
866.793	4508
866.924	4398
867.055	4561
867.186	4455
867.317	4436
867.448	4402
867.579	4413
867.71	4421
867.841	4383
867.972	4504
868.103	4542
868.233	4459
868.364	4485
868.495	4561
868.625	4672
868.756	4778
868.886	4588
869.017	4630
869.147	4839
869.278	4767
869.408	4725
869.539	4698
869.669	4736
869.799	4683
869.929	4786
870.06	4755
870.19	4991
870.32	4999
870.45	4961
870.58	5014
870.71	5124
870.84	5109
870.97	4930
871.1	4877
871.23	5162
871.36	5159
871.489	5079
871.619	5098
871.749	5117
871.879	5151
872.008	5197
872.138	5014
872.267	5033
872.397	4870
872.526	4828
872.656	4790
872.785	4831
872.915	4961
873.044	5033
873.173	4965
873.303	4957
873.432	4991
873.561	4965
873.69	4927
873.819	4877
873.948	5029
874.077	4877
874.206	4767
874.335	4824
874.464	4934
874.593	5113
874.722	5037
874.851	5147
874.979	5079
875.108	5079
875.237	4930
875.365	4862
875.494	4946
875.623	4991
875.751	4877
875.88	4938
876.008	5029
876.136	5045
876.265	5265
876.393	5318
876.521	5258
876.65	5269
876.778	5197
876.906	5067
877.034	4957
877.162	5086
877.29	5025
877.418	5109
877.546	5098
877.674	5105
877.802	5064
877.93	5033
878.058	4995
878.185	4908
878.313	4984
878.441	4976
878.568	4858
878.696	4949
878.824	4984
878.951	5010
879.079	5181
879.206	5376
879.333	5132
879.461	5018
879.588	5052
879.715	5140
879.842	5258
879.97	5018
880.097	4805
880.224	4782
880.351	4809
880.478	4862
880.605	4824
880.732	4816
880.859	5132
880.986	4961
881.112	4976
881.239	4801
881.366	4691
881.493	4618
881.619	4580
881.746	4717
881.872	4637
881.999	4691
882.125	4729
882.252	4812
882.378	4839
882.505	4984
882.631	4850
882.757	4702
882.883	4774
883.01	4733
883.136	4729
883.262	4634
883.388	4630
883.514	4786
883.64	4877
883.766	4805
883.892	4702
884.018	4717
884.143	4908
884.269	5033
884.395	4691
884.52	4599
884.646	4683
884.772	4542
884.897	4645
885.023	4694
885.148	4858
885.274	4908
885.399	4831
885.524	4740
885.65	4706
885.775	4763
885.9	4691
886.025	4873
886.15	4793
886.275	4759
886.4	4721
886.525	4755
886.65	4725
886.775	4725
886.9	4900
887.025	5079
887.149	4828
887.274	4660
887.399	4649
887.523	4637
887.648	4607
887.773	4618
887.897	4816
888.021	4858
888.146	4668
888.27	4839
888.395	4923
888.519	4835
888.643	4847
888.767	4858
888.891	4702
889.015	4660
889.139	4664
889.263	4607
889.387	4725
889.511	4889
889.635	4809
889.759	4668
889.883	4645
890.006	4774
890.13	4816
890.254	4599
890.377	4679
890.501	4554
890.624	4550
890.748	4694
890.871	4516
890.995	4432
891.118	4402
891.241	4485
891.364	4592
891.488	4645
891.611	4550
891.734	4512
891.857	4607
891.98	4577
892.103	4679
892.226	4584
892.349	4584
892.471	4424
892.594	4554
892.717	4599
892.839	4592
892.962	4615
893.085	4653
893.207	4611
893.33	4459
893.452	4527
893.575	4725
893.697	4596
893.819	4824
893.941	4873
894.064	4816
894.186	4599
894.308	4626
894.43	4706
894.552	4850
894.674	4736
894.796	4558
894.918	4664
895.04	4599
895.161	4736
895.283	4691
895.405	4634
895.526	4637
895.648	4653
895.769	4721
895.891	4710
896.012	4759
896.134	4729
896.255	4698
896.376	4645
896.498	4630
896.619	4675
896.74	4641
896.861	4683
896.982	4980
897.103	5037
897.224	4835
897.345	4790
897.466	4714
897.587	4725
897.708	4889
897.828	4782
897.949	4691
898.07	4580
898.19	4672
898.311	4835
898.431	4679
898.552	4714
898.672	4828
898.792	4790
898.913	4782
899.033	4675
899.153	4500
899.273	4432
899.393	4500
899.513	4489
899.633	4538
899.753	4634
899.873	4546
899.993	4611
900.113	4569
900.232	4584
900.352	4558
900.472	4500
900.591	4383
900.711	4523
900.83	4451
900.95	4596
901.069	4687
901.189	4577
901.308	4352
901.427	4363
901.546	4398
901.665	4497
901.784	4531
901.904	4367
902.023	4291
902.141	4238
902.26	4162
902.379	4284
902.498	4284
902.617	4215
902.735	4367
902.854	4386
902.973	4390
903.091	4192
903.21	4192
903.328	4268
903.446	4337
903.565	4227
903.683	4386
903.801	4272
903.919	4447
904.038	4455
904.156	4314
904.274	4428
904.392	4428
904.51	4432
904.627	4478
904.745	4554
904.863	4653
904.981	4371
905.098	4295
905.216	4390
905.334	4428
905.451	4409
905.569	4402
905.686	4588
905.803	4569
905.921	4428
906.038	4592
906.155	4512
906.272	4356
906.389	4409
906.506	4333
906.623	4352
906.74	4371
906.857	4276
906.974	4371
907.091	4542
907.208	4656
907.324	4596
907.441	4512
907.557	4344
907.674	4371
907.79	4329
907.907	4405
908.023	4481
908.139	4508
908.256	4421
908.372	4481
908.488	4432
908.604	4379
908.72	4325
908.836	4375
908.952	4413
909.068	4424
909.184	4592
909.3	4500
909.415	4615
909.531	4565
909.647	4409
909.762	4421
909.878	4383
909.993	4459
910.108	4443
910.224	4470
910.339	4527
910.454	4512
910.57	4398
910.685	4371
910.8	4675
910.915	4675
911.03	4508
911.145	4428
911.259	4333
911.374	4386
911.489	4333
911.604	4322
911.718	4227
911.833	4215
911.947	4105
912.062	4116
912.176	4253
912.291	4295
912.405	4268
912.519	4512
912.633	4531
912.748	4424
912.862	4341
912.976	4253
913.09	4166
913.204	4169
913.318	4280
913.431	4409
913.545	4371
913.659	4481
913.772	4421
913.886	4291
914	4268
914.113	4424
914.226	4504
914.34	4432
914.453	4265
914.566	4504
914.68	4398
914.793	4367
914.906	4192
915.019	4147
915.132	4124
915.245	4242
915.358	4257
915.47	4276
915.583	4291
915.696	4310
915.809	4443
915.921	4447
916.034	4333
916.146	4272
916.259	4291
916.371	4497
916.483	4409
916.595	4276
916.708	4318
916.82	4367
916.932	4344
917.044	4413
917.156	4409
917.268	4261
917.38	4344
917.491	4322
917.603	4348
917.715	4459
917.826	4466
917.938	4379
918.049	4295
918.161	4424
918.272	4637
918.384	4596
918.495	4519
918.606	4337
918.717	4268
918.828	4371
918.939	4436
919.05	4303
919.161	4386
919.272	4188
919.383	4249
919.494	4516
919.604	4668
919.715	4421
919.826	4405
919.936	4474
920.047	4577
920.157	4508
920.267	4710
920.378	4538
920.488	4550
920.598	4759
920.708	4881
920.818	4831
920.928	4774
921.038	4984
921.148	4995
921.258	4664
921.368	4592
921.477	4504
921.587	4466
921.697	4371
921.806	4538
921.916	4470
922.025	4291
922.134	4344
922.244	4242
922.353	4386
922.462	4200
922.571	4192
922.68	4032
922.789	4048
922.898	4048
923.007	4029
923.116	4162
923.224	4120
923.333	4078
923.442	4006
923.55	4025
923.659	4105
923.767	4166
923.876	4082
923.984	4154
924.092	4048
924.201	4116
924.309	4124
924.417	4169
924.525	4093
924.633	4124
924.741	5105
924.849	3991
924.956	4150
925.064	4025
925.172	3934
925.279	4013
925.387	4082
925.494	4090
925.602	4238
925.709	4257
925.816	4101
925.924	4188
926.031	4280
926.138	4215
926.245	4242
926.352	4154
926.459	4268
926.566	4344
926.673	4215
926.779	4116
926.886	4090
926.993	4029
927.099	3975
927.206	4006
927.312	3953
927.419	4139
927.525	4044
927.631	4154
927.737	4048
927.843	3960
927.95	3865
928.056	4040
928.162	4021
928.267	4124
928.373	4653
928.479	4124
928.585	3918
928.69	4101
928.796	4120
928.901	3975
929.007	3888
929.112	4063
929.218	4040
929.323	4006
929.428	4025
929.533	4147
929.638	3937
929.743	4017
929.848	4105
929.953	4006
930.058	3937
930.163	3812
930.267	3873
930.372	4017
930.477	3812
930.581	4147
930.685	3964
930.79	3842
930.894	3930
930.998	3903
931.103	4044
931.207	3724
931.311	3705
931.415	3644
931.519	3564
931.623	3568
