Data from test_V78500241_2598.txt Node
Date: Fri Mar 25 17:07:04 CST 2022
User: usil
Spectrometer: V785-0024
Trigger mode: 0
Integration Time (sec): 4.000000E-1
Scans to average: 1
Nonlinearity correction enabled: false
Boxcar width: 0
Storing dark spectrum: false
XAxis mode: Wavelengths
Number of Pixels in Spectrum: 1024
>>>>>Begin Spectral Data<<<<<
801.071	8123
801.214	8046
801.356	7913
801.499	7883
801.641	7803
801.783	7788
801.926	7967
802.068	7963
802.211	8016
802.353	8012
802.496	7871
802.638	7940
802.78	7906
802.923	7940
803.065	7898
803.208	7852
803.35	7974
803.492	8138
803.635	8164
803.777	8050
803.919	8077
804.061	8381
804.204	8138
804.346	8123
804.488	7989
804.63	8126
804.773	7967
804.915	8134
805.057	8279
805.199	8168
805.341	8183
805.483	8263
805.626	8237
805.768	8202
805.91	8233
806.052	8214
806.194	8111
806.336	8279
806.478	8130
806.62	8103
806.762	8153
806.904	8237
807.046	8446
807.188	8454
807.33	8317
807.472	8275
807.614	8180
807.756	8157
807.898	7959
808.04	7879
808.182	7894
808.324	7887
808.465	7944
808.607	8065
808.749	8084
808.891	8279
809.033	8336
809.174	8240
809.316	8111
809.458	8084
809.6	7997
809.741	8096
809.883	8043
810.025	8111
810.166	8058
810.308	8054
810.45	7989
810.591	7833
810.733	7719
810.875	7689
811.016	7514
811.158	7472
811.299	7636
811.441	7780
811.582	7708
811.724	7613
811.865	7571
812.007	7575
812.148	7643
812.29	7651
812.431	7704
812.573	7868
812.714	8001
812.855	8180
812.997	8233
813.138	8309
813.279	8164
813.421	8107
813.562	8001
813.703	7875
813.845	7765
813.986	7464
814.127	7225
814.268	7240
814.41	7236
814.551	7160
814.692	7194
814.833	7122
814.974	7164
815.115	7080
815.256	6989
815.397	6920
815.539	6935
815.68	6825
815.821	6863
815.962	6837
816.103	6852
816.244	6688
816.385	6620
816.526	6646
816.666	6506
816.807	6311
816.948	6494
817.089	6452
817.23	6513
817.371	6410
817.512	6407
817.653	6376
817.793	6410
817.934	6433
818.075	6471
818.216	6448
818.356	6365
818.497	6308
818.638	6171
818.778	6152
818.919	6190
819.06	6194
819.2	6346
819.341	6346
819.481	6437
819.622	6559
819.762	6757
819.903	6757
820.043	6616
820.184	6566
820.324	6566
820.465	6757
820.605	6711
820.746	6715
820.886	6525
821.026	6673
821.167	6738
821.307	6848
821.447	6741
821.588	6665
821.728	6593
821.868	6544
822.008	6357
822.149	6361
822.289	6391
822.429	6152
822.569	6091
822.709	6205
822.849	5954
822.99	5912
823.13	5908
823.27	5942
823.41	5805
823.55	5885
823.69	5760
823.83	5832
823.97	5649
824.11	5554
824.25	5509
824.389	5611
824.529	5665
824.669	5532
824.809	5634
824.949	5688
825.089	5642
825.228	5577
825.368	5383
825.508	5376
825.648	5345
825.787	5349
825.927	5349
826.067	5265
826.206	5296
826.346	5414
826.485	5330
826.625	5436
826.765	5596
826.904	5516
827.044	5197
827.183	5197
827.323	5151
827.462	5284
827.601	5204
827.741	5178
827.88	5204
828.02	5090
828.159	5250
828.298	5330
828.437	5402
828.577	5296
828.716	5524
828.855	5334
828.994	5178
829.134	5204
829.273	5216
829.412	5147
829.551	5113
829.69	5109
829.829	5227
829.968	5364
830.107	5261
830.246	5288
830.385	5170
830.524	5105
830.663	5086
830.802	4923
830.941	4915
831.08	4892
831.219	4957
831.357	5003
831.496	5181
831.635	4987
831.774	4866
831.913	4877
832.051	4767
832.19	4744
832.329	4839
832.467	4706
832.606	4668
832.744	4675
832.883	4752
833.022	4706
833.16	4850
833.299	4835
833.437	4870
833.576	4866
833.714	4858
833.852	4889
833.991	4923
834.129	4949
834.267	4976
834.406	4911
834.544	4938
834.682	4953
834.821	4961
834.959	5193
835.097	5006
835.235	5178
835.373	5037
835.511	5121
835.65	5018
835.788	5022
835.926	4892
836.064	4866
836.202	4892
836.34	5216
836.478	5170
836.615	5124
836.753	5208
836.891	5318
837.029	5292
837.167	5181
837.305	5197
837.443	5151
837.58	5025
837.718	5250
837.856	5212
837.993	5162
838.131	5242
838.269	5216
838.406	5181
838.544	5185
838.681	5048
838.819	5014
838.956	4946
839.094	4892
839.231	4991
839.369	5083
839.506	5402
839.643	5250
839.781	5117
839.918	5037
840.055	5143
840.193	5094
840.33	5075
840.467	5124
840.604	5132
840.742	5440
840.879	5025
841.016	5121
841.153	5185
841.29	5395
841.427	5357
841.564	5322
841.701	5391
841.838	5288
841.975	5296
842.112	5261
842.249	5143
842.385	5140
842.522	5284
842.659	5166
842.796	5128
842.933	5162
843.069	5185
843.206	5178
843.343	5311
843.479	5246
843.616	5269
843.752	5052
843.889	4999
844.025	5261
844.162	5029
844.298	5220
844.435	5083
844.571	5075
844.708	5140
844.844	5311
844.98	5391
845.117	5269
845.253	5208
845.389	5086
845.525	5185
845.661	5143
845.798	5056
845.934	5143
846.07	5056
846.206	5178
846.342	5307
846.478	5159
846.614	5056
846.75	4896
846.886	4946
847.022	5136
847.158	5006
847.294	5029
847.429	5121
847.565	5102
847.701	5349
847.837	4881
847.972	4786
848.108	4972
848.244	4984
848.379	4763
848.515	4714
848.65	4736
848.786	4752
848.921	4801
849.057	4889
849.192	4934
849.328	4801
849.463	4839
849.598	4790
849.734	4714
849.869	4691
850.004	4660
850.14	4675
850.275	4607
850.41	4569
850.545	4603
850.68	4596
850.815	4637
850.95	4634
851.085	4820
851.22	4736
851.355	4664
851.49	4607
851.625	4634
851.76	4637
851.895	4561
852.03	4504
852.165	4675
852.299	4687
852.434	4797
852.569	4771
852.703	4797
852.838	4847
852.973	4946
853.107	4915
853.242	4733
853.376	4653
853.511	4569
853.645	4577
853.78	4824
853.914	4637
854.048	4641
854.183	4645
854.317	4702
854.451	4839
854.585	4679
854.72	4615
854.854	4710
854.988	4584
855.122	4615
855.256	4569
855.39	4668
855.524	4801
855.658	4721
855.792	4694
855.926	4714
856.06	4721
856.194	4786
856.327	4725
856.461	4622
856.595	4569
856.729	4637
856.862	4729
856.996	4691
857.13	4733
857.263	4812
857.397	4805
857.53	4630
857.664	4717
857.797	4767
857.931	4816
858.064	4725
858.197	4786
858.331	4656
858.464	4580
858.597	4497
858.731	4596
858.864	4618
858.997	4573
859.13	4675
859.263	4615
859.396	4679
859.529	4573
859.662	4542
859.795	4531
859.928	4653
860.061	4725
860.194	4763
860.327	4596
860.46	4592
860.592	4683
860.725	4725
860.858	4744
860.99	4577
861.123	4485
861.256	4519
861.388	4611
861.521	5463
861.653	4516
861.786	4451
861.918	4481
862.05	4531
862.183	4561
862.315	4611
862.447	4615
862.58	4500
862.712	4402
862.844	4310
862.976	4470
863.108	4478
863.24	4763
863.372	4322
863.504	4413
863.636	4363
863.768	4455
863.9	4421
864.032	4348
864.164	4356
864.296	4451
864.428	4542
864.559	4523
864.691	4512
864.823	4508
864.954	4554
865.086	4535
865.217	4440
865.349	4398
865.48	4459
865.612	4500
865.743	4668
865.875	4485
866.006	4478
866.137	4417
866.269	4459
866.4	4424
866.531	4424
866.662	4413
866.793	4443
866.924	4451
867.055	4523
867.186	4459
867.317	4413
867.448	4356
867.579	4398
867.71	4363
867.841	4405
867.972	4519
868.103	4440
868.233	4443
868.364	4451
868.495	4504
868.625	4702
868.756	4782
868.886	4577
869.017	4596
869.147	4805
869.278	4790
869.408	4672
869.539	4679
869.669	4702
869.799	4607
869.929	4763
870.06	4805
870.19	4987
870.32	4927
870.45	4991
870.58	5037
870.71	5113
870.84	5098
870.97	4957
871.1	4900
871.23	5124
871.36	5155
871.489	5033
871.619	5094
871.749	5094
871.879	5098
872.008	5197
872.138	5037
872.267	4995
872.397	4862
872.526	4809
872.656	4710
872.785	4801
872.915	4984
873.044	5067
873.173	4915
873.303	4953
873.432	5022
873.561	4999
873.69	4892
873.819	4835
873.948	4896
874.077	4828
874.206	4725
874.335	4809
874.464	4953
874.593	5048
874.722	4984
874.851	5132
874.979	5102
875.108	5041
875.237	4889
875.365	4923
875.494	4870
875.623	4995
875.751	4873
875.88	4854
876.008	4965
876.136	5060
876.265	5189
876.393	5364
876.521	5292
876.65	5227
876.778	5124
876.906	5098
877.034	4995
877.162	5018
877.29	4999
877.418	5067
877.546	5037
877.674	5060
877.802	5025
877.93	4953
878.058	4946
878.185	4889
878.313	4968
878.441	4965
878.568	4812
878.696	4889
878.824	4995
878.951	5037
879.079	5174
879.206	5265
879.333	5102
879.461	4968
879.588	4961
879.715	5170
879.842	5216
879.97	4976
880.097	4793
880.224	4774
880.351	4771
880.478	4828
880.605	4778
880.732	4729
880.859	5075
880.986	4949
881.112	4930
881.239	4786
881.366	4675
881.493	4611
881.619	4634
881.746	4615
881.872	4683
881.999	4603
882.125	4691
882.252	4771
882.378	4839
882.505	4991
882.631	4793
882.757	4653
882.883	4714
883.01	4733
883.136	4645
883.262	4588
883.388	4611
883.514	4816
883.64	4919
883.766	4763
883.892	4698
884.018	4725
884.143	4896
884.269	5003
884.395	4675
884.52	4664
884.646	4721
884.772	4607
884.897	4573
885.023	4649
885.148	4824
885.274	4908
885.399	4778
885.524	4729
885.65	4691
885.775	4759
885.9	4740
886.025	4885
886.15	4771
886.275	4710
886.4	4660
886.525	4752
886.65	4679
886.775	4675
886.9	4881
887.025	5045
887.149	4805
887.274	4618
887.399	4592
887.523	4588
887.648	4565
887.773	4561
887.897	4755
888.021	4755
888.146	4706
888.27	4816
888.395	4923
888.519	4831
888.643	4790
888.767	4778
888.891	4679
889.015	4637
889.139	4672
889.263	4599
889.387	4767
889.511	4835
889.635	4850
889.759	4641
889.883	4668
890.006	4691
890.13	4812
890.254	4584
890.377	4691
890.501	4531
890.624	4516
890.748	4599
890.871	4500
890.995	4390
891.118	4383
891.241	4489
891.364	4550
891.488	4599
891.611	4443
891.734	4493
891.857	4637
891.98	4550
892.103	4656
892.226	4653
892.349	4516
892.471	4440
892.594	4558
892.717	4603
892.839	4596
892.962	4535
893.085	4679
893.207	4603
893.33	4504
893.452	4538
893.575	4691
893.697	4577
893.819	4797
893.941	4835
894.064	4778
894.186	4599
894.308	4516
894.43	4759
894.552	4816
894.674	4744
894.796	4531
894.918	4622
895.04	4573
895.161	4710
895.283	4691
895.405	4580
895.526	4611
895.648	4679
895.769	4668
895.891	4729
896.012	4752
896.134	4744
896.255	4649
896.376	4672
896.498	4668
896.619	4672
896.74	4615
896.861	4637
896.982	4904
897.103	5105
897.224	4820
897.345	4740
897.466	4721
897.587	4698
897.708	4877
897.828	4763
897.949	4664
898.07	4565
898.19	4622
898.311	4809
898.431	4679
898.552	4706
898.672	4805
898.792	4816
898.913	4729
899.033	4599
899.153	4459
899.273	4417
899.393	4504
899.513	4512
899.633	4550
899.753	4573
899.873	4508
899.993	4580
900.113	4550
900.232	4538
900.352	4523
900.472	4493
900.591	4421
900.711	4489
900.83	4421
900.95	4618
901.069	4691
901.189	4512
901.308	4367
901.427	4299
901.546	4371
901.665	4459
901.784	4523
901.904	4386
902.023	4329
902.141	4154
902.26	4188
902.379	4272
902.498	4246
902.617	4253
902.735	4398
902.854	4375
902.973	4371
903.091	4204
903.21	4211
903.328	4341
903.446	4280
903.565	4295
903.683	4375
903.801	4329
903.919	4413
904.038	4459
904.156	4325
904.274	4447
904.392	4383
904.51	4432
904.627	4481
904.745	4584
904.863	4637
904.981	4379
905.098	4295
905.216	4318
905.334	4443
905.451	4409
905.569	4474
905.686	4527
905.803	4599
905.921	4481
906.038	4580
906.155	4462
906.272	4413
906.389	4478
906.506	4383
906.623	4329
906.74	4421
906.857	4322
906.974	4325
907.091	4611
907.208	4679
907.324	4561
907.441	4519
907.557	4341
907.674	4379
907.79	4318
907.907	4390
908.023	4462
908.139	4489
908.256	4440
908.372	4443
908.488	4470
908.604	4363
908.72	4344
908.836	4352
908.952	4390
909.068	4459
909.184	4592
909.3	4535
909.415	4592
909.531	4554
909.647	4367
909.762	4341
909.878	4318
909.993	4390
910.108	4417
910.224	4386
910.339	4459
910.454	4413
910.57	4356
910.685	4310
910.8	4641
910.915	4584
911.03	4440
911.145	4341
911.259	4337
911.374	4390
911.489	4272
911.604	4280
911.718	4192
911.833	4204
911.947	4086
912.062	4025
912.176	4246
912.291	4253
912.405	4249
912.519	4447
912.633	4485
912.748	4371
912.862	4276
912.976	4207
913.09	4048
913.204	4188
913.318	4242
913.431	4394
913.545	4352
913.659	4512
913.772	4383
913.886	4242
914	4238
914.113	4379
914.226	4432
914.34	4432
914.453	4242
914.566	4405
914.68	4299
914.793	4291
914.906	4166
915.019	4143
915.132	4086
915.245	4188
915.358	4204
915.47	4173
915.583	4268
915.696	4306
915.809	4363
915.921	4436
916.034	4276
916.146	4249
916.259	4246
916.371	4344
916.483	4314
916.595	4295
916.708	4303
916.82	4306
916.932	4272
917.044	4329
917.156	4310
917.268	4207
917.38	4299
917.491	4325
917.603	4287
917.715	4421
917.826	4451
917.938	4352
918.049	4265
918.161	4360
918.272	4565
918.384	4558
918.495	4428
918.606	4306
918.717	4249
918.828	4322
918.939	4371
919.05	4284
919.161	4348
919.272	4124
919.383	4257
919.494	4462
919.604	4618
919.715	4424
919.826	4363
919.936	4402
920.047	4485
920.157	4474
920.267	4694
920.378	4527
920.488	4493
920.598	4729
920.708	4892
920.818	4748
920.928	4721
921.038	4965
921.148	4911
921.258	4592
921.368	4569
921.477	4489
921.587	4489
921.697	4383
921.806	4512
921.916	4462
922.025	4257
922.134	4291
922.244	4272
922.353	4352
922.462	4162
922.571	4116
922.68	3991
922.789	3983
922.898	4055
923.007	3987
923.116	4112
923.224	4059
923.333	4086
923.442	3979
923.55	4013
923.659	4029
923.767	4101
923.876	4010
923.984	4124
924.092	3994
924.201	4101
924.309	4097
924.417	4135
924.525	4025
924.633	4109
924.741	5033
924.849	3968
924.956	4147
925.064	3983
925.172	3945
925.279	3983
925.387	4105
925.494	4067
925.602	4215
925.709	4177
925.816	4036
925.924	4139
926.031	4246
926.138	4166
926.245	4295
926.352	4086
926.459	4295
926.566	4287
926.673	4150
926.779	4082
926.886	4074
926.993	3972
927.099	4006
927.206	3972
927.312	3937
927.419	4086
927.525	4044
927.631	4071
927.737	3994
927.843	3922
927.95	3846
928.056	3934
928.162	3983
928.267	4067
928.373	4596
928.479	4143
928.585	3888
928.69	4036
928.796	4044
928.901	3979
929.007	3873
929.112	4029
929.218	3964
929.323	3918
929.428	3930
929.533	4131
929.638	3941
929.743	3987
929.848	4044
929.953	3991
930.058	3937
930.163	3755
930.267	3762
930.372	4025
930.477	3793
930.581	4078
930.685	3949
930.79	3838
930.894	3899
930.998	3850
931.103	3991
931.207	3732
931.311	3698
931.415	3682
931.519	3526
931.623	3549
