Data from test_V78500241_906.txt Node
Date: Fri Mar 25 16:55:18 CST 2022
User: usil
Spectrometer: V785-0024
Trigger mode: 0
Integration Time (sec): 4.000000E-1
Scans to average: 1
Nonlinearity correction enabled: false
Boxcar width: 0
Storing dark spectrum: false
XAxis mode: Wavelengths
Number of Pixels in Spectrum: 1024
>>>>>Begin Spectral Data<<<<<
801.071	8073
801.214	8046
801.356	7883
801.499	7963
801.641	7769
801.783	7765
801.926	7925
802.068	7902
802.211	8031
802.353	7932
802.496	7811
802.638	7852
802.78	7864
802.923	7906
803.065	7921
803.208	7833
803.35	8027
803.492	8187
803.635	8107
803.777	8024
803.919	8107
804.061	8492
804.204	8077
804.346	8039
804.488	7902
804.63	8046
804.773	8001
804.915	8069
805.057	8244
805.199	8206
805.341	8172
805.483	8279
805.626	8164
805.768	8096
805.91	8172
806.052	8218
806.194	8096
806.336	8275
806.478	8073
806.62	8001
806.762	8115
806.904	8202
807.046	8480
807.188	8434
807.33	8263
807.472	8351
807.614	8195
807.756	8092
807.898	7978
808.04	7883
808.182	7879
808.324	7868
808.465	7906
808.607	8012
808.749	8031
808.891	8176
809.033	8279
809.174	8183
809.316	8073
809.458	8058
809.6	7951
809.741	8031
809.883	8024
810.025	8107
810.166	8046
810.308	8005
810.45	8024
810.591	7890
810.733	7784
810.875	7609
811.016	7491
811.158	7468
811.299	7605
811.441	7750
811.582	7666
811.724	7582
811.865	7495
812.007	7567
812.148	7609
812.29	7594
812.431	7719
812.573	7822
812.714	7963
812.855	8123
812.997	8225
813.138	8313
813.279	8191
813.421	8073
813.562	8039
813.703	7887
813.845	7738
813.986	7483
814.127	7270
814.268	7255
814.41	7217
814.551	7088
814.692	7137
814.833	7027
814.974	7069
815.115	7175
815.256	6913
815.397	6924
815.539	7000
815.68	6798
815.821	6783
815.962	6821
816.103	6783
816.244	6707
816.385	6707
816.526	6650
816.666	6441
816.807	6281
816.948	6407
817.089	6433
817.23	6437
817.371	6376
817.512	6376
817.653	6403
817.793	6422
817.934	6350
818.075	6448
818.216	6372
818.356	6414
818.497	6190
818.638	6057
818.778	6098
818.919	6140
819.06	6152
819.2	6315
819.341	6319
819.481	6304
819.622	6525
819.762	6711
819.903	6764
820.043	6646
820.184	6544
820.324	6544
820.465	6654
820.605	6627
820.746	6639
820.886	6525
821.026	6639
821.167	6665
821.307	6715
821.447	6745
821.588	6623
821.728	6544
821.868	6563
822.008	6315
822.149	6346
822.289	6346
822.429	6121
822.569	6072
822.709	6106
822.849	5904
822.99	5965
823.13	5904
823.27	5904
823.41	5764
823.55	5745
823.69	5767
823.83	5805
823.97	5672
824.11	5528
824.25	5524
824.389	5547
824.529	5600
824.669	5524
824.809	5581
824.949	5646
825.089	5623
825.228	5520
825.368	5383
825.508	5250
825.648	5315
825.787	5387
825.927	5349
826.067	5261
826.206	5296
826.346	5410
826.485	5376
826.625	5383
826.765	5539
826.904	5452
827.044	5284
827.183	5212
827.323	5132
827.462	5235
827.601	5159
827.741	5151
827.88	5193
828.02	5170
828.159	5189
828.298	5261
828.437	5337
828.577	5330
828.716	5406
828.855	5307
828.994	5162
829.134	5124
829.273	5227
829.412	5117
829.551	5098
829.69	5121
829.829	5189
829.968	5353
830.107	5311
830.246	5273
830.385	5143
830.524	5159
830.663	5102
830.802	4980
830.941	4900
831.08	4908
831.219	4934
831.357	4942
831.496	5132
831.635	4915
831.774	4831
831.913	4824
832.051	4702
832.19	4748
832.329	4816
832.467	4679
832.606	4637
832.744	4736
832.883	4691
833.022	4691
833.16	4786
833.299	4816
833.437	4831
833.576	4801
833.714	4820
833.852	4831
833.991	4870
834.129	4919
834.267	4965
834.406	4873
834.544	4927
834.682	4968
834.821	4957
834.959	5189
835.097	4953
835.235	5117
835.373	5102
835.511	5105
835.65	4965
835.788	5029
835.926	4866
836.064	4854
836.202	4923
836.34	5162
836.478	5258
836.615	5113
836.753	5227
836.891	5277
837.029	5227
837.167	5159
837.305	5166
837.443	5136
837.58	5060
837.718	5292
837.856	5204
837.993	5140
838.131	5178
838.269	5220
838.406	5174
838.544	5181
838.681	5045
838.819	4980
838.956	4927
839.094	4870
839.231	5018
839.369	5022
839.506	5387
839.643	5273
839.781	4999
839.918	5022
840.055	5067
840.193	5102
840.33	5136
840.467	5086
840.604	5124
840.742	5448
840.879	5067
841.016	5045
841.153	5121
841.29	5391
841.427	5296
841.564	5330
841.701	5349
841.838	5292
841.975	5204
842.112	5231
842.249	5121
842.385	5056
842.522	5280
842.659	5166
842.796	5075
842.933	5208
843.069	5109
843.206	5159
843.343	5299
843.479	5220
843.616	5265
843.752	5025
843.889	4953
844.025	5178
844.162	4976
844.298	5170
844.435	5056
844.571	5079
844.708	5124
844.844	5345
844.98	5311
845.117	5246
845.253	5136
845.389	5067
845.525	5121
845.661	5147
845.798	5022
845.934	5117
846.07	5045
846.206	5174
846.342	5239
846.478	5113
846.614	4999
846.75	4965
846.886	4980
847.022	5140
847.158	4949
847.294	5071
847.429	5094
847.565	5045
847.701	5337
847.837	4839
847.972	4786
848.108	4885
848.244	4949
848.379	4752
848.515	4801
848.65	4710
848.786	4710
848.921	4790
849.057	4870
849.192	4930
849.328	4778
849.463	4820
849.598	4782
849.734	4763
849.869	4679
850.004	4622
850.14	4630
850.275	4618
850.41	4542
850.545	4550
850.68	4596
850.815	4580
850.95	4611
851.085	4816
851.22	4691
851.355	4675
851.49	4558
851.625	4596
851.76	4630
851.895	4538
852.03	4546
852.165	4618
852.299	4710
852.434	4748
852.569	4706
852.703	4736
852.838	4797
852.973	4850
853.107	4908
853.242	4736
853.376	4653
853.511	4489
853.645	4596
853.78	4786
853.914	4694
854.048	4618
854.183	4637
854.317	4664
854.451	4828
854.585	4694
854.72	4656
854.854	4767
854.988	4596
855.122	4615
855.256	4535
855.39	4672
855.524	4725
855.658	4694
855.792	4649
855.926	4771
856.06	4797
856.194	4809
856.327	4649
856.461	4603
856.595	4580
856.729	4603
856.862	4725
856.996	4691
857.13	4702
857.263	4759
857.397	4748
857.53	4622
857.664	4729
857.797	4725
857.931	4847
858.064	4649
858.197	4729
858.331	4672
858.464	4599
858.597	4561
858.731	4637
858.864	4626
858.997	4573
859.13	4637
859.263	4668
859.396	4649
859.529	4599
859.662	4565
859.795	4577
859.928	4577
860.061	4767
860.194	4797
860.327	4607
860.46	4542
860.592	4645
860.725	4733
860.858	4698
860.99	4554
861.123	4527
861.256	4489
861.388	4554
861.521	5254
861.653	4508
861.786	4455
861.918	4455
862.05	4470
862.183	4561
862.315	4565
862.447	4596
862.58	4497
862.712	4371
862.844	4344
862.976	4409
863.108	4436
863.24	4801
863.372	4284
863.504	4383
863.636	4409
863.768	4481
863.9	4421
864.032	4375
864.164	4375
864.296	4462
864.428	4508
864.559	4535
864.691	4519
864.823	4523
864.954	4455
865.086	4462
865.217	4455
865.349	4394
865.48	4493
865.612	4451
865.743	4637
865.875	4421
866.006	4462
866.137	4451
866.269	4462
866.4	4447
866.531	4421
866.662	4409
866.793	4386
866.924	4440
867.055	4470
867.186	4432
867.317	4428
867.448	4337
867.579	4386
867.71	4402
867.841	4318
867.972	4447
868.103	4493
868.233	4447
868.364	4459
868.495	4436
868.625	4656
868.756	4736
868.886	4573
869.017	4580
869.147	4729
869.278	4752
869.408	4637
869.539	4649
869.669	4679
869.799	4626
869.929	4733
870.06	4717
870.19	4972
870.32	4923
870.45	4896
870.58	4999
870.71	5067
870.84	5098
870.97	4896
871.1	4862
871.23	5121
871.36	5113
871.489	5029
871.619	5052
871.749	5083
871.879	5083
872.008	5143
872.138	5079
872.267	4896
872.397	4835
872.526	4755
872.656	4710
872.785	4797
872.915	4949
873.044	5014
873.173	4942
873.303	4934
873.432	4965
873.561	4915
873.69	4873
873.819	4805
873.948	4892
874.077	4786
874.206	4771
874.335	4767
874.464	4892
874.593	5056
874.722	4953
874.851	5067
874.979	5018
875.108	4995
875.237	4881
875.365	4873
875.494	4831
875.623	4911
875.751	4793
875.88	4850
876.008	4942
876.136	5010
876.265	5197
876.393	5284
876.521	5216
876.65	5170
876.778	5113
876.906	5056
877.034	5010
877.162	5022
877.29	4987
877.418	5022
877.546	5022
877.674	5014
877.802	4957
877.93	4980
878.058	4934
878.185	4854
878.313	4927
878.441	4946
878.568	4786
878.696	4839
878.824	4904
878.951	5006
879.079	5102
879.206	5269
879.333	5086
879.461	4968
879.588	4984
879.715	5113
879.842	5265
879.97	5010
880.097	4736
880.224	4733
880.351	4786
880.478	4793
880.605	4816
880.732	4782
880.859	5067
880.986	4900
881.112	4873
881.239	4740
881.366	4717
881.493	4615
881.619	4569
881.746	4607
881.872	4637
881.999	4672
882.125	4634
882.252	4771
882.378	4782
882.505	4976
882.631	4816
882.757	4668
882.883	4691
883.01	4733
883.136	4630
883.262	4542
883.388	4580
883.514	4771
883.64	4850
883.766	4774
883.892	4668
884.018	4702
884.143	4881
884.269	5037
884.395	4645
884.52	4573
884.646	4618
884.772	4577
884.897	4584
885.023	4679
885.148	4744
885.274	4820
885.399	4809
885.524	4706
885.65	4679
885.775	4744
885.9	4637
886.025	4816
886.15	4759
886.275	4706
886.4	4645
886.525	4691
886.65	4710
886.775	4660
886.9	4892
887.025	5025
887.149	4771
887.274	4668
887.399	4577
887.523	4596
887.648	4607
887.773	4527
887.897	4710
888.021	4763
888.146	4630
888.27	4835
888.395	4850
888.519	4759
888.643	4759
888.767	4820
888.891	4698
889.015	4611
889.139	4687
889.263	4603
889.387	4740
889.511	4858
889.635	4748
889.759	4573
889.883	4645
890.006	4679
890.13	4805
890.254	4615
890.377	4637
890.501	4512
890.624	4535
890.748	4656
890.871	4527
890.995	4409
891.118	4341
891.241	4474
891.364	4466
891.488	4637
891.611	4493
891.734	4459
891.857	4535
891.98	4523
892.103	4599
892.226	4546
892.349	4554
892.471	4402
892.594	4497
892.717	4584
892.839	4538
892.962	4565
893.085	4649
893.207	4550
893.33	4443
893.452	4573
893.575	4641
893.697	4599
893.819	4736
893.941	4797
894.064	4771
894.186	4584
894.308	4565
894.43	4679
894.552	4839
894.674	4740
894.796	4493
894.918	4569
895.04	4542
895.161	4694
895.283	4668
895.405	4554
895.526	4622
895.648	4649
895.769	4649
895.891	4714
896.012	4729
896.134	4702
896.255	4656
896.376	4622
896.498	4584
896.619	4679
896.74	4561
896.861	4622
896.982	4889
897.103	5029
897.224	4839
897.345	4774
897.466	4588
897.587	4694
897.708	4820
897.828	4717
897.949	4653
898.07	4611
898.19	4615
898.311	4774
898.431	4679
898.552	4725
898.672	4820
898.792	4786
898.913	4706
899.033	4580
899.153	4500
899.273	4447
899.393	4481
899.513	4531
899.633	4489
899.753	4500
899.873	4493
899.993	4584
900.113	4554
900.232	4546
900.352	4516
900.472	4512
900.591	4386
900.711	4500
900.83	4459
900.95	4637
901.069	4675
901.189	4588
901.308	4352
901.427	4306
901.546	4310
901.665	4474
901.784	4508
901.904	4371
902.023	4341
902.141	4196
902.26	4128
902.379	4303
902.498	4257
902.617	4211
902.735	4371
902.854	4356
902.973	4348
903.091	4253
903.21	4299
903.328	4314
903.446	4276
903.565	4306
903.683	4379
903.801	4276
903.919	4432
904.038	4405
904.156	4314
904.274	4462
904.392	4409
904.51	4462
904.627	4527
904.745	4588
904.863	4672
904.981	4428
905.098	4337
905.216	4398
905.334	4447
905.451	4440
905.569	4432
905.686	4573
905.803	4618
905.921	4489
906.038	4607
906.155	4497
906.272	4405
906.389	4459
906.506	4432
906.623	4432
906.74	4432
906.857	4344
906.974	4428
907.091	4607
907.208	4698
907.324	4607
907.441	4546
907.557	4352
907.674	4371
907.79	4394
907.907	4390
908.023	4508
908.139	4500
908.256	4466
908.372	4523
908.488	4500
908.604	4394
908.72	4360
908.836	4405
908.952	4402
909.068	4504
909.184	4588
909.3	4504
909.415	4618
909.531	4611
909.647	4424
909.762	4413
909.878	4348
909.993	4512
910.108	4424
910.224	4489
910.339	4519
910.454	4459
910.57	4379
910.685	4363
910.8	4698
910.915	4630
911.03	4523
911.145	4432
911.259	4314
911.374	4398
911.489	4371
911.604	4310
911.718	4227
911.833	4238
911.947	4150
912.062	4021
912.176	4223
912.291	4257
912.405	4253
912.519	4516
912.633	4558
912.748	4383
912.862	4363
912.976	4272
913.09	4131
913.204	4169
913.318	4314
913.431	4394
913.545	4379
913.659	4459
913.772	4398
913.886	4253
914	4280
914.113	4379
914.226	4466
914.34	4462
914.453	4272
914.566	4474
914.68	4352
914.793	4352
914.906	4181
915.019	4105
915.132	4147
915.245	4223
915.358	4242
915.47	4238
915.583	4344
915.696	4337
915.809	4440
915.921	4443
916.034	4295
916.146	4230
916.259	4261
916.371	4386
916.483	4379
916.595	4310
916.708	4348
916.82	4367
916.932	4413
917.044	4375
917.156	4356
917.268	4253
917.38	4261
917.491	4268
917.603	4371
917.715	4417
917.826	4443
917.938	4348
918.049	4253
918.161	4436
918.272	4584
918.384	4523
918.495	4497
918.606	4299
918.717	4291
918.828	4394
918.939	4375
919.05	4291
919.161	4348
919.272	4177
919.383	4268
919.494	4413
919.604	4694
919.715	4413
919.826	4363
919.936	4402
920.047	4519
920.157	4558
920.267	4729
920.378	4554
920.488	4538
920.598	4721
920.708	4919
920.818	4763
920.928	4786
921.038	4987
921.148	4877
921.258	4641
921.368	4565
921.477	4550
921.587	4519
921.697	4447
921.806	4542
921.916	4500
922.025	4276
922.134	4291
922.244	4219
922.353	4371
922.462	4207
922.571	4173
922.68	4044
922.789	4017
922.898	4013
923.007	4021
923.116	4143
923.224	4128
923.333	4074
923.442	4029
923.55	4048
923.659	4059
923.767	4147
923.876	4040
923.984	4185
924.092	4025
924.201	4101
924.309	4116
924.417	4162
924.525	4090
924.633	4128
924.741	4873
924.849	3941
924.956	4135
925.064	3998
925.172	3930
925.279	4002
925.387	4082
925.494	4120
925.602	4265
925.709	4166
925.816	4048
925.924	4139
926.031	4257
926.138	4223
926.245	4265
926.352	4105
926.459	4196
926.566	4306
926.673	4196
926.779	4109
926.886	4097
926.993	3983
927.099	3991
927.206	3956
927.312	3994
927.419	4074
927.525	4071
927.631	4124
927.737	3975
927.843	3979
927.95	3876
928.056	3972
928.162	4032
928.267	4078
928.373	4611
928.479	4124
928.585	3899
928.69	4025
928.796	4074
928.901	3987
929.007	3850
929.112	4032
929.218	3998
929.323	3983
929.428	3968
929.533	4097
929.638	3998
929.743	3975
929.848	4082
929.953	4082
930.058	3945
930.163	3781
930.267	3918
930.372	3979
930.477	3797
930.581	4120
930.685	3987
930.79	3838
930.894	3934
930.998	3816
931.103	4048
931.207	3759
931.311	3675
931.415	3694
931.519	3538
931.623	3610
