Data from test_V78500241_2005.txt Node
Date: Fri Mar 25 17:02:56 CST 2022
User: usil
Spectrometer: V785-0024
Trigger mode: 0
Integration Time (sec): 4.000000E-1
Scans to average: 1
Nonlinearity correction enabled: false
Boxcar width: 0
Storing dark spectrum: false
XAxis mode: Wavelengths
Number of Pixels in Spectrum: 1024
>>>>>Begin Spectral Data<<<<<
801.071	8054
801.214	7986
801.356	7837
801.499	7784
801.641	7746
801.783	7830
801.926	7913
802.068	7993
802.211	8008
802.353	7982
802.496	7818
802.638	7860
802.78	7811
802.923	7928
803.065	7875
803.208	7955
803.35	7925
803.492	8005
803.635	8119
803.777	7982
803.919	8073
804.061	8427
804.204	8123
804.346	8054
804.488	8008
804.63	8088
804.773	8062
804.915	8157
805.057	8286
805.199	8084
805.341	8172
805.483	8199
805.626	8126
805.768	8103
805.91	8180
806.052	8210
806.194	8134
806.336	8336
806.478	8126
806.62	8027
806.762	8134
806.904	8252
807.046	8476
807.188	8347
807.33	8294
807.472	8301
807.614	8164
807.756	8126
807.898	7982
808.04	7849
808.182	7818
808.324	7890
808.465	7909
808.607	8065
808.749	8130
808.891	8187
809.033	8336
809.174	8191
809.316	8096
809.458	8103
809.6	7932
809.741	8065
809.883	8073
810.025	8039
810.166	7989
810.308	7989
810.45	7951
810.591	7750
810.733	7715
810.875	7674
811.016	7491
811.158	7407
811.299	7548
811.441	7685
811.582	7685
811.724	7575
811.865	7601
812.007	7594
812.148	7571
812.29	7639
812.431	7795
812.573	7890
812.714	8031
812.855	8145
812.997	8172
813.138	8263
813.279	8084
813.421	8020
813.562	7940
813.703	7772
813.845	7700
813.986	7445
814.127	7168
814.268	7179
814.41	7198
814.551	7133
814.692	7236
814.833	7088
814.974	7126
815.115	7091
815.256	6920
815.397	6951
815.539	6916
815.68	6730
815.821	6707
815.962	6840
816.103	6825
816.244	6684
816.385	6658
816.526	6585
816.666	6475
816.807	6273
816.948	6456
817.089	6502
817.23	6407
817.371	6391
817.512	6361
817.653	6395
817.793	6388
817.934	6395
818.075	6483
818.216	6388
818.356	6403
818.497	6239
818.638	6106
818.778	6190
818.919	6114
819.06	6121
819.2	6285
819.341	6323
819.481	6369
819.622	6551
819.762	6787
819.903	6673
820.043	6574
820.184	6559
820.324	6608
820.465	6711
820.605	6707
820.746	6635
820.886	6471
821.026	6642
821.167	6703
821.307	6825
821.447	6802
821.588	6665
821.728	6582
821.868	6494
822.008	6296
822.149	6418
822.289	6331
822.429	6117
822.569	6053
822.709	6087
822.849	5935
822.99	5916
823.13	5923
823.27	5901
823.41	5779
823.55	5817
823.69	5729
823.83	5786
823.97	5627
824.11	5520
824.25	5490
824.389	5524
824.529	5554
824.669	5535
824.809	5600
824.949	5676
825.089	5657
825.228	5554
825.368	5353
825.508	5383
825.648	5337
825.787	5391
825.927	5318
826.067	5345
826.206	5258
826.346	5368
826.485	5406
826.625	5455
826.765	5547
826.904	5429
827.044	5246
827.183	5197
827.323	5113
827.462	5246
827.601	5185
827.741	5162
827.88	5235
828.02	5128
828.159	5280
828.298	5280
828.437	5337
828.577	5258
828.716	5448
828.855	5318
828.994	5181
829.134	5124
829.273	5227
829.412	5128
829.551	5178
829.69	5132
829.829	5280
829.968	5311
830.107	5322
830.246	5250
830.385	5193
830.524	5105
830.663	5071
830.802	4999
830.941	4881
831.08	4896
831.219	4965
831.357	5022
831.496	5128
831.635	4843
831.774	4854
831.913	4866
832.051	4714
832.19	4771
832.329	4850
832.467	4683
832.606	4649
832.744	4725
832.883	4752
833.022	4733
833.16	4740
833.299	4854
833.437	4866
833.576	4850
833.714	4831
833.852	4858
833.991	4877
834.129	4953
834.267	4968
834.406	4904
834.544	4965
834.682	4930
834.821	4900
834.959	5140
835.097	4972
835.235	5166
835.373	5086
835.511	5113
835.65	5022
835.788	5003
835.926	4908
836.064	4889
836.202	4930
836.34	5185
836.478	5162
836.615	5071
836.753	5223
836.891	5307
837.029	5277
837.167	5178
837.305	5143
837.443	5174
837.58	5033
837.718	5242
837.856	5121
837.993	5079
838.131	5201
838.269	5124
838.406	5193
838.544	5178
838.681	4999
838.819	5006
838.956	4881
839.094	4946
839.231	4965
839.369	5090
839.506	5444
839.643	5273
839.781	5045
839.918	5014
840.055	5086
840.193	5098
840.33	5083
840.467	5128
840.604	5109
840.742	5429
840.879	5048
841.016	5083
841.153	5113
841.29	5349
841.427	5349
841.564	5307
841.701	5379
841.838	5246
841.975	5265
842.112	5231
842.249	5113
842.385	5094
842.522	5277
842.659	5121
842.796	5147
842.933	5220
843.069	5170
843.206	5155
843.343	5292
843.479	5204
843.616	5269
843.752	5025
843.889	5006
844.025	5201
844.162	4995
844.298	5189
844.435	5033
844.571	5064
844.708	5216
844.844	5349
844.98	5360
845.117	5311
845.253	5136
845.389	5086
845.525	5132
845.661	5155
845.798	5041
845.934	5105
846.07	5067
846.206	5197
846.342	5277
846.478	5189
846.614	4995
846.75	4961
846.886	4972
847.022	5136
847.158	5052
847.294	5025
847.429	5117
847.565	5052
847.701	5353
847.837	4847
847.972	4736
848.108	4904
848.244	4915
848.379	4790
848.515	4733
848.65	4721
848.786	4733
848.921	4793
849.057	4866
849.192	4885
849.328	4824
849.463	4839
849.598	4763
849.734	4759
849.869	4675
850.004	4668
850.14	4691
850.275	4615
850.41	4508
850.545	4558
850.68	4603
850.815	4622
850.95	4580
851.085	4812
851.22	4725
851.355	4668
851.49	4573
851.625	4618
851.76	4630
851.895	4569
852.03	4519
852.165	4607
852.299	4733
852.434	4835
852.569	4767
852.703	4752
852.838	4839
852.973	4927
853.107	4965
853.242	4729
853.376	4664
853.511	4565
853.645	4603
853.78	4812
853.914	4637
854.048	4706
854.183	4618
854.317	4702
854.451	4820
854.585	4687
854.72	4702
854.854	4759
854.988	4611
855.122	4675
855.256	4512
855.39	4660
855.524	4782
855.658	4691
855.792	4694
855.926	4740
856.06	4755
856.194	4812
856.327	4702
856.461	4622
856.595	4653
856.729	4603
856.862	4755
856.996	4637
857.13	4763
857.263	4733
857.397	4763
857.53	4664
857.664	4714
857.797	4778
857.931	4721
858.064	4679
858.197	4714
858.331	4649
858.464	4599
858.597	4504
858.731	4660
858.864	4577
858.997	4580
859.13	4664
859.263	4641
859.396	4675
859.529	4615
859.662	4550
859.795	4531
859.928	4630
860.061	4767
860.194	4714
860.327	4637
860.46	4577
860.592	4675
860.725	4706
860.858	4672
860.99	4588
861.123	4531
861.256	4550
861.388	4569
861.521	5136
861.653	4443
861.786	4390
861.918	4443
862.05	4516
862.183	4538
862.315	4558
862.447	4645
862.58	4542
862.712	4470
862.844	4344
862.976	4504
863.108	4497
863.24	4736
863.372	4344
863.504	4443
863.636	4386
863.768	4440
863.9	4440
864.032	4383
864.164	4402
864.296	4459
864.428	4596
864.559	4531
864.691	4535
864.823	4516
864.954	4504
865.086	4466
865.217	4421
865.349	4367
865.48	4417
865.612	4459
865.743	4569
865.875	4447
866.006	4462
866.137	4466
866.269	4409
866.4	4470
866.531	4402
866.662	4390
866.793	4447
866.924	4443
867.055	4466
867.186	4470
867.317	4432
867.448	4375
867.579	4371
867.71	4386
867.841	4371
867.972	4440
868.103	4451
868.233	4436
868.364	4459
868.495	4531
868.625	4653
868.756	4767
868.886	4569
869.017	4634
869.147	4771
869.278	4759
869.408	4660
869.539	4660
869.669	4755
869.799	4687
869.929	4752
870.06	4786
870.19	4961
870.32	4889
870.45	4942
870.58	4968
870.71	5056
870.84	5086
870.97	4957
871.1	4938
871.23	5136
871.36	5216
871.489	4991
871.619	5041
871.749	5098
871.879	5113
872.008	5166
872.138	5052
872.267	4946
872.397	4847
872.526	4824
872.656	4733
872.785	4801
872.915	4991
873.044	5022
873.173	4930
873.303	5010
873.432	4961
873.561	4949
873.69	4877
873.819	4858
873.948	4908
874.077	4843
874.206	4717
874.335	4771
874.464	4942
874.593	5033
874.722	4965
874.851	5121
874.979	4999
875.108	5029
875.237	4915
875.365	4858
875.494	4900
875.623	4957
875.751	4858
875.88	4900
876.008	4980
876.136	5041
876.265	5197
876.393	5372
876.521	5296
876.65	5212
876.778	5098
876.906	5033
877.034	5075
877.162	5003
877.29	4968
877.418	5060
877.546	5052
877.674	5006
877.802	5041
877.93	4976
878.058	4961
878.185	4908
878.313	4946
878.441	4942
878.568	4786
878.696	4877
878.824	4957
878.951	4995
879.079	5128
879.206	5227
879.333	5117
879.461	4972
879.588	4995
879.715	5102
879.842	5212
879.97	5018
880.097	4793
880.224	4763
880.351	4786
880.478	4831
880.605	4729
880.732	4778
880.859	5071
880.986	4938
881.112	4915
881.239	4733
881.366	4679
881.493	4634
881.619	4580
881.746	4599
881.872	4649
881.999	4664
882.125	4698
882.252	4774
882.378	4839
882.505	4877
882.631	4839
882.757	4641
882.883	4740
883.01	4733
883.136	4649
883.262	4626
883.388	4607
883.514	4801
883.64	4847
883.766	4790
883.892	4653
884.018	4725
884.143	4850
884.269	5018
884.395	4653
884.52	4622
884.646	4607
884.772	4607
884.897	4565
885.023	4641
885.148	4820
885.274	4835
885.399	4839
885.524	4714
885.65	4717
885.775	4759
885.9	4748
886.025	4858
886.15	4805
886.275	4717
886.4	4622
886.525	4729
886.65	4714
886.775	4687
886.9	4896
887.025	4995
887.149	4782
887.274	4702
887.399	4653
887.523	4622
887.648	4527
887.773	4523
887.897	4767
888.021	4767
888.146	4694
888.27	4786
888.395	4877
888.519	4843
888.643	4828
888.767	4786
888.891	4679
889.015	4573
889.139	4694
889.263	4615
889.387	4729
889.511	4881
889.635	4778
889.759	4664
889.883	4645
890.006	4767
890.13	4850
890.254	4622
890.377	4691
890.501	4558
890.624	4527
890.748	4626
890.871	4550
890.995	4424
891.118	4413
891.241	4523
891.364	4493
891.488	4641
891.611	4497
891.734	4546
891.857	4573
891.98	4546
892.103	4664
892.226	4592
892.349	4535
892.471	4417
892.594	4516
892.717	4599
892.839	4561
892.962	4607
893.085	4653
893.207	4558
893.33	4451
893.452	4474
893.575	4637
893.697	4577
893.819	4835
893.941	4839
894.064	4767
894.186	4550
894.308	4569
894.43	4759
894.552	4816
894.674	4729
894.796	4542
894.918	4603
895.04	4573
895.161	4637
895.283	4664
895.405	4558
895.526	4656
895.648	4683
895.769	4660
895.891	4714
896.012	4675
896.134	4759
896.255	4660
896.376	4599
896.498	4618
896.619	4691
896.74	4577
896.861	4645
896.982	4946
897.103	5064
897.224	4824
897.345	4721
897.466	4656
897.587	4714
897.708	4812
897.828	4805
897.949	4626
898.07	4523
898.19	4656
898.311	4862
898.431	4630
898.552	4755
898.672	4839
898.792	4812
898.913	4763
899.033	4611
899.153	4538
899.273	4440
899.393	4459
899.513	4538
899.633	4523
899.753	4519
899.873	4474
899.993	4615
900.113	4535
900.232	4599
900.352	4554
900.472	4485
900.591	4394
900.711	4481
900.83	4459
900.95	4630
901.069	4710
901.189	4527
901.308	4344
901.427	4291
901.546	4352
901.665	4459
901.784	4504
901.904	4375
902.023	4341
902.141	4192
902.26	4147
902.379	4356
902.498	4249
902.617	4238
902.735	4432
902.854	4413
902.973	4310
903.091	4238
903.21	4181
903.328	4261
903.446	4291
903.565	4299
903.683	4363
903.801	4280
903.919	4424
904.038	4424
904.156	4299
904.274	4421
904.392	4443
904.51	4462
904.627	4466
904.745	4561
904.863	4641
904.981	4386
905.098	4276
905.216	4344
905.334	4443
905.451	4451
905.569	4443
905.686	4569
905.803	4550
905.921	4417
906.038	4558
906.155	4527
906.272	4386
906.389	4459
906.506	4299
906.623	4363
906.74	4390
906.857	4310
906.974	4421
907.091	4531
907.208	4675
907.324	4599
907.441	4466
907.557	4303
907.674	4318
907.79	4318
907.907	4413
908.023	4474
908.139	4489
908.256	4409
908.372	4424
908.488	4421
908.604	4390
908.72	4356
908.836	4360
908.952	4379
909.068	4405
909.184	4565
909.3	4516
909.415	4622
909.531	4535
909.647	4348
909.762	4375
909.878	4375
909.993	4386
910.108	4409
910.224	4398
910.339	4432
910.454	4371
910.57	4333
910.685	4314
910.8	4664
910.915	4626
911.03	4531
911.145	4325
911.259	4360
911.374	4386
911.489	4280
911.604	4295
911.718	4154
911.833	4207
911.947	4116
912.062	3983
912.176	4200
912.291	4234
912.405	4249
912.519	4432
912.633	4512
912.748	4363
912.862	4265
912.976	4158
913.09	4120
913.204	4192
913.318	4265
913.431	4371
913.545	4363
913.659	4436
913.772	4310
913.886	4257
914	4215
914.113	4375
914.226	4398
914.34	4398
914.453	4249
914.566	4474
914.68	4276
914.793	4337
914.906	4173
915.019	4135
915.132	4086
915.245	4150
915.358	4188
915.47	4196
915.583	4314
915.696	4314
915.809	4386
915.921	4451
916.034	4284
916.146	4223
916.259	4200
916.371	4352
916.483	4337
916.595	4280
916.708	4310
916.82	4280
916.932	4344
917.044	4341
917.156	4333
917.268	4242
917.38	4268
917.491	4265
917.603	4329
917.715	4428
917.826	4451
917.938	4360
918.049	4261
918.161	4424
918.272	4538
918.384	4565
918.495	4478
918.606	4291
918.717	4284
918.828	4333
918.939	4333
919.05	4268
919.161	4352
919.272	4188
919.383	4234
919.494	4409
919.604	4664
919.715	4405
919.826	4356
919.936	4402
920.047	4478
920.157	4489
920.267	4698
920.378	4546
920.488	4508
920.598	4706
920.708	4858
920.818	4755
920.928	4748
921.038	4980
921.148	4911
921.258	4588
921.368	4561
921.477	4516
921.587	4424
921.697	4379
921.806	4565
921.916	4440
922.025	4268
922.134	4280
922.244	4230
922.353	4333
922.462	4200
922.571	4120
922.68	3994
922.789	3987
922.898	3998
923.007	3968
923.116	4059
923.224	4036
923.333	4105
923.442	4017
923.55	3987
923.659	4040
923.767	4029
923.876	4010
923.984	4162
924.092	3991
924.201	4036
924.309	4082
924.417	4135
924.525	4013
924.633	4090
924.741	5067
924.849	3899
924.956	4105
925.064	3941
925.172	3915
925.279	3983
925.387	4074
925.494	4063
925.602	4215
925.709	4177
925.816	4025
925.924	4173
926.031	4234
926.138	4147
926.245	4200
926.352	4055
926.459	4287
926.566	4344
926.673	4135
926.779	4105
926.886	4063
926.993	4044
927.099	3922
927.206	3888
927.312	3953
927.419	4036
927.525	4002
927.631	4067
927.737	3937
927.843	3934
927.95	3850
928.056	3979
928.162	3964
928.267	4040
928.373	4573
928.479	4112
928.585	3850
928.69	4048
928.796	4090
928.901	3956
929.007	3838
929.112	3975
929.218	3972
929.323	3941
929.428	3968
929.533	4093
929.638	3899
929.743	3956
929.848	4017
929.953	3991
930.058	3888
930.163	3747
930.267	3808
930.372	3987
930.477	3827
930.581	4154
930.685	3956
930.79	3819
930.894	3857
930.998	3880
931.103	3998
931.207	3747
931.311	3663
931.415	3641
931.519	3511
931.623	3557
