Data from test_V78500241_1240.txt Node
Date: Fri Mar 25 16:57:37 CST 2022
User: usil
Spectrometer: V785-0024
Trigger mode: 0
Integration Time (sec): 4.000000E-1
Scans to average: 1
Nonlinearity correction enabled: false
Boxcar width: 0
Storing dark spectrum: false
XAxis mode: Wavelengths
Number of Pixels in Spectrum: 1024
>>>>>Begin Spectral Data<<<<<
801.071	8008
801.214	8016
801.356	7932
801.499	7849
801.641	7742
801.783	7792
801.926	7986
802.068	7902
802.211	8008
802.353	8012
802.496	7856
802.638	7811
802.78	7868
802.923	7921
803.065	7871
803.208	7902
803.35	7944
803.492	8062
803.635	8138
803.777	8020
803.919	8130
804.061	8484
804.204	8161
804.346	8084
804.488	7955
804.63	8119
804.773	7959
804.915	8096
805.057	8347
805.199	8157
805.341	8275
805.483	8320
805.626	8221
805.768	8088
805.91	8183
806.052	8206
806.194	8054
806.336	8290
806.478	8115
806.62	7982
806.762	8168
806.904	8294
807.046	8438
807.188	8332
807.33	8225
807.472	8267
807.614	8161
807.756	8168
807.898	8001
808.04	7993
808.182	7932
808.324	7925
808.465	7944
808.607	8115
808.749	8046
808.891	8183
809.033	8282
809.174	8199
809.316	8054
809.458	8092
809.6	7947
809.741	8062
809.883	8005
810.025	8088
810.166	8054
810.308	8020
810.45	8050
810.591	7875
810.733	7712
810.875	7689
811.016	7510
811.158	7445
811.299	7571
811.441	7715
811.582	7655
811.724	7597
811.865	7529
812.007	7563
812.148	7567
812.29	7624
812.431	7715
812.573	7928
812.714	7986
812.855	8096
812.997	8214
813.138	8309
813.279	8229
813.421	8138
813.562	8043
813.703	7845
813.845	7731
813.986	7438
814.127	7244
814.268	7213
814.41	7240
814.551	7198
814.692	7175
814.833	7038
814.974	7050
815.115	7103
815.256	6970
815.397	6996
815.539	6871
815.68	6779
815.821	6749
815.962	6905
816.103	6844
816.244	6696
816.385	6623
816.526	6635
816.666	6486
816.807	6315
816.948	6418
817.089	6464
817.23	6414
817.371	6369
817.512	6380
817.653	6376
817.793	6399
817.934	6376
818.075	6460
818.216	6429
818.356	6380
818.497	6224
818.638	6129
818.778	6159
818.919	6106
819.06	6144
819.2	6342
819.341	6372
819.481	6342
819.622	6494
819.762	6696
819.903	6677
820.043	6589
820.184	6578
820.324	6620
820.465	6726
820.605	6707
820.746	6570
820.886	6532
821.026	6639
821.167	6681
821.307	6848
821.447	6684
821.588	6639
821.728	6604
821.868	6509
822.008	6342
822.149	6315
822.289	6277
822.429	6178
822.569	6057
822.709	6133
822.849	5893
822.99	5866
823.13	5942
823.27	5878
823.41	5764
823.55	5809
823.69	5756
823.83	5771
823.97	5680
824.11	5524
824.25	5490
824.389	5547
824.529	5592
824.669	5497
824.809	5634
824.949	5596
825.089	5600
825.228	5547
825.368	5379
825.508	5318
825.648	5337
825.787	5322
825.927	5376
826.067	5273
826.206	5277
826.346	5341
826.485	5444
826.625	5391
826.765	5554
826.904	5455
827.044	5254
827.183	5189
827.323	5166
827.462	5231
827.601	5193
827.741	5223
827.88	5227
828.02	5075
828.159	5250
828.298	5334
828.437	5376
828.577	5277
828.716	5478
828.855	5265
828.994	5132
829.134	5121
829.273	5124
829.412	5185
829.551	5136
829.69	5128
829.829	5212
829.968	5330
830.107	5208
830.246	5242
830.385	5193
830.524	5128
830.663	5109
830.802	4930
830.941	4885
831.08	4866
831.219	4930
831.357	4961
831.496	5136
831.635	4892
831.774	4839
831.913	4812
832.051	4740
832.19	4774
832.329	4801
832.467	4664
832.606	4641
832.744	4706
832.883	4698
833.022	4645
833.16	4782
833.299	4801
833.437	4812
833.576	4850
833.714	4854
833.852	4900
833.991	4828
834.129	4984
834.267	4915
834.406	4934
834.544	4965
834.682	4934
834.821	4953
834.959	5155
835.097	4991
835.235	5067
835.373	5048
835.511	5105
835.65	5003
835.788	4984
835.926	4923
836.064	4900
836.202	4904
836.34	5147
836.478	5204
836.615	5090
836.753	5246
836.891	5239
837.029	5239
837.167	5216
837.305	5185
837.443	5094
837.58	5060
837.718	5269
837.856	5151
837.993	5117
838.131	5208
838.269	5197
838.406	5208
838.544	5159
838.681	5067
838.819	5006
838.956	4866
839.094	4927
839.231	4976
839.369	5105
839.506	5379
839.643	5269
839.781	5045
839.918	5056
840.055	5121
840.193	5105
840.33	5128
840.467	5159
840.604	5242
840.742	5421
840.879	5098
841.016	5121
841.153	5136
841.29	5315
841.427	5364
841.564	5315
841.701	5315
841.838	5269
841.975	5197
842.112	5277
842.249	5124
842.385	5052
842.522	5318
842.659	5155
842.796	5170
842.933	5216
843.069	5098
843.206	5128
843.343	5288
843.479	5235
843.616	5246
843.752	5010
843.889	5018
844.025	5193
844.162	5029
844.298	5170
844.435	5083
844.571	5056
844.708	5223
844.844	5292
844.98	5288
845.117	5280
845.253	5143
845.389	5056
845.525	5189
845.661	5113
845.798	5048
845.934	5151
846.07	5037
846.206	5208
846.342	5261
846.478	5147
846.614	4991
846.75	4946
846.886	4919
847.022	5124
847.158	5018
847.294	5060
847.429	5079
847.565	5029
847.701	5254
847.837	4820
847.972	4820
848.108	4999
848.244	4900
848.379	4767
848.515	4733
848.65	4672
848.786	4729
848.921	4790
849.057	4854
849.192	4919
849.328	4771
849.463	4797
849.598	4839
849.734	4733
849.869	4675
850.004	4626
850.14	4675
850.275	4615
850.41	4542
850.545	4546
850.68	4596
850.815	4675
850.95	4653
851.085	4862
851.22	4759
851.355	4649
851.49	4596
851.625	4649
851.76	4656
851.895	4550
852.03	4500
852.165	4653
852.299	4668
852.434	4774
852.569	4721
852.703	4748
852.838	4767
852.973	4889
853.107	4870
853.242	4740
853.376	4672
853.511	4584
853.645	4618
853.78	4805
853.914	4691
854.048	4618
854.183	4649
854.317	4698
854.451	4805
854.585	4668
854.72	4615
854.854	4721
854.988	4603
855.122	4656
855.256	4554
855.39	4622
855.524	4752
855.658	4774
855.792	4698
855.926	4687
856.06	4736
856.194	4755
856.327	4641
856.461	4622
856.595	4622
856.729	4603
856.862	4755
856.996	4702
857.13	4748
857.263	4740
857.397	4725
857.53	4672
857.664	4698
857.797	4782
857.931	4755
858.064	4607
858.197	4725
858.331	4664
858.464	4611
858.597	4538
858.731	4584
858.864	4615
858.997	4603
859.13	4641
859.263	4660
859.396	4702
859.529	4603
859.662	4523
859.795	4554
859.928	4645
860.061	4771
860.194	4801
860.327	4634
860.46	4527
860.592	4672
860.725	4710
860.858	4733
860.99	4519
861.123	4493
861.256	4504
861.388	4599
861.521	5303
861.653	4405
861.786	4500
861.918	4424
862.05	4523
862.183	4523
862.315	4546
862.447	4634
862.58	4497
862.712	4402
862.844	4333
862.976	4424
863.108	4466
863.24	4862
863.372	4383
863.504	4386
863.636	4394
863.768	4417
863.9	4447
864.032	4436
864.164	4405
864.296	4451
864.428	4550
864.559	4569
864.691	4485
864.823	4455
864.954	4493
865.086	4459
865.217	4367
865.349	4508
865.48	4466
865.612	4504
865.743	4645
865.875	4447
866.006	4459
866.137	4394
866.269	4424
866.4	4432
866.531	4417
866.662	4360
866.793	4398
866.924	4462
867.055	4481
867.186	4466
867.317	4413
867.448	4375
867.579	4352
867.71	4390
867.841	4329
867.972	4485
868.103	4455
868.233	4424
868.364	4462
868.495	4497
868.625	4675
868.756	4729
868.886	4561
869.017	4554
869.147	4771
869.278	4736
869.408	4649
869.539	4656
869.669	4771
869.799	4596
869.929	4786
870.06	4733
870.19	4953
870.32	4930
870.45	4927
870.58	4957
870.71	5083
870.84	5086
870.97	4942
871.1	4892
871.23	5147
871.36	5079
871.489	4999
871.619	5098
871.749	5060
871.879	5079
872.008	5193
872.138	5033
872.267	4953
872.397	4812
872.526	4801
872.656	4733
872.785	4870
872.915	4923
873.044	5014
873.173	4930
873.303	4919
873.432	4930
873.561	4930
873.69	4885
873.819	4892
873.948	4904
874.077	4843
874.206	4714
874.335	4752
874.464	4949
874.593	5045
874.722	4961
874.851	5045
874.979	5075
875.108	4987
875.237	4915
875.365	4850
875.494	4877
875.623	4949
875.751	4805
875.88	4881
876.008	4961
876.136	5014
876.265	5189
876.393	5284
876.521	5231
876.65	5227
876.778	5128
876.906	5098
877.034	5006
877.162	4995
877.29	4965
877.418	5025
877.546	5075
877.674	5075
877.802	5056
877.93	5041
878.058	4885
878.185	4870
878.313	4911
878.441	4949
878.568	4816
878.696	4908
878.824	4923
878.951	4995
879.079	5105
879.206	5296
879.333	5083
879.461	5014
879.588	4942
879.715	5105
879.842	5212
879.97	4999
880.097	4725
880.224	4755
880.351	4839
880.478	4812
880.605	4805
880.732	4805
880.859	5071
880.986	4866
881.112	4877
881.239	4786
881.366	4618
881.493	4584
881.619	4588
881.746	4622
881.872	4668
881.999	4550
882.125	4683
882.252	4782
882.378	4858
882.505	4915
882.631	4774
882.757	4664
882.883	4691
883.01	4755
883.136	4694
883.262	4561
883.388	4615
883.514	4797
883.64	4850
883.766	4782
883.892	4710
884.018	4687
884.143	4889
884.269	4972
884.395	4660
884.52	4603
884.646	4641
884.772	4577
884.897	4573
885.023	4607
885.148	4755
885.274	4820
885.399	4831
885.524	4733
885.65	4710
885.775	4721
885.9	4721
886.025	4850
886.15	4805
886.275	4702
886.4	4683
886.525	4767
886.65	4691
886.775	4656
886.9	4900
887.025	5037
887.149	4771
887.274	4645
887.399	4561
887.523	4607
887.648	4546
887.773	4580
887.897	4763
888.021	4782
888.146	4683
888.27	4759
888.395	4885
888.519	4782
888.643	4843
888.767	4778
888.891	4702
889.015	4596
889.139	4672
889.263	4622
889.387	4763
889.511	4809
889.635	4763
889.759	4668
889.883	4649
890.006	4736
890.13	4847
890.254	4603
890.377	4660
890.501	4554
890.624	4519
890.748	4630
890.871	4493
890.995	4417
891.118	4337
891.241	4508
891.364	4508
891.488	4637
891.611	4485
891.734	4508
891.857	4580
891.98	4531
892.103	4660
892.226	4584
892.349	4523
892.471	4402
892.594	4493
892.717	4656
892.839	4592
892.962	4554
893.085	4660
893.207	4618
893.33	4436
893.452	4478
893.575	4683
893.697	4558
893.819	4805
893.941	4843
894.064	4816
894.186	4592
894.308	4565
894.43	4717
894.552	4801
894.674	4752
894.796	4565
894.918	4618
895.04	4630
895.161	4637
895.283	4641
895.405	4565
895.526	4672
895.648	4679
895.769	4672
895.891	4656
896.012	4740
896.134	4702
896.255	4656
896.376	4672
896.498	4565
896.619	4649
896.74	4615
896.861	4675
896.982	4930
897.103	5052
897.224	4831
897.345	4748
897.466	4645
897.587	4721
897.708	4831
897.828	4774
897.949	4653
898.07	4535
898.19	4668
898.311	4805
898.431	4694
898.552	4710
898.672	4797
898.792	4835
898.913	4774
899.033	4641
899.153	4481
899.273	4428
899.393	4504
899.513	4512
899.633	4535
899.753	4500
899.873	4462
899.993	4569
900.113	4554
900.232	4561
900.352	4538
900.472	4504
900.591	4440
900.711	4478
900.83	4432
900.95	4592
901.069	4733
901.189	4542
901.308	4421
901.427	4352
901.546	4356
901.665	4447
901.784	4527
901.904	4371
902.023	4318
902.141	4185
902.26	4105
902.379	4249
902.498	4188
902.617	4192
902.735	4363
902.854	4428
902.973	4386
903.091	4196
903.21	4234
903.328	4268
903.446	4280
903.565	4257
903.683	4352
903.801	4246
903.919	4356
904.038	4451
904.156	4291
904.274	4413
904.392	4398
904.51	4447
904.627	4421
904.745	4584
904.863	4607
904.981	4379
905.098	4284
905.216	4356
905.334	4409
905.451	4455
905.569	4390
905.686	4535
905.803	4584
905.921	4424
906.038	4569
906.155	4478
906.272	4436
906.389	4455
906.506	4344
906.623	4367
906.74	4424
906.857	4284
906.974	4337
907.091	4542
907.208	4634
907.324	4588
907.441	4508
907.557	4329
907.674	4337
907.79	4291
907.907	4409
908.023	4417
908.139	4474
908.256	4409
908.372	4489
908.488	4474
908.604	4360
908.72	4299
908.836	4379
908.952	4390
909.068	4424
909.184	4573
909.3	4432
909.415	4542
909.531	4527
909.647	4356
909.762	4367
909.878	4363
909.993	4413
910.108	4470
910.224	4379
910.339	4447
910.454	4398
910.57	4394
910.685	4287
910.8	4664
910.915	4569
911.03	4478
911.145	4322
911.259	4318
911.374	4310
911.489	4306
911.604	4268
911.718	4196
911.833	4211
911.947	4090
912.062	4029
912.176	4200
912.291	4166
912.405	4246
912.519	4459
912.633	4470
912.748	4356
912.862	4280
912.976	4200
913.09	4112
913.204	4135
913.318	4268
913.431	4360
913.545	4333
913.659	4447
913.772	4325
913.886	4204
914	4261
914.113	4390
914.226	4379
914.34	4363
914.453	4238
914.566	4459
914.68	4306
914.793	4276
914.906	4185
915.019	4078
915.132	4090
915.245	4215
915.358	4238
915.47	4188
915.583	4268
915.696	4253
915.809	4413
915.921	4413
916.034	4249
916.146	4238
916.259	4219
916.371	4394
916.483	4310
916.595	4242
916.708	4356
916.82	4371
916.932	4284
917.044	4333
917.156	4322
917.268	4196
917.38	4242
917.491	4246
917.603	4318
917.715	4417
917.826	4394
917.938	4348
918.049	4246
918.161	4367
918.272	4527
918.384	4527
918.495	4398
918.606	4303
918.717	4249
918.828	4348
918.939	4379
919.05	4295
919.161	4333
919.272	4128
919.383	4238
919.494	4424
919.604	4645
919.715	4409
919.826	4322
919.936	4398
920.047	4504
920.157	4447
920.267	4698
920.378	4508
920.488	4512
920.598	4675
920.708	4820
920.818	4736
920.928	4721
921.038	4953
921.148	4873
921.258	4656
921.368	4588
921.477	4440
921.587	4470
921.697	4417
921.806	4580
921.916	4398
922.025	4276
922.134	4253
922.244	4173
922.353	4276
922.462	4143
922.571	4139
922.68	3968
922.789	3964
922.898	4048
923.007	3991
923.116	4105
923.224	4040
923.333	4059
923.442	3975
923.55	3941
923.659	4029
923.767	4067
923.876	4032
923.984	4128
924.092	3956
924.201	4090
924.309	4048
924.417	4147
924.525	4086
924.633	4055
924.741	5003
924.849	3888
924.956	4143
925.064	3983
925.172	3907
925.279	3930
925.387	4040
925.494	4010
925.602	4204
925.709	4116
925.816	4055
925.924	4177
926.031	4234
926.138	4150
926.245	4227
926.352	4078
926.459	4230
926.566	4318
926.673	4173
926.779	4105
926.886	4078
926.993	3953
927.099	3945
927.206	3926
927.312	3945
927.419	4071
927.525	4032
927.631	4101
927.737	3975
927.843	3956
927.95	3812
928.056	3934
928.162	3987
928.267	4044
928.373	4698
928.479	4082
928.585	3857
928.69	4036
928.796	4093
928.901	3979
929.007	3865
929.112	4044
929.218	3975
929.323	3945
929.428	3918
929.533	4101
929.638	3949
929.743	3918
929.848	4029
929.953	3991
930.058	3945
930.163	3762
930.267	3827
930.372	3972
930.477	3743
930.581	4071
930.685	3953
930.79	3812
930.894	3888
930.998	3850
931.103	4036
931.207	3717
931.311	3698
931.415	3648
931.519	3526
931.623	3549
