Data from test_V78500241_354.txt Node
Date: Fri Mar 25 16:51:27 CST 2022
User: usil
Spectrometer: V785-0024
Trigger mode: 0
Integration Time (sec): 4.000000E-1
Scans to average: 1
Nonlinearity correction enabled: false
Boxcar width: 0
Storing dark spectrum: false
XAxis mode: Wavelengths
Number of Pixels in Spectrum: 1024
>>>>>Begin Spectral Data<<<<<
801.071	8103
801.214	8050
801.356	7947
801.499	7928
801.641	7852
801.783	7814
801.926	8005
802.068	7947
802.211	7963
802.353	7959
802.496	7913
802.638	7864
802.78	7936
802.923	7955
803.065	7963
803.208	7814
803.35	7993
803.492	8046
803.635	8111
803.777	8001
803.919	8164
804.061	8423
804.204	8183
804.346	8100
804.488	8012
804.63	8119
804.773	7997
804.915	8092
805.057	8294
805.199	8157
805.341	8202
805.483	8229
805.626	8172
805.768	8016
805.91	8103
806.052	8168
806.194	8111
806.336	8279
806.478	8195
806.62	8172
806.762	8248
806.904	8271
807.046	8465
807.188	8332
807.33	8328
807.472	8309
807.614	8176
807.756	8172
807.898	8084
808.04	7902
808.182	7967
808.324	7982
808.465	7963
808.607	8084
808.749	8126
808.891	8214
809.033	8282
809.174	8240
809.316	8035
809.458	8130
809.6	8043
809.741	8035
809.883	8020
810.025	8153
810.166	8062
810.308	8107
810.45	8027
810.591	7944
810.733	7727
810.875	7632
811.016	7506
811.158	7483
811.299	7582
811.441	7788
811.582	7734
811.724	7601
811.865	7620
812.007	7693
812.148	7647
812.29	7662
812.431	7780
812.573	7913
812.714	8024
812.855	8107
812.997	8153
813.138	8324
813.279	8123
813.421	8157
813.562	8027
813.703	7944
813.845	7784
813.986	7525
814.127	7354
814.268	7362
814.41	7206
814.551	7171
814.692	7259
814.833	7122
814.974	7164
815.115	7118
815.256	6985
815.397	6970
815.539	6897
815.68	6844
815.821	6848
815.962	6886
816.103	6875
816.244	6734
816.385	6677
816.526	6658
816.666	6547
816.807	6346
816.948	6437
817.089	6494
817.23	6414
817.371	6445
817.512	6388
817.653	6426
817.793	6376
817.934	6441
818.075	6494
818.216	6490
818.356	6380
818.497	6243
818.638	6083
818.778	6163
818.919	6148
819.06	6091
819.2	6304
819.341	6304
819.481	6384
819.622	6555
819.762	6783
819.903	6753
820.043	6623
820.184	6593
820.324	6570
820.465	6677
820.605	6696
820.746	6642
820.886	6544
821.026	6650
821.167	6688
821.307	6795
821.447	6814
821.588	6642
821.728	6585
821.868	6544
822.008	6369
822.149	6437
822.289	6350
822.429	6178
822.569	6091
822.709	6098
822.849	5904
822.99	5901
823.13	5961
823.27	5977
823.41	5802
823.55	5813
823.69	5783
823.83	5805
823.97	5676
824.11	5520
824.25	5452
824.389	5585
824.529	5554
824.669	5524
824.809	5688
824.949	5649
825.089	5611
825.228	5543
825.368	5402
825.508	5341
825.648	5349
825.787	5379
825.927	5372
826.067	5299
826.206	5326
826.346	5372
826.485	5410
826.625	5452
826.765	5608
826.904	5455
827.044	5288
827.183	5265
827.323	5174
827.462	5246
827.601	5204
827.741	5204
827.88	5197
828.02	5121
828.159	5204
828.298	5311
828.437	5353
828.577	5265
828.716	5474
828.855	5345
828.994	5181
829.134	5151
829.273	5208
829.412	5178
829.551	5128
829.69	5197
829.829	5235
829.968	5341
830.107	5330
830.246	5292
830.385	5105
830.524	5121
830.663	5090
830.802	5022
830.941	4938
831.08	4911
831.219	5003
831.357	5003
831.496	5162
831.635	4972
831.774	4850
831.913	4847
832.051	4748
832.19	4721
832.329	4889
832.467	4744
832.606	4649
832.744	4790
832.883	4714
833.022	4748
833.16	4839
833.299	4843
833.437	4816
833.576	4839
833.714	4850
833.852	4854
833.991	4908
834.129	4934
834.267	4938
834.406	4923
834.544	4976
834.682	4961
834.821	5010
834.959	5159
835.097	4980
835.235	5166
835.373	5079
835.511	5094
835.65	5025
835.788	5037
835.926	4915
836.064	4839
836.202	4949
836.34	5178
836.478	5277
836.615	5170
836.753	5178
836.891	5284
837.029	5326
837.167	5189
837.305	5178
837.443	5159
837.58	5083
837.718	5261
837.856	5212
837.993	5166
838.131	5261
838.269	5235
838.406	5231
838.544	5220
838.681	5037
838.819	5048
838.956	4953
839.094	4919
839.231	4961
839.369	5136
839.506	5391
839.643	5231
839.781	5071
839.918	5006
840.055	5121
840.193	5098
840.33	5166
840.467	5143
840.604	5201
840.742	5436
840.879	5105
841.016	5132
841.153	5208
841.29	5410
841.427	5334
841.564	5322
841.701	5368
841.838	5303
841.975	5273
842.112	5235
842.249	5151
842.385	5128
842.522	5292
842.659	5166
842.796	5121
842.933	5227
843.069	5128
843.206	5151
843.343	5296
843.479	5208
843.616	5292
843.752	4999
843.889	4987
844.025	5189
844.162	5006
844.298	5174
844.435	5094
844.571	5041
844.708	5280
844.844	5265
844.98	5372
845.117	5318
845.253	5170
845.389	5113
845.525	5220
845.661	5102
845.798	5048
845.934	5128
846.07	5067
846.206	5208
846.342	5303
846.478	5197
846.614	5064
846.75	5003
846.886	4919
847.022	5102
847.158	4999
847.294	5083
847.429	5105
847.565	5052
847.701	5292
847.837	4850
847.972	4835
848.108	4957
848.244	4927
848.379	4831
848.515	4748
848.65	4706
848.786	4797
848.921	4771
849.057	4942
849.192	4911
849.328	4793
849.463	4866
849.598	4782
849.734	4801
849.869	4675
850.004	4618
850.14	4668
850.275	4603
850.41	4569
850.545	4561
850.68	4615
850.815	4607
850.95	4626
851.085	4831
851.22	4793
851.355	4656
851.49	4660
851.625	4630
851.76	4630
851.895	4554
852.03	4580
852.165	4645
852.299	4717
852.434	4790
852.569	4782
852.703	4767
852.838	4843
852.973	4961
853.107	4919
853.242	4752
853.376	4687
853.511	4561
853.645	4675
853.78	4835
853.914	4702
854.048	4641
854.183	4679
854.317	4710
854.451	4850
854.585	4706
854.72	4664
854.854	4786
854.988	4599
855.122	4637
855.256	4538
855.39	4656
855.524	4816
855.658	4714
855.792	4706
855.926	4805
856.06	4721
856.194	4828
856.327	4714
856.461	4618
856.595	4637
856.729	4618
856.862	4782
856.996	4679
857.13	4702
857.263	4763
857.397	4740
857.53	4649
857.664	4744
857.797	4786
857.931	4778
858.064	4687
858.197	4755
858.331	4668
858.464	4592
858.597	4504
858.731	4645
858.864	4649
858.997	4573
859.13	4660
859.263	4679
859.396	4714
859.529	4588
859.662	4577
859.795	4573
859.928	4622
860.061	4771
860.194	4771
860.327	4592
860.46	4618
860.592	4748
860.725	4740
860.858	4679
860.99	4573
861.123	4500
861.256	4538
861.388	4592
861.521	5379
861.653	4538
861.786	4451
861.918	4466
862.05	4512
862.183	4588
862.315	4630
862.447	4672
862.58	4527
862.712	4405
862.844	4314
862.976	4485
863.108	4485
863.24	4793
863.372	4352
863.504	4421
863.636	4421
863.768	4497
863.9	4436
864.032	4375
864.164	4405
864.296	4474
864.428	4500
864.559	4561
864.691	4550
864.823	4546
864.954	4500
865.086	4519
865.217	4512
865.349	4455
865.48	4462
865.612	4451
865.743	4607
865.875	4451
866.006	4447
866.137	4470
866.269	4474
866.4	4443
866.531	4459
866.662	4421
866.793	4443
866.924	4455
867.055	4512
867.186	4481
867.317	4421
867.448	4356
867.579	4417
867.71	4447
867.841	4405
867.972	4459
868.103	4462
868.233	4451
868.364	4424
868.495	4440
868.625	4649
868.756	4752
868.886	4569
869.017	4649
869.147	4790
869.278	4828
869.408	4653
869.539	4634
869.669	4721
869.799	4630
869.929	4748
870.06	4744
870.19	4934
870.32	4873
870.45	4946
870.58	5010
870.71	5071
870.84	5067
870.97	4911
871.1	4942
871.23	5147
871.36	5162
871.489	5003
871.619	5075
871.749	5090
871.879	5117
872.008	5178
872.138	5064
872.267	4984
872.397	4782
872.526	4835
872.656	4740
872.785	4828
872.915	4949
873.044	5045
873.173	4889
873.303	4995
873.432	5006
873.561	4923
873.69	4870
873.819	4915
873.948	4919
874.077	4847
874.206	4797
874.335	4759
874.464	4961
874.593	5025
874.722	4949
874.851	5128
874.979	5094
875.108	5003
875.237	4889
875.365	4877
875.494	4927
875.623	4953
875.751	4805
875.88	4866
876.008	4984
876.136	5041
876.265	5220
876.393	5376
876.521	5315
876.65	5204
876.778	5197
876.906	5128
877.034	5025
877.162	5048
877.29	5006
877.418	5064
877.546	5014
877.674	5033
877.802	5052
877.93	5010
878.058	4957
878.185	4839
878.313	4919
878.441	4972
878.568	4797
878.696	4889
878.824	4972
878.951	5033
879.079	5124
879.206	5288
879.333	5159
879.461	4991
879.588	4965
879.715	5170
879.842	5288
879.97	4999
880.097	4793
880.224	4729
880.351	4763
880.478	4828
880.605	4816
880.732	4835
880.859	5079
880.986	4881
881.112	4927
881.239	4759
881.366	4698
881.493	4580
881.619	4558
881.746	4656
881.872	4656
881.999	4653
882.125	4675
882.252	4755
882.378	4797
882.505	4949
882.631	4763
882.757	4664
882.883	4774
883.01	4733
883.136	4675
883.262	4596
883.388	4630
883.514	4850
883.64	4889
883.766	4812
883.892	4710
884.018	4687
884.143	4892
884.269	5003
884.395	4672
884.52	4664
884.646	4660
884.772	4580
884.897	4573
885.023	4694
885.148	4755
885.274	4866
885.399	4801
885.524	4733
885.65	4687
885.775	4774
885.9	4698
886.025	4873
886.15	4759
886.275	4748
886.4	4626
886.525	4755
886.65	4721
886.775	4679
886.9	4881
887.025	5064
887.149	4824
887.274	4683
887.399	4569
887.523	4584
887.648	4565
887.773	4607
887.897	4763
888.021	4812
888.146	4683
888.27	4847
888.395	4877
888.519	4809
888.643	4786
888.767	4793
888.891	4721
889.015	4649
889.139	4660
889.263	4596
889.387	4736
889.511	4866
889.635	4805
889.759	4634
889.883	4672
890.006	4710
890.13	4847
890.254	4626
890.377	4679
890.501	4527
890.624	4523
890.748	4615
890.871	4500
890.995	4432
891.118	4386
891.241	4481
891.364	4535
891.488	4637
891.611	4500
891.734	4516
891.857	4599
891.98	4535
892.103	4653
892.226	4599
892.349	4466
892.471	4413
892.594	4584
892.717	4607
892.839	4584
892.962	4577
893.085	4664
893.207	4580
893.33	4455
893.452	4504
893.575	4660
893.697	4596
893.819	4790
893.941	4812
894.064	4786
894.186	4573
894.308	4558
894.43	4733
894.552	4816
894.674	4752
894.796	4550
894.918	4615
895.04	4565
895.161	4691
895.283	4687
895.405	4558
895.526	4653
895.648	4694
895.769	4691
895.891	4683
896.012	4721
896.134	4717
896.255	4653
896.376	4649
896.498	4618
896.619	4694
896.74	4584
896.861	4653
896.982	4953
897.103	5018
897.224	4812
897.345	4725
897.466	4679
897.587	4706
897.708	4873
897.828	4771
897.949	4694
898.07	4577
898.19	4607
898.311	4820
898.431	4714
898.552	4759
898.672	4854
898.792	4839
898.913	4729
899.033	4637
899.153	4535
899.273	4409
899.393	4489
899.513	4500
899.633	4538
899.753	4546
899.873	4569
899.993	4538
900.113	4531
900.232	4603
900.352	4558
900.472	4489
900.591	4363
900.711	4489
900.83	4405
900.95	4603
901.069	4740
901.189	4554
901.308	4367
901.427	4314
901.546	4390
901.665	4493
901.784	4531
901.904	4375
902.023	4325
902.141	4169
902.26	4162
902.379	4303
902.498	4227
902.617	4265
902.735	4386
902.854	4409
902.973	4356
903.091	4249
903.21	4219
903.328	4291
903.446	4265
903.565	4299
903.683	4325
903.801	4287
903.919	4390
904.038	4451
904.156	4299
904.274	4436
904.392	4402
904.51	4455
904.627	4451
904.745	4573
904.863	4660
904.981	4367
905.098	4261
905.216	4356
905.334	4390
905.451	4371
905.569	4417
905.686	4554
905.803	4550
905.921	4375
906.038	4542
906.155	4478
906.272	4371
906.389	4485
906.506	4322
906.623	4386
906.74	4386
906.857	4284
906.974	4348
907.091	4504
907.208	4641
907.324	4584
907.441	4508
907.557	4329
907.674	4398
907.79	4341
907.907	4348
908.023	4508
908.139	4500
908.256	4485
908.372	4493
908.488	4455
908.604	4375
908.72	4318
908.836	4379
908.952	4371
909.068	4424
909.184	4577
909.3	4481
909.415	4603
909.531	4558
909.647	4363
909.762	4394
909.878	4402
909.993	4497
910.108	4489
910.224	4413
910.339	4493
910.454	4394
910.57	4390
910.685	4386
910.8	4729
910.915	4664
911.03	4538
911.145	4356
911.259	4383
911.374	4417
911.489	4314
911.604	4318
911.718	4192
911.833	4272
911.947	4105
912.062	4006
912.176	4249
912.291	4341
912.405	4268
912.519	4558
912.633	4573
912.748	4413
912.862	4295
912.976	4261
913.09	4158
913.204	4238
913.318	4295
913.431	4413
913.545	4443
913.659	4466
913.772	4394
913.886	4310
914	4295
914.113	4466
914.226	4500
914.34	4428
914.453	4268
914.566	4466
914.68	4371
914.793	4405
914.906	4261
915.019	4166
915.132	4128
915.245	4230
915.358	4265
915.47	4284
915.583	4310
915.696	4329
915.809	4489
915.921	4481
916.034	4333
916.146	4325
916.259	4257
916.371	4409
916.483	4405
916.595	4314
916.708	4348
916.82	4405
916.932	4405
917.044	4394
917.156	4322
917.268	4268
917.38	4375
917.491	4287
917.603	4371
917.715	4481
917.826	4497
917.938	4352
918.049	4242
918.161	4451
918.272	4573
918.384	4573
918.495	4466
918.606	4337
918.717	4238
918.828	4409
918.939	4394
919.05	4295
919.161	4398
919.272	4124
919.383	4276
919.494	4493
919.604	4656
919.715	4485
919.826	4390
919.936	4440
920.047	4592
920.157	4527
920.267	4714
920.378	4569
920.488	4588
920.598	4748
920.708	4965
920.818	4759
920.928	4828
921.038	4991
921.148	4946
921.258	4641
921.368	4611
921.477	4508
921.587	4493
921.697	4417
921.806	4622
921.916	4500
922.025	4276
922.134	4265
922.244	4242
922.353	4390
922.462	4234
922.571	4200
922.68	4048
922.789	3979
922.898	4063
923.007	4036
923.116	4135
923.224	4074
923.333	4135
923.442	4017
923.55	4021
923.659	4051
923.767	4124
923.876	4086
923.984	4177
924.092	4002
924.201	4071
924.309	4120
924.417	4158
924.525	4101
924.633	4067
924.741	4942
924.849	3937
924.956	4158
925.064	3972
925.172	3918
925.279	3994
925.387	4101
925.494	4112
925.602	4249
925.709	4192
925.816	4097
925.924	4162
926.031	4284
926.138	4219
926.245	4257
926.352	4120
926.459	4280
926.566	4329
926.673	4215
926.779	4101
926.886	4078
926.993	4006
927.099	4044
927.206	3968
927.312	4017
927.419	4097
927.525	4074
927.631	4158
927.737	4025
927.843	4021
927.95	3857
928.056	3983
928.162	4032
928.267	4112
928.373	4736
928.479	4169
928.585	3934
928.69	4036
928.796	4040
928.901	3968
929.007	3854
929.112	4105
929.218	4036
929.323	3972
929.428	3983
929.533	4169
929.638	3937
929.743	4032
929.848	4097
929.953	4013
930.058	3953
930.163	3816
930.267	3888
930.372	4021
930.477	3857
930.581	4093
930.685	3975
930.79	3865
930.894	3846
930.998	3915
931.103	4090
931.207	3774
931.311	3732
931.415	3652
931.519	3519
931.623	3564
