Data from test_V78500241_965.txt Node
Date: Fri Mar 25 16:55:42 CST 2022
User: usil
Spectrometer: V785-0024
Trigger mode: 0
Integration Time (sec): 4.000000E-1
Scans to average: 1
Nonlinearity correction enabled: false
Boxcar width: 0
Storing dark spectrum: false
XAxis mode: Wavelengths
Number of Pixels in Spectrum: 1024
>>>>>Begin Spectral Data<<<<<
801.071	8001
801.214	8081
801.356	7974
801.499	7822
801.641	7772
801.783	7822
801.926	7955
802.068	7955
802.211	7947
802.353	7974
802.496	7826
802.638	7883
802.78	8005
802.923	7940
803.065	7928
803.208	7967
803.35	8077
803.492	8145
803.635	8202
803.777	8103
803.919	8164
804.061	8480
804.204	8180
804.346	8088
804.488	7978
804.63	8195
804.773	8077
804.915	8206
805.057	8282
805.199	8191
805.341	8259
805.483	8290
805.626	8176
805.768	8157
805.91	8267
806.052	8244
806.194	8039
806.336	8279
806.478	8100
806.62	8069
806.762	8115
806.904	8305
807.046	8537
807.188	8404
807.33	8320
807.472	8355
807.614	8161
807.756	8134
807.898	8069
808.04	7963
808.182	8005
808.324	7913
808.465	7982
808.607	8107
808.749	8138
808.891	8218
809.033	8256
809.174	8233
809.316	8077
809.458	8119
809.6	8035
809.741	8024
809.883	8088
810.025	8149
810.166	8069
810.308	8054
810.45	8058
810.591	7875
810.733	7784
810.875	7723
811.016	7491
811.158	7552
811.299	7590
811.441	7715
811.582	7734
811.724	7605
811.865	7559
812.007	7548
812.148	7624
812.29	7670
812.431	7712
812.573	7894
812.714	7955
812.855	8199
812.997	8221
813.138	8336
813.279	8218
813.421	8123
813.562	8100
813.703	7917
813.845	7780
813.986	7476
814.127	7350
814.268	7301
814.41	7213
814.551	7175
814.692	7236
814.833	7114
814.974	7145
815.115	7160
815.256	6977
815.397	6909
815.539	7004
815.68	6932
815.821	6852
815.962	6878
816.103	6875
816.244	6802
816.385	6677
816.526	6620
816.666	6532
816.807	6353
816.948	6509
817.089	6490
817.23	6536
817.371	6372
817.512	6414
817.653	6460
817.793	6384
817.934	6464
818.075	6483
818.216	6502
818.356	6426
818.497	6251
818.638	6136
818.778	6205
818.919	6201
819.06	6175
819.2	6296
819.341	6331
819.481	6426
819.622	6585
819.762	6741
819.903	6764
820.043	6623
820.184	6589
820.324	6631
820.465	6711
820.605	6734
820.746	6642
820.886	6494
821.026	6665
821.167	6719
821.307	6787
821.447	6764
821.588	6673
821.728	6566
821.868	6494
822.008	6353
822.149	6418
822.289	6456
822.429	6155
822.569	6083
822.709	6148
822.849	5874
822.99	5923
823.13	5935
823.27	5923
823.41	5764
823.55	5809
823.69	5794
823.83	5813
823.97	5733
824.11	5577
824.25	5535
824.389	5547
824.529	5615
824.669	5505
824.809	5619
824.949	5680
825.089	5642
825.228	5581
825.368	5459
825.508	5421
825.648	5402
825.787	5406
825.927	5410
826.067	5303
826.206	5296
826.346	5406
826.485	5463
826.625	5501
826.765	5535
826.904	5524
827.044	5254
827.183	5254
827.323	5143
827.462	5277
827.601	5212
827.741	5208
827.88	5235
828.02	5181
828.159	5288
828.298	5326
828.437	5395
828.577	5326
828.716	5509
828.855	5368
828.994	5185
829.134	5166
829.273	5220
829.412	5170
829.551	5170
829.69	5178
829.829	5265
829.968	5429
830.107	5337
830.246	5299
830.385	5201
830.524	5170
830.663	5090
830.802	4965
830.941	4892
831.08	4934
831.219	4991
831.357	4991
831.496	5166
831.635	4923
831.774	4816
831.913	4873
832.051	4771
832.19	4782
832.329	4870
832.467	4721
832.606	4706
832.744	4748
832.883	4755
833.022	4717
833.16	4824
833.299	4809
833.437	4839
833.576	4831
833.714	4854
833.852	4854
833.991	4942
834.129	4980
834.267	4965
834.406	4949
834.544	4976
834.682	4965
834.821	4987
834.959	5178
835.097	5003
835.235	5121
835.373	5132
835.511	5159
835.65	5098
835.788	5045
835.926	4915
836.064	4923
836.202	4946
836.34	5181
836.478	5269
836.615	5159
836.753	5189
836.891	5280
837.029	5265
837.167	5261
837.305	5181
837.443	5136
837.58	5064
837.718	5239
837.856	5185
837.993	5140
838.131	5303
838.269	5185
838.406	5155
838.544	5185
838.681	4987
838.819	5010
838.956	4908
839.094	4930
839.231	5018
839.369	5086
839.506	5414
839.643	5261
839.781	5098
839.918	5041
840.055	5121
840.193	5098
840.33	5117
840.467	5102
840.604	5174
840.742	5493
840.879	5075
841.016	5075
841.153	5162
841.29	5376
841.427	5368
841.564	5353
841.701	5372
841.838	5250
841.975	5239
842.112	5265
842.249	5109
842.385	5178
842.522	5334
842.659	5170
842.796	5143
842.933	5174
843.069	5140
843.206	5159
843.343	5299
843.479	5220
843.616	5318
843.752	5029
843.889	4995
844.025	5204
844.162	5041
844.298	5223
844.435	5056
844.571	5071
844.708	5204
844.844	5322
844.98	5379
845.117	5353
845.253	5136
845.389	5090
845.525	5147
845.661	5178
845.798	5056
845.934	5132
846.07	5045
846.206	5208
846.342	5292
846.478	5223
846.614	5041
846.75	5010
846.886	4980
847.022	5208
847.158	5033
847.294	5102
847.429	5143
847.565	5045
847.701	5311
847.837	4889
847.972	4858
848.108	4976
848.244	4961
848.379	4755
848.515	4672
848.65	4721
848.786	4755
848.921	4831
849.057	4900
849.192	4900
849.328	4778
849.463	4835
849.598	4854
849.734	4774
849.869	4698
850.004	4637
850.14	4634
850.275	4649
850.41	4489
850.545	4588
850.68	4641
850.815	4618
850.95	4622
851.085	4843
851.22	4767
851.355	4656
851.49	4626
851.625	4637
851.76	4656
851.895	4565
852.03	4504
852.165	4645
852.299	4725
852.434	4771
852.569	4786
852.703	4801
852.838	4850
852.973	4957
853.107	4949
853.242	4675
853.376	4691
853.511	4542
853.645	4637
853.78	4835
853.914	4714
854.048	4672
854.183	4626
854.317	4729
854.451	4843
854.585	4691
854.72	4615
854.854	4755
854.988	4607
855.122	4660
855.256	4504
855.39	4641
855.524	4721
855.658	4710
855.792	4736
855.926	4725
856.06	4755
856.194	4801
856.327	4683
856.461	4611
856.595	4599
856.729	4641
856.862	4801
856.996	4698
857.13	4714
857.263	4763
857.397	4805
857.53	4630
857.664	4706
857.797	4793
857.931	4752
858.064	4675
858.197	4790
858.331	4683
858.464	4645
858.597	4519
858.731	4641
858.864	4668
858.997	4630
859.13	4660
859.263	4675
859.396	4683
859.529	4561
859.662	4592
859.795	4573
859.928	4599
860.061	4759
860.194	4767
860.327	4630
860.46	4554
860.592	4755
860.725	4759
860.858	4755
860.99	4596
861.123	4516
861.256	4516
861.388	4611
861.521	5269
861.653	4459
861.786	4474
861.918	4451
862.05	4527
862.183	4554
862.315	4607
862.447	4664
862.58	4573
862.712	4432
862.844	4375
862.976	4500
863.108	4462
863.24	4889
863.372	4356
863.504	4417
863.636	4421
863.768	4489
863.9	4409
864.032	4348
864.164	4402
864.296	4451
864.428	4535
864.559	4538
864.691	4535
864.823	4558
864.954	4516
865.086	4512
865.217	4421
865.349	4398
865.48	4409
865.612	4542
865.743	4672
865.875	4417
866.006	4417
866.137	4428
866.269	4462
866.4	4459
866.531	4413
866.662	4383
866.793	4432
866.924	4386
867.055	4470
867.186	4474
867.317	4432
867.448	4348
867.579	4398
867.71	4421
867.841	4405
867.972	4447
868.103	4459
868.233	4497
868.364	4436
868.495	4485
868.625	4596
868.756	4786
868.886	4535
869.017	4569
869.147	4797
869.278	4733
869.408	4675
869.539	4615
869.669	4687
869.799	4683
869.929	4759
870.06	4744
870.19	4946
870.32	4911
870.45	4915
870.58	4995
870.71	5075
870.84	5105
870.97	4881
871.1	4908
871.23	5113
871.36	5117
871.489	4995
871.619	5075
871.749	5083
871.879	5109
872.008	5178
872.138	5041
872.267	4961
872.397	4843
872.526	4812
872.656	4691
872.785	4828
872.915	4961
873.044	5006
873.173	4908
873.303	4961
873.432	4984
873.561	4938
873.69	4938
873.819	4862
873.948	4873
874.077	4835
874.206	4759
874.335	4805
874.464	4953
874.593	5064
874.722	4965
874.851	5113
874.979	5014
875.108	5018
875.237	4923
875.365	4900
875.494	4847
875.623	4991
875.751	4786
875.88	4824
876.008	4968
876.136	5014
876.265	5212
876.393	5341
876.521	5258
876.65	5140
876.778	5147
876.906	5041
877.034	5045
877.162	5033
877.29	4991
877.418	5067
877.546	5056
877.674	5037
877.802	5056
877.93	5006
878.058	4911
878.185	4873
878.313	4930
878.441	4949
878.568	4733
878.696	4866
878.824	4957
878.951	5029
879.079	5124
879.206	5322
879.333	5105
879.461	4991
879.588	5075
879.715	5052
879.842	5258
879.97	5003
880.097	4786
880.224	4733
880.351	4786
880.478	4812
880.605	4755
880.732	4759
880.859	5048
880.986	4866
881.112	4915
881.239	4778
881.366	4668
881.493	4637
881.619	4554
881.746	4596
881.872	4611
881.999	4653
882.125	4679
882.252	4767
882.378	4828
882.505	4968
882.631	4801
882.757	4649
882.883	4679
883.01	4687
883.136	4653
883.262	4588
883.388	4607
883.514	4790
883.64	4873
883.766	4835
883.892	4672
884.018	4672
884.143	4862
884.269	5003
884.395	4683
884.52	4641
884.646	4599
884.772	4584
884.897	4531
885.023	4664
885.148	4778
885.274	4847
885.399	4790
885.524	4740
885.65	4683
885.775	4786
885.9	4675
886.025	4927
886.15	4793
886.275	4694
886.4	4645
886.525	4733
886.65	4668
886.775	4637
886.9	4911
887.025	5025
887.149	4805
887.274	4672
887.399	4554
887.523	4573
887.648	4577
887.773	4531
887.897	4778
888.021	4805
888.146	4622
888.27	4820
888.395	4892
888.519	4816
888.643	4767
888.767	4854
888.891	4710
889.015	4626
889.139	4649
889.263	4580
889.387	4774
889.511	4885
889.635	4835
889.759	4626
889.883	4668
890.006	4691
890.13	4847
890.254	4603
890.377	4683
890.501	4527
890.624	4489
890.748	4641
890.871	4512
890.995	4443
891.118	4344
891.241	4466
891.364	4493
891.488	4630
891.611	4489
891.734	4512
891.857	4641
891.98	4554
892.103	4660
892.226	4588
892.349	4535
892.471	4375
892.594	4550
892.717	4588
892.839	4527
892.962	4645
893.085	4603
893.207	4603
893.33	4440
893.452	4489
893.575	4649
893.697	4573
893.819	4793
893.941	4801
894.064	4763
894.186	4577
894.308	4565
894.43	4702
894.552	4790
894.674	4725
894.796	4519
894.918	4630
895.04	4569
895.161	4721
895.283	4592
895.405	4561
895.526	4615
895.648	4653
895.769	4706
895.891	4736
896.012	4717
896.134	4744
896.255	4668
896.376	4615
896.498	4596
896.619	4664
896.74	4603
896.861	4649
896.982	4892
897.103	5056
897.224	4824
897.345	4767
897.466	4634
897.587	4771
897.708	4843
897.828	4790
897.949	4603
898.07	4558
898.19	4660
898.311	4835
898.431	4653
898.552	4706
898.672	4797
898.792	4831
898.913	4725
899.033	4645
899.153	4497
899.273	4462
899.393	4481
899.513	4542
899.633	4497
899.753	4527
899.873	4474
899.993	4573
900.113	4516
900.232	4599
900.352	4512
900.472	4481
900.591	4375
900.711	4474
900.83	4421
900.95	4603
901.069	4683
901.189	4550
901.308	4314
901.427	4341
901.546	4337
901.665	4440
901.784	4459
901.904	4417
902.023	4303
902.141	4207
902.26	4200
902.379	4272
902.498	4219
902.617	4257
902.735	4341
902.854	4303
902.973	4360
903.091	4211
903.21	4158
903.328	4261
903.446	4272
903.565	4246
903.683	4325
903.801	4284
903.919	4424
904.038	4432
904.156	4268
904.274	4440
904.392	4390
904.51	4402
904.627	4466
904.745	4561
904.863	4618
904.981	4371
905.098	4257
905.216	4398
905.334	4424
905.451	4459
905.569	4394
905.686	4546
905.803	4546
905.921	4386
906.038	4516
906.155	4500
906.272	4417
906.389	4470
906.506	4325
906.623	4341
906.74	4375
906.857	4284
906.974	4379
907.091	4558
907.208	4653
907.324	4558
907.441	4478
907.557	4352
907.674	4337
907.79	4306
907.907	4348
908.023	4481
908.139	4485
908.256	4440
908.372	4459
908.488	4402
908.604	4329
908.72	4310
908.836	4371
908.952	4375
909.068	4367
909.184	4542
909.3	4455
909.415	4577
909.531	4535
909.647	4352
909.762	4386
909.878	4329
909.993	4455
910.108	4390
910.224	4402
910.339	4470
910.454	4379
910.57	4333
910.685	4291
910.8	4641
910.915	4565
911.03	4497
911.145	4329
911.259	4348
911.374	4341
911.489	4295
911.604	4306
911.718	4188
911.833	4169
911.947	4097
912.062	4048
912.176	4192
912.291	4230
912.405	4234
912.519	4470
912.633	4462
912.748	4325
912.862	4299
912.976	4166
913.09	4097
913.204	4166
913.318	4253
913.431	4413
913.545	4383
913.659	4432
913.772	4325
913.886	4227
914	4185
914.113	4394
914.226	4417
914.34	4394
914.453	4261
914.566	4424
914.68	4363
914.793	4310
914.906	4169
915.019	4074
915.132	4090
915.245	4211
915.358	4238
915.47	4227
915.583	4265
915.696	4272
915.809	4402
915.921	4417
916.034	4276
916.146	4230
916.259	4219
916.371	4394
916.483	4348
916.595	4249
916.708	4303
916.82	4325
916.932	4310
917.044	4329
917.156	4329
917.268	4192
917.38	4303
917.491	4276
917.603	4337
917.715	4379
917.826	4432
917.938	4333
918.049	4253
918.161	4405
918.272	4546
918.384	4519
918.495	4440
918.606	4287
918.717	4219
918.828	4337
918.939	4383
919.05	4238
919.161	4310
919.272	4105
919.383	4196
919.494	4451
919.604	4611
919.715	4379
919.826	4329
919.936	4383
920.047	4519
920.157	4493
920.267	4679
920.378	4523
920.488	4443
920.598	4702
920.708	4866
920.818	4763
920.928	4752
921.038	4908
921.148	4904
921.258	4569
921.368	4554
921.477	4451
921.587	4451
921.697	4360
921.806	4561
921.916	4409
922.025	4306
922.134	4246
922.244	4207
922.353	4325
922.462	4169
922.571	4154
922.68	3991
922.789	3918
922.898	4044
923.007	3949
923.116	4109
923.224	4048
923.333	4101
923.442	4021
923.55	3960
923.659	4010
923.767	4086
923.876	3983
923.984	4109
924.092	3983
924.201	4116
924.309	4067
924.417	4173
924.525	4029
924.633	4124
924.741	5033
924.849	3941
924.956	4124
925.064	3968
925.172	3915
925.279	3964
925.387	4017
925.494	4048
925.602	4192
925.709	4147
925.816	4032
925.924	4112
926.031	4200
926.138	4162
926.245	4173
926.352	4101
926.459	4227
926.566	4284
926.673	4169
926.779	4078
926.886	4040
926.993	3949
927.099	3991
927.206	3930
927.312	3930
927.419	4025
927.525	4055
927.631	4051
927.737	3964
927.843	4002
927.95	3831
928.056	3922
928.162	3998
928.267	4032
928.373	4641
928.479	4147
928.585	3888
928.69	4010
928.796	4090
928.901	3972
929.007	3846
929.112	4006
929.218	3945
929.323	3915
929.428	3899
929.533	4147
929.638	3899
929.743	3922
929.848	4055
929.953	3956
930.058	3941
930.163	3789
930.267	3831
930.372	3972
930.477	3812
930.581	4090
930.685	3922
930.79	3800
930.894	3892
930.998	3835
931.103	4006
931.207	3724
931.311	3663
931.415	3641
931.519	3496
931.623	3561
