Data from test_V78500241_2616.txt Node
Date: Fri Mar 25 17:07:11 CST 2022
User: usil
Spectrometer: V785-0024
Trigger mode: 0
Integration Time (sec): 4.000000E-1
Scans to average: 1
Nonlinearity correction enabled: false
Boxcar width: 0
Storing dark spectrum: false
XAxis mode: Wavelengths
Number of Pixels in Spectrum: 1024
>>>>>Begin Spectral Data<<<<<
801.071	7951
801.214	7963
801.356	7841
801.499	7841
801.641	7750
801.783	7792
801.926	7944
802.068	7913
802.211	7978
802.353	7947
802.496	7902
802.638	7849
802.78	7921
802.923	7936
803.065	7875
803.208	7875
803.35	8027
803.492	8069
803.635	8168
803.777	8069
803.919	8157
804.061	8415
804.204	8111
804.346	8084
804.488	7986
804.63	8103
804.773	7986
804.915	8126
805.057	8240
805.199	8176
805.341	8252
805.483	8301
805.626	8267
805.768	8157
805.91	8195
806.052	8153
806.194	8054
806.336	8214
806.478	8016
806.62	8043
806.762	8092
806.904	8282
807.046	8457
807.188	8362
807.33	8298
807.472	8263
807.614	8123
807.756	8130
807.898	7974
808.04	7875
808.182	7780
808.324	7890
808.465	7906
808.607	8043
808.749	8126
808.891	8176
809.033	8313
809.174	8218
809.316	8020
809.458	8027
809.6	7959
809.741	8039
809.883	7978
810.025	8077
810.166	8077
810.308	8024
810.45	7989
810.591	7868
810.733	7723
810.875	7597
811.016	7525
811.158	7434
811.299	7594
811.441	7712
811.582	7689
811.724	7609
811.865	7476
812.007	7616
812.148	7636
812.29	7556
812.431	7719
812.573	7784
812.714	7986
812.855	8103
812.997	8180
813.138	8229
813.279	8240
813.421	8031
813.562	7978
813.703	7879
813.845	7742
813.986	7403
814.127	7278
814.268	7183
814.41	7126
814.551	7168
814.692	7149
814.833	7095
814.974	7046
815.115	7091
815.256	7031
815.397	6970
815.539	6966
815.68	6852
815.821	6768
815.962	6928
816.103	6825
816.244	6677
816.385	6681
816.526	6604
816.666	6532
816.807	6266
816.948	6426
817.089	6467
817.23	6403
817.371	6357
817.512	6407
817.653	6384
817.793	6365
817.934	6429
818.075	6506
818.216	6361
818.356	6426
818.497	6224
818.638	6072
818.778	6152
818.919	6110
819.06	6144
819.2	6311
819.341	6369
819.481	6418
819.622	6597
819.762	6764
819.903	6738
820.043	6574
820.184	6601
820.324	6665
820.465	6749
820.605	6620
820.746	6662
820.886	6475
821.026	6700
821.167	6795
821.307	6859
821.447	6776
821.588	6646
821.728	6608
821.868	6490
822.008	6331
822.149	6429
822.289	6410
822.429	6197
822.569	6053
822.709	6152
822.849	5961
822.99	5893
823.13	5942
823.27	5866
823.41	5775
823.55	5729
823.69	5760
823.83	5790
823.97	5691
824.11	5596
824.25	5509
824.389	5551
824.529	5592
824.669	5543
824.809	5649
824.949	5581
825.089	5581
825.228	5589
825.368	5410
825.508	5315
825.648	5337
825.787	5341
825.927	5326
826.067	5337
826.206	5292
826.346	5349
826.485	5395
826.625	5402
826.765	5528
826.904	5471
827.044	5239
827.183	5231
827.323	5109
827.462	5269
827.601	5162
827.741	5151
827.88	5189
828.02	5117
828.159	5235
828.298	5292
828.437	5364
828.577	5242
828.716	5444
828.855	5315
828.994	5128
829.134	5151
829.273	5208
829.412	5140
829.551	5117
829.69	5155
829.829	5254
829.968	5334
830.107	5269
830.246	5353
830.385	5170
830.524	5102
830.663	5060
830.802	4984
830.941	4870
831.08	4904
831.219	4987
831.357	4949
831.496	5174
831.635	4946
831.774	4816
831.913	4881
832.051	4763
832.19	4740
832.329	4831
832.467	4656
832.606	4641
832.744	4687
832.883	4729
833.022	4752
833.16	4786
833.299	4858
833.437	4778
833.576	4866
833.714	4858
833.852	4923
833.991	4862
834.129	4934
834.267	4938
834.406	4881
834.544	5003
834.682	4923
834.821	4949
834.959	5181
835.097	4946
835.235	5155
835.373	5079
835.511	5102
835.65	5029
835.788	5041
835.926	4919
836.064	4915
836.202	4904
836.34	5140
836.478	5197
836.615	5143
836.753	5201
836.891	5292
837.029	5242
837.167	5250
837.305	5223
837.443	5166
837.58	5113
837.718	5246
837.856	5197
837.993	5136
838.131	5204
838.269	5166
838.406	5189
838.544	5166
838.681	4987
838.819	5003
838.956	4892
839.094	4889
839.231	5037
839.369	5048
839.506	5410
839.643	5239
839.781	5029
839.918	5045
840.055	5147
840.193	5132
840.33	5102
840.467	5090
840.604	5220
840.742	5429
840.879	5098
841.016	5064
841.153	5174
841.29	5357
841.427	5311
841.564	5315
841.701	5379
841.838	5242
841.975	5204
842.112	5246
842.249	5155
842.385	5048
842.522	5299
842.659	5197
842.796	5132
842.933	5178
843.069	5136
843.206	5132
843.343	5299
843.479	5212
843.616	5208
843.752	4984
843.889	5006
844.025	5159
844.162	4987
844.298	5261
844.435	5064
844.571	4987
844.708	5159
844.844	5288
844.98	5326
845.117	5288
845.253	5143
845.389	5079
845.525	5170
845.661	5143
845.798	5045
845.934	5166
846.07	5060
846.206	5204
846.342	5254
846.478	5143
846.614	5014
846.75	4980
846.886	4965
847.022	5151
847.158	5045
847.294	5037
847.429	5083
847.565	5014
847.701	5372
847.837	4854
847.972	4801
848.108	4911
848.244	4892
848.379	4812
848.515	4717
848.65	4736
848.786	4797
848.921	4778
849.057	4911
849.192	4904
849.328	4824
849.463	4862
849.598	4858
849.734	4767
849.869	4664
850.004	4641
850.14	4698
850.275	4664
850.41	4508
850.545	4580
850.68	4645
850.815	4653
850.95	4615
851.085	4828
851.22	4786
851.355	4675
851.49	4599
851.625	4698
851.76	4637
851.895	4630
852.03	4561
852.165	4679
852.299	4748
852.434	4805
852.569	4782
852.703	4850
852.838	4938
852.973	4972
853.107	4965
853.242	4778
853.376	4710
853.511	4622
853.645	4653
853.78	4858
853.914	4755
854.048	4679
854.183	4687
854.317	4748
854.451	4870
854.585	4687
854.72	4683
854.854	4797
854.988	4630
855.122	4694
855.256	4558
855.39	4714
855.524	4824
855.658	4782
855.792	4733
855.926	4759
856.06	4816
856.194	4812
856.327	4717
856.461	4653
856.595	4675
856.729	4683
856.862	4786
856.996	4733
857.13	4778
857.263	4797
857.397	4854
857.53	4675
857.664	4763
857.797	4824
857.931	4812
858.064	4755
858.197	4824
858.331	4710
858.464	4706
858.597	4569
858.731	4691
858.864	4641
858.997	4656
859.13	4714
859.263	4710
859.396	4767
859.529	4645
859.662	4569
859.795	4622
859.928	4664
860.061	4831
860.194	4782
860.327	4584
860.46	4558
860.592	4706
860.725	4782
860.858	4740
860.99	4641
861.123	4558
861.256	4546
861.388	4637
861.521	5440
861.653	4478
861.786	4489
861.918	4516
862.05	4523
862.183	4542
862.315	4649
862.447	4694
862.58	4558
862.712	4428
862.844	4367
862.976	4481
863.108	4481
863.24	4763
863.372	4386
863.504	4478
863.636	4455
863.768	4531
863.9	4489
864.032	4386
864.164	4481
864.296	4489
864.428	4611
864.559	4622
864.691	4580
864.823	4561
864.954	4519
865.086	4546
865.217	4504
865.349	4447
865.48	4519
865.612	4535
865.743	4603
865.875	4535
866.006	4485
866.137	4489
866.269	4459
866.4	4459
866.531	4440
866.662	4474
866.793	4451
866.924	4451
867.055	4519
867.186	4493
867.317	4470
867.448	4348
867.579	4383
867.71	4432
867.841	4447
867.972	4474
868.103	4519
868.233	4489
868.364	4432
868.495	4500
868.625	4691
868.756	4752
868.886	4641
869.017	4622
869.147	4782
869.278	4835
869.408	4687
869.539	4672
869.669	4771
869.799	4679
869.929	4828
870.06	4771
870.19	4991
870.32	4968
870.45	4908
870.58	5025
870.71	5117
870.84	5094
870.97	4976
871.1	4870
871.23	5159
871.36	5178
871.489	5083
871.619	5117
871.749	5124
871.879	5193
872.008	5166
872.138	5071
872.267	5006
872.397	4927
872.526	4828
872.656	4759
872.785	4854
872.915	4972
873.044	5018
873.173	5022
873.303	4984
873.432	4995
873.561	4991
873.69	4946
873.819	4873
873.948	4900
874.077	4870
874.206	4820
874.335	4816
874.464	4991
874.593	5090
874.722	5045
874.851	5155
874.979	5048
875.108	5083
875.237	4908
875.365	4923
875.494	4908
875.623	5075
875.751	4892
875.88	4900
876.008	5006
876.136	5052
876.265	5254
876.393	5398
876.521	5250
876.65	5296
876.778	5185
876.906	5109
877.034	5090
877.162	5109
877.29	5006
877.418	5075
877.546	5052
877.674	5086
877.802	5094
877.93	5003
878.058	4927
878.185	4896
878.313	5003
878.441	5037
878.568	4801
878.696	4946
878.824	5003
878.951	4980
879.079	5136
879.206	5258
879.333	5147
879.461	5037
879.588	5045
879.715	5136
879.842	5239
879.97	4984
880.097	4831
880.224	4824
880.351	4847
880.478	4866
880.605	4828
880.732	4847
880.859	5105
880.986	4915
881.112	4976
881.239	4824
881.366	4702
881.493	4706
881.619	4649
881.746	4710
881.872	4618
881.999	4679
882.125	4675
882.252	4805
882.378	4835
882.505	4984
882.631	4809
882.757	4637
882.883	4729
883.01	4774
883.136	4683
883.262	4653
883.388	4672
883.514	4862
883.64	4881
883.766	4809
883.892	4698
884.018	4721
884.143	4847
884.269	5037
884.395	4721
884.52	4664
884.646	4653
884.772	4603
884.897	4592
885.023	4687
885.148	4816
885.274	4885
885.399	4820
885.524	4763
885.65	4679
885.775	4812
885.9	4763
886.025	4850
886.15	4820
886.275	4725
886.4	4656
886.525	4740
886.65	4679
886.775	4698
886.9	4942
887.025	5018
887.149	4805
887.274	4683
887.399	4615
887.523	4626
887.648	4618
887.773	4637
887.897	4786
888.021	4778
888.146	4721
888.27	4831
888.395	4885
888.519	4797
888.643	4850
888.767	4858
888.891	4672
889.015	4599
889.139	4664
889.263	4641
889.387	4805
889.511	4904
889.635	4812
889.759	4698
889.883	4660
890.006	4797
890.13	4858
890.254	4634
890.377	4679
890.501	4538
890.624	4588
890.748	4649
890.871	4577
890.995	4474
891.118	4398
891.241	4527
891.364	4592
891.488	4672
891.611	4500
891.734	4554
891.857	4630
891.98	4603
892.103	4698
892.226	4592
892.349	4535
892.471	4474
892.594	4550
892.717	4653
892.839	4542
892.962	4634
893.085	4706
893.207	4645
893.33	4462
893.452	4550
893.575	4668
893.697	4611
893.819	4835
893.941	4809
894.064	4771
894.186	4618
894.308	4573
894.43	4752
894.552	4858
894.674	4736
894.796	4561
894.918	4599
895.04	4580
895.161	4729
895.283	4668
895.405	4580
895.526	4645
895.648	4729
895.769	4683
895.891	4729
896.012	4744
896.134	4763
896.255	4725
896.376	4668
896.498	4611
896.619	4740
896.74	4649
896.861	4717
896.982	4938
897.103	5052
897.224	4847
897.345	4809
897.466	4664
897.587	4755
897.708	4862
897.828	4831
897.949	4706
898.07	4596
898.19	4668
898.311	4866
898.431	4694
898.552	4778
898.672	4809
898.792	4828
898.913	4755
899.033	4626
899.153	4500
899.273	4447
899.393	4523
899.513	4542
899.633	4561
899.753	4569
899.873	4516
899.993	4584
900.113	4558
900.232	4588
900.352	4569
900.472	4489
900.591	4383
900.711	4542
900.83	4459
900.95	4626
901.069	4683
901.189	4516
901.308	4333
901.427	4325
901.546	4371
901.665	4485
901.784	4508
901.904	4436
902.023	4325
902.141	4242
902.26	4196
902.379	4325
902.498	4287
902.617	4230
902.735	4405
902.854	4390
902.973	4386
903.091	4219
903.21	4246
903.328	4318
903.446	4265
903.565	4280
903.683	4337
903.801	4261
903.919	4386
904.038	4459
904.156	4363
904.274	4481
904.392	4428
904.51	4447
904.627	4474
904.745	4596
904.863	4653
904.981	4417
905.098	4325
905.216	4341
905.334	4455
905.451	4500
905.569	4451
905.686	4577
905.803	4569
905.921	4436
906.038	4565
906.155	4451
906.272	4428
906.389	4417
906.506	4352
906.623	4436
906.74	4436
906.857	4341
906.974	4417
907.091	4618
907.208	4736
907.324	4603
907.441	4451
907.557	4360
907.674	4386
907.79	4348
907.907	4371
908.023	4516
908.139	4527
908.256	4440
908.372	4485
908.488	4474
908.604	4356
908.72	4314
908.836	4390
908.952	4386
909.068	4440
909.184	4554
909.3	4500
909.415	4573
909.531	4561
909.647	4371
909.762	4371
909.878	4348
909.993	4405
910.108	4455
910.224	4398
910.339	4474
910.454	4440
910.57	4375
910.685	4295
910.8	4683
910.915	4588
911.03	4535
911.145	4356
911.259	4314
911.374	4402
911.489	4303
911.604	4295
911.718	4158
911.833	4200
911.947	4086
912.062	4063
912.176	4257
912.291	4265
912.405	4238
912.519	4455
912.633	4519
912.748	4402
912.862	4306
912.976	4192
913.09	4093
913.204	4185
913.318	4276
913.431	4402
913.545	4386
913.659	4478
913.772	4383
913.886	4280
914	4219
914.113	4360
914.226	4451
914.34	4413
914.453	4249
914.566	4443
914.68	4257
914.793	4291
914.906	4207
915.019	4166
915.132	4097
915.245	4242
915.358	4207
915.47	4265
915.583	4310
915.696	4333
915.809	4371
915.921	4428
916.034	4272
916.146	4265
916.259	4261
916.371	4383
916.483	4363
916.595	4284
916.708	4337
916.82	4356
916.932	4314
917.044	4383
917.156	4379
917.268	4287
917.38	4341
917.491	4310
917.603	4417
917.715	4443
917.826	4489
917.938	4348
918.049	4310
918.161	4417
918.272	4542
918.384	4596
918.495	4493
918.606	4333
918.717	4234
918.828	4367
918.939	4386
919.05	4299
919.161	4363
919.272	4196
919.383	4291
919.494	4493
919.604	4626
919.715	4447
919.826	4371
919.936	4432
920.047	4588
920.157	4577
920.267	4759
920.378	4584
920.488	4535
920.598	4771
920.708	4972
920.818	4801
920.928	4793
921.038	5029
921.148	4927
921.258	4634
921.368	4573
921.477	4603
921.587	4462
921.697	4390
921.806	4626
921.916	4440
922.025	4303
922.134	4306
922.244	4348
922.353	4375
922.462	4204
922.571	4147
922.68	4055
922.789	4036
922.898	4105
923.007	4017
923.116	4128
923.224	4105
923.333	4139
923.442	4059
923.55	4044
923.659	4071
923.767	4158
923.876	4040
923.984	4192
924.092	4006
924.201	4169
924.309	4120
924.417	4207
924.525	4093
924.633	4090
924.741	5090
924.849	3945
924.956	4211
925.064	3994
925.172	3960
925.279	4021
925.387	4120
925.494	4071
925.602	4284
925.709	4234
925.816	4048
925.924	4169
926.031	4249
926.138	4227
926.245	4276
926.352	4097
926.459	4314
926.566	4341
926.673	4173
926.779	4139
926.886	4109
926.993	4051
927.099	4002
927.206	3945
927.312	3998
927.419	4086
927.525	4071
927.631	4181
927.737	3987
927.843	3945
927.95	3899
928.056	4002
928.162	4002
928.267	4097
928.373	4615
928.479	4128
928.585	3903
928.69	4063
928.796	4063
928.901	4048
929.007	3884
929.112	4013
929.218	4006
929.323	3953
929.428	3979
929.533	4139
929.638	3907
929.743	4013
929.848	4074
929.953	4025
930.058	3979
930.163	3838
930.267	3915
930.372	4017
930.477	3846
930.581	4086
930.685	4010
930.79	3869
930.894	3918
930.998	3865
931.103	4082
931.207	3755
931.311	3709
931.415	3701
931.519	3549
931.623	3568
