Data from test_V78500241_2322.txt Node
Date: Fri Mar 25 17:05:08 CST 2022
User: usil
Spectrometer: V785-0024
Trigger mode: 0
Integration Time (sec): 4.000000E-1
Scans to average: 1
Nonlinearity correction enabled: false
Boxcar width: 0
Storing dark spectrum: false
XAxis mode: Wavelengths
Number of Pixels in Spectrum: 1024
>>>>>Begin Spectral Data<<<<<
801.071	8016
801.214	7986
801.356	7951
801.499	7898
801.641	7742
801.783	7879
801.926	8001
802.068	7951
802.211	8008
802.353	8001
802.496	7868
802.638	7852
802.78	7913
802.923	7913
803.065	7894
803.208	7917
803.35	8008
803.492	8111
803.635	8195
803.777	8012
803.919	8191
804.061	8499
804.204	8149
804.346	8065
804.488	7986
804.63	8088
804.773	8058
804.915	8142
805.057	8339
805.199	8180
805.341	8221
805.483	8275
805.626	8282
805.768	8157
805.91	8229
806.052	8237
806.194	8084
806.336	8309
806.478	8126
806.62	8138
806.762	8218
806.904	8290
807.046	8438
807.188	8332
807.33	8343
807.472	8294
807.614	8191
807.756	8180
807.898	8020
808.04	7909
808.182	7906
808.324	7902
808.465	8008
808.607	8088
808.749	8119
808.891	8279
809.033	8343
809.174	8279
809.316	8062
809.458	8096
809.6	8024
809.741	8016
809.883	8027
810.025	8111
810.166	8126
810.308	8024
810.45	7989
810.591	7955
810.733	7742
810.875	7666
811.016	7525
811.158	7544
811.299	7609
811.441	7750
811.582	7689
811.724	7658
811.865	7559
812.007	7582
812.148	7651
812.29	7613
812.431	7799
812.573	7902
812.714	7940
812.855	8218
812.997	8237
813.138	8279
813.279	8123
813.421	8103
813.562	7932
813.703	7772
813.845	7708
813.986	7506
814.127	7297
814.268	7202
814.41	7240
814.551	7198
814.692	7209
814.833	7171
814.974	7122
815.115	7190
815.256	6981
815.397	6920
815.539	6954
815.68	6814
815.821	6791
815.962	6844
816.103	6848
816.244	6700
816.385	6597
816.526	6665
816.666	6585
816.807	6311
816.948	6486
817.089	6506
817.23	6437
817.371	6448
817.512	6452
817.653	6422
817.793	6346
817.934	6403
818.075	6426
818.216	6479
818.356	6410
818.497	6258
818.638	6121
818.778	6205
818.919	6175
819.06	6216
819.2	6361
819.341	6350
819.481	6471
819.622	6540
819.762	6692
819.903	6711
820.043	6574
820.184	6559
820.324	6597
820.465	6665
820.605	6635
820.746	6665
820.886	6528
821.026	6654
821.167	6741
821.307	6821
821.447	6772
821.588	6741
821.728	6646
821.868	6544
822.008	6369
822.149	6334
822.289	6327
822.429	6175
822.569	6148
822.709	6178
822.849	5920
822.99	5923
823.13	5984
823.27	5904
823.41	5851
823.55	5882
823.69	5767
823.83	5794
823.97	5695
824.11	5554
824.25	5543
824.389	5509
824.529	5611
824.669	5551
824.809	5661
824.949	5649
825.089	5699
825.228	5585
825.368	5387
825.508	5395
825.648	5307
825.787	5372
825.927	5372
826.067	5296
826.206	5315
826.346	5337
826.485	5376
826.625	5368
826.765	5532
826.904	5486
827.044	5273
827.183	5204
827.323	5109
827.462	5311
827.601	5197
827.741	5197
827.88	5227
828.02	5151
828.159	5197
828.298	5307
828.437	5387
828.577	5296
828.716	5463
828.855	5349
828.994	5197
829.134	5201
829.273	5216
829.412	5128
829.551	5128
829.69	5159
829.829	5269
829.968	5436
830.107	5292
830.246	5250
830.385	5204
830.524	5124
830.663	5086
830.802	4987
830.941	4923
831.08	4835
831.219	5052
831.357	4957
831.496	5147
831.635	4892
831.774	4862
831.913	4847
832.051	4740
832.19	4763
832.329	4854
832.467	4691
832.606	4675
832.744	4706
832.883	4721
833.022	4736
833.16	4820
833.299	4858
833.437	4828
833.576	4854
833.714	4850
833.852	4854
833.991	4908
834.129	4991
834.267	4900
834.406	4927
834.544	5022
834.682	5006
834.821	4980
834.959	5159
835.097	5033
835.235	5189
835.373	5086
835.511	5124
835.65	5060
835.788	5033
835.926	4938
836.064	4911
836.202	4957
836.34	5151
836.478	5178
836.615	5132
836.753	5212
836.891	5273
837.029	5261
837.167	5227
837.305	5174
837.443	5128
837.58	5143
837.718	5269
837.856	5197
837.993	5155
838.131	5288
838.269	5223
838.406	5231
838.544	5170
838.681	5033
838.819	5079
838.956	4877
839.094	4949
839.231	4984
839.369	5105
839.506	5353
839.643	5246
839.781	5025
839.918	5052
840.055	5147
840.193	5121
840.33	5090
840.467	5181
840.604	5189
840.742	5459
840.879	5056
841.016	5109
841.153	5204
841.29	5395
841.427	5311
841.564	5296
841.701	5414
841.838	5277
841.975	5254
842.112	5265
842.249	5162
842.385	5155
842.522	5318
842.659	5174
842.796	5151
842.933	5204
843.069	5162
843.206	5128
843.343	5318
843.479	5231
843.616	5299
843.752	5010
843.889	5041
844.025	5197
844.162	5025
844.298	5220
844.435	5098
844.571	5064
844.708	5227
844.844	5357
844.98	5254
845.117	5246
845.253	5178
845.389	5105
845.525	5174
845.661	5166
845.798	5045
845.934	5159
846.07	5033
846.206	5193
846.342	5239
846.478	5223
846.614	5006
846.75	5022
846.886	4949
847.022	5166
847.158	5010
847.294	5113
847.429	5136
847.565	5067
847.701	5265
847.837	4896
847.972	4771
848.108	4946
848.244	4953
848.379	4763
848.515	4740
848.65	4740
848.786	4736
848.921	4740
849.057	4850
849.192	4854
849.328	4805
849.463	4900
849.598	4835
849.734	4759
849.869	4748
850.004	4660
850.14	4672
850.275	4630
850.41	4542
850.545	4565
850.68	4618
850.815	4645
850.95	4634
851.085	4870
851.22	4717
851.355	4668
851.49	4596
851.625	4664
851.76	4698
851.895	4546
852.03	4550
852.165	4656
852.299	4736
852.434	4812
852.569	4721
852.703	4805
852.838	4854
852.973	4953
853.107	4915
853.242	4714
853.376	4706
853.511	4519
853.645	4637
853.78	4828
853.914	4706
854.048	4660
854.183	4656
854.317	4714
854.451	4835
854.585	4691
854.72	4622
854.854	4763
854.988	4603
855.122	4687
855.256	4493
855.39	4645
855.524	4801
855.658	4714
855.792	4729
855.926	4755
856.06	4816
856.194	4824
856.327	4729
856.461	4596
856.595	4645
856.729	4634
856.862	4706
856.996	4687
857.13	4759
857.263	4755
857.397	4771
857.53	4634
857.664	4698
857.797	4729
857.931	4740
858.064	4702
858.197	4714
858.331	4702
858.464	4637
858.597	4504
858.731	4618
858.864	4637
858.997	4611
859.13	4653
859.263	4694
859.396	4717
859.529	4573
859.662	4546
859.795	4561
859.928	4653
860.061	4748
860.194	4740
860.327	4599
860.46	4577
860.592	4694
860.725	4698
860.858	4725
860.99	4481
861.123	4481
861.256	4474
861.388	4626
861.521	5391
861.653	4474
861.786	4428
861.918	4462
862.05	4504
862.183	4538
862.315	4577
862.447	4607
862.58	4565
862.712	4405
862.844	4291
862.976	4459
863.108	4481
863.24	4847
863.372	4314
863.504	4421
863.636	4402
863.768	4459
863.9	4409
864.032	4363
864.164	4398
864.296	4459
864.428	4561
864.559	4523
864.691	4542
864.823	4558
864.954	4493
865.086	4512
865.217	4462
865.349	4440
865.48	4493
865.612	4462
865.743	4649
865.875	4500
866.006	4341
866.137	4470
866.269	4402
866.4	4443
866.531	4440
866.662	4405
866.793	4428
866.924	4383
867.055	4538
867.186	4421
867.317	4424
867.448	4344
867.579	4383
867.71	4386
867.841	4390
867.972	4436
868.103	4447
868.233	4497
868.364	4455
868.495	4466
868.625	4691
868.756	4752
868.886	4618
869.017	4615
869.147	4778
869.278	4767
869.408	4645
869.539	4653
869.669	4691
869.799	4637
869.929	4793
870.06	4748
870.19	4976
870.32	4957
870.45	4938
870.58	5048
870.71	5102
870.84	5155
870.97	4957
871.1	4911
871.23	5128
871.36	5140
871.489	4987
871.619	5064
871.749	5086
871.879	5124
872.008	5212
872.138	5079
872.267	5014
872.397	4839
872.526	4805
872.656	4717
872.785	4816
872.915	4919
873.044	5083
873.173	4957
873.303	4923
873.432	4938
873.561	4991
873.69	4885
873.819	4831
873.948	4892
874.077	4828
874.206	4733
874.335	4809
874.464	4904
874.593	5090
874.722	4923
874.851	5060
874.979	5102
875.108	5048
875.237	4892
875.365	4892
875.494	4885
875.623	4980
875.751	4870
875.88	4870
876.008	4987
876.136	5022
876.265	5220
876.393	5364
876.521	5216
876.65	5231
876.778	5117
876.906	5010
877.034	5029
877.162	5075
877.29	5025
877.418	5052
877.546	5083
877.674	5052
877.802	5003
877.93	5041
878.058	4942
878.185	4881
878.313	4930
878.441	4919
878.568	4786
878.696	4892
878.824	4949
878.951	4968
879.079	5132
879.206	5326
879.333	5113
879.461	4957
879.588	4953
879.715	5132
879.842	5181
879.97	5014
880.097	4767
880.224	4763
880.351	4809
880.478	4866
880.605	4835
880.732	4824
880.859	5067
880.986	4900
881.112	4904
881.239	4778
881.366	4637
881.493	4611
881.619	4584
881.746	4664
881.872	4653
881.999	4656
882.125	4702
882.252	4805
882.378	4828
882.505	4953
882.631	4809
882.757	4664
882.883	4748
883.01	4790
883.136	4637
883.262	4603
883.388	4599
883.514	4774
883.64	4847
883.766	4831
883.892	4637
884.018	4714
884.143	4858
884.269	4965
884.395	4702
884.52	4596
884.646	4641
884.772	4599
884.897	4584
885.023	4687
885.148	4778
885.274	4862
885.399	4805
885.524	4706
885.65	4710
885.775	4721
885.9	4683
886.025	4850
886.15	4782
886.275	4721
886.4	4710
886.525	4702
886.65	4694
886.775	4672
886.9	4896
887.025	5018
887.149	4797
887.274	4649
887.399	4550
887.523	4611
887.648	4535
887.773	4603
887.897	4740
888.021	4771
888.146	4649
888.27	4824
888.395	4919
888.519	4820
888.643	4786
888.767	4831
888.891	4683
889.015	4615
889.139	4649
889.263	4618
889.387	4736
889.511	4850
889.635	4771
889.759	4626
889.883	4649
890.006	4714
890.13	4820
890.254	4607
890.377	4653
890.501	4561
890.624	4478
890.748	4569
890.871	4516
890.995	4417
891.118	4383
891.241	4500
891.364	4569
891.488	4618
891.611	4535
891.734	4531
891.857	4618
891.98	4558
892.103	4630
892.226	4596
892.349	4535
892.471	4440
892.594	4508
892.717	4584
892.839	4561
892.962	4622
893.085	4645
893.207	4622
893.33	4459
893.452	4550
893.575	4622
893.697	4607
893.819	4797
893.941	4843
894.064	4786
894.186	4569
894.308	4565
894.43	4733
894.552	4771
894.674	4805
894.796	4565
894.918	4611
895.04	4603
895.161	4679
895.283	4649
895.405	4580
895.526	4641
895.648	4733
895.769	4691
895.891	4672
896.012	4748
896.134	4694
896.255	4660
896.376	4649
896.498	4641
896.619	4714
896.74	4668
896.861	4653
896.982	4915
897.103	5090
897.224	4801
897.345	4725
897.466	4694
897.587	4717
897.708	4797
897.828	4771
897.949	4691
898.07	4580
898.19	4649
898.311	4839
898.431	4660
898.552	4694
898.672	4793
898.792	4820
898.913	4740
899.033	4630
899.153	4531
899.273	4428
899.393	4481
899.513	4531
899.633	4512
899.753	4584
899.873	4500
899.993	4599
900.113	4554
900.232	4618
900.352	4580
900.472	4459
900.591	4402
900.711	4451
900.83	4447
900.95	4645
901.069	4656
901.189	4573
901.308	4386
901.427	4360
901.546	4379
901.665	4508
901.784	4489
901.904	4360
902.023	4344
902.141	4207
902.26	4128
902.379	4322
902.498	4234
902.617	4268
902.735	4348
902.854	4424
902.973	4348
903.091	4188
903.21	4238
903.328	4344
903.446	4303
903.565	4272
903.683	4363
903.801	4265
903.919	4459
904.038	4447
904.156	4276
904.274	4447
904.392	4383
904.51	4405
904.627	4474
904.745	4603
904.863	4660
904.981	4356
905.098	4344
905.216	4322
905.334	4451
905.451	4379
905.569	4428
905.686	4531
905.803	4607
905.921	4394
906.038	4573
906.155	4512
906.272	4383
906.389	4398
906.506	4314
906.623	4360
906.74	4424
906.857	4287
906.974	4424
907.091	4577
907.208	4675
907.324	4565
907.441	4485
907.557	4325
907.674	4341
907.79	4337
907.907	4432
908.023	4478
908.139	4466
908.256	4405
908.372	4489
908.488	4405
908.604	4337
908.72	4306
908.836	4348
908.952	4341
909.068	4447
909.184	4554
909.3	4436
909.415	4596
909.531	4554
909.647	4329
909.762	4306
909.878	4360
909.993	4390
910.108	4424
910.224	4386
910.339	4470
910.454	4371
910.57	4352
910.685	4272
910.8	4645
910.915	4558
911.03	4508
911.145	4383
911.259	4348
911.374	4363
911.489	4276
911.604	4261
911.718	4188
911.833	4207
911.947	4090
912.062	4074
912.176	4185
912.291	4223
912.405	4227
912.519	4474
912.633	4531
912.748	4363
912.862	4318
912.976	4223
913.09	4101
913.204	4177
913.318	4234
913.431	4356
913.545	4356
913.659	4481
913.772	4363
913.886	4261
914	4246
914.113	4352
914.226	4478
914.34	4356
914.453	4196
914.566	4440
914.68	4333
914.793	4268
914.906	4169
915.019	4169
915.132	4063
915.245	4158
915.358	4219
915.47	4253
915.583	4325
915.696	4268
915.809	4386
915.921	4375
916.034	4253
916.146	4249
916.259	4234
916.371	4367
916.483	4386
916.595	4291
916.708	4344
916.82	4314
916.932	4322
917.044	4291
917.156	4344
917.268	4242
917.38	4284
917.491	4291
917.603	4360
917.715	4390
917.826	4443
917.938	4360
918.049	4265
918.161	4394
918.272	4527
918.384	4565
918.495	4405
918.606	4322
918.717	4204
918.828	4322
918.939	4352
919.05	4234
919.161	4291
919.272	4101
919.383	4234
919.494	4462
919.604	4573
919.715	4417
919.826	4337
919.936	4405
920.047	4527
920.157	4478
920.267	4694
920.378	4538
920.488	4470
920.598	4733
920.708	4873
920.818	4729
920.928	4717
921.038	4961
921.148	4877
921.258	4634
921.368	4516
921.477	4558
921.587	4436
921.697	4379
921.806	4558
921.916	4443
922.025	4272
922.134	4295
922.244	4230
922.353	4322
922.462	4166
922.571	4112
922.68	4013
922.789	3979
922.898	4029
923.007	3972
923.116	4059
923.224	4059
923.333	4120
923.442	3937
923.55	3987
923.659	4086
923.767	4166
923.876	3960
923.984	4177
924.092	3956
924.201	4063
924.309	4112
924.417	4128
924.525	4006
924.633	4090
924.741	5048
924.849	3937
924.956	4192
925.064	3964
925.172	3926
925.279	3972
925.387	4074
925.494	4074
925.602	4204
925.709	4200
925.816	4036
925.924	4139
926.031	4227
926.138	4131
926.245	4162
926.352	4063
926.459	4261
926.566	4295
926.673	4166
926.779	4090
926.886	4036
926.993	3991
927.099	3949
927.206	3983
927.312	3949
927.419	4074
927.525	4044
927.631	4135
927.737	3888
927.843	3934
927.95	3827
928.056	3987
928.162	3987
928.267	4029
928.373	4645
928.479	4048
928.585	3857
928.69	4044
928.796	4040
928.901	3956
929.007	3800
929.112	4002
929.218	3994
929.323	3926
929.428	3945
929.533	4090
929.638	3899
929.743	3956
929.848	4036
929.953	4029
930.058	3945
930.163	3793
930.267	3823
930.372	3941
930.477	3797
930.581	4128
930.685	3968
930.79	3816
930.894	3884
930.998	3797
931.103	4044
931.207	3740
931.311	3652
931.415	3675
931.519	3534
931.623	3519
