Data from test_V78500241_2234.txt Node
Date: Fri Mar 25 17:04:32 CST 2022
User: usil
Spectrometer: V785-0024
Trigger mode: 0
Integration Time (sec): 4.000000E-1
Scans to average: 1
Nonlinearity correction enabled: false
Boxcar width: 0
Storing dark spectrum: false
XAxis mode: Wavelengths
Number of Pixels in Spectrum: 1024
>>>>>Begin Spectral Data<<<<<
801.071	7925
801.214	7894
801.356	7841
801.499	7841
801.641	7799
801.783	7917
801.926	8027
802.068	8001
802.211	8005
802.353	8024
802.496	7864
802.638	7837
802.78	7921
802.923	7818
803.065	7822
803.208	7833
803.35	8046
803.492	8096
803.635	8130
803.777	7993
803.919	8183
804.061	8514
804.204	8168
804.346	8111
804.488	8012
804.63	8134
804.773	8050
804.915	8111
805.057	8275
805.199	8214
805.341	8214
805.483	8279
805.626	8225
805.768	8119
805.91	8202
806.052	8221
806.194	8138
806.336	8374
806.478	8123
806.62	8145
806.762	8123
806.904	8252
807.046	8465
807.188	8377
807.33	8286
807.472	8317
807.614	8153
807.756	8100
807.898	8008
808.04	7852
808.182	7928
808.324	7925
808.465	7940
808.607	8100
808.749	8115
808.891	8210
809.033	8240
809.174	8214
809.316	8111
809.458	8081
809.6	7967
809.741	7959
809.883	8081
810.025	8157
810.166	8027
810.308	8031
810.45	8035
810.591	7883
810.733	7753
810.875	7628
811.016	7480
811.158	7480
811.299	7620
811.441	7734
811.582	7681
811.724	7525
811.865	7552
812.007	7609
812.148	7571
812.29	7643
812.431	7757
812.573	7932
812.714	7890
812.855	8107
812.997	8221
813.138	8183
813.279	8183
813.421	8069
813.562	7982
813.703	7894
813.845	7769
813.986	7441
814.127	7209
814.268	7217
814.41	7152
814.551	7221
814.692	7266
814.833	7107
814.974	7168
815.115	7114
815.256	6996
815.397	6943
815.539	6905
815.68	6787
815.821	6787
815.962	6882
816.103	6814
816.244	6654
816.385	6677
816.526	6612
816.666	6464
816.807	6300
816.948	6475
817.089	6452
817.23	6403
817.371	6422
817.512	6422
817.653	6376
817.793	6395
817.934	6407
818.075	6479
818.216	6441
818.356	6369
818.497	6254
818.638	6163
818.778	6213
818.919	6136
819.06	6022
819.2	6315
819.341	6380
819.481	6311
819.622	6547
819.762	6715
819.903	6707
820.043	6570
820.184	6544
820.324	6612
820.465	6673
820.605	6711
820.746	6642
820.886	6528
821.026	6623
821.167	6650
821.307	6772
821.447	6753
821.588	6642
821.728	6589
821.868	6574
822.008	6323
822.149	6342
822.289	6346
822.429	6163
822.569	6060
822.709	6095
822.849	5958
822.99	5908
823.13	5923
823.27	5969
823.41	5817
823.55	5741
823.69	5798
823.83	5786
823.97	5657
824.11	5528
824.25	5539
824.389	5570
824.529	5577
824.669	5547
824.809	5638
824.949	5676
825.089	5642
825.228	5551
825.368	5391
825.508	5337
825.648	5357
825.787	5395
825.927	5357
826.067	5353
826.206	5258
826.346	5425
826.485	5482
826.625	5395
826.765	5516
826.904	5474
827.044	5269
827.183	5254
827.323	5208
827.462	5242
827.601	5235
827.741	5181
827.88	5231
828.02	5155
828.159	5239
828.298	5334
828.437	5364
828.577	5273
828.716	5455
828.855	5299
828.994	5174
829.134	5159
829.273	5181
829.412	5132
829.551	5155
829.69	5181
829.829	5246
829.968	5402
830.107	5277
830.246	5288
830.385	5227
830.524	5090
830.663	5060
830.802	4984
830.941	4919
831.08	4850
831.219	4991
831.357	4980
831.496	5189
831.635	4938
831.774	4831
831.913	4816
832.051	4744
832.19	4748
832.329	4820
832.467	4656
832.606	4634
832.744	4710
832.883	4790
833.022	4725
833.16	4782
833.299	4839
833.437	4835
833.576	4831
833.714	4870
833.852	4839
833.991	4870
834.129	4923
834.267	4980
834.406	4915
834.544	4987
834.682	4946
834.821	4957
834.959	5147
835.097	5003
835.235	5147
835.373	5064
835.511	5098
835.65	5052
835.788	4965
835.926	4919
836.064	4881
836.202	4938
836.34	5170
836.478	5220
836.615	5155
836.753	5242
836.891	5307
837.029	5231
837.167	5204
837.305	5170
837.443	5128
837.58	5109
837.718	5227
837.856	5181
837.993	5170
838.131	5235
838.269	5197
838.406	5185
838.544	5239
838.681	5064
838.819	5003
838.956	4885
839.094	4885
839.231	4953
839.369	5083
839.506	5406
839.643	5269
839.781	5067
839.918	5006
840.055	5079
840.193	5090
840.33	5071
840.467	5132
840.604	5185
840.742	5398
840.879	5060
841.016	5064
841.153	5178
841.29	5357
841.427	5315
841.564	5284
841.701	5364
841.838	5250
841.975	5223
842.112	5307
842.249	5113
842.385	5128
842.522	5341
842.659	5124
842.796	5128
842.933	5231
843.069	5181
843.206	5174
843.343	5315
843.479	5246
843.616	5208
843.752	5048
843.889	5018
844.025	5223
844.162	5041
844.298	5254
844.435	5075
844.571	5045
844.708	5208
844.844	5303
844.98	5353
845.117	5296
845.253	5143
845.389	5052
845.525	5113
845.661	5143
845.798	5010
845.934	5170
846.07	5018
846.206	5235
846.342	5299
846.478	5201
846.614	5029
846.75	4961
846.886	4972
847.022	5113
847.158	4999
847.294	5083
847.429	5102
847.565	5056
847.701	5337
847.837	4812
847.972	4809
848.108	4942
848.244	5003
848.379	4778
848.515	4748
848.65	4729
848.786	4721
848.921	4733
849.057	4847
849.192	4904
849.328	4801
849.463	4820
849.598	4782
849.734	4714
849.869	4668
850.004	4664
850.14	4687
850.275	4607
850.41	4516
850.545	4592
850.68	4637
850.815	4622
850.95	4611
851.085	4816
851.22	4759
851.355	4664
851.49	4618
851.625	4611
851.76	4687
851.895	4561
852.03	4516
852.165	4645
852.299	4717
852.434	4805
852.569	4744
852.703	4755
852.838	4820
852.973	4923
853.107	4896
853.242	4733
853.376	4687
853.511	4569
853.645	4637
853.78	4801
853.914	4630
854.048	4668
854.183	4653
854.317	4733
854.451	4774
854.585	4649
854.72	4630
854.854	4733
854.988	4622
855.122	4653
855.256	4523
855.39	4622
855.524	4820
855.658	4717
855.792	4702
855.926	4694
856.06	4755
856.194	4786
856.327	4675
856.461	4607
856.595	4611
856.729	4672
856.862	4740
856.996	4702
857.13	4736
857.263	4786
857.397	4809
857.53	4615
857.664	4710
857.797	4774
857.931	4797
858.064	4668
858.197	4748
858.331	4611
858.464	4607
858.597	4508
858.731	4660
858.864	4679
858.997	4618
859.13	4641
859.263	4675
859.396	4714
859.529	4531
859.662	4561
859.795	4489
859.928	4660
860.061	4782
860.194	4771
860.327	4637
860.46	4592
860.592	4691
860.725	4759
860.858	4736
860.99	4561
861.123	4519
861.256	4531
861.388	4599
861.521	5292
861.653	4470
861.786	4500
861.918	4451
862.05	4519
862.183	4558
862.315	4618
862.447	4660
862.58	4558
862.712	4363
862.844	4352
862.976	4493
863.108	4489
863.24	4877
863.372	4325
863.504	4424
863.636	4428
863.768	4478
863.9	4459
864.032	4352
864.164	4417
864.296	4462
864.428	4565
864.559	4569
864.691	4504
864.823	4542
864.954	4489
865.086	4538
865.217	4447
865.349	4424
865.48	4462
865.612	4489
865.743	4584
865.875	4462
866.006	4424
866.137	4481
866.269	4455
866.4	4440
866.531	4390
866.662	4375
866.793	4413
866.924	4394
867.055	4497
867.186	4440
867.317	4421
867.448	4371
867.579	4379
867.71	4417
867.841	4398
867.972	4455
868.103	4424
868.233	4470
868.364	4474
868.495	4481
868.625	4683
868.756	4702
868.886	4577
869.017	4656
869.147	4778
869.278	4748
869.408	4706
869.539	4630
869.669	4721
869.799	4653
869.929	4710
870.06	4721
870.19	4987
870.32	4976
870.45	4892
870.58	4961
870.71	5037
870.84	5086
870.97	4942
871.1	4927
871.23	5132
871.36	5159
871.489	5033
871.619	5067
871.749	5090
871.879	5113
872.008	5181
872.138	5014
872.267	4927
872.397	4858
872.526	4809
872.656	4744
872.785	4820
872.915	4938
873.044	5033
873.173	4961
873.303	4999
873.432	4923
873.561	4942
873.69	4873
873.819	4866
873.948	4942
874.077	4774
874.206	4767
874.335	4809
874.464	4927
874.593	5037
874.722	4984
874.851	5098
874.979	5079
875.108	5060
875.237	4930
875.365	4877
875.494	4915
875.623	4995
875.751	4908
875.88	4873
876.008	4995
876.136	5018
876.265	5212
876.393	5337
876.521	5143
876.65	5174
876.778	5193
876.906	5060
877.034	5033
877.162	5045
877.29	5029
877.418	5060
877.546	5010
877.674	4999
877.802	5037
877.93	4980
878.058	4942
878.185	4858
878.313	4957
878.441	4999
878.568	4831
878.696	4889
878.824	4934
878.951	5022
879.079	5128
879.206	5269
879.333	5071
879.461	4968
879.588	4999
879.715	5121
879.842	5170
879.97	4949
880.097	4778
880.224	4782
880.351	4782
880.478	4866
880.605	4835
880.732	4786
880.859	5048
880.986	4942
881.112	4885
881.239	4790
881.366	4683
881.493	4641
881.619	4588
881.746	4653
881.872	4645
881.999	4645
882.125	4679
882.252	4752
882.378	4835
882.505	4911
882.631	4782
882.757	4637
882.883	4721
883.01	4702
883.136	4649
883.262	4611
883.388	4615
883.514	4828
883.64	4885
883.766	4740
883.892	4653
884.018	4717
884.143	4915
884.269	4999
884.395	4698
884.52	4641
884.646	4637
884.772	4584
884.897	4565
885.023	4618
885.148	4752
885.274	4850
885.399	4790
885.524	4698
885.65	4672
885.775	4706
885.9	4759
886.025	4847
886.15	4828
886.275	4740
886.4	4672
886.525	4706
886.65	4664
886.775	4645
886.9	4889
887.025	5060
887.149	4820
887.274	4717
887.399	4580
887.523	4592
887.648	4550
887.773	4573
887.897	4736
888.021	4793
888.146	4622
888.27	4812
888.395	4923
888.519	4771
888.643	4774
888.767	4793
888.891	4645
889.015	4596
889.139	4599
889.263	4580
889.387	4733
889.511	4877
889.635	4793
889.759	4656
889.883	4637
890.006	4721
890.13	4850
890.254	4611
890.377	4691
890.501	4554
890.624	4527
890.748	4645
890.871	4489
890.995	4386
891.118	4371
891.241	4497
891.364	4573
891.488	4584
891.611	4500
891.734	4527
891.857	4573
891.98	4527
892.103	4672
892.226	4558
892.349	4512
892.471	4432
892.594	4558
892.717	4573
892.839	4569
892.962	4546
893.085	4683
893.207	4596
893.33	4443
893.452	4493
893.575	4630
893.697	4577
893.819	4763
893.941	4782
894.064	4733
894.186	4588
894.308	4573
894.43	4736
894.552	4828
894.674	4752
894.796	4550
894.918	4573
895.04	4554
895.161	4706
895.283	4660
895.405	4577
895.526	4592
895.648	4668
895.769	4660
895.891	4710
896.012	4729
896.134	4752
896.255	4626
896.376	4622
896.498	4607
896.619	4660
896.74	4641
896.861	4694
896.982	4892
897.103	5071
897.224	4831
897.345	4759
897.466	4641
897.587	4733
897.708	4930
897.828	4801
897.949	4687
898.07	4523
898.19	4656
898.311	4812
898.431	4679
898.552	4748
898.672	4820
898.792	4797
898.913	4691
899.033	4580
899.153	4497
899.273	4421
899.393	4478
899.513	4580
899.633	4531
899.753	4519
899.873	4531
899.993	4554
900.113	4535
900.232	4660
900.352	4538
900.472	4508
900.591	4386
900.711	4519
900.83	4424
900.95	4615
901.069	4706
901.189	4542
901.308	4333
901.427	4344
901.546	4341
901.665	4462
901.784	4523
901.904	4352
902.023	4329
902.141	4196
902.26	4143
902.379	4333
902.498	4227
902.617	4223
902.735	4360
902.854	4390
902.973	4383
903.091	4211
903.21	4219
903.328	4310
903.446	4257
903.565	4249
903.683	4375
903.801	4246
903.919	4402
904.038	4409
904.156	4265
904.274	4462
904.392	4360
904.51	4443
904.627	4478
904.745	4599
904.863	4596
904.981	4398
905.098	4295
905.216	4348
905.334	4417
905.451	4432
905.569	4443
905.686	4538
905.803	4554
905.921	4451
906.038	4569
906.155	4500
906.272	4394
906.389	4440
906.506	4341
906.623	4409
906.74	4409
906.857	4291
906.974	4363
907.091	4542
907.208	4649
907.324	4584
907.441	4466
907.557	4333
907.674	4367
907.79	4314
907.907	4405
908.023	4508
908.139	4489
908.256	4440
908.372	4462
908.488	4417
908.604	4371
908.72	4325
908.836	4299
908.952	4352
909.068	4371
909.184	4538
909.3	4481
909.415	4550
909.531	4512
909.647	4371
909.762	4360
909.878	4371
909.993	4447
910.108	4371
910.224	4417
910.339	4485
910.454	4360
910.57	4356
910.685	4276
910.8	4615
910.915	4584
911.03	4497
911.145	4318
911.259	4348
911.374	4360
911.489	4322
911.604	4310
911.718	4200
911.833	4204
911.947	4078
912.062	4040
912.176	4196
912.291	4200
912.405	4276
912.519	4421
912.633	4504
912.748	4356
912.862	4268
912.976	4246
913.09	4059
913.204	4166
913.318	4261
913.431	4402
913.545	4360
913.659	4474
913.772	4367
913.886	4242
914	4211
914.113	4337
914.226	4432
914.34	4398
914.453	4257
914.566	4443
914.68	4272
914.793	4344
914.906	4154
915.019	4112
915.132	4090
915.245	4177
915.358	4234
915.47	4230
915.583	4230
915.696	4325
915.809	4383
915.921	4428
916.034	4249
916.146	4276
916.259	4215
916.371	4375
916.483	4363
916.595	4234
916.708	4329
916.82	4322
916.932	4318
917.044	4333
917.156	4375
917.268	4185
917.38	4242
917.491	4287
917.603	4310
917.715	4466
917.826	4440
917.938	4356
918.049	4261
918.161	4405
918.272	4523
918.384	4546
918.495	4466
918.606	4265
918.717	4249
918.828	4295
918.939	4363
919.05	4227
919.161	4348
919.272	4181
919.383	4234
919.494	4409
919.604	4542
919.715	4424
919.826	4344
919.936	4367
920.047	4538
920.157	4508
920.267	4706
920.378	4542
920.488	4497
920.598	4668
920.708	4858
920.818	4698
920.928	4755
921.038	4915
921.148	4866
921.258	4630
921.368	4531
921.477	4489
921.587	4459
921.697	4402
921.806	4565
921.916	4402
922.025	4257
922.134	4295
922.244	4249
922.353	4337
922.462	4162
922.571	4154
922.68	3994
922.789	3979
922.898	4010
923.007	3979
923.116	4093
923.224	4082
923.333	4029
923.442	4013
923.55	3949
923.659	4029
923.767	4101
923.876	4002
923.984	4116
924.092	3953
924.201	4074
924.309	4116
924.417	4086
924.525	4109
924.633	4044
924.741	5037
924.849	3892
924.956	4097
925.064	3964
925.172	3896
925.279	3975
925.387	4048
925.494	4051
925.602	4219
925.709	4181
925.816	4090
925.924	4112
926.031	4238
926.138	4177
926.245	4181
926.352	4040
926.459	4234
926.566	4337
926.673	4158
926.779	4071
926.886	4071
926.993	3983
927.099	3983
927.206	3937
927.312	3949
927.419	4048
927.525	4036
927.631	4101
927.737	3956
927.843	3941
927.95	3896
928.056	3945
928.162	3968
928.267	4055
928.373	4668
928.479	4150
928.585	3873
928.69	3994
928.796	4055
928.901	3937
929.007	3876
929.112	4025
929.218	3975
929.323	3953
929.428	3907
929.533	4124
929.638	3884
929.743	3926
929.848	4071
929.953	4025
930.058	3915
930.163	3759
930.267	3808
930.372	3949
930.477	3827
930.581	4090
930.685	3956
930.79	3808
930.894	3876
930.998	3869
931.103	4078
931.207	3709
931.311	3675
931.415	3690
931.519	3595
931.623	3538
