Data from test_V78500241_1586.txt Node
Date: Fri Mar 25 17:00:01 CST 2022
User: usil
Spectrometer: V785-0024
Trigger mode: 0
Integration Time (sec): 4.000000E-1
Scans to average: 1
Nonlinearity correction enabled: false
Boxcar width: 0
Storing dark spectrum: false
XAxis mode: Wavelengths
Number of Pixels in Spectrum: 1024
>>>>>Begin Spectral Data<<<<<
801.071	8008
801.214	7917
801.356	7887
801.499	7890
801.641	7776
801.783	7814
801.926	7909
802.068	7913
802.211	7947
802.353	7986
802.496	7830
802.638	7864
802.78	7902
802.923	7856
803.065	7871
803.208	7849
803.35	8005
803.492	8058
803.635	8142
803.777	7963
803.919	8134
804.061	8389
804.204	8149
804.346	8031
804.488	7951
804.63	8100
804.773	7986
804.915	8050
805.057	8244
805.199	8172
805.341	8221
805.483	8252
805.626	8195
805.768	8035
805.91	8191
806.052	8176
806.194	8100
806.336	8244
806.478	8096
806.62	8054
806.762	8168
806.904	8259
807.046	8469
807.188	8282
807.33	8282
807.472	8294
807.614	8210
807.756	8145
807.898	7982
808.04	7845
808.182	7917
808.324	7921
808.465	7959
808.607	8073
808.749	8054
808.891	8172
809.033	8237
809.174	8229
809.316	8054
809.458	8138
809.6	8001
809.741	8035
809.883	8008
810.025	8103
810.166	8069
810.308	7982
810.45	7978
810.591	7860
810.733	7670
810.875	7670
811.016	7434
811.158	7521
811.299	7597
811.441	7666
811.582	7719
811.724	7518
811.865	7540
812.007	7559
812.148	7571
812.29	7609
812.431	7674
812.573	7887
812.714	7986
812.855	8073
812.997	8206
813.138	8233
813.279	8233
813.421	8062
813.562	7963
813.703	7833
813.845	7700
813.986	7373
814.127	7244
814.268	7247
814.41	7149
814.551	7206
814.692	7194
814.833	7091
814.974	7122
815.115	7114
815.256	6935
815.397	6962
815.539	6996
815.68	6764
815.821	6753
815.962	6844
816.103	6852
816.244	6722
816.385	6593
816.526	6616
816.666	6513
816.807	6308
816.948	6403
817.089	6407
817.23	6448
817.371	6380
817.512	6365
817.653	6399
817.793	6372
817.934	6376
818.075	6445
818.216	6384
818.356	6372
818.497	6235
818.638	6060
818.778	6091
818.919	6114
819.06	6117
819.2	6289
819.341	6338
819.481	6342
819.622	6517
819.762	6684
819.903	6707
820.043	6566
820.184	6536
820.324	6563
820.465	6696
820.605	6688
820.746	6604
820.886	6471
821.026	6631
821.167	6684
821.307	6734
821.447	6738
821.588	6715
821.728	6513
821.868	6464
822.008	6334
822.149	6315
822.289	6327
822.429	6076
822.569	6068
822.709	6159
822.849	5904
822.99	5866
823.13	5855
823.27	5866
823.41	5821
823.55	5775
823.69	5756
823.83	5783
823.97	5627
824.11	5467
824.25	5471
824.389	5562
824.529	5573
824.669	5497
824.809	5611
824.949	5627
825.089	5634
825.228	5566
825.368	5398
825.508	5364
825.648	5360
825.787	5368
825.927	5345
826.067	5360
826.206	5269
826.346	5330
826.485	5406
826.625	5429
826.765	5490
826.904	5421
827.044	5242
827.183	5185
827.323	5109
827.462	5246
827.601	5216
827.741	5201
827.88	5231
828.02	5162
828.159	5246
828.298	5315
828.437	5376
828.577	5357
828.716	5577
828.855	5326
828.994	5235
829.134	5151
829.273	5220
829.412	5155
829.551	5197
829.69	5147
829.829	5261
829.968	5398
830.107	5299
830.246	5307
830.385	5235
830.524	5128
830.663	5071
830.802	5003
830.941	4915
831.08	4896
831.219	5022
831.357	5079
831.496	5181
831.635	4923
831.774	4843
831.913	4843
832.051	4733
832.19	4752
832.329	4915
832.467	4767
832.606	4733
832.744	4729
832.883	4771
833.022	4759
833.16	4824
833.299	4870
833.437	4854
833.576	4824
833.714	4896
833.852	4892
833.991	4957
834.129	4976
834.267	4911
834.406	4915
834.544	5060
834.682	4987
834.821	4991
834.959	5151
835.097	5029
835.235	5174
835.373	5162
835.511	5132
835.65	5064
835.788	5064
835.926	4942
836.064	4900
836.202	4949
836.34	5201
836.478	5265
836.615	5136
836.753	5242
836.891	5303
837.029	5280
837.167	5242
837.305	5204
837.443	5181
837.58	5086
837.718	5296
837.856	5239
837.993	5212
838.131	5288
838.269	5299
838.406	5220
838.544	5193
838.681	5056
838.819	5041
838.956	4908
839.094	4889
839.231	4980
839.369	5090
839.506	5478
839.643	5284
839.781	5117
839.918	5067
840.055	5128
840.193	5166
840.33	5170
840.467	5162
840.604	5178
840.742	5455
840.879	5113
841.016	5147
841.153	5162
841.29	5414
841.427	5376
841.564	5349
841.701	5341
841.838	5299
841.975	5307
842.112	5322
842.249	5143
842.385	5197
842.522	5372
842.659	5189
842.796	5140
842.933	5242
843.069	5174
843.206	5220
843.343	5303
843.479	5273
843.616	5303
843.752	5079
843.889	4980
844.025	5284
844.162	5003
844.298	5223
844.435	5124
844.571	5083
844.708	5231
844.844	5288
844.98	5379
845.117	5326
845.253	5193
845.389	5094
845.525	5201
845.661	5189
845.798	5117
845.934	5204
846.07	5128
846.206	5204
846.342	5284
846.478	5269
846.614	5052
846.75	4976
846.886	4957
847.022	5155
847.158	5025
847.294	5060
847.429	5117
847.565	5117
847.701	5311
847.837	4900
847.972	4866
848.108	4984
848.244	4965
848.379	4816
848.515	4771
848.65	4782
848.786	4774
848.921	4835
849.057	4850
849.192	4885
849.328	4854
849.463	4831
849.598	4809
849.734	4793
849.869	4725
850.004	4645
850.14	4675
850.275	4634
850.41	4569
850.545	4577
850.68	4615
850.815	4683
850.95	4683
851.085	4877
851.22	4755
851.355	4717
851.49	4615
851.625	4660
851.76	4656
851.895	4550
852.03	4550
852.165	4615
852.299	4755
852.434	4828
852.569	4729
852.703	4752
852.838	4870
852.973	4911
853.107	4942
853.242	4702
853.376	4714
853.511	4649
853.645	4649
853.78	4835
853.914	4763
854.048	4721
854.183	4691
854.317	4725
854.451	4847
854.585	4702
854.72	4668
854.854	4809
854.988	4626
855.122	4618
855.256	4523
855.39	4656
855.524	4824
855.658	4752
855.792	4736
855.926	4733
856.06	4801
856.194	4778
856.327	4736
856.461	4645
856.595	4679
856.729	4626
856.862	4790
856.996	4656
857.13	4778
857.263	4786
857.397	4797
857.53	4702
857.664	4736
857.797	4752
857.931	4767
858.064	4717
858.197	4736
858.331	4729
858.464	4630
858.597	4542
858.731	4649
858.864	4656
858.997	4615
859.13	4717
859.263	4698
859.396	4706
859.529	4577
859.662	4592
859.795	4569
859.928	4641
860.061	4725
860.194	4797
860.327	4634
860.46	4565
860.592	4733
860.725	4698
860.858	4748
860.99	4615
861.123	4584
861.256	4535
861.388	4599
861.521	5216
861.653	4481
861.786	4474
861.918	4519
862.05	4554
862.183	4546
862.315	4599
862.447	4683
862.58	4550
862.712	4436
862.844	4371
862.976	4504
863.108	4504
863.24	4793
863.372	4329
863.504	4436
863.636	4470
863.768	4531
863.9	4497
864.032	4409
864.164	4436
864.296	4538
864.428	4554
864.559	4615
864.691	4538
864.823	4527
864.954	4569
865.086	4504
865.217	4500
865.349	4417
865.48	4497
865.612	4497
865.743	4637
865.875	4470
866.006	4436
866.137	4489
866.269	4489
866.4	4451
866.531	4417
866.662	4421
866.793	4432
866.924	4405
867.055	4546
867.186	4481
867.317	4478
867.448	4390
867.579	4455
867.71	4402
867.841	4413
867.972	4462
868.103	4481
868.233	4500
868.364	4455
868.495	4485
868.625	4698
868.756	4774
868.886	4630
869.017	4634
869.147	4767
869.278	4782
869.408	4679
869.539	4675
869.669	4786
869.799	4656
869.929	4752
870.06	4748
870.19	5018
870.32	4976
870.45	4934
870.58	5018
870.71	5098
870.84	5140
870.97	4923
871.1	4946
871.23	5155
871.36	5151
871.489	5075
871.619	5056
871.749	5105
871.879	5147
872.008	5223
872.138	5083
872.267	5067
872.397	4854
872.526	4793
872.656	4706
872.785	4820
872.915	4957
873.044	5090
873.173	4930
873.303	4965
873.432	4946
873.561	4984
873.69	4873
873.819	4908
873.948	4938
874.077	4824
874.206	4774
874.335	4812
874.464	4938
874.593	5094
874.722	4961
874.851	5071
874.979	5045
875.108	5052
875.237	4930
875.365	4923
875.494	4942
875.623	4957
875.751	4873
875.88	4915
876.008	4987
876.136	5064
876.265	5201
876.393	5330
876.521	5280
876.65	5204
876.778	5197
876.906	5121
877.034	5067
877.162	5113
877.29	5025
877.418	5060
877.546	5052
877.674	5060
877.802	5052
877.93	5029
878.058	4961
878.185	4934
878.313	4923
878.441	4923
878.568	4809
878.696	4870
878.824	4949
878.951	5029
879.079	5174
879.206	5318
879.333	5151
879.461	4965
879.588	5018
879.715	5162
879.842	5197
879.97	5056
880.097	4816
880.224	4801
880.351	4828
880.478	4820
880.605	4850
880.732	4786
880.859	5143
880.986	4881
881.112	4938
881.239	4778
881.366	4729
881.493	4637
881.619	4592
881.746	4660
881.872	4641
881.999	4691
882.125	4687
882.252	4801
882.378	4816
882.505	4972
882.631	4850
882.757	4694
882.883	4706
883.01	4736
883.136	4672
883.262	4626
883.388	4607
883.514	4828
883.64	4900
883.766	4847
883.892	4729
884.018	4714
884.143	4900
884.269	5006
884.395	4672
884.52	4645
884.646	4618
884.772	4634
884.897	4573
885.023	4645
885.148	4782
885.274	4915
885.399	4881
885.524	4748
885.65	4725
885.775	4786
885.9	4714
886.025	4885
886.15	4805
886.275	4748
886.4	4675
886.525	4714
886.65	4717
886.775	4683
886.9	4911
887.025	5098
887.149	4862
887.274	4672
887.399	4588
887.523	4527
887.648	4569
887.773	4637
887.897	4771
888.021	4835
888.146	4721
888.27	4866
888.395	4946
888.519	4759
888.643	4828
888.767	4820
888.891	4698
889.015	4637
889.139	4634
889.263	4622
889.387	4812
889.511	4854
889.635	4805
889.759	4653
889.883	4672
890.006	4729
890.13	4828
890.254	4626
890.377	4622
890.501	4527
890.624	4497
890.748	4653
890.871	4531
890.995	4459
891.118	4451
891.241	4538
891.364	4584
891.488	4618
891.611	4485
891.734	4580
891.857	4634
891.98	4523
892.103	4634
892.226	4599
892.349	4523
892.471	4428
892.594	4573
892.717	4569
892.839	4599
892.962	4588
893.085	4691
893.207	4607
893.33	4451
893.452	4550
893.575	4664
893.697	4607
893.819	4771
893.941	4831
894.064	4812
894.186	4607
894.308	4596
894.43	4717
894.552	4805
894.674	4793
894.796	4569
894.918	4607
895.04	4607
895.161	4691
895.283	4656
895.405	4569
895.526	4618
895.648	4725
895.769	4759
895.891	4736
896.012	4702
896.134	4691
896.255	4668
896.376	4645
896.498	4637
896.619	4668
896.74	4599
896.861	4679
896.982	4900
897.103	5083
897.224	4831
897.345	4774
897.466	4687
897.587	4767
897.708	4885
897.828	4809
897.949	4687
898.07	4561
898.19	4672
898.311	4812
898.431	4694
898.552	4763
898.672	4793
898.792	4793
898.913	4759
899.033	4630
899.153	4561
899.273	4436
899.393	4523
899.513	4512
899.633	4519
899.753	4508
899.873	4497
899.993	4622
900.113	4527
900.232	4622
900.352	4535
900.472	4489
900.591	4466
900.711	4493
900.83	4440
900.95	4569
901.069	4675
901.189	4565
901.308	4402
901.427	4295
901.546	4409
901.665	4504
901.784	4535
901.904	4402
902.023	4333
902.141	4188
902.26	4207
902.379	4325
902.498	4230
902.617	4246
902.735	4348
902.854	4421
902.973	4363
903.091	4196
903.21	4295
903.328	4284
903.446	4333
903.565	4284
903.683	4409
903.801	4284
903.919	4398
904.038	4459
904.156	4329
904.274	4432
904.392	4394
904.51	4424
904.627	4504
904.745	4561
904.863	4626
904.981	4424
905.098	4322
905.216	4348
905.334	4436
905.451	4432
905.569	4436
905.686	4558
905.803	4596
905.921	4428
906.038	4531
906.155	4462
906.272	4447
906.389	4519
906.506	4348
906.623	4413
906.74	4386
906.857	4284
906.974	4322
907.091	4584
907.208	4653
907.324	4622
907.441	4466
907.557	4352
907.674	4363
907.79	4337
907.907	4394
908.023	4519
908.139	4462
908.256	4409
908.372	4447
908.488	4462
908.604	4341
908.72	4287
908.836	4363
908.952	4352
909.068	4443
909.184	4607
909.3	4538
909.415	4588
909.531	4580
909.647	4390
909.762	4352
909.878	4306
909.993	4398
910.108	4440
910.224	4493
910.339	4527
910.454	4398
910.57	4322
910.685	4363
910.8	4611
910.915	4611
911.03	4504
911.145	4325
911.259	4314
911.374	4337
911.489	4337
911.604	4310
911.718	4173
911.833	4272
911.947	4112
912.062	4048
912.176	4238
912.291	4238
912.405	4310
912.519	4519
912.633	4497
912.748	4398
912.862	4306
912.976	4204
913.09	4116
913.204	4204
913.318	4257
913.431	4363
913.545	4424
913.659	4432
913.772	4352
913.886	4276
914	4200
914.113	4390
914.226	4440
914.34	4413
914.453	4257
914.566	4424
914.68	4284
914.793	4337
914.906	4196
915.019	4109
915.132	4093
915.245	4154
915.358	4215
915.47	4265
915.583	4299
915.696	4276
915.809	4417
915.921	4447
916.034	4276
916.146	4242
916.259	4185
916.371	4379
916.483	4371
916.595	4280
916.708	4363
916.82	4363
916.932	4341
917.044	4287
917.156	4341
917.268	4219
917.38	4257
917.491	4238
917.603	4341
917.715	4402
917.826	4478
917.938	4360
918.049	4223
918.161	4394
918.272	4569
918.384	4527
918.495	4440
918.606	4272
918.717	4219
918.828	4348
918.939	4337
919.05	4257
919.161	4306
919.272	4162
919.383	4257
919.494	4409
919.604	4611
919.715	4470
919.826	4398
919.936	4379
920.047	4561
920.157	4459
920.267	4729
920.378	4558
920.488	4527
920.598	4733
920.708	4862
920.818	4733
920.928	4778
921.038	4972
921.148	4923
921.258	4618
921.368	4546
921.477	4504
921.587	4451
921.697	4356
921.806	4565
921.916	4428
922.025	4242
922.134	4287
922.244	4249
922.353	4352
922.462	4177
922.571	4124
922.68	4036
922.789	3991
922.898	4067
923.007	4029
923.116	4128
923.224	4055
923.333	4078
923.442	4021
923.55	3972
923.659	4063
923.767	4131
923.876	3987
923.984	4128
924.092	4010
924.201	4029
924.309	4120
924.417	4116
924.525	4059
924.633	4124
924.741	4923
924.849	3865
924.956	4128
925.064	3975
925.172	3926
925.279	3956
925.387	4074
925.494	4067
925.602	4192
925.709	4207
925.816	3998
925.924	4143
926.031	4246
926.138	4147
926.245	4192
926.352	4067
926.459	4223
926.566	4295
926.673	4154
926.779	4063
926.886	4086
926.993	3937
927.099	3968
927.206	3953
927.312	3972
927.419	4097
927.525	4082
927.631	4067
927.737	3983
927.843	3899
927.95	3857
928.056	3960
928.162	3941
928.267	4051
928.373	4558
928.479	4143
928.585	3842
928.69	4044
928.796	4116
928.901	3964
929.007	3869
929.112	4002
929.218	3972
929.323	3937
929.428	3949
929.533	4097
929.638	3926
929.743	3979
929.848	4055
929.953	3941
930.058	3941
930.163	3804
930.267	3823
930.372	3987
930.477	3812
930.581	4109
930.685	3960
930.79	3861
930.894	3842
930.998	3842
931.103	4036
931.207	3713
931.311	3686
931.415	3675
931.519	3549
931.623	3542
