Data from test_V78500241_2133.txt Node
Date: Fri Mar 25 17:03:49 CST 2022
User: usil
Spectrometer: V785-0024
Trigger mode: 0
Integration Time (sec): 4.000000E-1
Scans to average: 1
Nonlinearity correction enabled: false
Boxcar width: 0
Storing dark spectrum: false
XAxis mode: Wavelengths
Number of Pixels in Spectrum: 1024
>>>>>Begin Spectral Data<<<<<
801.071	8008
801.214	7978
801.356	7894
801.499	7814
801.641	7803
801.783	7769
801.926	7982
802.068	7978
802.211	7925
802.353	7997
802.496	7868
802.638	7803
802.78	7932
802.923	7921
803.065	7841
803.208	7849
803.35	7944
803.492	8069
803.635	8153
803.777	8001
803.919	8096
804.061	8415
804.204	8191
804.346	8031
804.488	7978
804.63	7997
804.773	7932
804.915	8062
805.057	8248
805.199	8168
805.341	8218
805.483	8282
805.626	8225
805.768	8043
805.91	8195
806.052	8218
806.194	8130
806.336	8282
806.478	8092
806.62	8008
806.762	8119
806.904	8237
807.046	8450
807.188	8343
807.33	8336
807.472	8362
807.614	8153
807.756	8161
807.898	7982
808.04	7917
808.182	7879
808.324	7856
808.465	7902
808.607	8027
808.749	8081
808.891	8195
809.033	8358
809.174	8214
809.316	8088
809.458	8054
809.6	7974
809.741	7997
809.883	8062
810.025	8065
810.166	8027
810.308	8027
810.45	7928
810.591	7811
810.733	7696
810.875	7674
811.016	7506
811.158	7468
811.299	7525
811.441	7700
811.582	7620
811.724	7548
811.865	7506
812.007	7605
812.148	7571
812.29	7567
812.431	7727
812.573	7830
812.714	8005
812.855	8123
812.997	8195
813.138	8336
813.279	8153
813.421	8024
813.562	7928
813.703	7849
813.845	7757
813.986	7305
814.127	7270
814.268	7190
814.41	7175
814.551	7190
814.692	7194
814.833	7103
814.974	7114
815.115	7065
815.256	6935
815.397	6863
815.539	6882
815.68	6738
815.821	6757
815.962	6890
816.103	6768
816.244	6715
816.385	6570
816.526	6642
816.666	6494
816.807	6319
816.948	6483
817.089	6498
817.23	6391
817.371	6334
817.512	6334
817.653	6410
817.793	6407
817.934	6391
818.075	6452
818.216	6441
818.356	6391
818.497	6273
818.638	6129
818.778	6155
818.919	6136
819.06	6152
819.2	6346
819.341	6334
819.481	6414
819.622	6498
819.762	6734
819.903	6684
820.043	6589
820.184	6578
820.324	6574
820.465	6662
820.605	6654
820.746	6639
820.886	6563
821.026	6654
821.167	6673
821.307	6795
821.447	6764
821.588	6627
821.728	6627
821.868	6551
822.008	6323
822.149	6380
822.289	6327
822.429	6136
822.569	6079
822.709	6136
822.849	5965
822.99	5878
823.13	5912
823.27	5927
823.41	5729
823.55	5771
823.69	5733
823.83	5764
823.97	5649
824.11	5608
824.25	5509
824.389	5596
824.529	5528
824.669	5505
824.809	5676
824.949	5630
825.089	5581
825.228	5524
825.368	5383
825.508	5334
825.648	5315
825.787	5372
825.927	5414
826.067	5318
826.206	5269
826.346	5322
826.485	5372
826.625	5387
826.765	5528
826.904	5486
827.044	5220
827.183	5189
827.323	5162
827.462	5284
827.601	5166
827.741	5151
827.88	5212
828.02	5113
828.159	5178
828.298	5330
828.437	5345
828.577	5231
828.716	5505
828.855	5303
828.994	5162
829.134	5155
829.273	5220
829.412	5201
829.551	5121
829.69	5136
829.829	5197
829.968	5360
830.107	5288
830.246	5277
830.385	5155
830.524	5090
830.663	5067
830.802	4999
830.941	4892
831.08	4911
831.219	4980
831.357	4999
831.496	5193
831.635	4987
831.774	4839
831.913	4839
832.051	4733
832.19	4759
832.329	4850
832.467	4744
832.606	4683
832.744	4702
832.883	4694
833.022	4702
833.16	4729
833.299	4847
833.437	4839
833.576	4847
833.714	4877
833.852	4877
833.991	4881
834.129	4965
834.267	4923
834.406	4953
834.544	5003
834.682	4976
834.821	4949
834.959	5124
835.097	5003
835.235	5109
835.373	5060
835.511	5113
835.65	4984
835.788	5037
835.926	4862
836.064	4858
836.202	4877
836.34	5151
836.478	5216
836.615	5140
836.753	5235
836.891	5254
837.029	5239
837.167	5109
837.305	5143
837.443	5166
837.58	5086
837.718	5265
837.856	5212
837.993	5143
838.131	5235
838.269	5185
838.406	5193
838.544	5223
838.681	5022
838.819	5010
838.956	4881
839.094	4923
839.231	4961
839.369	5045
839.506	5455
839.643	5318
839.781	5098
839.918	4999
840.055	5128
840.193	5124
840.33	5060
840.467	5147
840.604	5162
840.742	5410
840.879	5117
841.016	5090
841.153	5174
841.29	5357
841.427	5357
841.564	5307
841.701	5376
841.838	5334
841.975	5242
842.112	5250
842.249	5155
842.385	5064
842.522	5299
842.659	5136
842.796	5143
842.933	5170
843.069	5201
843.206	5124
843.343	5269
843.479	5242
843.616	5242
843.752	5052
843.889	4984
844.025	5242
844.162	5037
844.298	5197
844.435	5109
844.571	5060
844.708	5223
844.844	5330
844.98	5334
845.117	5284
845.253	5162
845.389	5094
845.525	5178
845.661	5105
845.798	5136
845.934	5079
846.07	5064
846.206	5174
846.342	5269
846.478	5181
846.614	5003
846.75	4968
846.886	4957
847.022	5159
847.158	5003
847.294	4999
847.429	5102
847.565	5067
847.701	5322
847.837	4831
847.972	4843
848.108	4949
848.244	4934
848.379	4820
848.515	4714
848.65	4714
848.786	4767
848.921	4771
849.057	4877
849.192	4881
849.328	4816
849.463	4847
849.598	4812
849.734	4774
849.869	4698
850.004	4622
850.14	4668
850.275	4592
850.41	4512
850.545	4607
850.68	4607
850.815	4596
850.95	4645
851.085	4801
851.22	4733
851.355	4660
851.49	4603
851.625	4675
851.76	4660
851.895	4577
852.03	4519
852.165	4664
852.299	4710
852.434	4748
852.569	4774
852.703	4759
852.838	4870
852.973	4919
853.107	4923
853.242	4710
853.376	4664
853.511	4558
853.645	4649
853.78	4774
853.914	4653
854.048	4656
854.183	4656
854.317	4694
854.451	4812
854.585	4725
854.72	4641
854.854	4763
854.988	4630
855.122	4626
855.256	4512
855.39	4683
855.524	4774
855.658	4717
855.792	4736
855.926	4733
856.06	4714
856.194	4820
856.327	4714
856.461	4588
856.595	4656
856.729	4626
856.862	4698
856.996	4679
857.13	4763
857.263	4740
857.397	4809
857.53	4672
857.664	4691
857.797	4740
857.931	4759
858.064	4694
858.197	4691
858.331	4615
858.464	4611
858.597	4531
858.731	4653
858.864	4607
858.997	4550
859.13	4668
859.263	4683
859.396	4733
859.529	4554
859.662	4607
859.795	4565
859.928	4561
860.061	4755
860.194	4771
860.327	4611
860.46	4550
860.592	4733
860.725	4698
860.858	4702
860.99	4603
861.123	4500
861.256	4573
861.388	4645
861.521	5440
861.653	4485
861.786	4424
861.918	4436
862.05	4535
862.183	4542
862.315	4565
862.447	4649
862.58	4546
862.712	4394
862.844	4333
862.976	4478
863.108	4413
863.24	4782
863.372	4348
863.504	4413
863.636	4405
863.768	4459
863.9	4394
864.032	4363
864.164	4421
864.296	4451
864.428	4573
864.559	4569
864.691	4546
864.823	4554
864.954	4474
865.086	4481
865.217	4424
865.349	4443
865.48	4459
865.612	4462
865.743	4626
865.875	4440
866.006	4371
866.137	4459
866.269	4436
866.4	4424
866.531	4413
866.662	4383
866.793	4417
866.924	4398
867.055	4478
867.186	4451
867.317	4405
867.448	4352
867.579	4394
867.71	4375
867.841	4356
867.972	4455
868.103	4436
868.233	4386
868.364	4428
868.495	4462
868.625	4656
868.756	4782
868.886	4607
869.017	4596
869.147	4759
869.278	4744
869.408	4664
869.539	4615
869.669	4755
869.799	4641
869.929	4736
870.06	4744
870.19	4911
870.32	4946
870.45	4915
870.58	4995
870.71	5102
870.84	5132
870.97	4953
871.1	4896
871.23	5124
871.36	5128
871.489	5025
871.619	5052
871.749	5132
871.879	5140
872.008	5128
872.138	5079
872.267	4946
872.397	4850
872.526	4801
872.656	4656
872.785	4828
872.915	4961
873.044	5003
873.173	4915
873.303	4942
873.432	4930
873.561	4980
873.69	4900
873.819	4911
873.948	4965
874.077	4782
874.206	4752
874.335	4801
874.464	4949
874.593	5094
874.722	4919
874.851	5121
874.979	5048
875.108	5003
875.237	4911
875.365	4942
875.494	4847
875.623	4953
875.751	4831
875.88	4904
876.008	4923
876.136	5029
876.265	5208
876.393	5292
876.521	5261
876.65	5204
876.778	5147
876.906	5056
877.034	5025
877.162	5037
877.29	5018
877.418	5022
877.546	5029
877.674	5033
877.802	5018
877.93	5025
878.058	4980
878.185	4923
878.313	4980
878.441	4972
878.568	4854
878.696	4873
878.824	4972
878.951	4980
879.079	5128
879.206	5261
879.333	5083
879.461	4976
879.588	4995
879.715	5098
879.842	5174
879.97	4949
880.097	4843
880.224	4744
880.351	4774
880.478	4854
880.605	4862
880.732	4736
880.859	5064
880.986	4889
881.112	4847
881.239	4793
881.366	4611
881.493	4649
881.619	4599
881.746	4630
881.872	4622
881.999	4656
882.125	4660
882.252	4835
882.378	4828
882.505	4957
882.631	4797
882.757	4653
882.883	4740
883.01	4706
883.136	4672
883.262	4630
883.388	4561
883.514	4870
883.64	4820
883.766	4763
883.892	4717
884.018	4706
884.143	4862
884.269	5006
884.395	4706
884.52	4622
884.646	4618
884.772	4565
884.897	4535
885.023	4645
885.148	4786
885.274	4870
885.399	4793
885.524	4752
885.65	4710
885.775	4755
885.9	4660
886.025	4854
886.15	4748
886.275	4687
886.4	4653
886.525	4710
886.65	4664
886.775	4706
886.9	4892
887.025	5048
887.149	4793
887.274	4691
887.399	4592
887.523	4622
887.648	4599
887.773	4580
887.897	4782
888.021	4786
888.146	4683
888.27	4774
888.395	4908
888.519	4782
888.643	4866
888.767	4812
888.891	4637
889.015	4615
889.139	4649
889.263	4596
889.387	4755
889.511	4839
889.635	4778
889.759	4656
889.883	4641
890.006	4729
890.13	4854
890.254	4618
890.377	4679
890.501	4538
890.624	4546
890.748	4653
890.871	4519
890.995	4421
891.118	4398
891.241	4497
891.364	4516
891.488	4622
891.611	4500
891.734	4527
891.857	4611
891.98	4519
892.103	4588
892.226	4577
892.349	4508
892.471	4447
892.594	4493
892.717	4599
892.839	4569
892.962	4569
893.085	4683
893.207	4569
893.33	4512
893.452	4481
893.575	4668
893.697	4527
893.819	4771
893.941	4774
894.064	4740
894.186	4577
894.308	4584
894.43	4721
894.552	4778
894.674	4759
894.796	4584
894.918	4569
895.04	4584
895.161	4733
895.283	4668
895.405	4607
895.526	4573
895.648	4637
895.769	4729
895.891	4687
896.012	4763
896.134	4725
896.255	4649
896.376	4603
896.498	4634
896.619	4656
896.74	4596
896.861	4656
896.982	4946
897.103	5052
897.224	4828
897.345	4710
897.466	4672
897.587	4736
897.708	4847
897.828	4740
897.949	4668
898.07	4478
898.19	4664
898.311	4778
898.431	4672
898.552	4729
898.672	4812
898.792	4736
898.913	4801
899.033	4672
899.153	4497
899.273	4409
899.393	4500
899.513	4478
899.633	4481
899.753	4535
899.873	4489
899.993	4592
900.113	4512
900.232	4588
900.352	4523
900.472	4497
900.591	4413
900.711	4516
900.83	4386
900.95	4611
901.069	4653
901.189	4523
901.308	4344
901.427	4333
901.546	4322
901.665	4466
901.784	4542
901.904	4314
902.023	4303
902.141	4215
902.26	4185
902.379	4284
902.498	4219
902.617	4265
902.735	4363
902.854	4360
902.973	4306
903.091	4188
903.21	4230
903.328	4303
903.446	4227
903.565	4246
903.683	4348
903.801	4299
903.919	4360
904.038	4428
904.156	4295
904.274	4493
904.392	4440
904.51	4451
904.627	4481
904.745	4558
904.863	4615
904.981	4421
905.098	4287
905.216	4375
905.334	4402
905.451	4436
905.569	4440
905.686	4592
905.803	4607
905.921	4447
906.038	4550
906.155	4519
906.272	4409
906.389	4424
906.506	4356
906.623	4333
906.74	4367
906.857	4325
906.974	4386
907.091	4527
907.208	4687
907.324	4599
907.441	4542
907.557	4344
907.674	4337
907.79	4322
907.907	4363
908.023	4462
908.139	4516
908.256	4428
908.372	4504
908.488	4489
908.604	4356
908.72	4337
908.836	4432
908.952	4379
909.068	4386
909.184	4542
909.3	4451
909.415	4599
909.531	4531
909.647	4348
909.762	4352
909.878	4322
909.993	4443
910.108	4356
910.224	4386
910.339	4489
910.454	4409
910.57	4352
910.685	4310
910.8	4611
910.915	4592
911.03	4466
911.145	4329
911.259	4325
911.374	4337
911.489	4272
911.604	4306
911.718	4173
911.833	4234
911.947	4029
912.062	4048
912.176	4192
912.291	4265
912.405	4238
912.519	4497
912.633	4459
912.748	4379
912.862	4291
912.976	4188
913.09	4128
913.204	4162
913.318	4261
913.431	4402
913.545	4341
913.659	4428
913.772	4344
913.886	4280
914	4215
914.113	4360
914.226	4390
914.34	4402
914.453	4238
914.566	4466
914.68	4329
914.793	4310
914.906	4147
915.019	4120
915.132	4093
915.245	4154
915.358	4230
915.47	4207
915.583	4268
915.696	4360
915.809	4383
915.921	4447
916.034	4246
916.146	4204
916.259	4246
916.371	4363
916.483	4344
916.595	4265
916.708	4322
916.82	4337
916.932	4333
917.044	4322
917.156	4318
917.268	4200
917.38	4253
917.491	4249
917.603	4375
917.715	4428
917.826	4459
917.938	4348
918.049	4253
918.161	4409
918.272	4561
918.384	4497
918.495	4459
918.606	4280
918.717	4246
918.828	4360
918.939	4383
919.05	4299
919.161	4303
919.272	4173
919.383	4227
919.494	4489
919.604	4599
919.715	4421
919.826	4363
919.936	4405
920.047	4554
920.157	4489
920.267	4698
920.378	4527
920.488	4474
920.598	4672
920.708	4866
920.818	4752
920.928	4725
921.038	4881
921.148	4938
921.258	4577
921.368	4569
921.477	4516
921.587	4436
921.697	4329
921.806	4527
921.916	4398
922.025	4207
922.134	4272
922.244	4253
922.353	4303
922.462	4162
922.571	4158
922.68	3983
922.789	3945
922.898	4032
923.007	4002
923.116	4071
923.224	4044
923.333	4055
923.442	3964
923.55	3956
923.659	4021
923.767	4093
923.876	3972
923.984	4154
924.092	3956
924.201	4044
924.309	4051
924.417	4147
924.525	4051
924.633	4059
924.741	5041
924.849	3846
924.956	4169
925.064	3983
925.172	3915
925.279	3975
925.387	4021
925.494	4055
925.602	4200
925.709	4238
925.816	4021
925.924	4143
926.031	4204
926.138	4139
926.245	4204
926.352	4090
926.459	4215
926.566	4287
926.673	4150
926.779	4063
926.886	4097
926.993	4021
927.099	3987
927.206	3937
927.312	3937
927.419	4044
927.525	4010
927.631	4109
927.737	3983
927.843	3903
927.95	3838
928.056	3907
928.162	3972
928.267	4059
928.373	4607
928.479	4116
928.585	3846
928.69	3968
928.796	4067
928.901	3960
929.007	3850
929.112	4025
929.218	3972
929.323	3975
929.428	3956
929.533	4097
929.638	3873
929.743	3975
929.848	4025
929.953	3998
930.058	3896
930.163	3789
930.267	3812
930.372	3975
930.477	3812
930.581	4074
930.685	3956
930.79	3842
930.894	3869
930.998	3861
931.103	4032
931.207	3705
931.311	3671
931.415	3644
931.519	3526
931.623	3557
