Data from test_V78500241_1155.txt Node
Date: Fri Mar 25 16:57:01 CST 2022
User: usil
Spectrometer: V785-0024
Trigger mode: 0
Integration Time (sec): 4.000000E-1
Scans to average: 1
Nonlinearity correction enabled: false
Boxcar width: 0
Storing dark spectrum: false
XAxis mode: Wavelengths
Number of Pixels in Spectrum: 1024
>>>>>Begin Spectral Data<<<<<
801.071	8039
801.214	8008
801.356	7906
801.499	7875
801.641	7742
801.783	7807
801.926	7936
802.068	7970
802.211	7963
802.353	8008
802.496	7818
802.638	7902
802.78	7974
802.923	7974
803.065	7909
803.208	7868
803.35	7970
803.492	8069
803.635	8149
803.777	8012
803.919	8202
804.061	8431
804.204	8183
804.346	8065
804.488	7986
804.63	8103
804.773	8077
804.915	8069
805.057	8320
805.199	8164
805.341	8279
805.483	8221
805.626	8157
805.768	8161
805.91	8210
806.052	8172
806.194	8107
806.336	8290
806.478	8130
806.62	8043
806.762	8164
806.904	8271
807.046	8469
807.188	8313
807.33	8240
807.472	8301
807.614	8145
807.756	8180
807.898	7944
808.04	7868
808.182	7894
808.324	7928
808.465	7925
808.607	8100
808.749	8161
808.891	8191
809.033	8267
809.174	8229
809.316	8199
809.458	8065
809.6	7928
809.741	8024
809.883	8005
810.025	8039
810.166	8054
810.308	8043
810.45	8058
810.591	7951
810.733	7696
810.875	7609
811.016	7502
811.158	7457
811.299	7616
811.441	7750
811.582	7628
811.724	7567
811.865	7518
812.007	7487
812.148	7609
812.29	7613
812.431	7814
812.573	7841
812.714	7993
812.855	8134
812.997	8229
813.138	8290
813.279	8153
813.421	8092
813.562	7989
813.703	7845
813.845	7772
813.986	7441
814.127	7282
814.268	7213
814.41	7137
814.551	7141
814.692	7236
814.833	7019
814.974	7012
815.115	7050
815.256	6966
815.397	6905
815.539	6939
815.68	6848
815.821	6779
815.962	6856
816.103	6802
816.244	6749
816.385	6601
816.526	6650
816.666	6494
816.807	6319
816.948	6433
817.089	6513
817.23	6456
817.371	6315
817.512	6395
817.653	6395
817.793	6361
817.934	6384
818.075	6445
818.216	6422
818.356	6365
818.497	6247
818.638	6057
818.778	6148
818.919	6114
819.06	6171
819.2	6315
819.341	6338
819.481	6361
819.622	6551
819.762	6753
819.903	6738
820.043	6616
820.184	6540
820.324	6601
820.465	6703
820.605	6703
820.746	6639
820.886	6494
821.026	6620
821.167	6654
821.307	6810
821.447	6753
821.588	6658
821.728	6540
821.868	6448
822.008	6384
822.149	6331
822.289	6338
822.429	6155
822.569	6076
822.709	6106
822.849	5950
822.99	5901
823.13	5931
823.27	5889
823.41	5779
823.55	5821
823.69	5786
823.83	5779
823.97	5649
824.11	5528
824.25	5474
824.389	5520
824.529	5611
824.669	5570
824.809	5695
824.949	5657
825.089	5596
825.228	5562
825.368	5421
825.508	5429
825.648	5357
825.787	5376
825.927	5395
826.067	5307
826.206	5292
826.346	5402
826.485	5425
826.625	5406
826.765	5535
826.904	5425
827.044	5220
827.183	5201
827.323	5140
827.462	5288
827.601	5143
827.741	5208
827.88	5250
828.02	5083
828.159	5242
828.298	5254
828.437	5288
828.577	5250
828.716	5440
828.855	5330
828.994	5151
829.134	5159
829.273	5140
829.412	5105
829.551	5105
829.69	5178
829.829	5197
829.968	5372
830.107	5288
830.246	5288
830.385	5204
830.524	5132
830.663	5060
830.802	4972
830.941	4889
831.08	4900
831.219	4927
831.357	4972
831.496	5117
831.635	4881
831.774	4873
831.913	4866
832.051	4694
832.19	4752
832.329	4831
832.467	4641
832.606	4580
832.744	4668
832.883	4706
833.022	4767
833.16	4774
833.299	4790
833.437	4828
833.576	4793
833.714	4839
833.852	4870
833.991	4847
834.129	4938
834.267	4927
834.406	4900
834.544	4961
834.682	5022
834.821	5014
834.959	5124
835.097	4980
835.235	5147
835.373	5079
835.511	5094
835.65	5075
835.788	5014
835.926	4911
836.064	4892
836.202	4843
836.34	5181
836.478	5159
836.615	5109
836.753	5166
836.891	5250
837.029	5235
837.167	5201
837.305	5155
837.443	5109
837.58	5086
837.718	5239
837.856	5147
837.993	5117
838.131	5239
838.269	5162
838.406	5181
838.544	5181
838.681	5083
838.819	4995
838.956	4938
839.094	4896
839.231	5003
839.369	5094
839.506	5398
839.643	5204
839.781	5109
839.918	5025
840.055	5060
840.193	5075
840.33	5037
840.467	5174
840.604	5181
840.742	5444
840.879	5064
841.016	5067
841.153	5181
841.29	5357
841.427	5345
841.564	5387
841.701	5337
841.838	5223
841.975	5216
842.112	5280
842.249	5140
842.385	5128
842.522	5337
842.659	5174
842.796	5147
842.933	5170
843.069	5094
843.206	5147
843.343	5326
843.479	5212
843.616	5235
843.752	5025
843.889	5018
844.025	5223
844.162	5037
844.298	5258
844.435	5060
844.571	5033
844.708	5220
844.844	5277
844.98	5315
845.117	5227
845.253	5166
845.389	5094
845.525	5140
845.661	5124
845.798	5048
845.934	5105
846.07	5003
846.206	5204
846.342	5311
846.478	5166
846.614	5014
846.75	4911
846.886	4946
847.022	5098
847.158	5048
847.294	5056
847.429	5090
847.565	5067
847.701	5280
847.837	4816
847.972	4801
848.108	4953
848.244	4942
848.379	4744
848.515	4740
848.65	4748
848.786	4759
848.921	4755
849.057	4809
849.192	4881
849.328	4809
849.463	4873
849.598	4778
849.734	4759
849.869	4721
850.004	4645
850.14	4641
850.275	4615
850.41	4481
850.545	4538
850.68	4615
850.815	4607
850.95	4577
851.085	4820
851.22	4759
851.355	4664
851.49	4611
851.625	4641
851.76	4634
851.895	4558
852.03	4535
852.165	4649
852.299	4702
852.434	4752
852.569	4740
852.703	4706
852.838	4847
852.973	4870
853.107	4923
853.242	4714
853.376	4649
853.511	4561
853.645	4645
853.78	4797
853.914	4668
854.048	4634
854.183	4641
854.317	4691
854.451	4824
854.585	4641
854.72	4565
854.854	4782
854.988	4561
855.122	4653
855.256	4588
855.39	4630
855.524	4767
855.658	4729
855.792	4660
855.926	4729
856.06	4752
856.194	4793
856.327	4668
856.461	4641
856.595	4592
856.729	4599
856.862	4717
856.996	4672
857.13	4721
857.263	4790
857.397	4820
857.53	4660
857.664	4694
857.797	4744
857.931	4725
858.064	4687
858.197	4767
858.331	4660
858.464	4596
858.597	4531
858.731	4607
858.864	4626
858.997	4603
859.13	4641
859.263	4664
859.396	4710
859.529	4588
859.662	4531
859.795	4527
859.928	4596
860.061	4771
860.194	4759
860.327	4634
860.46	4577
860.592	4721
860.725	4714
860.858	4664
860.99	4573
861.123	4512
861.256	4512
861.388	4592
861.521	5189
861.653	4455
861.786	4424
861.918	4432
862.05	4508
862.183	4558
862.315	4592
862.447	4675
862.58	4546
862.712	4367
862.844	4337
862.976	4478
863.108	4436
863.24	4873
863.372	4287
863.504	4462
863.636	4310
863.768	4481
863.9	4421
864.032	4348
864.164	4390
864.296	4462
864.428	4542
864.559	4546
864.691	4561
864.823	4489
864.954	4455
865.086	4554
865.217	4402
865.349	4386
865.48	4462
865.612	4451
865.743	4649
865.875	4478
866.006	4459
866.137	4451
866.269	4459
866.4	4417
866.531	4421
866.662	4383
866.793	4421
866.924	4455
867.055	4504
867.186	4413
867.317	4371
867.448	4367
867.579	4329
867.71	4371
867.841	4371
867.972	4428
868.103	4466
868.233	4421
868.364	4447
868.495	4459
868.625	4653
868.756	4725
868.886	4573
869.017	4573
869.147	4755
869.278	4793
869.408	4656
869.539	4630
869.669	4721
869.799	4645
869.929	4736
870.06	4706
870.19	4930
870.32	4930
870.45	4843
870.58	5025
870.71	5098
870.84	5060
870.97	4934
871.1	4873
871.23	5140
871.36	5075
871.489	5041
871.619	5037
871.749	5071
871.879	5105
872.008	5162
872.138	5025
872.267	5033
872.397	4877
872.526	4809
872.656	4721
872.785	4831
872.915	4896
873.044	5033
873.173	4957
873.303	4938
873.432	4949
873.561	4949
873.69	4862
873.819	4885
873.948	4911
874.077	4820
874.206	4744
874.335	4694
874.464	4957
874.593	5071
874.722	4953
874.851	5071
874.979	5045
875.108	5079
875.237	4934
875.365	4908
875.494	4889
875.623	4961
875.751	4820
875.88	4892
876.008	4965
876.136	5037
876.265	5178
876.393	5330
876.521	5223
876.65	5143
876.778	5094
876.906	5075
877.034	5010
877.162	5056
877.29	4972
877.418	5022
877.546	5014
877.674	4972
877.802	5045
877.93	4987
878.058	4900
878.185	4835
878.313	4987
878.441	4957
878.568	4801
878.696	4862
878.824	4980
878.951	4987
879.079	5128
879.206	5250
879.333	5083
879.461	4930
879.588	4995
879.715	5086
879.842	5193
879.97	5075
880.097	4725
880.224	4763
880.351	4885
880.478	4824
880.605	4820
880.732	4797
880.859	5045
880.986	4850
881.112	4877
881.239	4812
881.366	4645
881.493	4603
881.619	4599
881.746	4611
881.872	4660
881.999	4664
882.125	4656
882.252	4736
882.378	4805
882.505	4927
882.631	4786
882.757	4656
882.883	4736
883.01	4725
883.136	4691
883.262	4603
883.388	4615
883.514	4786
883.64	4900
883.766	4744
883.892	4675
884.018	4683
884.143	4892
884.269	4984
884.395	4649
884.52	4603
884.646	4615
884.772	4565
884.897	4519
885.023	4675
885.148	4793
885.274	4873
885.399	4824
885.524	4725
885.65	4660
885.775	4755
885.9	4733
886.025	4873
886.15	4725
886.275	4710
886.4	4672
886.525	4675
886.65	4710
886.775	4702
886.9	4896
887.025	5037
887.149	4885
887.274	4580
887.399	4599
887.523	4580
887.648	4603
887.773	4607
887.897	4717
888.021	4786
888.146	4714
888.27	4755
888.395	4866
888.519	4752
888.643	4786
888.767	4854
888.891	4668
889.015	4577
889.139	4664
889.263	4573
889.387	4702
889.511	4866
889.635	4755
889.759	4641
889.883	4634
890.006	4759
890.13	4778
890.254	4630
890.377	4691
890.501	4535
890.624	4478
890.748	4622
890.871	4516
890.995	4386
891.118	4371
891.241	4538
891.364	4558
891.488	4596
891.611	4459
891.734	4504
891.857	4531
891.98	4569
892.103	4615
892.226	4535
892.349	4527
892.471	4455
892.594	4550
892.717	4622
892.839	4546
892.962	4573
893.085	4687
893.207	4542
893.33	4485
893.452	4459
893.575	4668
893.697	4523
893.819	4793
893.941	4873
894.064	4752
894.186	4584
894.308	4592
894.43	4790
894.552	4881
894.674	4687
894.796	4550
894.918	4569
895.04	4523
895.161	4691
895.283	4672
895.405	4550
895.526	4626
895.648	4679
895.769	4637
895.891	4698
896.012	4714
896.134	4660
896.255	4675
896.376	4580
896.498	4596
896.619	4668
896.74	4603
896.861	4634
896.982	4930
897.103	5067
897.224	4828
897.345	4721
897.466	4656
897.587	4687
897.708	4828
897.828	4778
897.949	4687
898.07	4554
898.19	4664
898.311	4820
898.431	4664
898.552	4733
898.672	4771
898.792	4752
898.913	4717
899.033	4630
899.153	4489
899.273	4436
899.393	4455
899.513	4508
899.633	4531
899.753	4519
899.873	4493
899.993	4561
900.113	4554
900.232	4592
900.352	4542
900.472	4485
900.591	4386
900.711	4466
900.83	4383
900.95	4622
901.069	4649
901.189	4558
901.308	4386
901.427	4295
901.546	4394
901.665	4508
901.784	4489
901.904	4398
902.023	4363
902.141	4207
902.26	4093
902.379	4303
902.498	4268
902.617	4204
902.735	4379
902.854	4375
902.973	4325
903.091	4257
903.21	4188
903.328	4280
903.446	4284
903.565	4299
903.683	4367
903.801	4246
903.919	4383
904.038	4402
904.156	4310
904.274	4447
904.392	4344
904.51	4440
904.627	4459
904.745	4527
904.863	4630
904.981	4413
905.098	4303
905.216	4371
905.334	4371
905.451	4424
905.569	4447
905.686	4588
905.803	4535
905.921	4405
906.038	4489
906.155	4417
906.272	4383
906.389	4489
906.506	4371
906.623	4386
906.74	4360
906.857	4291
906.974	4348
907.091	4573
907.208	4683
907.324	4580
907.441	4440
907.557	4318
907.674	4310
907.79	4295
907.907	4344
908.023	4447
908.139	4466
908.256	4405
908.372	4489
908.488	4436
908.604	4318
908.72	4310
908.836	4394
908.952	4390
909.068	4447
909.184	4523
909.3	4447
909.415	4668
909.531	4504
909.647	4386
909.762	4371
909.878	4341
909.993	4390
910.108	4436
910.224	4409
910.339	4493
910.454	4413
910.57	4356
910.685	4295
910.8	4683
910.915	4607
911.03	4451
911.145	4356
911.259	4356
911.374	4356
911.489	4306
911.604	4276
911.718	4204
911.833	4207
911.947	4044
912.062	4013
912.176	4207
912.291	4207
912.405	4249
912.519	4447
912.633	4485
912.748	4375
912.862	4310
912.976	4238
913.09	4082
913.204	4166
913.318	4276
913.431	4375
913.545	4367
913.659	4462
913.772	4367
913.886	4265
914	4238
914.113	4386
914.226	4428
914.34	4344
914.453	4207
914.566	4390
914.68	4352
914.793	4287
914.906	4101
915.019	4105
915.132	4078
915.245	4204
915.358	4223
915.47	4192
915.583	4310
915.696	4238
915.809	4447
915.921	4405
916.034	4268
916.146	4234
916.259	4242
916.371	4375
916.483	4325
916.595	4246
916.708	4318
916.82	4356
916.932	4325
917.044	4303
917.156	4337
917.268	4181
917.38	4276
917.491	4242
917.603	4337
917.715	4447
917.826	4421
917.938	4325
918.049	4238
918.161	4443
918.272	4527
918.384	4538
918.495	4481
918.606	4337
918.717	4268
918.828	4333
918.939	4371
919.05	4265
919.161	4261
919.272	4150
919.383	4230
919.494	4440
919.604	4634
919.715	4417
919.826	4333
919.936	4325
920.047	4538
920.157	4489
920.267	4653
920.378	4523
920.488	4459
920.598	4717
920.708	4877
920.818	4755
920.928	4782
921.038	4987
921.148	4892
921.258	4653
921.368	4527
921.477	4493
921.587	4466
921.697	4405
921.806	4516
921.916	4462
922.025	4200
922.134	4238
922.244	4192
922.353	4329
922.462	4185
922.571	4128
922.68	4006
922.789	3998
922.898	4006
923.007	3953
923.116	4101
923.224	4051
923.333	4059
923.442	3968
923.55	3968
923.659	4002
923.767	4093
923.876	4036
923.984	4093
924.092	3987
924.201	4090
924.309	4116
924.417	4112
924.525	4040
924.633	4097
924.741	5048
924.849	3842
924.956	4090
925.064	3953
925.172	3941
925.279	3987
925.387	4086
925.494	4067
925.602	4204
925.709	4177
925.816	4063
925.924	4116
926.031	4219
926.138	4143
926.245	4230
926.352	4082
926.459	4192
926.566	4333
926.673	4128
926.779	4048
926.886	4082
926.993	3975
927.099	3934
927.206	3926
927.312	3934
927.419	4067
927.525	3972
927.631	4112
927.737	3987
927.843	3941
927.95	3835
928.056	3926
928.162	4013
928.267	4044
928.373	4672
928.479	4162
928.585	3876
928.69	3975
928.796	4078
928.901	3964
929.007	3808
929.112	4013
929.218	3991
929.323	3915
929.428	3896
929.533	4051
929.638	3892
929.743	3930
929.848	4010
929.953	3968
930.058	3903
930.163	3812
930.267	3816
930.372	3987
930.477	3778
930.581	4101
930.685	3964
930.79	3835
930.894	3873
930.998	3838
931.103	4051
931.207	3759
931.311	3686
931.415	3686
931.519	3511
931.623	3553
