Data from test_V78500241_484.txt Node
Date: Fri Mar 25 16:52:22 CST 2022
User: usil
Spectrometer: V785-0024
Trigger mode: 0
Integration Time (sec): 4.000000E-1
Scans to average: 1
Nonlinearity correction enabled: false
Boxcar width: 0
Storing dark spectrum: false
XAxis mode: Wavelengths
Number of Pixels in Spectrum: 1024
>>>>>Begin Spectral Data<<<<<
801.071	8058
801.214	7970
801.356	7913
801.499	7845
801.641	7871
801.783	7849
801.926	8058
802.068	8008
802.211	7993
802.353	8027
802.496	7871
802.638	7947
802.78	7936
802.923	7849
803.065	7868
803.208	7833
803.35	7997
803.492	8084
803.635	8126
803.777	7974
803.919	8138
804.061	8404
804.204	8088
804.346	8039
804.488	7940
804.63	8073
804.773	7906
804.915	8145
805.057	8282
805.199	8107
805.341	8218
805.483	8259
805.626	8259
805.768	8077
805.91	8157
806.052	8123
806.194	8062
806.336	8256
806.478	8119
806.62	8092
806.762	8214
806.904	8229
807.046	8556
807.188	8366
807.33	8294
807.472	8324
807.614	8164
807.756	8115
807.898	8012
808.04	7921
808.182	7997
808.324	7978
808.465	7970
808.607	7955
808.749	8172
808.891	8237
809.033	8286
809.174	8199
809.316	8077
809.458	8005
809.6	7993
809.741	8027
809.883	8035
810.025	8100
810.166	8062
810.308	8001
810.45	7989
810.591	7887
810.733	7704
810.875	7643
811.016	7533
811.158	7540
811.299	7708
811.441	7780
811.582	7696
811.724	7567
811.865	7506
812.007	7658
812.148	7552
812.29	7601
812.431	7708
812.573	7837
812.714	8096
812.855	8164
812.997	8233
813.138	8393
813.279	8202
813.421	8092
813.562	8077
813.703	7936
813.845	7803
813.986	7533
814.127	7339
814.268	7316
814.41	7236
814.551	7213
814.692	7221
814.833	7107
814.974	7034
815.115	7091
815.256	7023
815.397	6958
815.539	6985
815.68	6810
815.821	6814
815.962	6905
816.103	6871
816.244	6692
816.385	6639
816.526	6582
816.666	6506
816.807	6357
816.948	6418
817.089	6494
817.23	6403
817.371	6342
817.512	6384
817.653	6391
817.793	6369
817.934	6441
818.075	6441
818.216	6414
818.356	6418
818.497	6251
818.638	6136
818.778	6095
818.919	6110
819.06	6197
819.2	6300
819.341	6311
819.481	6315
819.622	6513
819.762	6726
819.903	6662
820.043	6582
820.184	6604
820.324	6563
820.465	6700
820.605	6642
820.746	6601
820.886	6494
821.026	6700
821.167	6734
821.307	6787
821.447	6795
821.588	6665
821.728	6540
821.868	6471
822.008	6296
822.149	6418
822.289	6414
822.429	6087
822.569	6064
822.709	6125
822.849	5942
822.99	5897
823.13	5942
823.27	5912
823.41	5760
823.55	5775
823.69	5824
823.83	5828
823.97	5745
824.11	5592
824.25	5516
824.389	5642
824.529	5634
824.669	5562
824.809	5646
824.949	5665
825.089	5638
825.228	5627
825.368	5425
825.508	5433
825.648	5383
825.787	5417
825.927	5395
826.067	5299
826.206	5391
826.346	5429
826.485	5486
826.625	5474
826.765	5566
826.904	5532
827.044	5307
827.183	5239
827.323	5178
827.462	5303
827.601	5204
827.741	5193
827.88	5284
828.02	5189
828.159	5284
828.298	5402
828.437	5398
828.577	5292
828.716	5482
828.855	5376
828.994	5204
829.134	5223
829.273	5277
829.412	5155
829.551	5208
829.69	5212
829.829	5296
829.968	5410
830.107	5292
830.246	5269
830.385	5261
830.524	5166
830.663	5155
830.802	5071
830.941	4900
831.08	4900
831.219	5048
831.357	5022
831.496	5193
831.635	4942
831.774	4892
831.913	4896
832.051	4763
832.19	4744
832.329	4877
832.467	4805
832.606	4672
832.744	4812
832.883	4778
833.022	4786
833.16	4866
833.299	4858
833.437	4873
833.576	4938
833.714	4881
833.852	4892
833.991	4938
834.129	5003
834.267	5018
834.406	4911
834.544	5029
834.682	4995
834.821	5010
834.959	5246
835.097	5018
835.235	5174
835.373	5105
835.511	5113
835.65	5083
835.788	5064
835.926	4949
836.064	4911
836.202	4976
836.34	5181
836.478	5246
836.615	5128
836.753	5246
836.891	5322
837.029	5311
837.167	5231
837.305	5208
837.443	5242
837.58	5060
837.718	5326
837.856	5223
837.993	5155
838.131	5326
838.269	5208
838.406	5239
838.544	5170
838.681	5098
838.819	5045
838.956	4980
839.094	4949
839.231	5029
839.369	5079
839.506	5425
839.643	5315
839.781	5121
839.918	5033
840.055	5128
840.193	5170
840.33	5124
840.467	5185
840.604	5231
840.742	5414
840.879	5124
841.016	5128
841.153	5166
841.29	5440
841.427	5376
841.564	5284
841.701	5402
841.838	5277
841.975	5254
842.112	5311
842.249	5151
842.385	5174
842.522	5315
842.659	5227
842.796	5193
842.933	5220
843.069	5204
843.206	5201
843.343	5330
843.479	5261
843.616	5322
843.752	5075
843.889	5098
844.025	5258
844.162	5022
844.298	5277
844.435	5140
844.571	5117
844.708	5201
844.844	5368
844.98	5376
845.117	5303
845.253	5212
845.389	5102
845.525	5201
845.661	5181
845.798	5105
845.934	5166
846.07	5109
846.206	5208
846.342	5303
846.478	5155
846.614	5048
846.75	5010
846.886	4957
847.022	5147
847.158	5075
847.294	5098
847.429	5105
847.565	5090
847.701	5334
847.837	4850
847.972	4774
848.108	5056
848.244	4889
848.379	4820
848.515	4733
848.65	4752
848.786	4748
848.921	4858
849.057	4858
849.192	4946
849.328	4858
849.463	4839
849.598	4816
849.734	4793
849.869	4740
850.004	4637
850.14	4740
850.275	4679
850.41	4584
850.545	4618
850.68	4588
850.815	4618
850.95	4687
851.085	4850
851.22	4809
851.355	4702
851.49	4679
851.625	4679
851.76	4660
851.895	4603
852.03	4588
852.165	4706
852.299	4706
852.434	4839
852.569	4767
852.703	4835
852.838	4831
852.973	4965
853.107	4946
853.242	4767
853.376	4752
853.511	4550
853.645	4683
853.78	4820
853.914	4710
854.048	4710
854.183	4664
854.317	4729
854.451	4889
854.585	4675
854.72	4683
854.854	4752
854.988	4599
855.122	4675
855.256	4538
855.39	4698
855.524	4839
855.658	4725
855.792	4778
855.926	4786
856.06	4797
856.194	4843
856.327	4740
856.461	4607
856.595	4672
856.729	4611
856.862	4771
856.996	4721
857.13	4771
857.263	4805
857.397	4892
857.53	4702
857.664	4759
857.797	4782
857.931	4805
858.064	4717
858.197	4763
858.331	4702
858.464	4641
858.597	4588
858.731	4702
858.864	4626
858.997	4596
859.13	4679
859.263	4702
859.396	4660
859.529	4630
859.662	4615
859.795	4573
859.928	4729
860.061	4805
860.194	4755
860.327	4634
860.46	4641
860.592	4797
860.725	4729
860.858	4702
860.99	4596
861.123	4580
861.256	4584
861.388	4656
861.521	5417
861.653	4500
861.786	4451
861.918	4527
862.05	4519
862.183	4592
862.315	4588
862.447	4706
862.58	4592
862.712	4424
862.844	4405
862.976	4523
863.108	4470
863.24	4828
863.372	4394
863.504	4451
863.636	4466
863.768	4561
863.9	4447
864.032	4394
864.164	4436
864.296	4481
864.428	4592
864.559	4596
864.691	4592
864.823	4554
864.954	4542
865.086	4519
865.217	4512
865.349	4440
865.48	4500
865.612	4512
865.743	4694
865.875	4508
866.006	4451
866.137	4493
866.269	4462
866.4	4462
866.531	4489
866.662	4421
866.793	4424
866.924	4432
867.055	4500
867.186	4462
867.317	4497
867.448	4447
867.579	4447
867.71	4432
867.841	4409
867.972	4500
868.103	4497
868.233	4485
868.364	4497
868.495	4497
868.625	4721
868.756	4721
868.886	4573
869.017	4637
869.147	4767
869.278	4828
869.408	4748
869.539	4618
869.669	4755
869.799	4664
869.929	4831
870.06	4801
870.19	4976
870.32	4946
870.45	4972
870.58	4999
870.71	5121
870.84	5174
870.97	4999
871.1	4965
871.23	5185
871.36	5174
871.489	5041
871.619	5102
871.749	5143
871.879	5166
872.008	5189
872.138	5128
872.267	5022
872.397	4862
872.526	4881
872.656	4790
872.785	4790
872.915	4968
873.044	5056
873.173	4991
873.303	5006
873.432	4961
873.561	4957
873.69	4915
873.819	4904
873.948	4942
874.077	4850
874.206	4812
874.335	4809
874.464	4953
874.593	5124
874.722	4953
874.851	5128
874.979	5090
875.108	4987
875.237	4961
875.365	4934
875.494	4934
875.623	5006
875.751	4858
875.88	4854
876.008	5003
876.136	5029
876.265	5250
876.393	5345
876.521	5269
876.65	5231
876.778	5212
876.906	5143
877.034	5045
877.162	5075
877.29	4949
877.418	5094
877.546	5102
877.674	5121
877.802	5003
877.93	5052
878.058	4949
878.185	4862
878.313	5006
878.441	5045
878.568	4854
878.696	4896
878.824	5033
878.951	5056
879.079	5147
879.206	5307
879.333	5143
879.461	5029
879.588	5048
879.715	5136
879.842	5216
879.97	5014
880.097	4835
880.224	4797
880.351	4896
880.478	4889
880.605	4839
880.732	4835
880.859	5170
880.986	4938
881.112	4889
881.239	4843
881.366	4683
881.493	4683
881.619	4626
881.746	4626
881.872	4679
881.999	4714
882.125	4683
882.252	4809
882.378	4847
882.505	4957
882.631	4885
882.757	4717
882.883	4755
883.01	4717
883.136	4717
883.262	4599
883.388	4660
883.514	4824
883.64	4873
883.766	4843
883.892	4656
884.018	4717
884.143	4915
884.269	5010
884.395	4755
884.52	4637
884.646	4698
884.772	4607
884.897	4596
885.023	4702
885.148	4809
885.274	4839
885.399	4850
885.524	4748
885.65	4706
885.775	4793
885.9	4698
886.025	4892
886.15	4873
886.275	4736
886.4	4618
886.525	4653
886.65	4740
886.775	4729
886.9	4987
887.025	5075
887.149	4835
887.274	4645
887.399	4645
887.523	4592
887.648	4596
887.773	4618
887.897	4793
888.021	4786
888.146	4653
888.27	4866
888.395	4961
888.519	4801
888.643	4805
888.767	4831
888.891	4702
889.015	4599
889.139	4698
889.263	4641
889.387	4744
889.511	4889
889.635	4805
889.759	4668
889.883	4653
890.006	4729
890.13	4847
890.254	4615
890.377	4694
890.501	4596
890.624	4516
890.748	4672
890.871	4508
890.995	4417
891.118	4447
891.241	4504
891.364	4607
891.488	4714
891.611	4504
891.734	4580
891.857	4596
891.98	4577
892.103	4687
892.226	4626
892.349	4558
892.471	4474
892.594	4527
892.717	4596
892.839	4535
892.962	4622
893.085	4672
893.207	4679
893.33	4531
893.452	4538
893.575	4694
893.697	4630
893.819	4786
893.941	4828
894.064	4790
894.186	4580
894.308	4561
894.43	4694
894.552	4850
894.674	4774
894.796	4580
894.918	4580
895.04	4596
895.161	4702
895.283	4664
895.405	4611
895.526	4634
895.648	4717
895.769	4740
895.891	4721
896.012	4748
896.134	4752
896.255	4645
896.376	4710
896.498	4618
896.619	4733
896.74	4637
896.861	4683
896.982	4934
897.103	5117
897.224	4847
897.345	4725
897.466	4706
897.587	4744
897.708	4889
897.828	4801
897.949	4653
898.07	4577
898.19	4668
898.311	4839
898.431	4687
898.552	4733
898.672	4839
898.792	4809
898.913	4774
899.033	4687
899.153	4519
899.273	4413
899.393	4493
899.513	4508
899.633	4550
899.753	4535
899.873	4546
899.993	4558
900.113	4508
900.232	4596
900.352	4565
900.472	4493
900.591	4447
900.711	4462
900.83	4470
900.95	4637
901.069	4710
901.189	4550
901.308	4363
901.427	4322
901.546	4394
901.665	4519
901.784	4546
901.904	4386
902.023	4337
902.141	4177
902.26	4207
902.379	4284
902.498	4303
902.617	4249
902.735	4390
902.854	4424
902.973	4398
903.091	4265
903.21	4223
903.328	4333
903.446	4303
903.565	4276
903.683	4356
903.801	4284
903.919	4421
904.038	4443
904.156	4291
904.274	4451
904.392	4417
904.51	4432
904.627	4474
904.745	4546
904.863	4618
904.981	4405
905.098	4268
905.216	4341
905.334	4466
905.451	4432
905.569	4417
905.686	4561
905.803	4592
905.921	4394
906.038	4542
906.155	4542
906.272	4413
906.389	4470
906.506	4356
906.623	4417
906.74	4424
906.857	4375
906.974	4424
907.091	4599
907.208	4706
907.324	4615
907.441	4489
907.557	4398
907.674	4356
907.79	4322
907.907	4383
908.023	4493
908.139	4523
908.256	4424
908.372	4516
908.488	4504
908.604	4379
908.72	4337
908.836	4398
908.952	4363
909.068	4462
909.184	4531
909.3	4462
909.415	4618
909.531	4565
909.647	4383
909.762	4405
909.878	4310
909.993	4462
910.108	4428
910.224	4402
910.339	4523
910.454	4375
910.57	4394
910.685	4310
910.8	4630
910.915	4641
911.03	4474
911.145	4333
911.259	4371
911.374	4371
911.489	4306
911.604	4268
911.718	4234
911.833	4265
911.947	4101
912.062	3983
912.176	4246
912.291	4253
912.405	4249
912.519	4493
912.633	4512
912.748	4386
912.862	4284
912.976	4204
913.09	4097
913.204	4238
913.318	4257
913.431	4409
913.545	4367
913.659	4428
913.772	4390
913.886	4227
914	4227
914.113	4386
914.226	4466
914.34	4436
914.453	4234
914.566	4447
914.68	4314
914.793	4329
914.906	4192
915.019	4090
915.132	4090
915.245	4177
915.358	4204
915.47	4272
915.583	4314
915.696	4322
915.809	4344
915.921	4432
916.034	4284
916.146	4215
916.259	4257
916.371	4402
916.483	4348
916.595	4230
916.708	4394
916.82	4360
916.932	4341
917.044	4306
917.156	4348
917.268	4242
917.38	4268
917.491	4272
917.603	4360
917.715	4428
917.826	4402
917.938	4383
918.049	4246
918.161	4409
918.272	4535
918.384	4542
918.495	4443
918.606	4295
918.717	4219
918.828	4394
918.939	4394
919.05	4268
919.161	4318
919.272	4139
919.383	4291
919.494	4474
919.604	4660
919.715	4417
919.826	4379
919.936	4371
920.047	4512
920.157	4474
920.267	4736
920.378	4523
920.488	4519
920.598	4694
920.708	4908
920.818	4767
920.928	4759
921.038	4927
921.148	4927
921.258	4622
921.368	4554
921.477	4550
921.587	4489
921.697	4398
921.806	4573
921.916	4485
922.025	4291
922.134	4284
922.244	4249
922.353	4291
922.462	4169
922.571	4128
922.68	3949
922.789	3972
922.898	4067
923.007	4025
923.116	4128
923.224	4093
923.333	4055
923.442	4021
923.55	4017
923.659	4048
923.767	4112
923.876	4044
923.984	4086
924.092	4017
924.201	4143
924.309	4093
924.417	4154
924.525	4059
924.633	4143
924.741	4991
924.849	3937
924.956	4116
925.064	3956
925.172	3892
925.279	3956
925.387	4013
925.494	4071
925.602	4185
925.709	4188
925.816	3994
925.924	4135
926.031	4246
926.138	4211
926.245	4219
926.352	4078
926.459	4249
926.566	4310
926.673	4124
926.779	4124
926.886	4105
926.993	3983
927.099	4006
927.206	3934
927.312	3953
927.419	4055
927.525	4032
927.631	4074
927.737	3930
927.843	3926
927.95	3899
928.056	3987
928.162	4017
928.267	4032
928.373	4725
928.479	4143
928.585	3907
928.69	4044
928.796	4086
928.901	3960
929.007	3903
929.112	4010
929.218	3998
929.323	3926
929.428	3949
929.533	4105
929.638	3934
929.743	3956
929.848	4021
929.953	4051
930.058	3915
930.163	3793
930.267	3857
930.372	3983
930.477	3819
930.581	4067
930.685	3975
930.79	3831
930.894	3869
930.998	3846
931.103	4048
931.207	3709
931.311	3690
931.415	3717
931.519	3545
931.623	3538
