Data from test_V78500241_856.txt Node
Date: Fri Mar 25 16:54:57 CST 2022
User: usil
Spectrometer: V785-0024
Trigger mode: 0
Integration Time (sec): 4.000000E-1
Scans to average: 1
Nonlinearity correction enabled: false
Boxcar width: 0
Storing dark spectrum: false
XAxis mode: Wavelengths
Number of Pixels in Spectrum: 1024
>>>>>Begin Spectral Data<<<<<
801.071	8081
801.214	8031
801.356	7875
801.499	7841
801.641	7833
801.783	7811
801.926	7940
802.068	7940
802.211	7898
802.353	7944
802.496	7833
802.638	7959
802.78	7936
802.923	7917
803.065	7890
803.208	7883
803.35	8016
803.492	8161
803.635	8191
803.777	8062
803.919	8142
804.061	8389
804.204	8126
804.346	8058
804.488	7982
804.63	8111
804.773	8012
804.915	8069
805.057	8259
805.199	8107
805.341	8221
805.483	8286
805.626	8153
805.768	8062
805.91	8172
806.052	8221
806.194	8024
806.336	8336
806.478	8050
806.62	8005
806.762	8069
806.904	8256
807.046	8431
807.188	8362
807.33	8343
807.472	8438
807.614	8126
807.756	8157
807.898	7986
808.04	7909
808.182	7906
808.324	7864
808.465	7936
808.607	8050
808.749	8046
808.891	8225
809.033	8313
809.174	8195
809.316	8046
809.458	8012
809.6	7993
809.741	8046
809.883	8020
810.025	8111
810.166	8065
810.308	8054
810.45	8001
810.591	7982
810.733	7746
810.875	7681
811.016	7514
811.158	7499
811.299	7552
811.441	7742
811.582	7693
811.724	7590
811.865	7502
812.007	7575
812.148	7586
812.29	7655
812.431	7681
812.573	7792
812.714	7982
812.855	8096
812.997	8225
813.138	8385
813.279	8172
813.421	8088
813.562	8043
813.703	7898
813.845	7799
813.986	7438
814.127	7266
814.268	7324
814.41	7202
814.551	7053
814.692	7179
814.833	7012
814.974	7061
815.115	7095
815.256	6947
815.397	6977
815.539	6966
815.68	6829
815.821	6791
815.962	6856
816.103	6856
816.244	6741
816.385	6650
816.526	6692
816.666	6471
816.807	6273
816.948	6342
817.089	6452
817.23	6422
817.371	6422
817.512	6395
817.653	6395
817.793	6357
817.934	6418
818.075	6441
818.216	6471
818.356	6395
818.497	6163
818.638	6129
818.778	6129
818.919	6159
819.06	6159
819.2	6323
819.341	6311
819.481	6350
819.622	6483
819.762	6776
819.903	6707
820.043	6593
820.184	6525
820.324	6578
820.465	6650
820.605	6642
820.746	6631
820.886	6517
821.026	6654
821.167	6730
821.307	6802
821.447	6738
821.588	6677
821.728	6563
821.868	6532
822.008	6277
822.149	6308
822.289	6376
822.429	6201
822.569	6098
822.709	6133
822.849	5927
822.99	5908
823.13	5912
823.27	5946
823.41	5809
823.55	5794
823.69	5786
823.83	5798
823.97	5634
824.11	5524
824.25	5501
824.389	5539
824.529	5619
824.669	5516
824.809	5596
824.949	5630
825.089	5615
825.228	5554
825.368	5387
825.508	5364
825.648	5303
825.787	5391
825.927	5391
826.067	5307
826.206	5254
826.346	5383
826.485	5444
826.625	5364
826.765	5627
826.904	5444
827.044	5204
827.183	5174
827.323	5185
827.462	5261
827.601	5151
827.741	5201
827.88	5212
828.02	5113
828.159	5269
828.298	5254
828.437	5353
828.577	5311
828.716	5421
828.855	5345
828.994	5178
829.134	5151
829.273	5185
829.412	5121
829.551	5159
829.69	5178
829.829	5193
829.968	5383
830.107	5284
830.246	5261
830.385	5212
830.524	5147
830.663	5113
830.802	5018
830.941	4911
831.08	4900
831.219	4965
831.357	4968
831.496	5201
831.635	4968
831.774	4839
831.913	4793
832.051	4759
832.19	4748
832.329	4831
832.467	4702
832.606	4656
832.744	4714
832.883	4733
833.022	4744
833.16	4793
833.299	4828
833.437	4824
833.576	4843
833.714	4904
833.852	4923
833.991	4889
834.129	4953
834.267	4934
834.406	4972
834.544	4976
834.682	4984
834.821	4968
834.959	5155
835.097	4976
835.235	5124
835.373	5105
835.511	5067
835.65	4991
835.788	5090
835.926	4889
836.064	4850
836.202	4889
836.34	5166
836.478	5166
836.615	5128
836.753	5235
836.891	5292
837.029	5254
837.167	5235
837.305	5147
837.443	5143
837.58	5075
837.718	5296
837.856	5159
837.993	5124
838.131	5185
838.269	5280
838.406	5208
838.544	5197
838.681	5018
838.819	5003
838.956	4892
839.094	4934
839.231	4946
839.369	5060
839.506	5387
839.643	5269
839.781	5109
839.918	4999
840.055	5075
840.193	5090
840.33	5117
840.467	5086
840.604	5181
840.742	5474
840.879	5041
841.016	5067
841.153	5155
841.29	5337
841.427	5353
841.564	5326
841.701	5345
841.838	5231
841.975	5189
842.112	5261
842.249	5113
842.385	5102
842.522	5341
842.659	5170
842.796	5170
842.933	5204
843.069	5117
843.206	5151
843.343	5292
843.479	5223
843.616	5288
843.752	5045
843.889	5014
844.025	5201
844.162	5010
844.298	5201
844.435	5010
844.571	5075
844.708	5223
844.844	5341
844.98	5334
845.117	5250
845.253	5124
845.389	5071
845.525	5113
845.661	5083
845.798	4965
845.934	5128
846.07	4995
846.206	5155
846.342	5296
846.478	5151
846.614	5037
846.75	4980
846.886	4942
847.022	5083
847.158	5029
847.294	5083
847.429	5117
847.565	5064
847.701	5261
847.837	4824
847.972	4828
848.108	4900
848.244	4908
848.379	4793
848.515	4801
848.65	4691
848.786	4755
848.921	4771
849.057	4843
849.192	4919
849.328	4790
849.463	4805
849.598	4771
849.734	4752
849.869	4714
850.004	4634
850.14	4675
850.275	4588
850.41	4516
850.545	4577
850.68	4615
850.815	4599
850.95	4683
851.085	4850
851.22	4698
851.355	4687
851.49	4611
851.625	4615
851.76	4634
851.895	4558
852.03	4519
852.165	4611
852.299	4729
852.434	4710
852.569	4706
852.703	4782
852.838	4831
852.973	4915
853.107	4923
853.242	4733
853.376	4641
853.511	4550
853.645	4599
853.78	4755
853.914	4660
854.048	4656
854.183	4641
854.317	4679
854.451	4790
854.585	4668
854.72	4687
854.854	4797
854.988	4626
855.122	4653
855.256	4535
855.39	4675
855.524	4767
855.658	4729
855.792	4714
855.926	4729
856.06	4714
856.194	4725
856.327	4687
856.461	4584
856.595	4611
856.729	4649
856.862	4702
856.996	4710
857.13	4660
857.263	4797
857.397	4786
857.53	4637
857.664	4698
857.797	4744
857.931	4759
858.064	4660
858.197	4778
858.331	4653
858.464	4622
858.597	4519
858.731	4603
858.864	4717
858.997	4569
859.13	4622
859.263	4698
859.396	4675
859.529	4592
859.662	4565
859.795	4470
859.928	4558
860.061	4778
860.194	4698
860.327	4592
860.46	4565
860.592	4691
860.725	4710
860.858	4729
860.99	4508
861.123	4558
861.256	4474
861.388	4615
861.521	5307
861.653	4478
861.786	4386
861.918	4451
862.05	4489
862.183	4561
862.315	4588
862.447	4611
862.58	4508
862.712	4405
862.844	4325
862.976	4470
863.108	4459
863.24	4714
863.372	4295
863.504	4428
863.636	4402
863.768	4531
863.9	4428
864.032	4363
864.164	4367
864.296	4470
864.428	4561
864.559	4565
864.691	4596
864.823	4481
864.954	4436
865.086	4516
865.217	4436
865.349	4367
865.48	4459
865.612	4470
865.743	4615
865.875	4440
866.006	4405
866.137	4443
866.269	4402
866.4	4459
866.531	4421
866.662	4413
866.793	4428
866.924	4402
867.055	4497
867.186	4443
867.317	4417
867.448	4363
867.579	4371
867.71	4424
867.841	4383
867.972	4485
868.103	4436
868.233	4398
868.364	4386
868.495	4481
868.625	4618
868.756	4744
868.886	4573
869.017	4634
869.147	4698
869.278	4759
869.408	4649
869.539	4634
869.669	4721
869.799	4717
869.929	4717
870.06	4771
870.19	4987
870.32	4885
870.45	4885
870.58	4965
870.71	5041
870.84	5117
870.97	4911
871.1	4896
871.23	5105
871.36	5075
871.489	5037
871.619	5033
871.749	5086
871.879	5162
872.008	5128
872.138	4999
872.267	4984
872.397	4809
872.526	4824
872.656	4698
872.785	4736
872.915	4904
873.044	5003
873.173	4900
873.303	4923
873.432	4908
873.561	4938
873.69	4831
873.819	4892
873.948	4889
874.077	4771
874.206	4733
874.335	4793
874.464	4870
874.593	5094
874.722	4968
874.851	5090
874.979	5060
875.108	5052
875.237	4854
875.365	4919
875.494	4847
875.623	4946
875.751	4793
875.88	4831
876.008	4976
876.136	5022
876.265	5181
876.393	5326
876.521	5265
876.65	5216
876.778	5155
876.906	5064
877.034	5022
877.162	5029
877.29	4968
877.418	5029
877.546	5018
877.674	5037
877.802	5045
877.93	5025
878.058	4911
878.185	4873
878.313	4934
878.441	4927
878.568	4793
878.696	4820
878.824	4949
878.951	4980
879.079	5140
879.206	5227
879.333	5079
879.461	4980
879.588	5006
879.715	5071
879.842	5159
879.97	4976
880.097	4778
880.224	4725
880.351	4786
880.478	4805
880.605	4801
880.732	4797
880.859	5060
880.986	4889
881.112	4919
881.239	4759
881.366	4733
881.493	4618
881.619	4535
881.746	4649
881.872	4653
881.999	4656
882.125	4675
882.252	4717
882.378	4793
882.505	4942
882.631	4782
882.757	4672
882.883	4759
883.01	4668
883.136	4675
883.262	4565
883.388	4649
883.514	4805
883.64	4824
883.766	4816
883.892	4679
884.018	4698
884.143	4896
884.269	4968
884.395	4649
884.52	4588
884.646	4599
884.772	4584
884.897	4542
885.023	4656
885.148	4782
885.274	4820
885.399	4809
885.524	4679
885.65	4691
885.775	4786
885.9	4664
886.025	4847
886.15	4782
886.275	4710
886.4	4630
886.525	4698
886.65	4714
886.775	4653
886.9	4866
887.025	4976
887.149	4850
887.274	4637
887.399	4538
887.523	4607
887.648	4546
887.773	4546
887.897	4736
888.021	4744
888.146	4668
888.27	4763
888.395	4919
888.519	4870
888.643	4820
888.767	4812
888.891	4660
889.015	4561
889.139	4653
889.263	4615
889.387	4771
889.511	4831
889.635	4778
889.759	4691
889.883	4622
890.006	4744
890.13	4850
890.254	4603
890.377	4653
890.501	4561
890.624	4531
890.748	4611
890.871	4531
890.995	4443
891.118	4421
891.241	4497
891.364	4538
891.488	4656
891.611	4512
891.734	4500
891.857	4611
891.98	4512
892.103	4672
892.226	4542
892.349	4481
892.471	4375
892.594	4554
892.717	4584
892.839	4538
892.962	4561
893.085	4675
893.207	4656
893.33	4462
893.452	4523
893.575	4694
893.697	4561
893.819	4816
893.941	4778
894.064	4797
894.186	4565
894.308	4546
894.43	4771
894.552	4850
894.674	4744
894.796	4554
894.918	4569
895.04	4611
895.161	4710
895.283	4649
895.405	4599
895.526	4622
895.648	4683
895.769	4717
895.891	4725
896.012	4755
896.134	4729
896.255	4626
896.376	4599
896.498	4611
896.619	4660
896.74	4596
896.861	4641
896.982	4900
897.103	5079
897.224	4809
897.345	4706
897.466	4668
897.587	4714
897.708	4801
897.828	4752
897.949	4634
898.07	4531
898.19	4580
898.311	4809
898.431	4683
898.552	4698
898.672	4835
898.792	4793
898.913	4736
899.033	4596
899.153	4493
899.273	4413
899.393	4474
899.513	4500
899.633	4523
899.753	4538
899.873	4462
899.993	4538
900.113	4516
900.232	4596
900.352	4531
900.472	4493
900.591	4367
900.711	4470
900.83	4417
900.95	4554
901.069	4637
901.189	4508
901.308	4375
901.427	4318
901.546	4363
901.665	4447
901.784	4508
901.904	4398
902.023	4325
902.141	4207
902.26	4154
902.379	4306
902.498	4196
902.617	4204
902.735	4402
902.854	4390
902.973	4341
903.091	4211
903.21	4173
903.328	4272
903.446	4257
903.565	4268
903.683	4314
903.801	4223
903.919	4383
904.038	4432
904.156	4272
904.274	4413
904.392	4398
904.51	4371
904.627	4474
904.745	4531
904.863	4660
904.981	4383
905.098	4261
905.216	4352
905.334	4440
905.451	4390
905.569	4413
905.686	4561
905.803	4573
905.921	4386
906.038	4527
906.155	4413
906.272	4344
906.389	4451
906.506	4306
906.623	4367
906.74	4421
906.857	4310
906.974	4363
907.091	4550
907.208	4630
907.324	4592
907.441	4489
907.557	4337
907.674	4322
907.79	4310
907.907	4360
908.023	4462
908.139	4466
908.256	4398
908.372	4447
908.488	4405
908.604	4265
908.72	4295
908.836	4310
908.952	4375
909.068	4443
909.184	4554
909.3	4489
909.415	4558
909.531	4550
909.647	4363
909.762	4348
909.878	4383
909.993	4409
910.108	4459
910.224	4443
910.339	4493
910.454	4424
910.57	4337
910.685	4287
910.8	4675
910.915	4558
911.03	4516
911.145	4314
911.259	4341
911.374	4325
911.489	4295
911.604	4253
911.718	4181
911.833	4135
911.947	4051
912.062	3960
912.176	4219
912.291	4215
912.405	4242
912.519	4462
912.633	4459
912.748	4375
912.862	4314
912.976	4230
913.09	4093
913.204	4177
913.318	4284
913.431	4310
913.545	4371
913.659	4443
913.772	4341
913.886	4253
914	4230
914.113	4367
914.226	4443
914.34	4432
914.453	4227
914.566	4398
914.68	4318
914.793	4299
914.906	4162
915.019	4139
915.132	4116
915.245	4181
915.358	4185
915.47	4249
915.583	4230
915.696	4306
915.809	4394
915.921	4443
916.034	4253
916.146	4265
916.259	4211
916.371	4409
916.483	4329
916.595	4280
916.708	4322
916.82	4295
916.932	4341
917.044	4303
917.156	4356
917.268	4246
917.38	4318
917.491	4276
917.603	4333
917.715	4459
917.826	4440
917.938	4367
918.049	4246
918.161	4398
918.272	4497
918.384	4538
918.495	4409
918.606	4306
918.717	4192
918.828	4333
918.939	4394
919.05	4299
919.161	4249
919.272	4143
919.383	4261
919.494	4409
919.604	4626
919.715	4432
919.826	4333
919.936	4409
920.047	4550
920.157	4489
920.267	4653
920.378	4554
920.488	4535
920.598	4729
920.708	4862
920.818	4729
920.928	4771
921.038	4938
921.148	4858
921.258	4634
921.368	4538
921.477	4493
921.587	4447
921.697	4379
921.806	4527
921.916	4363
922.025	4234
922.134	4284
922.244	4219
922.353	4375
922.462	4169
922.571	4128
922.68	3998
922.789	3987
922.898	4032
923.007	3998
923.116	4071
923.224	4044
923.333	4067
923.442	3975
923.55	3979
923.659	4006
923.767	4093
923.876	4017
923.984	4093
924.092	3991
924.201	4078
924.309	4139
924.417	4139
924.525	4109
924.633	4071
924.741	4805
924.849	3922
924.956	4112
925.064	3979
925.172	3937
925.279	3979
925.387	4067
925.494	4040
925.602	4181
925.709	4246
925.816	4059
925.924	4090
926.031	4227
926.138	4215
926.245	4219
926.352	4109
926.459	4246
926.566	4280
926.673	4162
926.779	4051
926.886	4078
926.993	3979
927.099	3953
927.206	3907
927.312	3937
927.419	4074
927.525	4010
927.631	4048
927.737	3975
927.843	3926
927.95	3781
928.056	3918
928.162	4010
928.267	4071
928.373	4523
928.479	4086
928.585	3838
928.69	3964
928.796	4036
928.901	3964
929.007	3869
929.112	3964
929.218	3953
929.323	3930
929.428	3918
929.533	4101
929.638	3869
929.743	3941
929.848	4029
929.953	3991
930.058	3979
930.163	3740
930.267	3819
930.372	3991
930.477	3831
930.581	4071
930.685	3922
930.79	3812
930.894	3869
930.998	3850
931.103	3991
931.207	3743
931.311	3713
931.415	3667
931.519	3534
931.623	3561
