Data from test_V78500241_1986.txt Node
Date: Fri Mar 25 17:02:48 CST 2022
User: usil
Spectrometer: V785-0024
Trigger mode: 0
Integration Time (sec): 4.000000E-1
Scans to average: 1
Nonlinearity correction enabled: false
Boxcar width: 0
Storing dark spectrum: false
XAxis mode: Wavelengths
Number of Pixels in Spectrum: 1024
>>>>>Begin Spectral Data<<<<<
801.071	8020
801.214	8081
801.356	7837
801.499	7845
801.641	7868
801.783	7841
801.926	7978
802.068	7940
802.211	8016
802.353	8024
802.496	7845
802.638	7814
802.78	7887
802.923	7932
803.065	7833
803.208	7841
803.35	7936
803.492	8050
803.635	8157
803.777	8012
803.919	8145
804.061	8377
804.204	8187
804.346	8039
804.488	7967
804.63	8081
804.773	8024
804.915	8084
805.057	8355
805.199	8142
805.341	8252
805.483	8309
805.626	8145
805.768	8123
805.91	8214
806.052	8161
806.194	8100
806.336	8317
806.478	8088
806.62	7967
806.762	8126
806.904	8275
807.046	8465
807.188	8351
807.33	8206
807.472	8362
807.614	8145
807.756	8134
807.898	8039
808.04	7879
808.182	7944
808.324	7978
808.465	7883
808.607	8111
808.749	8092
808.891	8275
809.033	8381
809.174	8176
809.316	8138
809.458	8046
809.6	8107
809.741	7982
809.883	7959
810.025	8084
810.166	8050
810.308	7997
810.45	8024
810.591	7811
810.733	7704
810.875	7727
811.016	7540
811.158	7434
811.299	7552
811.441	7734
811.582	7636
811.724	7597
811.865	7529
812.007	7590
812.148	7601
812.29	7620
812.431	7792
812.573	7871
812.714	7959
812.855	8130
812.997	8187
813.138	8328
813.279	8221
813.421	8096
813.562	7978
813.703	7830
813.845	7765
813.986	7438
814.127	7232
814.268	7217
814.41	7206
814.551	7175
814.692	7202
814.833	7137
814.974	7156
815.115	7179
815.256	6977
815.397	6935
815.539	6886
815.68	6837
815.821	6795
815.962	6844
816.103	6806
816.244	6688
816.385	6646
816.526	6608
816.666	6475
816.807	6353
816.948	6467
817.089	6437
817.23	6380
817.371	6346
817.512	6338
817.653	6422
817.793	6403
817.934	6418
818.075	6433
818.216	6388
818.356	6399
818.497	6258
818.638	6091
818.778	6190
818.919	6155
819.06	6136
819.2	6319
819.341	6323
819.481	6388
819.622	6540
819.762	6715
819.903	6707
820.043	6551
820.184	6551
820.324	6612
820.465	6730
820.605	6662
820.746	6627
820.886	6517
821.026	6574
821.167	6711
821.307	6779
821.447	6783
821.588	6646
821.728	6578
821.868	6471
822.008	6285
822.149	6331
822.289	6388
822.429	6148
822.569	6091
822.709	6117
822.849	5954
822.99	5931
823.13	5897
823.27	5878
823.41	5745
823.55	5836
823.69	5703
823.83	5756
823.97	5672
824.11	5585
824.25	5547
824.389	5562
824.529	5577
824.669	5543
824.809	5638
824.949	5611
825.089	5653
825.228	5562
825.368	5368
825.508	5368
825.648	5303
825.787	5376
825.927	5383
826.067	5292
826.206	5341
826.346	5383
826.485	5414
826.625	5379
826.765	5547
826.904	5463
827.044	5307
827.183	5193
827.323	5136
827.462	5223
827.601	5212
827.741	5250
827.88	5220
828.02	5086
828.159	5208
828.298	5265
828.437	5334
828.577	5292
828.716	5425
828.855	5296
828.994	5117
829.134	5117
829.273	5178
829.412	5151
829.551	5147
829.69	5178
829.829	5261
829.968	5376
830.107	5277
830.246	5261
830.385	5189
830.524	5166
830.663	5109
830.802	4961
830.941	4904
831.08	4885
831.219	4987
831.357	4995
831.496	5181
831.635	4915
831.774	4862
831.913	4873
832.051	4736
832.19	4759
832.329	4831
832.467	4717
832.606	4653
832.744	4729
832.883	4744
833.022	4710
833.16	4774
833.299	4870
833.437	4835
833.576	4793
833.714	4850
833.852	4889
833.991	4866
834.129	4965
834.267	4923
834.406	4908
834.544	5022
834.682	4984
834.821	4987
834.959	5143
835.097	5018
835.235	5102
835.373	5102
835.511	5151
835.65	5052
835.788	5029
835.926	4908
836.064	4870
836.202	4908
836.34	5147
836.478	5269
836.615	5083
836.753	5273
836.891	5277
837.029	5208
837.167	5174
837.305	5181
837.443	5128
837.58	5071
837.718	5277
837.856	5181
837.993	5159
838.131	5239
838.269	5223
838.406	5216
838.544	5151
838.681	5037
838.819	4991
838.956	4980
839.094	4850
839.231	4957
839.369	5045
839.506	5429
839.643	5227
839.781	5060
839.918	5029
840.055	5098
840.193	5060
840.33	5090
840.467	5109
840.604	5151
840.742	5455
840.879	5067
841.016	5098
841.153	5113
841.29	5360
841.427	5284
841.564	5341
841.701	5357
841.838	5265
841.975	5197
842.112	5254
842.249	5151
842.385	5121
842.522	5357
842.659	5204
842.796	5143
842.933	5185
843.069	5155
843.206	5117
843.343	5258
843.479	5269
843.616	5250
843.752	5048
843.889	5029
844.025	5208
844.162	5014
844.298	5159
844.435	5117
844.571	5045
844.708	5254
844.844	5318
844.98	5326
845.117	5258
845.253	5121
845.389	5083
845.525	5162
845.661	5162
845.798	5029
845.934	5109
846.07	5052
846.206	5143
846.342	5277
846.478	5189
846.614	5037
846.75	4980
846.886	4946
847.022	5193
847.158	5014
847.294	5056
847.429	5132
847.565	5067
847.701	5265
847.837	4904
847.972	4797
848.108	4949
848.244	4919
848.379	4759
848.515	4691
848.65	4717
848.786	4733
848.921	4778
849.057	4908
849.192	4900
849.328	4812
849.463	4820
849.598	4797
849.734	4733
849.869	4679
850.004	4641
850.14	4649
850.275	4649
850.41	4493
850.545	4596
850.68	4641
850.815	4615
850.95	4569
851.085	4850
851.22	4717
851.355	4683
851.49	4622
851.625	4668
851.76	4653
851.895	4531
852.03	4554
852.165	4618
852.299	4710
852.434	4778
852.569	4755
852.703	4790
852.838	4858
852.973	4904
853.107	4904
853.242	4725
853.376	4691
853.511	4558
853.645	4634
853.78	4843
853.914	4698
854.048	4679
854.183	4584
854.317	4683
854.451	4797
854.585	4694
854.72	4626
854.854	4744
854.988	4634
855.122	4630
855.256	4527
855.39	4607
855.524	4752
855.658	4694
855.792	4691
855.926	4721
856.06	4740
856.194	4790
856.327	4694
856.461	4611
856.595	4626
856.729	4622
856.862	4797
856.996	4721
857.13	4721
857.263	4809
857.397	4809
857.53	4615
857.664	4702
857.797	4763
857.931	4816
858.064	4668
858.197	4717
858.331	4641
858.464	4584
858.597	4519
858.731	4630
858.864	4615
858.997	4588
859.13	4668
859.263	4660
859.396	4656
859.529	4577
859.662	4535
859.795	4542
859.928	4656
860.061	4702
860.194	4744
860.327	4580
860.46	4573
860.592	4687
860.725	4729
860.858	4706
860.99	4512
861.123	4500
861.256	4508
861.388	4656
861.521	5155
861.653	4497
861.786	4451
861.918	4440
862.05	4542
862.183	4512
862.315	4584
862.447	4641
862.58	4554
862.712	4375
862.844	4344
862.976	4485
863.108	4436
863.24	4774
863.372	4356
863.504	4440
863.636	4394
863.768	4478
863.9	4432
864.032	4386
864.164	4398
864.296	4459
864.428	4546
864.559	4554
864.691	4516
864.823	4561
864.954	4485
865.086	4508
865.217	4424
865.349	4413
865.48	4512
865.612	4459
865.743	4603
865.875	4424
866.006	4432
866.137	4500
866.269	4459
866.4	4443
866.531	4398
866.662	4383
866.793	4402
866.924	4383
867.055	4478
867.186	4432
867.317	4421
867.448	4402
867.579	4379
867.71	4379
867.841	4375
867.972	4470
868.103	4455
868.233	4409
868.364	4451
868.495	4455
868.625	4656
868.756	4740
868.886	4573
869.017	4550
869.147	4752
869.278	4740
869.408	4630
869.539	4672
869.669	4721
869.799	4649
869.929	4771
870.06	4717
870.19	4972
870.32	4885
870.45	4942
870.58	5018
870.71	5075
870.84	5102
870.97	4980
871.1	4896
871.23	5094
871.36	5189
871.489	5014
871.619	5083
871.749	5121
871.879	5105
872.008	5155
872.138	5041
872.267	4938
872.397	4835
872.526	4812
872.656	4714
872.785	4812
872.915	4968
873.044	5006
873.173	4885
873.303	4953
873.432	4995
873.561	4984
873.69	4870
873.819	4843
873.948	4953
874.077	4835
874.206	4805
874.335	4740
874.464	4949
874.593	5048
874.722	4957
874.851	5094
874.979	5033
875.108	5010
875.237	4934
875.365	4866
875.494	4904
875.623	4961
875.751	4812
875.88	4873
876.008	4984
876.136	4999
876.265	5174
876.393	5311
876.521	5246
876.65	5212
876.778	5162
876.906	5060
877.034	4987
877.162	5075
877.29	5025
877.418	5064
877.546	5022
877.674	5029
877.802	4991
877.93	4995
878.058	4953
878.185	4858
878.313	4934
878.441	4915
878.568	4801
878.696	4911
878.824	4965
878.951	4976
879.079	5064
879.206	5296
879.333	5143
879.461	4953
879.588	4991
879.715	5067
879.842	5246
879.97	4976
880.097	4801
880.224	4736
880.351	4771
880.478	4854
880.605	4812
880.732	4782
880.859	5056
880.986	4896
881.112	4908
881.239	4759
881.366	4672
881.493	4596
881.619	4588
881.746	4592
881.872	4675
881.999	4622
882.125	4714
882.252	4805
882.378	4828
882.505	4976
882.631	4763
882.757	4664
882.883	4721
883.01	4740
883.136	4611
883.262	4592
883.388	4615
883.514	4824
883.64	4835
883.766	4790
883.892	4698
884.018	4714
884.143	4881
884.269	5010
884.395	4656
884.52	4668
884.646	4668
884.772	4630
884.897	4561
885.023	4649
885.148	4767
885.274	4831
885.399	4801
885.524	4729
885.65	4725
885.775	4725
885.9	4672
886.025	4870
886.15	4816
886.275	4725
886.4	4679
886.525	4714
886.65	4687
886.775	4698
886.9	4915
887.025	5018
887.149	4831
887.274	4603
887.399	4592
887.523	4580
887.648	4573
887.773	4580
887.897	4717
888.021	4812
888.146	4664
888.27	4790
888.395	4881
888.519	4816
888.643	4797
888.767	4774
888.891	4611
889.015	4596
889.139	4618
889.263	4569
889.387	4714
889.511	4831
889.635	4790
889.759	4592
889.883	4618
890.006	4694
890.13	4862
890.254	4607
890.377	4694
890.501	4516
890.624	4523
890.748	4649
890.871	4565
890.995	4443
891.118	4394
891.241	4569
891.364	4531
891.488	4637
891.611	4474
891.734	4531
891.857	4660
891.98	4550
892.103	4634
892.226	4615
892.349	4493
892.471	4390
892.594	4538
892.717	4603
892.839	4599
892.962	4615
893.085	4679
893.207	4611
893.33	4485
893.452	4561
893.575	4653
893.697	4523
893.819	4740
893.941	4797
894.064	4786
894.186	4596
894.308	4531
894.43	4714
894.552	4786
894.674	4748
894.796	4531
894.918	4565
895.04	4645
895.161	4702
895.283	4618
895.405	4603
895.526	4596
895.648	4675
895.769	4660
895.891	4736
896.012	4759
896.134	4710
896.255	4672
896.376	4599
896.498	4634
896.619	4679
896.74	4668
896.861	4668
896.982	4911
897.103	5071
897.224	4858
897.345	4740
897.466	4694
897.587	4710
897.708	4866
897.828	4752
897.949	4714
898.07	4584
898.19	4622
898.311	4793
898.431	4687
898.552	4736
898.672	4854
898.792	4797
898.913	4763
899.033	4618
899.153	4466
899.273	4413
899.393	4504
899.513	4527
899.633	4497
899.753	4527
899.873	4504
899.993	4580
900.113	4577
900.232	4603
900.352	4527
900.472	4481
900.591	4428
900.711	4478
900.83	4421
900.95	4569
901.069	4630
901.189	4584
901.308	4356
901.427	4299
901.546	4356
901.665	4436
901.784	4538
901.904	4398
902.023	4318
902.141	4196
902.26	4147
902.379	4249
902.498	4249
902.617	4207
902.735	4371
902.854	4402
902.973	4333
903.091	4211
903.21	4257
903.328	4348
903.446	4257
903.565	4265
903.683	4333
903.801	4261
903.919	4398
904.038	4481
904.156	4306
904.274	4455
904.392	4421
904.51	4386
904.627	4443
904.745	4531
904.863	4626
904.981	4398
905.098	4352
905.216	4371
905.334	4470
905.451	4440
905.569	4390
905.686	4573
905.803	4565
905.921	4386
906.038	4516
906.155	4474
906.272	4394
906.389	4459
906.506	4295
906.623	4371
906.74	4413
906.857	4299
906.974	4360
907.091	4527
907.208	4641
907.324	4599
907.441	4512
907.557	4333
907.674	4329
907.79	4329
907.907	4390
908.023	4451
908.139	4447
908.256	4413
908.372	4455
908.488	4432
908.604	4348
908.72	4318
908.836	4352
908.952	4344
909.068	4409
909.184	4569
909.3	4474
909.415	4546
909.531	4550
909.647	4337
909.762	4383
909.878	4318
909.993	4413
910.108	4379
910.224	4371
910.339	4512
910.454	4383
910.57	4424
910.685	4322
910.8	4668
910.915	4554
911.03	4481
911.145	4341
911.259	4333
911.374	4424
911.489	4246
911.604	4227
911.718	4158
911.833	4185
911.947	4055
912.062	4010
912.176	4139
912.291	4276
912.405	4230
912.519	4462
912.633	4436
912.748	4310
912.862	4261
912.976	4192
913.09	4093
913.204	4188
913.318	4211
913.431	4348
913.545	4390
913.659	4424
913.772	4360
913.886	4246
914	4188
914.113	4329
914.226	4428
914.34	4409
914.453	4257
914.566	4459
914.68	4287
914.793	4306
914.906	4173
915.019	4090
915.132	4124
915.245	4227
915.358	4211
915.47	4207
915.583	4215
915.696	4249
915.809	4421
915.921	4428
916.034	4257
916.146	4249
916.259	4173
916.371	4367
916.483	4386
916.595	4268
916.708	4265
916.82	4348
916.932	4314
917.044	4310
917.156	4333
917.268	4253
917.38	4249
917.491	4284
917.603	4333
917.715	4379
917.826	4417
917.938	4299
918.049	4211
918.161	4402
918.272	4550
918.384	4504
918.495	4447
918.606	4325
918.717	4242
918.828	4318
918.939	4348
919.05	4242
919.161	4333
919.272	4135
919.383	4223
919.494	4413
919.604	4653
919.715	4417
919.826	4352
919.936	4371
920.047	4508
920.157	4523
920.267	4736
920.378	4538
920.488	4504
920.598	4645
920.708	4911
920.818	4767
920.928	4710
921.038	4987
921.148	4949
921.258	4596
921.368	4561
921.477	4519
921.587	4485
921.697	4402
921.806	4573
921.916	4405
922.025	4272
922.134	4257
922.244	4207
922.353	4371
922.462	4204
922.571	4166
922.68	4036
922.789	4010
922.898	4051
923.007	3975
923.116	4090
923.224	4109
923.333	4082
923.442	4006
923.55	4010
923.659	4002
923.767	4082
923.876	3991
923.984	4169
924.092	3975
924.201	4093
924.309	4093
924.417	4147
924.525	4093
924.633	4101
924.741	5060
924.849	3892
924.956	4166
925.064	4021
925.172	3880
925.279	3991
925.387	4040
925.494	4063
925.602	4192
925.709	4196
925.816	4048
925.924	4105
926.031	4215
926.138	4196
926.245	4200
926.352	4093
926.459	4284
926.566	4291
926.673	4150
926.779	4074
926.886	4082
926.993	3964
927.099	3968
927.206	3949
927.312	3953
927.419	4078
927.525	4048
927.631	4128
927.737	3960
927.843	3945
927.95	3842
928.056	3918
928.162	3934
928.267	4067
928.373	4542
928.479	4131
928.585	3911
928.69	4055
928.796	4059
928.901	3896
929.007	3892
929.112	4040
929.218	3983
929.323	3937
929.428	3987
929.533	4071
929.638	3861
929.743	3968
929.848	4025
929.953	3979
930.058	3915
930.163	3781
930.267	3846
930.372	3945
930.477	3816
930.581	4040
930.685	3975
930.79	3762
930.894	3903
930.998	3835
931.103	4036
931.207	3717
931.311	3671
931.415	3705
931.519	3534
931.623	3553
