Data from test_V78500241_377.txt Node
Date: Fri Mar 25 16:51:37 CST 2022
User: usil
Spectrometer: V785-0024
Trigger mode: 0
Integration Time (sec): 4.000000E-1
Scans to average: 1
Nonlinearity correction enabled: false
Boxcar width: 0
Storing dark spectrum: false
XAxis mode: Wavelengths
Number of Pixels in Spectrum: 1024
>>>>>Begin Spectral Data<<<<<
801.071	8084
801.214	8130
801.356	7959
801.499	7955
801.641	7902
801.783	7879
801.926	8043
802.068	8012
802.211	8024
802.353	8062
802.496	7947
802.638	8001
802.78	7936
802.923	8001
803.065	7932
803.208	7864
803.35	8012
803.492	8176
803.635	8096
803.777	8035
803.919	8069
804.061	8518
804.204	8244
804.346	8142
804.488	8035
804.63	8134
804.773	8088
804.915	8168
805.057	8347
805.199	8206
805.341	8336
805.483	8309
805.626	8187
805.768	8126
805.91	8183
806.052	8271
806.194	8176
806.336	8408
806.478	8202
806.62	8168
806.762	8206
806.904	8259
807.046	8507
807.188	8423
807.33	8351
807.472	8279
807.614	8187
807.756	8149
807.898	8157
808.04	7967
808.182	8054
808.324	7925
808.465	8043
808.607	8111
808.749	8191
808.891	8210
809.033	8301
809.174	8248
809.316	8111
809.458	8081
809.6	8069
809.741	8088
809.883	8016
810.025	8157
810.166	8161
810.308	8073
810.45	8069
810.591	7852
810.733	7803
810.875	7780
811.016	7613
811.158	7567
811.299	7700
811.441	7856
811.582	7792
811.724	7666
811.865	7643
812.007	7727
812.148	7666
812.29	7689
812.431	7769
812.573	7936
812.714	8005
812.855	8168
812.997	8248
813.138	8362
813.279	8172
813.421	8115
813.562	8035
813.703	7940
813.845	7822
813.986	7605
814.127	7343
814.268	7346
814.41	7221
814.551	7266
814.692	7247
814.833	7141
814.974	7194
815.115	7164
815.256	6993
815.397	6958
815.539	7053
815.68	6920
815.821	6829
815.962	6897
816.103	6867
816.244	6814
816.385	6681
816.526	6673
816.666	6585
816.807	6365
816.948	6528
817.089	6513
817.23	6471
817.371	6464
817.512	6467
817.653	6414
817.793	6426
817.934	6521
818.075	6445
818.216	6467
818.356	6410
818.497	6296
818.638	6186
818.778	6220
818.919	6125
819.06	6213
819.2	6365
819.341	6369
819.481	6414
819.622	6566
819.762	6848
819.903	6738
820.043	6608
820.184	6620
820.324	6673
820.465	6703
820.605	6696
820.746	6627
820.886	6521
821.026	6753
821.167	6711
821.307	6814
821.447	6783
821.588	6722
821.728	6631
821.868	6521
822.008	6445
822.149	6407
822.289	6433
822.429	6186
822.569	6136
822.709	6197
822.849	5984
822.99	5931
823.13	5973
823.27	5973
823.41	5836
823.55	5790
823.69	5805
823.83	5863
823.97	5733
824.11	5649
824.25	5638
824.389	5585
824.529	5649
824.669	5600
824.809	5642
824.949	5695
825.089	5703
825.228	5615
825.368	5440
825.508	5345
825.648	5402
825.787	5364
825.927	5410
826.067	5337
826.206	5372
826.346	5429
826.485	5493
826.625	5455
826.765	5566
826.904	5509
827.044	5296
827.183	5277
827.323	5166
827.462	5277
827.601	5185
827.741	5242
827.88	5265
828.02	5181
828.159	5288
828.298	5360
828.437	5436
828.577	5269
828.716	5505
828.855	5372
828.994	5242
829.134	5193
829.273	5185
829.412	5204
829.551	5140
829.69	5258
829.829	5292
829.968	5448
830.107	5280
830.246	5357
830.385	5254
830.524	5132
830.663	5117
830.802	5033
830.941	4881
831.08	4919
831.219	5067
831.357	5018
831.496	5216
831.635	4938
831.774	4911
831.913	4881
832.051	4763
832.19	4778
832.329	4919
832.467	4778
832.606	4626
832.744	4740
832.883	4774
833.022	4736
833.16	4809
833.299	4839
833.437	4870
833.576	4915
833.714	4820
833.852	4915
833.991	4957
834.129	5022
834.267	4968
834.406	4930
834.544	5003
834.682	5006
834.821	4976
834.959	5189
835.097	5006
835.235	5204
835.373	5136
835.511	5124
835.65	5056
835.788	5064
835.926	4942
836.064	4915
836.202	4961
836.34	5181
836.478	5250
836.615	5143
836.753	5208
836.891	5334
837.029	5273
837.167	5193
837.305	5216
837.443	5155
837.58	5105
837.718	5372
837.856	5220
837.993	5212
838.131	5345
838.269	5208
838.406	5216
838.544	5227
838.681	5140
838.819	5006
838.956	4927
839.094	4968
839.231	5041
839.369	5121
839.506	5444
839.643	5273
839.781	5048
839.918	4995
840.055	5147
840.193	5086
840.33	5159
840.467	5155
840.604	5166
840.742	5452
840.879	5098
841.016	5113
841.153	5204
841.29	5448
841.427	5330
841.564	5334
841.701	5398
841.838	5311
841.975	5269
842.112	5284
842.249	5143
842.385	5105
842.522	5341
842.659	5208
842.796	5181
842.933	5212
843.069	5216
843.206	5162
843.343	5349
843.479	5307
843.616	5269
843.752	5067
843.889	5025
844.025	5242
844.162	5083
844.298	5212
844.435	5109
844.571	5060
844.708	5273
844.844	5337
844.98	5330
845.117	5265
845.253	5143
845.389	5128
845.525	5212
845.661	5162
845.798	5022
845.934	5094
846.07	5029
846.206	5231
846.342	5292
846.478	5208
846.614	5033
846.75	5056
846.886	4957
847.022	5189
847.158	5029
847.294	5052
847.429	5102
847.565	5064
847.701	5372
847.837	4896
847.972	4828
848.108	4953
848.244	4972
848.379	4820
848.515	4778
848.65	4782
848.786	4755
848.921	4820
849.057	4870
849.192	4938
849.328	4820
849.463	4854
849.598	4835
849.734	4793
849.869	4748
850.004	4679
850.14	4691
850.275	4611
850.41	4542
850.545	4573
850.68	4603
850.815	4653
850.95	4664
851.085	4862
851.22	4790
851.355	4675
851.49	4630
851.625	4653
851.76	4706
851.895	4584
852.03	4558
852.165	4679
852.299	4721
852.434	4797
852.569	4759
852.703	4797
852.838	4862
852.973	5003
853.107	4908
853.242	4782
853.376	4721
853.511	4554
853.645	4618
853.78	4809
853.914	4729
854.048	4668
854.183	4675
854.317	4729
854.451	4881
854.585	4714
854.72	4672
854.854	4839
854.988	4599
855.122	4645
855.256	4523
855.39	4698
855.524	4771
855.658	4702
855.792	4736
855.926	4763
856.06	4748
856.194	4839
856.327	4710
856.461	4622
856.595	4664
856.729	4649
856.862	4736
856.996	4725
857.13	4755
857.263	4797
857.397	4782
857.53	4656
857.664	4744
857.797	4771
857.931	4752
858.064	4694
858.197	4790
858.331	4668
858.464	4645
858.597	4554
858.731	4660
858.864	4675
858.997	4588
859.13	4679
859.263	4702
859.396	4725
859.529	4607
859.662	4615
859.795	4565
859.928	4618
860.061	4839
860.194	4793
860.327	4653
860.46	4626
860.592	4744
860.725	4740
860.858	4710
860.99	4634
861.123	4542
861.256	4542
861.388	4611
861.521	5334
861.653	4497
861.786	4447
861.918	4500
862.05	4531
862.183	4561
862.315	4710
862.447	4683
862.58	4584
862.712	4451
862.844	4318
862.976	4493
863.108	4542
863.24	4828
863.372	4341
863.504	4447
863.636	4440
863.768	4485
863.9	4398
864.032	4352
864.164	4379
864.296	4527
864.428	4569
864.559	4538
864.691	4542
864.823	4516
864.954	4497
865.086	4527
865.217	4504
865.349	4436
865.48	4500
865.612	4546
865.743	4641
865.875	4535
866.006	4470
866.137	4478
866.269	4478
866.4	4443
866.531	4459
866.662	4478
866.793	4443
866.924	4466
867.055	4512
867.186	4474
867.317	4424
867.448	4421
867.579	4424
867.71	4402
867.841	4405
867.972	4474
868.103	4527
868.233	4489
868.364	4462
868.495	4474
868.625	4710
868.756	4759
868.886	4584
869.017	4679
869.147	4805
869.278	4759
869.408	4698
869.539	4679
869.669	4710
869.799	4710
869.929	4801
870.06	4752
870.19	4976
870.32	4942
870.45	4911
870.58	5045
870.71	5128
870.84	5166
870.97	4995
871.1	4881
871.23	5193
871.36	5113
871.489	5037
871.619	5090
871.749	5132
871.879	5155
872.008	5181
872.138	5060
872.267	4961
872.397	4858
872.526	4866
872.656	4763
872.785	4847
872.915	4930
873.044	5052
873.173	4938
873.303	4968
873.432	5003
873.561	5029
873.69	4892
873.819	4896
873.948	4927
874.077	4847
874.206	4752
874.335	4805
874.464	4953
874.593	5105
874.722	4984
874.851	5159
874.979	5071
875.108	5052
875.237	4904
875.365	4892
875.494	4900
875.623	5003
875.751	4782
875.88	4908
876.008	4968
876.136	5029
876.265	5178
876.393	5326
876.521	5292
876.65	5280
876.778	5201
876.906	5052
877.034	5041
877.162	5098
877.29	5003
877.418	5109
877.546	5060
877.674	5067
877.802	5045
877.93	5086
878.058	4957
878.185	4942
878.313	4987
878.441	5022
878.568	4839
878.696	4896
878.824	4961
878.951	5010
879.079	5143
879.206	5277
879.333	5140
879.461	5010
879.588	4999
879.715	5159
879.842	5208
879.97	5006
880.097	4793
880.224	4793
880.351	4862
880.478	4839
880.605	4854
880.732	4812
880.859	5056
880.986	4938
881.112	4934
881.239	4793
881.366	4679
881.493	4668
881.619	4649
881.746	4660
881.872	4649
881.999	4668
882.125	4698
882.252	4778
882.378	4850
882.505	4957
882.631	4801
882.757	4660
882.883	4717
883.01	4729
883.136	4649
883.262	4653
883.388	4649
883.514	4843
883.64	4847
883.766	4778
883.892	4672
884.018	4706
884.143	4934
884.269	5014
884.395	4729
884.52	4615
884.646	4622
884.772	4550
884.897	4580
885.023	4660
885.148	4820
885.274	4854
885.399	4797
885.524	4729
885.65	4763
885.775	4706
885.9	4729
886.025	4900
886.15	4790
886.275	4744
886.4	4675
886.525	4740
886.65	4710
886.775	4649
886.9	4904
887.025	5060
887.149	4831
887.274	4679
887.399	4615
887.523	4637
887.648	4599
887.773	4596
887.897	4733
888.021	4820
888.146	4721
888.27	4797
888.395	4908
888.519	4801
888.643	4816
888.767	4835
888.891	4687
889.015	4630
889.139	4679
889.263	4611
889.387	4767
889.511	4892
889.635	4778
889.759	4679
889.883	4698
890.006	4721
890.13	4839
890.254	4626
890.377	4725
890.501	4569
890.624	4550
890.748	4649
890.871	4474
890.995	4455
891.118	4390
891.241	4516
891.364	4558
891.488	4611
891.611	4497
891.734	4577
891.857	4626
891.98	4565
892.103	4645
892.226	4634
892.349	4516
892.471	4421
892.594	4546
892.717	4561
892.839	4580
892.962	4615
893.085	4634
893.207	4599
893.33	4485
893.452	4573
893.575	4691
893.697	4580
893.819	4812
893.941	4881
894.064	4782
894.186	4527
894.308	4577
894.43	4793
894.552	4892
894.674	4683
894.796	4622
894.918	4637
895.04	4569
895.161	4714
895.283	4717
895.405	4577
895.526	4645
895.648	4721
895.769	4672
895.891	4740
896.012	4717
896.134	4721
896.255	4733
896.376	4656
896.498	4618
896.619	4706
896.74	4611
896.861	4653
896.982	4908
897.103	5041
897.224	4805
897.345	4691
897.466	4660
897.587	4733
897.708	4889
897.828	4793
897.949	4664
898.07	4584
898.19	4645
898.311	4801
898.431	4710
898.552	4702
898.672	4805
898.792	4828
898.913	4717
899.033	4668
899.153	4443
899.273	4447
899.393	4504
899.513	4519
899.633	4504
899.753	4523
899.873	4466
899.993	4641
900.113	4512
900.232	4561
900.352	4508
900.472	4485
900.591	4405
900.711	4489
900.83	4447
900.95	4607
901.069	4649
901.189	4550
901.308	4402
901.427	4367
901.546	4379
901.665	4466
901.784	4527
901.904	4428
902.023	4325
902.141	4227
902.26	4147
902.379	4287
902.498	4249
902.617	4234
902.735	4386
902.854	4386
902.973	4367
903.091	4204
903.21	4249
903.328	4318
903.446	4257
903.565	4249
903.683	4367
903.801	4303
903.919	4394
904.038	4413
904.156	4306
904.274	4424
904.392	4383
904.51	4470
904.627	4459
904.745	4565
904.863	4626
904.981	4409
905.098	4352
905.216	4398
905.334	4443
905.451	4402
905.569	4405
905.686	4584
905.803	4577
905.921	4405
906.038	4516
906.155	4504
906.272	4405
906.389	4485
906.506	4402
906.623	4322
906.74	4383
906.857	4303
906.974	4405
907.091	4565
907.208	4683
907.324	4611
907.441	4459
907.557	4360
907.674	4356
907.79	4329
907.907	4341
908.023	4455
908.139	4489
908.256	4451
908.372	4500
908.488	4478
908.604	4329
908.72	4303
908.836	4360
908.952	4390
909.068	4421
909.184	4569
909.3	4493
909.415	4596
909.531	4550
909.647	4344
909.762	4356
909.878	4379
909.993	4436
910.108	4470
910.224	4455
910.339	4538
910.454	4424
910.57	4371
910.685	4299
910.8	4668
910.915	4626
911.03	4481
911.145	4299
911.259	4352
911.374	4337
911.489	4276
911.604	4284
911.718	4143
911.833	4200
911.947	4112
912.062	4051
912.176	4196
912.291	4295
912.405	4257
912.519	4451
912.633	4504
912.748	4379
912.862	4341
912.976	4238
913.09	4105
913.204	4166
913.318	4272
913.431	4333
913.545	4352
913.659	4440
913.772	4398
913.886	4261
914	4173
914.113	4386
914.226	4417
914.34	4371
914.453	4246
914.566	4443
914.68	4295
914.793	4344
914.906	4154
915.019	4135
915.132	4071
915.245	4158
915.358	4200
915.47	4261
915.583	4261
915.696	4299
915.809	4402
915.921	4398
916.034	4261
916.146	4227
916.259	4249
916.371	4409
916.483	4402
916.595	4261
916.708	4333
916.82	4379
916.932	4329
917.044	4322
917.156	4371
917.268	4306
917.38	4310
917.491	4276
917.603	4371
917.715	4470
917.826	4440
917.938	4337
918.049	4227
918.161	4432
918.272	4516
918.384	4596
918.495	4440
918.606	4310
918.717	4268
918.828	4367
918.939	4303
919.05	4265
919.161	4314
919.272	4143
919.383	4238
919.494	4436
919.604	4641
919.715	4394
919.826	4344
919.936	4375
920.047	4546
920.157	4497
920.267	4744
920.378	4531
920.488	4500
920.598	4717
920.708	4854
920.818	4790
920.928	4733
921.038	4976
921.148	4915
921.258	4664
921.368	4542
921.477	4504
921.587	4455
921.697	4413
921.806	4542
921.916	4485
922.025	4287
922.134	4276
922.244	4223
922.353	4333
922.462	4158
922.571	4131
922.68	4017
922.789	3994
922.898	4059
923.007	3991
923.116	4086
923.224	4074
923.333	4078
923.442	4006
923.55	3998
923.659	4002
923.767	4097
923.876	4032
923.984	4120
924.092	3968
924.201	4082
924.309	4074
924.417	4112
924.525	4044
924.633	4112
924.741	4927
924.849	3915
924.956	4109
925.064	3930
925.172	3907
925.279	3964
925.387	4067
925.494	4116
925.602	4230
925.709	4158
925.816	4048
925.924	4154
926.031	4173
926.138	4143
926.245	4242
926.352	4071
926.459	4246
926.566	4306
926.673	4173
926.779	4093
926.886	4082
926.993	3979
927.099	3960
927.206	3903
927.312	3911
927.419	4086
927.525	4021
927.631	4078
927.737	3998
927.843	3945
927.95	3846
928.056	3956
928.162	3991
928.267	4071
928.373	4733
928.479	4101
928.585	3812
928.69	3998
928.796	4093
928.901	3968
929.007	3876
929.112	4029
929.218	3991
929.323	3907
929.428	3926
929.533	4143
929.638	3903
929.743	3915
929.848	4078
929.953	4032
930.058	3911
930.163	3778
930.267	3789
930.372	4010
930.477	3732
930.581	4082
930.685	3991
930.79	3808
930.894	3915
930.998	3873
931.103	4025
931.207	3724
931.311	3671
931.415	3724
931.519	3549
931.623	3519
