Data from test_V78500241_2681.txt Node
Date: Fri Mar 25 17:07:38 CST 2022
User: usil
Spectrometer: V785-0024
Trigger mode: 0
Integration Time (sec): 4.000000E-1
Scans to average: 1
Nonlinearity correction enabled: false
Boxcar width: 0
Storing dark spectrum: false
XAxis mode: Wavelengths
Number of Pixels in Spectrum: 1024
>>>>>Begin Spectral Data<<<<<
801.071	8058
801.214	8043
801.356	7940
801.499	7784
801.641	7871
801.783	7936
801.926	7982
802.068	7967
802.211	8024
802.353	8005
802.496	7860
802.638	7932
802.78	7959
802.923	7913
803.065	7970
803.208	7909
803.35	8024
803.492	8115
803.635	8229
803.777	8119
803.919	8100
804.061	8446
804.204	8172
804.346	8096
804.488	8035
804.63	8058
804.773	8069
804.915	8149
805.057	8259
805.199	8100
805.341	8191
805.483	8294
805.626	8214
805.768	8084
805.91	8252
806.052	8214
806.194	8084
806.336	8271
806.478	8130
806.62	8027
806.762	8123
806.904	8233
807.046	8423
807.188	8339
807.33	8298
807.472	8305
807.614	8248
807.756	8153
807.898	7974
808.04	7909
808.182	7871
808.324	7917
808.465	7932
808.607	8096
808.749	8286
808.891	8317
809.033	8275
809.174	8210
809.316	8092
809.458	8016
809.6	8092
809.741	8001
809.883	8069
810.025	8123
810.166	8138
810.308	8043
810.45	8035
810.591	7944
810.733	7708
810.875	7624
811.016	7582
811.158	7518
811.299	7594
811.441	7750
811.582	7704
811.724	7559
811.865	7578
812.007	7677
812.148	7582
812.29	7639
812.431	7761
812.573	7951
812.714	8016
812.855	8020
812.997	8202
813.138	8290
813.279	8225
813.421	8153
813.562	8035
813.703	7955
813.845	7772
813.986	7445
814.127	7312
814.268	7244
814.41	7228
814.551	7198
814.692	7228
814.833	7072
814.974	7050
815.115	7107
815.256	6947
815.397	6947
815.539	7019
815.68	6833
815.821	6757
815.962	6852
816.103	6806
816.244	6757
816.385	6589
816.526	6593
816.666	6521
816.807	6308
816.948	6445
817.089	6506
817.23	6490
817.371	6391
817.512	6327
817.653	6391
817.793	6384
817.934	6452
818.075	6563
818.216	6441
818.356	6418
818.497	6247
818.638	6144
818.778	6194
818.919	6152
819.06	6220
819.2	6323
819.341	6285
819.481	6388
819.622	6490
819.762	6745
819.903	6757
820.043	6673
820.184	6635
820.324	6612
820.465	6711
820.605	6639
820.746	6631
820.886	6506
821.026	6662
821.167	6760
821.307	6840
821.447	6749
821.588	6677
821.728	6608
821.868	6517
822.008	6346
822.149	6399
822.289	6369
822.429	6129
822.569	6049
822.709	6152
822.849	5958
822.99	5901
823.13	5931
823.27	5901
823.41	5771
823.55	5809
823.69	5779
823.83	5824
823.97	5600
824.11	5566
824.25	5471
824.389	5543
824.529	5608
824.669	5554
824.809	5638
824.949	5604
825.089	5604
825.228	5524
825.368	5368
825.508	5326
825.648	5341
825.787	5406
825.927	5357
826.067	5376
826.206	5341
826.346	5440
826.485	5425
826.625	5379
826.765	5539
826.904	5505
827.044	5303
827.183	5151
827.323	5102
827.462	5284
827.601	5128
827.741	5212
827.88	5254
828.02	5121
828.159	5227
828.298	5341
828.437	5414
828.577	5265
828.716	5535
828.855	5330
828.994	5197
829.134	5193
829.273	5235
829.412	5132
829.551	5083
829.69	5162
829.829	5216
829.968	5357
830.107	5261
830.246	5239
830.385	5197
830.524	5128
830.663	5064
830.802	4961
830.941	4908
831.08	4835
831.219	4972
831.357	4976
831.496	5136
831.635	4984
831.774	4858
831.913	4881
832.051	4729
832.19	4656
832.329	4870
832.467	4729
832.606	4615
832.744	4748
832.883	4736
833.022	4683
833.16	4763
833.299	4835
833.437	4831
833.576	4858
833.714	4881
833.852	4896
833.991	4885
834.129	4938
834.267	4999
834.406	4915
834.544	4999
834.682	4995
834.821	4938
834.959	5098
835.097	5010
835.235	5185
835.373	5083
835.511	5079
835.65	5029
835.788	4987
835.926	4854
836.064	4915
836.202	4915
836.34	5124
836.478	5269
836.615	5174
836.753	5212
836.891	5303
837.029	5284
837.167	5258
837.305	5132
837.443	5197
837.58	5079
837.718	5258
837.856	5166
837.993	5105
838.131	5235
838.269	5208
838.406	5174
838.544	5193
838.681	5079
838.819	5006
838.956	4900
839.094	4881
839.231	5010
839.369	4999
839.506	5395
839.643	5345
839.781	5056
839.918	5037
840.055	5159
840.193	5071
840.33	5083
840.467	5109
840.604	5197
840.742	5391
840.879	5117
841.016	5086
841.153	5181
841.29	5364
841.427	5330
841.564	5299
841.701	5345
841.838	5277
841.975	5216
842.112	5299
842.249	5121
842.385	5109
842.522	5318
842.659	5162
842.796	5181
842.933	5201
843.069	5136
843.206	5151
843.343	5292
843.479	5242
843.616	5235
843.752	5075
843.889	5006
844.025	5261
844.162	5006
844.298	5185
844.435	5067
844.571	5022
844.708	5208
844.844	5292
844.98	5326
845.117	5269
845.253	5147
845.389	5056
845.525	5166
845.661	5159
845.798	5037
845.934	5132
846.07	5075
846.206	5216
846.342	5315
846.478	5201
846.614	5003
846.75	4946
846.886	4965
847.022	5147
847.158	5033
847.294	5064
847.429	5102
847.565	5056
847.701	5364
847.837	4854
847.972	4782
848.108	4946
848.244	4934
848.379	4763
848.515	4717
848.65	4733
848.786	4744
848.921	4774
849.057	4911
849.192	4911
849.328	4831
849.463	4816
849.598	4790
849.734	4790
849.869	4698
850.004	4641
850.14	4622
850.275	4637
850.41	4542
850.545	4561
850.68	4622
850.815	4637
850.95	4599
851.085	4854
851.22	4748
851.355	4687
851.49	4679
851.625	4634
851.76	4611
851.895	4519
852.03	4569
852.165	4668
852.299	4763
852.434	4816
852.569	4725
852.703	4771
852.838	4858
852.973	4900
853.107	4904
853.242	4752
853.376	4721
853.511	4592
853.645	4622
853.78	4782
853.914	4660
854.048	4679
854.183	4668
854.317	4729
854.451	4911
854.585	4668
854.72	4687
854.854	4717
854.988	4622
855.122	4668
855.256	4523
855.39	4637
855.524	4793
855.658	4714
855.792	4691
855.926	4698
856.06	4809
856.194	4801
856.327	4706
856.461	4588
856.595	4599
856.729	4622
856.862	4752
856.996	4714
857.13	4694
857.263	4755
857.397	4805
857.53	4637
857.664	4748
857.797	4790
857.931	4767
858.064	4660
858.197	4744
858.331	4607
858.464	4607
858.597	4508
858.731	4656
858.864	4596
858.997	4577
859.13	4668
859.263	4683
859.396	4714
859.529	4573
859.662	4546
859.795	4554
859.928	4615
860.061	4771
860.194	4774
860.327	4577
860.46	4584
860.592	4778
860.725	4714
860.858	4733
860.99	4550
861.123	4485
861.256	4500
861.388	4622
861.521	5303
861.653	4485
861.786	4386
861.918	4466
862.05	4538
862.183	4546
862.315	4577
862.447	4622
862.58	4512
862.712	4360
862.844	4322
862.976	4493
863.108	4459
863.24	4816
863.372	4306
863.504	4440
863.636	4398
863.768	4546
863.9	4440
864.032	4417
864.164	4402
864.296	4527
864.428	4519
864.559	4573
864.691	4527
864.823	4554
864.954	4497
865.086	4443
865.217	4455
865.349	4379
865.48	4436
865.612	4489
865.743	4679
865.875	4474
866.006	4474
866.137	4508
866.269	4459
866.4	4462
866.531	4421
866.662	4371
866.793	4443
866.924	4375
867.055	4535
867.186	4428
867.317	4409
867.448	4432
867.579	4409
867.71	4386
867.841	4344
867.972	4455
868.103	4443
868.233	4478
868.364	4413
868.495	4451
868.625	4622
868.756	4786
868.886	4599
869.017	4580
869.147	4786
869.278	4755
869.408	4649
869.539	4618
869.669	4687
869.799	4634
869.929	4752
870.06	4694
870.19	4938
870.32	4911
870.45	5003
870.58	4957
870.71	5052
870.84	5098
870.97	4942
871.1	4870
871.23	5166
871.36	5117
871.489	5052
871.619	5060
871.749	5162
871.879	5098
872.008	5162
872.138	5041
872.267	5006
872.397	4892
872.526	4820
872.656	4759
872.785	4824
872.915	4938
873.044	4984
873.173	4942
873.303	4984
873.432	4984
873.561	4919
873.69	4881
873.819	4835
873.948	4919
874.077	4793
874.206	4706
874.335	4793
874.464	4946
874.593	5098
874.722	4923
874.851	5075
874.979	5079
875.108	5064
875.237	4972
875.365	4866
875.494	4881
875.623	4995
875.751	4816
875.88	4858
876.008	4984
876.136	5064
876.265	5227
876.393	5280
876.521	5254
876.65	5189
876.778	5121
876.906	5056
877.034	5052
877.162	5037
877.29	5003
877.418	5056
877.546	5029
877.674	5048
877.802	5041
877.93	5041
878.058	4976
878.185	4889
878.313	4980
878.441	4938
878.568	4835
878.696	4850
878.824	4953
878.951	4984
879.079	5140
879.206	5250
879.333	5102
879.461	5003
879.588	4984
879.715	5090
879.842	5220
879.97	4995
880.097	4809
880.224	4721
880.351	4790
880.478	4828
880.605	4778
880.732	4778
880.859	5102
880.986	4900
881.112	4900
881.239	4782
881.366	4702
881.493	4645
881.619	4584
881.746	4641
881.872	4607
881.999	4649
882.125	4694
882.252	4714
882.378	4816
882.505	4934
882.631	4778
882.757	4664
882.883	4744
883.01	4714
883.136	4702
883.262	4618
883.388	4603
883.514	4858
883.64	4839
883.766	4790
883.892	4664
884.018	4782
884.143	4870
884.269	4984
884.395	4710
884.52	4656
884.646	4599
884.772	4580
884.897	4535
885.023	4706
885.148	4801
885.274	4877
885.399	4835
885.524	4717
885.65	4660
885.775	4733
885.9	4706
886.025	4904
886.15	4812
886.275	4694
886.4	4675
886.525	4733
886.65	4664
886.775	4675
886.9	4908
887.025	5064
887.149	4790
887.274	4683
887.399	4618
887.523	4611
887.648	4538
887.773	4584
887.897	4748
888.021	4778
888.146	4660
888.27	4843
888.395	4949
888.519	4782
888.643	4805
888.767	4843
888.891	4649
889.015	4660
889.139	4672
889.263	4550
889.387	4771
889.511	4812
889.635	4816
889.759	4637
889.883	4649
890.006	4759
890.13	4812
890.254	4653
890.377	4683
890.501	4542
890.624	4531
890.748	4592
890.871	4504
890.995	4432
891.118	4405
891.241	4546
891.364	4527
891.488	4592
891.611	4538
891.734	4493
891.857	4592
891.98	4531
892.103	4641
892.226	4592
892.349	4519
892.471	4436
892.594	4550
892.717	4660
892.839	4588
892.962	4653
893.085	4660
893.207	4607
893.33	4409
893.452	4481
893.575	4637
893.697	4519
893.819	4835
893.941	4809
894.064	4778
894.186	4596
894.308	4588
894.43	4748
894.552	4843
894.674	4744
894.796	4569
894.918	4622
895.04	4546
895.161	4717
895.283	4649
895.405	4584
895.526	4656
895.648	4687
895.769	4672
895.891	4721
896.012	4755
896.134	4763
896.255	4641
896.376	4656
896.498	4634
896.619	4675
896.74	4618
896.861	4649
896.982	4946
897.103	5086
897.224	4858
897.345	4755
897.466	4668
897.587	4736
897.708	4862
897.828	4793
897.949	4675
898.07	4531
898.19	4630
898.311	4847
898.431	4725
898.552	4721
898.672	4820
898.792	4812
898.913	4675
899.033	4622
899.153	4428
899.273	4443
899.393	4497
899.513	4504
899.633	4519
899.753	4538
899.873	4500
899.993	4634
900.113	4512
900.232	4603
900.352	4558
900.472	4485
900.591	4447
900.711	4455
900.83	4413
900.95	4588
901.069	4649
901.189	4554
901.308	4379
901.427	4310
901.546	4386
901.665	4485
901.784	4542
901.904	4390
902.023	4367
902.141	4211
902.26	4188
902.379	4318
902.498	4268
902.617	4253
902.735	4367
902.854	4383
902.973	4325
903.091	4169
903.21	4227
903.328	4337
903.446	4265
903.565	4200
903.683	4341
903.801	4257
903.919	4341
904.038	4421
904.156	4333
904.274	4394
904.392	4390
904.51	4428
904.627	4451
904.745	4580
904.863	4630
904.981	4424
905.098	4306
905.216	4348
905.334	4459
905.451	4413
905.569	4421
905.686	4592
905.803	4561
905.921	4424
906.038	4550
906.155	4451
906.272	4386
906.389	4470
906.506	4379
906.623	4379
906.74	4390
906.857	4329
906.974	4356
907.091	4550
907.208	4675
907.324	4630
907.441	4466
907.557	4329
907.674	4299
907.79	4314
907.907	4348
908.023	4489
908.139	4508
908.256	4409
908.372	4493
908.488	4436
908.604	4329
908.72	4341
908.836	4363
908.952	4363
909.068	4394
909.184	4569
909.3	4478
909.415	4577
909.531	4550
909.647	4352
909.762	4402
909.878	4363
909.993	4398
910.108	4386
910.224	4394
910.339	4519
910.454	4413
910.57	4390
910.685	4360
910.8	4630
910.915	4607
911.03	4497
911.145	4348
911.259	4284
911.374	4333
911.489	4314
911.604	4276
911.718	4188
911.833	4173
911.947	4112
912.062	4051
912.176	4227
912.291	4253
912.405	4211
912.519	4409
912.633	4500
912.748	4344
912.862	4287
912.976	4238
913.09	4097
913.204	4192
913.318	4211
913.431	4379
913.545	4417
913.659	4383
913.772	4363
913.886	4242
914	4223
914.113	4394
914.226	4405
914.34	4363
914.453	4242
914.566	4466
914.68	4261
914.793	4329
914.906	4158
915.019	4135
915.132	4051
915.245	4246
915.358	4223
915.47	4253
915.583	4272
915.696	4295
915.809	4367
915.921	4428
916.034	4253
916.146	4207
916.259	4200
916.371	4371
916.483	4402
916.595	4299
916.708	4318
916.82	4325
916.932	4341
917.044	4322
917.156	4325
917.268	4223
917.38	4295
917.491	4291
917.603	4287
917.715	4443
917.826	4447
917.938	4333
918.049	4261
918.161	4383
918.272	4554
918.384	4535
918.495	4474
918.606	4299
918.717	4261
918.828	4386
918.939	4360
919.05	4253
919.161	4337
919.272	4139
919.383	4268
919.494	4447
919.604	4615
919.715	4478
919.826	4375
919.936	4356
920.047	4474
920.157	4481
920.267	4694
920.378	4535
920.488	4489
920.598	4706
920.708	4938
920.818	4767
920.928	4763
921.038	4927
921.148	4919
921.258	4603
921.368	4592
921.477	4462
921.587	4443
921.697	4390
921.806	4504
921.916	4440
922.025	4265
922.134	4299
922.244	4238
922.353	4280
922.462	4181
922.571	4086
922.68	4017
922.789	3956
922.898	4029
923.007	3972
923.116	4093
923.224	4051
923.333	4059
923.442	3994
923.55	3987
923.659	3998
923.767	4097
923.876	4032
923.984	4112
924.092	4029
924.201	4074
924.309	4078
924.417	4112
924.525	4017
924.633	4082
924.741	5056
924.849	3899
924.956	4124
925.064	3983
925.172	3934
925.279	3941
925.387	4040
925.494	4074
925.602	4143
925.709	4188
925.816	4006
925.924	4154
926.031	4230
926.138	4147
926.245	4192
926.352	4090
926.459	4227
926.566	4344
926.673	4131
926.779	4071
926.886	4101
926.993	3937
927.099	3968
927.206	3934
927.312	3903
927.419	4055
927.525	4036
927.631	4093
927.737	3998
927.843	3945
927.95	3827
928.056	3926
928.162	4013
928.267	4059
928.373	4603
928.479	4078
928.585	3842
928.69	4044
928.796	4109
928.901	4040
929.007	3857
929.112	3956
929.218	3968
929.323	3922
929.428	3968
929.533	4143
929.638	3903
929.743	3956
929.848	4082
929.953	3968
930.058	3899
930.163	3759
930.267	3823
930.372	3953
930.477	3770
930.581	4101
930.685	3937
930.79	3831
930.894	3934
930.998	3854
931.103	4055
931.207	3713
931.311	3705
931.415	3686
931.519	3549
931.623	3534
