Data from test_V78500241_2045.txt Node
Date: Fri Mar 25 17:03:13 CST 2022
User: usil
Spectrometer: V785-0024
Trigger mode: 0
Integration Time (sec): 4.000000E-1
Scans to average: 1
Nonlinearity correction enabled: false
Boxcar width: 0
Storing dark spectrum: false
XAxis mode: Wavelengths
Number of Pixels in Spectrum: 1024
>>>>>Begin Spectral Data<<<<<
801.071	7879
801.214	8005
801.356	7826
801.499	7864
801.641	7753
801.783	7818
801.926	7955
802.068	7967
802.211	8012
802.353	7997
802.496	7879
802.638	7795
802.78	7898
802.923	7883
803.065	7852
803.208	7906
803.35	7959
803.492	8058
803.635	8092
803.777	8073
803.919	8161
804.061	8389
804.204	8195
804.346	8084
804.488	7997
804.63	8081
804.773	7974
804.915	8065
805.057	8275
805.199	8183
805.341	8195
805.483	8248
805.626	8164
805.768	8123
805.91	8221
806.052	8195
806.194	8107
806.336	8294
806.478	8145
806.62	8046
806.762	8157
806.904	8320
807.046	8488
807.188	8400
807.33	8271
807.472	8355
807.614	8206
807.756	8130
807.898	7997
808.04	7879
808.182	7871
808.324	7875
808.465	7921
808.607	8077
808.749	8123
808.891	8214
809.033	8366
809.174	8233
809.316	8115
809.458	8096
809.6	7993
809.741	8024
809.883	8008
810.025	7982
810.166	7989
810.308	8001
810.45	7951
810.591	7715
810.733	7753
810.875	7613
811.016	7518
811.158	7400
811.299	7464
811.441	7715
811.582	7647
811.724	7639
811.865	7540
812.007	7605
812.148	7590
812.29	7575
812.431	7769
812.573	7928
812.714	7986
812.855	8111
812.997	8199
813.138	8305
813.279	8172
813.421	8008
813.562	7970
813.703	7784
813.845	7700
813.986	7464
814.127	7251
814.268	7160
814.41	7175
814.551	7156
814.692	7206
814.833	7099
814.974	7122
815.115	7072
815.256	6939
815.397	6993
815.539	6913
815.68	6757
815.821	6738
815.962	6867
816.103	6753
816.244	6646
816.385	6593
816.526	6642
816.666	6475
816.807	6334
816.948	6399
817.089	6479
817.23	6467
817.371	6346
817.512	6353
817.653	6410
817.793	6365
817.934	6456
818.075	6426
818.216	6376
818.356	6445
818.497	6254
818.638	6129
818.778	6133
818.919	6102
819.06	6121
819.2	6281
819.341	6323
819.481	6388
819.622	6525
819.762	6787
819.903	6673
820.043	6555
820.184	6604
820.324	6555
820.465	6654
820.605	6711
820.746	6658
820.886	6517
821.026	6677
821.167	6604
821.307	6787
821.447	6791
821.588	6631
821.728	6585
821.868	6471
822.008	6277
822.149	6315
822.289	6350
822.429	6110
822.569	6076
822.709	6167
822.849	5920
822.99	5855
823.13	5939
823.27	5942
823.41	5786
823.55	5775
823.69	5737
823.83	5764
823.97	5615
824.11	5490
824.25	5474
824.389	5520
824.529	5532
824.669	5543
824.809	5638
824.949	5688
825.089	5627
825.228	5543
825.368	5368
825.508	5334
825.648	5307
825.787	5364
825.927	5406
826.067	5288
826.206	5330
826.346	5387
826.485	5391
826.625	5436
826.765	5532
826.904	5535
827.044	5250
827.183	5185
827.323	5105
827.462	5261
827.601	5208
827.741	5166
827.88	5212
828.02	5071
828.159	5231
828.298	5258
828.437	5341
828.577	5250
828.716	5482
828.855	5360
828.994	5170
829.134	5132
829.273	5181
829.412	5185
829.551	5090
829.69	5166
829.829	5242
829.968	5383
830.107	5265
830.246	5277
830.385	5193
830.524	5098
830.663	5060
830.802	4984
830.941	4908
831.08	4877
831.219	4923
831.357	5014
831.496	5147
831.635	4930
831.774	4839
831.913	4896
832.051	4668
832.19	4740
832.329	4805
832.467	4706
832.606	4626
832.744	4710
832.883	4729
833.022	4744
833.16	4763
833.299	4790
833.437	4805
833.576	4828
833.714	4843
833.852	4923
833.991	4858
834.129	4946
834.267	5003
834.406	4858
834.544	4987
834.682	4980
834.821	4972
834.959	5151
835.097	4972
835.235	5155
835.373	5098
835.511	5136
835.65	4999
835.788	4980
835.926	4919
836.064	4881
836.202	4915
836.34	5231
836.478	5204
836.615	5075
836.753	5212
836.891	5239
837.029	5227
837.167	5250
837.305	5159
837.443	5128
837.58	5075
837.718	5208
837.856	5197
837.993	5193
838.131	5216
838.269	5189
838.406	5223
838.544	5136
838.681	5037
838.819	4984
838.956	4839
839.094	4908
839.231	4968
839.369	5071
839.506	5417
839.643	5261
839.781	5048
839.918	4965
840.055	5052
840.193	5071
840.33	5037
840.467	5128
840.604	5185
840.742	5452
840.879	5132
841.016	5056
841.153	5132
841.29	5364
841.427	5315
841.564	5318
841.701	5349
841.838	5239
841.975	5151
842.112	5231
842.249	5128
842.385	5064
842.522	5242
842.659	5147
842.796	5140
842.933	5166
843.069	5174
843.206	5178
843.343	5326
843.479	5193
843.616	5242
843.752	5079
843.889	5006
844.025	5231
844.162	4995
844.298	5212
844.435	5067
844.571	5029
844.708	5204
844.844	5337
844.98	5292
845.117	5341
845.253	5136
845.389	5014
845.525	5159
845.661	5136
845.798	5018
845.934	5140
846.07	5056
846.206	5197
846.342	5307
846.478	5201
846.614	4972
846.75	4961
846.886	4900
847.022	5094
847.158	4980
847.294	5037
847.429	5090
847.565	5018
847.701	5311
847.837	4816
847.972	4805
848.108	4942
848.244	4949
848.379	4782
848.515	4710
848.65	4698
848.786	4710
848.921	4725
849.057	4835
849.192	4843
849.328	4782
849.463	4809
849.598	4790
849.734	4759
849.869	4714
850.004	4596
850.14	4683
850.275	4569
850.41	4508
850.545	4573
850.68	4592
850.815	4653
850.95	4569
851.085	4809
851.22	4767
851.355	4618
851.49	4588
851.625	4634
851.76	4588
851.895	4550
852.03	4542
852.165	4656
852.299	4725
852.434	4774
852.569	4774
852.703	4752
852.838	4858
852.973	4949
853.107	4908
853.242	4782
853.376	4668
853.511	4565
853.645	4622
853.78	4790
853.914	4725
854.048	4649
854.183	4618
854.317	4694
854.451	4793
854.585	4588
854.72	4698
854.854	4763
854.988	4546
855.122	4573
855.256	4512
855.39	4660
855.524	4721
855.658	4744
855.792	4668
855.926	4725
856.06	4721
856.194	4809
856.327	4694
856.461	4611
856.595	4611
856.729	4637
856.862	4740
856.996	4740
857.13	4736
857.263	4744
857.397	4847
857.53	4637
857.664	4729
857.797	4714
857.931	4774
858.064	4717
858.197	4778
858.331	4656
858.464	4569
858.597	4531
858.731	4599
858.864	4637
858.997	4637
859.13	4656
859.263	4653
859.396	4683
859.529	4573
859.662	4565
859.795	4519
859.928	4611
860.061	4748
860.194	4759
860.327	4573
860.46	4538
860.592	4698
860.725	4710
860.858	4694
860.99	4615
861.123	4508
861.256	4481
861.388	4550
861.521	5242
861.653	4493
861.786	4466
861.918	4478
862.05	4497
862.183	4558
862.315	4622
862.447	4683
862.58	4569
862.712	4390
862.844	4291
862.976	4470
863.108	4440
863.24	4752
863.372	4329
863.504	4386
863.636	4390
863.768	4466
863.9	4440
864.032	4333
864.164	4375
864.296	4481
864.428	4478
864.559	4538
864.691	4546
864.823	4546
864.954	4462
865.086	4497
865.217	4394
865.349	4474
865.48	4470
865.612	4459
865.743	4603
865.875	4462
866.006	4447
866.137	4485
866.269	4424
866.4	4440
866.531	4462
866.662	4413
866.793	4440
866.924	4443
867.055	4500
867.186	4443
867.317	4432
867.448	4333
867.579	4394
867.71	4375
867.841	4375
867.972	4436
868.103	4455
868.233	4424
868.364	4409
868.495	4417
868.625	4656
868.756	4748
868.886	4546
869.017	4618
869.147	4752
869.278	4774
869.408	4637
869.539	4603
869.669	4698
869.799	4664
869.929	4771
870.06	4710
870.19	4908
870.32	4873
870.45	4904
870.58	4995
870.71	5025
870.84	5067
870.97	4961
871.1	4873
871.23	5193
871.36	5140
871.489	4987
871.619	5128
871.749	5022
871.879	5121
872.008	5178
872.138	5117
872.267	4965
872.397	4850
872.526	4771
872.656	4771
872.785	4870
872.915	4930
873.044	5033
873.173	4938
873.303	4995
873.432	4946
873.561	4927
873.69	4877
873.819	4839
873.948	4877
874.077	4835
874.206	4721
874.335	4831
874.464	4938
874.593	5064
874.722	4972
874.851	5071
874.979	4987
875.108	5010
875.237	4885
875.365	4896
875.494	4816
875.623	4930
875.751	4816
875.88	4873
876.008	4984
876.136	5037
876.265	5197
876.393	5269
876.521	5220
876.65	5159
876.778	5166
876.906	5060
877.034	5018
877.162	5083
877.29	4995
877.418	4968
877.546	5010
877.674	5018
877.802	5048
877.93	5052
878.058	4968
878.185	4900
878.313	4923
878.441	4881
878.568	4797
878.696	4896
878.824	4908
878.951	4991
879.079	5102
879.206	5277
879.333	5086
879.461	4972
879.588	4942
879.715	5121
879.842	5178
879.97	5025
880.097	4767
880.224	4702
880.351	4729
880.478	4767
880.605	4816
880.732	4786
880.859	5094
880.986	4866
881.112	4873
881.239	4759
881.366	4634
881.493	4599
881.619	4569
881.746	4618
881.872	4603
881.999	4592
882.125	4679
882.252	4771
882.378	4839
882.505	4995
882.631	4740
882.757	4618
882.883	4691
883.01	4725
883.136	4656
883.262	4603
883.388	4569
883.514	4812
883.64	4839
883.766	4748
883.892	4615
884.018	4725
884.143	4831
884.269	4980
884.395	4649
884.52	4569
884.646	4626
884.772	4588
884.897	4535
885.023	4622
885.148	4729
885.274	4812
885.399	4816
885.524	4721
885.65	4675
885.775	4744
885.9	4717
886.025	4809
886.15	4778
886.275	4725
886.4	4596
886.525	4736
886.65	4702
886.775	4694
886.9	4850
887.025	4995
887.149	4797
887.274	4653
887.399	4558
887.523	4565
887.648	4550
887.773	4611
887.897	4801
888.021	4748
888.146	4634
888.27	4809
888.395	4873
888.519	4767
888.643	4778
888.767	4862
888.891	4683
889.015	4626
889.139	4664
889.263	4580
889.387	4767
889.511	4854
889.635	4828
889.759	4675
889.883	4649
890.006	4755
890.13	4854
890.254	4634
890.377	4691
890.501	4565
890.624	4546
890.748	4645
890.871	4504
890.995	4405
891.118	4398
891.241	4466
891.364	4535
891.488	4611
891.611	4554
891.734	4596
891.857	4554
891.98	4561
892.103	4645
892.226	4584
892.349	4554
892.471	4443
892.594	4611
892.717	4672
892.839	4618
892.962	4618
893.085	4710
893.207	4656
893.33	4402
893.452	4584
893.575	4706
893.697	4641
893.819	4797
893.941	4881
894.064	4805
894.186	4649
894.308	4596
894.43	4759
894.552	4881
894.674	4786
894.796	4626
894.918	4622
895.04	4592
895.161	4736
895.283	4645
895.405	4630
895.526	4679
895.648	4725
895.769	4721
895.891	4778
896.012	4733
896.134	4778
896.255	4710
896.376	4675
896.498	4649
896.619	4687
896.74	4637
896.861	4664
896.982	4953
897.103	5155
897.224	4873
897.345	4778
897.466	4710
897.587	4763
897.708	4892
897.828	4793
897.949	4683
898.07	4622
898.19	4698
898.311	4858
898.431	4752
898.552	4759
898.672	4854
898.792	4805
898.913	4759
899.033	4679
899.153	4561
899.273	4428
899.393	4538
899.513	4565
899.633	4599
899.753	4573
899.873	4523
899.993	4580
900.113	4580
900.232	4569
900.352	4611
900.472	4519
900.591	4436
900.711	4565
900.83	4478
900.95	4611
901.069	4725
901.189	4599
901.308	4405
901.427	4352
901.546	4417
901.665	4481
901.784	4573
901.904	4409
902.023	4375
902.141	4223
902.26	4230
902.379	4348
902.498	4314
902.617	4246
902.735	4375
902.854	4443
902.973	4386
903.091	4242
903.21	4223
903.328	4360
903.446	4257
903.565	4265
903.683	4367
903.801	4348
903.919	4405
904.038	4451
904.156	4363
904.274	4424
904.392	4459
904.51	4500
904.627	4489
904.745	4580
904.863	4675
904.981	4451
905.098	4341
905.216	4451
905.334	4462
905.451	4504
905.569	4478
905.686	4630
905.803	4542
905.921	4436
906.038	4580
906.155	4512
906.272	4459
906.389	4462
906.506	4390
906.623	4432
906.74	4432
906.857	4325
906.974	4424
907.091	4569
907.208	4679
907.324	4584
907.441	4523
907.557	4367
907.674	4333
907.79	4375
907.907	4424
908.023	4481
908.139	4447
908.256	4398
908.372	4485
908.488	4462
908.604	4348
908.72	4348
908.836	4367
908.952	4360
909.068	4451
909.184	4584
909.3	4516
909.415	4588
909.531	4637
909.647	4375
909.762	4386
909.878	4363
909.993	4455
910.108	4478
910.224	4424
910.339	4531
910.454	4409
910.57	4432
910.685	4344
910.8	4687
910.915	4641
911.03	4481
911.145	4375
911.259	4348
911.374	4413
911.489	4325
911.604	4318
911.718	4223
911.833	4234
911.947	4120
912.062	4071
912.176	4284
912.291	4295
912.405	4261
912.519	4516
912.633	4485
912.748	4459
912.862	4360
912.976	4211
913.09	4101
913.204	4196
913.318	4280
913.431	4402
913.545	4398
913.659	4478
913.772	4394
913.886	4284
914	4257
914.113	4409
914.226	4466
914.34	4432
914.453	4291
914.566	4489
914.68	4356
914.793	4371
914.906	4169
915.019	4173
915.132	4135
915.245	4257
915.358	4284
915.47	4268
915.583	4287
915.696	4280
915.809	4478
915.921	4424
916.034	4303
916.146	4246
916.259	4257
916.371	4443
916.483	4371
916.595	4284
916.708	4371
916.82	4367
916.932	4367
917.044	4318
917.156	4337
917.268	4291
917.38	4291
917.491	4344
917.603	4360
917.715	4421
917.826	4489
917.938	4402
918.049	4268
918.161	4440
918.272	4573
918.384	4550
918.495	4497
918.606	4337
918.717	4295
918.828	4348
918.939	4413
919.05	4265
919.161	4409
919.272	4143
919.383	4230
919.494	4451
919.604	4645
919.715	4478
919.826	4390
919.936	4474
920.047	4565
920.157	4546
920.267	4733
920.378	4588
920.488	4542
920.598	4759
920.708	4946
920.818	4778
920.928	4793
921.038	4919
921.148	4942
921.258	4656
921.368	4584
921.477	4577
921.587	4474
921.697	4356
921.806	4558
921.916	4485
922.025	4341
922.134	4291
922.244	4234
922.353	4356
922.462	4143
922.571	4185
922.68	4040
922.789	4010
922.898	4090
923.007	3987
923.116	4109
923.224	4173
923.333	4093
923.442	3979
923.55	3994
923.659	4074
923.767	4090
923.876	4036
923.984	4143
924.092	3998
924.201	4078
924.309	4086
924.417	4131
924.525	4082
924.633	4101
924.741	5064
924.849	3934
924.956	4131
925.064	3983
925.172	3968
925.279	4029
925.387	4067
925.494	4059
925.602	4207
925.709	4188
925.816	4059
925.924	4173
926.031	4253
926.138	4177
926.245	4219
926.352	4112
926.459	4299
926.566	4306
926.673	4166
926.779	4090
926.886	4109
926.993	4021
927.099	4010
927.206	3972
927.312	3991
927.419	4093
927.525	4051
927.631	4124
927.737	3968
927.843	3907
927.95	3838
928.056	3953
928.162	3979
928.267	4109
928.373	4573
928.479	4162
928.585	3903
928.69	4017
928.796	4093
928.901	3953
929.007	3854
929.112	4036
929.218	3983
929.323	3949
929.428	3979
929.533	4166
929.638	3937
929.743	4010
929.848	4055
929.953	4013
930.058	3922
930.163	3804
930.267	3876
930.372	3964
930.477	3751
930.581	4135
930.685	3991
930.79	3865
930.894	3941
930.998	3896
931.103	4074
931.207	3740
931.311	3747
931.415	3660
931.519	3622
931.623	3553
