Data from test_V78500241_145.txt Node
Date: Fri Mar 25 16:50:00 CST 2022
User: usil
Spectrometer: V785-0024
Trigger mode: 0
Integration Time (sec): 4.000000E-1
Scans to average: 1
Nonlinearity correction enabled: false
Boxcar width: 0
Storing dark spectrum: false
XAxis mode: Wavelengths
Number of Pixels in Spectrum: 1024
>>>>>Begin Spectral Data<<<<<
801.071	8088
801.214	7970
801.356	7959
801.499	7871
801.641	7898
801.783	7875
801.926	7974
802.068	7982
802.211	8046
802.353	8031
802.496	7944
802.638	7921
802.78	7989
802.923	7982
803.065	7921
803.208	7925
803.35	8035
803.492	8107
803.635	8149
803.777	8024
803.919	8050
804.061	8404
804.204	8054
804.346	8073
804.488	7955
804.63	8069
804.773	7951
804.915	8134
805.057	8214
805.199	8088
805.341	8240
805.483	8225
805.626	8183
805.768	8054
805.91	8221
806.052	8267
806.194	8138
806.336	8351
806.478	8081
806.62	8081
806.762	8199
806.904	8290
807.046	8499
807.188	8389
807.33	8343
807.472	8301
807.614	8202
807.756	8168
807.898	8081
808.04	7932
808.182	7967
808.324	7947
808.465	7913
808.607	8054
808.749	8172
808.891	8161
809.033	8343
809.174	8237
809.316	8054
809.458	8134
809.6	8016
809.741	8008
809.883	8054
810.025	8107
810.166	8081
810.308	8062
810.45	8062
810.591	7940
810.733	7727
810.875	7628
811.016	7613
811.158	7518
811.299	7605
811.441	7731
811.582	7708
811.724	7647
811.865	7658
812.007	7704
812.148	7632
812.29	7731
812.431	7765
812.573	7989
812.714	8081
812.855	8275
812.997	8355
813.138	8400
813.279	8263
813.421	8157
813.562	8142
813.703	7947
813.845	7822
813.986	7529
814.127	7301
814.268	7327
814.41	7255
814.551	7297
814.692	7274
814.833	7171
814.974	7194
815.115	7206
815.256	7065
815.397	6970
815.539	6989
815.68	6871
815.821	6810
815.962	6886
816.103	6871
816.244	6749
816.385	6658
816.526	6700
816.666	6566
816.807	6433
816.948	6407
817.089	6540
817.23	6570
817.371	6433
817.512	6418
817.653	6395
817.793	6437
817.934	6498
818.075	6536
818.216	6475
818.356	6391
818.497	6258
818.638	6167
818.778	6228
818.919	6167
819.06	6220
819.2	6331
819.341	6346
819.481	6460
819.622	6597
819.762	6779
819.903	6703
820.043	6608
820.184	6585
820.324	6559
820.465	6764
820.605	6711
820.746	6684
820.886	6532
821.026	6730
821.167	6768
821.307	6840
821.447	6810
821.588	6741
821.728	6635
821.868	6593
822.008	6414
822.149	6437
822.289	6353
822.429	6216
822.569	6136
822.709	6152
822.849	5931
822.99	5954
823.13	5984
823.27	5954
823.41	5832
823.55	5851
823.69	5779
823.83	5809
823.97	5657
824.11	5589
824.25	5577
824.389	5604
824.529	5653
824.669	5547
824.809	5688
824.949	5699
825.089	5668
825.228	5642
825.368	5436
825.508	5360
825.648	5349
825.787	5436
825.927	5379
826.067	5360
826.206	5345
826.346	5391
826.485	5417
826.625	5421
826.765	5615
826.904	5486
827.044	5292
827.183	5269
827.323	5159
827.462	5303
827.601	5258
827.741	5235
827.88	5265
828.02	5181
828.159	5269
828.298	5353
828.437	5353
828.577	5303
828.716	5524
828.855	5337
828.994	5162
829.134	5162
829.273	5227
829.412	5143
829.551	5204
829.69	5162
829.829	5315
829.968	5406
830.107	5315
830.246	5349
830.385	5178
830.524	5113
830.663	5064
830.802	4965
830.941	4892
831.08	4900
831.219	4949
831.357	5014
831.496	5212
831.635	4938
831.774	4850
831.913	4862
832.051	4786
832.19	4752
832.329	4889
832.467	4691
832.606	4634
832.744	4763
832.883	4793
833.022	4725
833.16	4854
833.299	4816
833.437	4843
833.576	4854
833.714	4896
833.852	4904
833.991	4915
834.129	4976
834.267	4987
834.406	4923
834.544	4976
834.682	4961
834.821	4987
834.959	5136
835.097	5003
835.235	5151
835.373	5094
835.511	5117
835.65	5075
835.788	5064
835.926	4919
836.064	4877
836.202	4892
836.34	5231
836.478	5220
836.615	5162
836.753	5212
836.891	5326
837.029	5284
837.167	5242
837.305	5178
837.443	5212
837.58	5132
837.718	5307
837.856	5140
837.993	5166
838.131	5315
838.269	5239
838.406	5227
838.544	5189
838.681	5083
838.819	4984
838.956	4915
839.094	4919
839.231	5029
839.369	5109
839.506	5410
839.643	5288
839.781	5098
839.918	5060
840.055	5155
840.193	5155
840.33	5140
840.467	5181
840.604	5208
840.742	5406
840.879	5113
841.016	5086
841.153	5136
841.29	5330
841.427	5357
841.564	5337
841.701	5406
841.838	5303
841.975	5265
842.112	5296
842.249	5166
842.385	5090
842.522	5318
842.659	5223
842.796	5223
842.933	5239
843.069	5197
843.206	5208
843.343	5296
843.479	5254
843.616	5296
843.752	5045
843.889	4999
844.025	5201
844.162	5067
844.298	5254
844.435	5102
844.571	5094
844.708	5143
844.844	5318
844.98	5383
845.117	5292
845.253	5185
845.389	5075
845.525	5239
845.661	5147
845.798	5060
845.934	5151
846.07	5060
846.206	5181
846.342	5315
846.478	5166
846.614	5014
846.75	5006
846.886	4923
847.022	5147
847.158	5048
847.294	5109
847.429	5143
847.565	5102
847.701	5341
847.837	4866
847.972	4843
848.108	4949
848.244	4965
848.379	4824
848.515	4752
848.65	4721
848.786	4755
848.921	4748
849.057	4896
849.192	4938
849.328	4862
849.463	4835
849.598	4839
849.734	4824
849.869	4717
850.004	4679
850.14	4660
850.275	4645
850.41	4535
850.545	4565
850.68	4641
850.815	4664
850.95	4664
851.085	4896
851.22	4778
851.355	4725
851.49	4653
851.625	4664
851.76	4630
851.895	4592
852.03	4588
852.165	4672
852.299	4782
852.434	4862
852.569	4748
852.703	4828
852.838	4904
852.973	4999
853.107	4949
853.242	4824
853.376	4771
853.511	4626
853.645	4675
853.78	4847
853.914	4767
854.048	4725
854.183	4759
854.317	4725
854.451	4995
854.585	4744
854.72	4664
854.854	4782
854.988	4641
855.122	4717
855.256	4588
855.39	4714
855.524	4828
855.658	4805
855.792	4774
855.926	4790
856.06	4797
856.194	4908
856.327	4752
856.461	4668
856.595	4679
856.729	4687
856.862	4805
856.996	4778
857.13	4809
857.263	4824
857.397	4870
857.53	4698
857.664	4767
857.797	4797
857.931	4831
858.064	4767
858.197	4790
858.331	4736
858.464	4710
858.597	4603
858.731	4748
858.864	4683
858.997	4656
859.13	4755
859.263	4706
859.396	4790
859.529	4611
859.662	4622
859.795	4611
859.928	4710
860.061	4835
860.194	4862
860.327	4733
860.46	4630
860.592	4778
860.725	4763
860.858	4744
860.99	4573
861.123	4618
861.256	4580
861.388	4668
861.521	5440
861.653	4561
861.786	4535
861.918	4519
862.05	4580
862.183	4584
862.315	4691
862.447	4733
862.58	4653
862.712	4451
862.844	4386
862.976	4497
863.108	4546
863.24	4889
863.372	4421
863.504	4500
863.636	4504
863.768	4565
863.9	4489
864.032	4398
864.164	4440
864.296	4554
864.428	4592
864.559	4615
864.691	4588
864.823	4542
864.954	4565
865.086	4542
865.217	4546
865.349	4470
865.48	4504
865.612	4561
865.743	4714
865.875	4535
866.006	4485
866.137	4535
866.269	4481
866.4	4474
866.531	4508
866.662	4470
866.793	4398
866.924	4440
867.055	4569
867.186	4489
867.317	4474
867.448	4440
867.579	4432
867.71	4485
867.841	4428
867.972	4531
868.103	4504
868.233	4512
868.364	4512
868.495	4531
868.625	4744
868.756	4797
868.886	4580
869.017	4733
869.147	4786
869.278	4831
869.408	4721
869.539	4702
869.669	4790
869.799	4740
869.929	4839
870.06	4790
870.19	4968
870.32	5010
870.45	4999
870.58	5067
870.71	5155
870.84	5189
870.97	4987
871.1	5014
871.23	5189
871.36	5151
871.489	5060
871.619	5140
871.749	5147
871.879	5231
872.008	5292
872.138	5064
872.267	5075
872.397	4934
872.526	4854
872.656	4797
872.785	4835
872.915	5014
873.044	5067
873.173	5029
873.303	5052
873.432	4987
873.561	4987
873.69	4949
873.819	4854
873.948	4999
874.077	4850
874.206	4790
874.335	4885
874.464	5029
874.593	5109
874.722	4995
874.851	5128
874.979	5102
875.108	5090
875.237	4900
875.365	4904
875.494	4919
875.623	5014
875.751	4885
875.88	4965
876.008	5048
876.136	5056
876.265	5284
876.393	5349
876.521	5284
876.65	5311
876.778	5231
876.906	5079
877.034	5094
877.162	5128
877.29	5071
877.418	5132
877.546	5124
877.674	5090
877.802	5056
877.93	5086
878.058	5006
878.185	4858
878.313	5029
878.441	5010
878.568	4816
878.696	4942
878.824	4953
878.951	5048
879.079	5185
879.206	5372
879.333	5121
879.461	4999
879.588	5048
879.715	5181
879.842	5280
879.97	5071
880.097	4843
880.224	4755
880.351	4847
880.478	4870
880.605	4820
880.732	4892
880.859	5143
880.986	4938
881.112	4923
881.239	4828
881.366	4714
881.493	4626
881.619	4672
881.746	4645
881.872	4797
881.999	4641
882.125	4717
882.252	4835
882.378	4847
882.505	4995
882.631	4877
882.757	4740
882.883	4786
883.01	4812
883.136	4668
883.262	4615
883.388	4649
883.514	4881
883.64	4908
883.766	4870
883.892	4721
884.018	4755
884.143	4991
884.269	5075
884.395	4729
884.52	4649
884.646	4694
884.772	4596
884.897	4611
885.023	4729
885.148	4828
885.274	4927
885.399	4816
885.524	4809
885.65	4717
885.775	4763
885.9	4790
886.025	4942
886.15	4816
886.275	4801
886.4	4733
886.525	4774
886.65	4717
886.775	4736
886.9	4930
887.025	5041
887.149	4835
887.274	4683
887.399	4615
887.523	4656
887.648	4637
887.773	4672
887.897	4866
888.021	4809
888.146	4710
888.27	4889
888.395	4991
888.519	4831
888.643	4896
888.767	4881
888.891	4733
889.015	4637
889.139	4656
889.263	4607
889.387	4782
889.511	4927
889.635	4847
889.759	4618
889.883	4664
890.006	4774
890.13	4862
890.254	4615
890.377	4679
890.501	4580
890.624	4580
890.748	4694
890.871	4618
890.995	4504
891.118	4409
891.241	4565
891.364	4573
891.488	4656
891.611	4519
891.734	4611
891.857	4672
891.98	4580
892.103	4664
892.226	4637
892.349	4588
892.471	4485
892.594	4603
892.717	4580
892.839	4584
892.962	4675
893.085	4725
893.207	4622
893.33	4504
893.452	4569
893.575	4694
893.697	4618
893.819	4870
893.941	4900
894.064	4786
894.186	4603
894.308	4577
894.43	4771
894.552	4873
894.674	4763
894.796	4565
894.918	4626
895.04	4577
895.161	4702
895.283	4702
895.405	4634
895.526	4691
895.648	4725
895.769	4691
895.891	4740
896.012	4774
896.134	4759
896.255	4733
896.376	4653
896.498	4649
896.619	4771
896.74	4630
896.861	4675
896.982	4965
897.103	5105
897.224	4881
897.345	4797
897.466	4714
897.587	4763
897.708	4930
897.828	4843
897.949	4698
898.07	4584
898.19	4694
898.311	4877
898.431	4702
898.552	4755
898.672	4946
898.792	4816
898.913	4763
899.033	4706
899.153	4588
899.273	4478
899.393	4558
899.513	4538
899.633	4538
899.753	4599
899.873	4577
899.993	4622
900.113	4577
900.232	4630
900.352	4599
900.472	4485
900.591	4459
900.711	4519
900.83	4481
900.95	4656
901.069	4752
901.189	4546
901.308	4432
901.427	4379
901.546	4390
901.665	4512
901.784	4508
901.904	4394
902.023	4360
902.141	4223
902.26	4249
902.379	4344
902.498	4295
902.617	4257
902.735	4367
902.854	4462
902.973	4360
903.091	4204
903.21	4268
903.328	4314
903.446	4280
903.565	4272
903.683	4360
903.801	4314
903.919	4459
904.038	4512
904.156	4367
904.274	4424
904.392	4443
904.51	4500
904.627	4497
904.745	4622
904.863	4706
904.981	4443
905.098	4367
905.216	4398
905.334	4447
905.451	4447
905.569	4512
905.686	4588
905.803	4626
905.921	4417
906.038	4588
906.155	4493
906.272	4417
906.389	4519
906.506	4390
906.623	4409
906.74	4451
906.857	4352
906.974	4417
907.091	4558
907.208	4714
907.324	4649
907.441	4561
907.557	4421
907.674	4352
907.79	4348
907.907	4428
908.023	4478
908.139	4489
908.256	4481
908.372	4519
908.488	4470
908.604	4383
908.72	4348
908.836	4394
908.952	4455
909.068	4466
909.184	4561
909.3	4516
909.415	4611
909.531	4618
909.647	4363
909.762	4424
909.878	4360
909.993	4493
910.108	4459
910.224	4424
910.339	4516
910.454	4459
910.57	4386
910.685	4348
910.8	4664
910.915	4664
911.03	4561
911.145	4352
911.259	4356
911.374	4398
911.489	4318
911.604	4280
911.718	4230
911.833	4215
911.947	4112
912.062	4036
912.176	4223
912.291	4268
912.405	4253
912.519	4497
912.633	4516
912.748	4428
912.862	4341
912.976	4291
913.09	4105
913.204	4230
913.318	4253
913.431	4417
913.545	4394
913.659	4447
913.772	4405
913.886	4284
914	4268
914.113	4432
914.226	4489
914.34	4417
914.453	4272
914.566	4508
914.68	4352
914.793	4383
914.906	4173
915.019	4169
915.132	4135
915.245	4173
915.358	4249
915.47	4265
915.583	4303
915.696	4333
915.809	4440
915.921	4466
916.034	4306
916.146	4268
916.259	4265
916.371	4405
916.483	4398
916.595	4325
916.708	4303
916.82	4379
916.932	4386
917.044	4333
917.156	4341
917.268	4280
917.38	4337
917.491	4242
917.603	4356
917.715	4462
917.826	4440
917.938	4386
918.049	4291
918.161	4417
918.272	4565
918.384	4550
918.495	4443
918.606	4337
918.717	4234
918.828	4432
918.939	4360
919.05	4287
919.161	4329
919.272	4196
919.383	4249
919.494	4489
919.604	4649
919.715	4451
919.826	4421
919.936	4459
920.047	4527
920.157	4500
920.267	4706
920.378	4535
920.488	4523
920.598	4729
920.708	4889
920.818	4786
920.928	4812
921.038	4987
921.148	4949
921.258	4660
921.368	4607
921.477	4519
921.587	4455
921.697	4417
921.806	4558
921.916	4432
922.025	4295
922.134	4303
922.244	4200
922.353	4295
922.462	4181
922.571	4131
922.68	4048
922.789	3987
922.898	4040
923.007	3987
923.116	4143
923.224	4109
923.333	4112
923.442	3975
923.55	4013
923.659	4055
923.767	4112
923.876	4040
923.984	4139
924.092	4029
924.201	4048
924.309	4120
924.417	4177
924.525	4105
924.633	4128
924.741	4908
924.849	3911
924.956	4150
925.064	3968
925.172	3918
925.279	3968
925.387	4067
925.494	4059
925.602	4230
925.709	4211
925.816	4078
925.924	4177
926.031	4268
926.138	4192
926.245	4227
926.352	4124
926.459	4295
926.566	4295
926.673	4162
926.779	4051
926.886	4109
926.993	4021
927.099	3960
927.206	3983
927.312	3979
927.419	4078
927.525	4051
927.631	4128
927.737	3991
927.843	3960
927.95	3850
928.056	4017
928.162	3998
928.267	4067
928.373	4717
928.479	4166
928.585	3903
928.69	4036
928.796	4055
928.901	3968
929.007	3823
929.112	4063
929.218	4010
929.323	3964
929.428	3953
929.533	4082
929.638	3884
929.743	3956
929.848	4040
929.953	3964
930.058	3934
930.163	3770
930.267	3907
930.372	3998
930.477	3808
930.581	4112
930.685	3926
930.79	3873
930.894	3941
930.998	3892
931.103	4040
931.207	3736
931.311	3717
931.415	3641
931.519	3553
931.623	3599
