Data from test_V78500241_367.txt Node
Date: Fri Mar 25 16:51:33 CST 2022
User: usil
Spectrometer: V785-0024
Trigger mode: 0
Integration Time (sec): 4.000000E-1
Scans to average: 1
Nonlinearity correction enabled: false
Boxcar width: 0
Storing dark spectrum: false
XAxis mode: Wavelengths
Number of Pixels in Spectrum: 1024
>>>>>Begin Spectral Data<<<<<
801.071	8100
801.214	8092
801.356	7887
801.499	7913
801.641	7788
801.783	7803
801.926	8012
802.068	8001
802.211	8020
802.353	8012
802.496	7902
802.638	7909
802.78	7936
802.923	7890
803.065	7913
803.208	7875
803.35	7974
803.492	8088
803.635	8103
803.777	7959
803.919	8073
804.061	8488
804.204	8126
804.346	8062
804.488	7894
804.63	8115
804.773	7959
804.915	8111
805.057	8332
805.199	8259
805.341	8259
805.483	8332
805.626	8111
805.768	8039
805.91	8176
806.052	8195
806.194	8191
806.336	8366
806.478	8176
806.62	8180
806.762	8164
806.904	8301
807.046	8465
807.188	8339
807.33	8324
807.472	8320
807.614	8172
807.756	8210
807.898	7986
808.04	7951
808.182	8001
808.324	7951
808.465	7982
808.607	8073
808.749	8176
808.891	8221
809.033	8332
809.174	8218
809.316	8035
809.458	8043
809.6	8024
809.741	8062
809.883	8005
810.025	8153
810.166	8054
810.308	8065
810.45	8035
810.591	7814
810.733	7738
810.875	7700
811.016	7613
811.158	7597
811.299	7647
811.441	7761
811.582	7742
811.724	7590
811.865	7514
812.007	7658
812.148	7662
812.29	7636
812.431	7814
812.573	7894
812.714	7989
812.855	8096
812.997	8149
813.138	8347
813.279	8191
813.421	8134
813.562	7959
813.703	7925
813.845	7784
813.986	7460
814.127	7289
814.268	7316
814.41	7251
814.551	7187
814.692	7266
814.833	7095
814.974	7110
815.115	7137
815.256	6954
815.397	7008
815.539	6970
815.68	6844
815.821	6764
815.962	6924
816.103	6886
816.244	6719
816.385	6650
816.526	6669
816.666	6506
816.807	6376
816.948	6376
817.089	6460
817.23	6433
817.371	6380
817.512	6391
817.653	6353
817.793	6361
817.934	6391
818.075	6437
818.216	6441
818.356	6361
818.497	6232
818.638	6182
818.778	6178
818.919	6167
819.06	6102
819.2	6365
819.341	6315
819.481	6372
819.622	6528
819.762	6726
819.903	6821
820.043	6616
820.184	6570
820.324	6646
820.465	6646
820.605	6726
820.746	6692
820.886	6532
821.026	6730
821.167	6734
821.307	6882
821.447	6798
821.588	6700
821.728	6608
821.868	6547
822.008	6372
822.149	6399
822.289	6407
822.429	6216
822.569	6098
822.709	6144
822.849	5977
822.99	5882
823.13	5950
823.27	5927
823.41	5817
823.55	5824
823.69	5809
823.83	5821
823.97	5710
824.11	5539
824.25	5562
824.389	5570
824.529	5608
824.669	5554
824.809	5665
824.949	5672
825.089	5630
825.228	5539
825.368	5360
825.508	5383
825.648	5372
825.787	5395
825.927	5383
826.067	5235
826.206	5280
826.346	5349
826.485	5414
826.625	5410
826.765	5482
826.904	5474
827.044	5227
827.183	5223
827.323	5151
827.462	5250
827.601	5197
827.741	5231
827.88	5231
828.02	5143
828.159	5261
828.298	5277
828.437	5360
828.577	5288
828.716	5486
828.855	5337
828.994	5166
829.134	5143
829.273	5216
829.412	5151
829.551	5124
829.69	5162
829.829	5204
829.968	5360
830.107	5254
830.246	5288
830.385	5216
830.524	5105
830.663	5086
830.802	5037
830.941	4942
831.08	4892
831.219	5029
831.357	4961
831.496	5166
831.635	4919
831.774	4892
831.913	4885
832.051	4706
832.19	4778
832.329	4870
832.467	4706
832.606	4649
832.744	4721
832.883	4714
833.022	4771
833.16	4782
833.299	4809
833.437	4809
833.576	4805
833.714	4847
833.852	4854
833.991	4900
834.129	4976
834.267	4919
834.406	4984
834.544	4949
834.682	5029
834.821	5022
834.959	5136
835.097	4965
835.235	5185
835.373	5121
835.511	5079
835.65	5071
835.788	4999
835.926	4889
836.064	4870
836.202	4908
836.34	5178
836.478	5227
836.615	5071
836.753	5280
836.891	5235
837.029	5242
837.167	5170
837.305	5143
837.443	5162
837.58	5128
837.718	5250
837.856	5220
837.993	5132
838.131	5197
838.269	5162
838.406	5254
838.544	5197
838.681	5090
838.819	4991
838.956	4915
839.094	4915
839.231	4987
839.369	5102
839.506	5463
839.643	5273
839.781	5086
839.918	5045
840.055	5121
840.193	5083
840.33	5136
840.467	5147
840.604	5223
840.742	5433
840.879	5083
841.016	5102
841.153	5128
841.29	5341
841.427	5383
841.564	5376
841.701	5341
841.838	5265
841.975	5212
842.112	5288
842.249	5113
842.385	5113
842.522	5326
842.659	5143
842.796	5155
842.933	5181
843.069	5162
843.206	5197
843.343	5307
843.479	5208
843.616	5273
843.752	5045
843.889	5041
844.025	5242
844.162	4976
844.298	5242
844.435	5132
844.571	5029
844.708	5223
844.844	5299
844.98	5357
845.117	5296
845.253	5151
845.389	5143
845.525	5159
845.661	5136
845.798	5060
845.934	5159
846.07	5060
846.206	5151
846.342	5273
846.478	5151
846.614	5052
846.75	4965
846.886	4957
847.022	5174
847.158	5079
847.294	5041
847.429	5136
847.565	5067
847.701	5349
847.837	4870
847.972	4873
848.108	4957
848.244	4957
848.379	4748
848.515	4748
848.65	4778
848.786	4759
848.921	4805
849.057	4915
849.192	4873
849.328	4839
849.463	4847
849.598	4793
849.734	4729
849.869	4702
850.004	4634
850.14	4660
850.275	4588
850.41	4519
850.545	4599
850.68	4626
850.815	4637
850.95	4641
851.085	4854
851.22	4729
851.355	4618
851.49	4630
851.625	4641
851.76	4630
851.895	4558
852.03	4542
852.165	4679
852.299	4706
852.434	4801
852.569	4767
852.703	4778
852.838	4824
852.973	4904
853.107	4896
853.242	4725
853.376	4733
853.511	4573
853.645	4603
853.78	4812
853.914	4691
854.048	4656
854.183	4656
854.317	4725
854.451	4881
854.585	4683
854.72	4634
854.854	4736
854.988	4588
855.122	4626
855.256	4542
855.39	4691
855.524	4767
855.658	4736
855.792	4691
855.926	4786
856.06	4774
856.194	4771
856.327	4664
856.461	4630
856.595	4641
856.729	4645
856.862	4736
856.996	4702
857.13	4736
857.263	4786
857.397	4824
857.53	4634
857.664	4748
857.797	4782
857.931	4759
858.064	4706
858.197	4782
858.331	4675
858.464	4634
858.597	4542
858.731	4618
858.864	4698
858.997	4592
859.13	4664
859.263	4725
859.396	4714
859.529	4558
859.662	4538
859.795	4516
859.928	4634
860.061	4782
860.194	4706
860.327	4580
860.46	4569
860.592	4649
860.725	4721
860.858	4748
860.99	4580
861.123	4519
861.256	4519
861.388	4592
861.521	5341
861.653	4497
861.786	4459
861.918	4417
862.05	4538
862.183	4523
862.315	4577
862.447	4649
862.58	4504
862.712	4367
862.844	4386
862.976	4478
863.108	4462
863.24	4763
863.372	4295
863.504	4485
863.636	4405
863.768	4466
863.9	4508
864.032	4363
864.164	4405
864.296	4470
864.428	4554
864.559	4569
864.691	4504
864.823	4542
864.954	4573
865.086	4535
865.217	4466
865.349	4466
865.48	4462
865.612	4554
865.743	4660
865.875	4451
866.006	4474
866.137	4466
866.269	4440
866.4	4398
866.531	4470
866.662	4428
866.793	4474
866.924	4424
867.055	4455
867.186	4466
867.317	4417
867.448	4379
867.579	4436
867.71	4455
867.841	4402
867.972	4466
868.103	4451
868.233	4447
868.364	4413
868.495	4516
868.625	4710
868.756	4721
868.886	4561
869.017	4611
869.147	4793
869.278	4755
869.408	4656
869.539	4679
869.669	4694
869.799	4698
869.929	4752
870.06	4736
870.19	4968
870.32	4942
870.45	4915
870.58	5029
870.71	5117
870.84	5086
870.97	4938
871.1	4908
871.23	5166
871.36	5159
871.489	5037
871.619	5117
871.749	5102
871.879	5136
872.008	5178
872.138	5064
872.267	4987
872.397	4847
872.526	4782
872.656	4782
872.785	4835
872.915	5033
873.044	4980
873.173	4927
873.303	4995
873.432	4968
873.561	4987
873.69	4873
873.819	4908
873.948	4911
874.077	4801
874.206	4790
874.335	4797
874.464	4923
874.593	5094
874.722	4923
874.851	5094
874.979	5102
875.108	5045
875.237	4911
875.365	4889
875.494	4946
875.623	4980
875.751	4847
875.88	4885
876.008	4991
876.136	5086
876.265	5239
876.393	5372
876.521	5204
876.65	5223
876.778	5242
876.906	5105
877.034	5033
877.162	5090
877.29	5025
877.418	5048
877.546	5014
877.674	5094
877.802	5064
877.93	4987
878.058	4946
878.185	4854
878.313	4980
878.441	4949
878.568	4870
878.696	4877
878.824	4942
878.951	5079
879.079	5174
879.206	5292
879.333	5102
879.461	4976
879.588	5056
879.715	5117
879.842	5227
879.97	4976
880.097	4839
880.224	4752
880.351	4801
880.478	4862
880.605	4736
880.732	4790
880.859	5060
880.986	4889
881.112	4911
881.239	4812
881.366	4664
881.493	4599
881.619	4580
881.746	4626
881.872	4660
881.999	4645
882.125	4675
882.252	4755
882.378	4839
882.505	4999
882.631	4839
882.757	4660
882.883	4706
883.01	4729
883.136	4721
883.262	4554
883.388	4607
883.514	4839
883.64	4881
883.766	4774
883.892	4672
884.018	4729
884.143	4854
884.269	5014
884.395	4653
884.52	4622
884.646	4641
884.772	4588
884.897	4596
885.023	4664
885.148	4805
885.274	4919
885.399	4824
885.524	4767
885.65	4683
885.775	4774
885.9	4717
886.025	4877
886.15	4786
886.275	4721
886.4	4653
886.525	4698
886.65	4710
886.775	4672
886.9	4946
887.025	5067
887.149	4824
887.274	4615
887.399	4656
887.523	4637
887.648	4561
887.773	4599
887.897	4771
888.021	4812
888.146	4622
888.27	4805
888.395	4889
888.519	4801
888.643	4797
888.767	4824
888.891	4675
889.015	4618
889.139	4660
889.263	4542
889.387	4828
889.511	4881
889.635	4786
889.759	4603
889.883	4672
890.006	4733
890.13	4790
890.254	4599
890.377	4717
890.501	4561
890.624	4523
890.748	4641
890.871	4523
890.995	4455
891.118	4432
891.241	4519
891.364	4527
891.488	4618
891.611	4531
891.734	4516
891.857	4611
891.98	4603
892.103	4645
892.226	4588
892.349	4535
892.471	4462
892.594	4558
892.717	4584
892.839	4592
892.962	4596
893.085	4656
893.207	4603
893.33	4447
893.452	4561
893.575	4694
893.697	4558
893.819	4774
893.941	4824
894.064	4771
894.186	4577
894.308	4630
894.43	4675
894.552	4793
894.674	4736
894.796	4573
894.918	4584
895.04	4596
895.161	4717
895.283	4679
895.405	4637
895.526	4626
895.648	4725
895.769	4714
895.891	4706
896.012	4755
896.134	4748
896.255	4752
896.376	4645
896.498	4656
896.619	4675
896.74	4618
896.861	4668
896.982	4908
897.103	5060
897.224	4850
897.345	4771
897.466	4664
897.587	4729
897.708	4828
897.828	4767
897.949	4656
898.07	4611
898.19	4630
898.311	4831
898.431	4656
898.552	4736
898.672	4797
898.792	4820
898.913	4774
899.033	4584
899.153	4474
899.273	4474
899.393	4504
899.513	4478
899.633	4519
899.753	4542
899.873	4516
899.993	4592
900.113	4535
900.232	4523
900.352	4523
900.472	4508
900.591	4451
900.711	4497
900.83	4455
900.95	4596
901.069	4691
901.189	4519
901.308	4390
901.427	4322
901.546	4379
901.665	4440
901.784	4523
901.904	4363
902.023	4329
902.141	4192
902.26	4177
902.379	4333
902.498	4306
902.617	4230
902.735	4375
902.854	4348
902.973	4325
903.091	4223
903.21	4257
903.328	4291
903.446	4272
903.565	4287
903.683	4379
903.801	4219
903.919	4341
904.038	4424
904.156	4306
904.274	4383
904.392	4413
904.51	4508
904.627	4428
904.745	4565
904.863	4694
904.981	4367
905.098	4306
905.216	4356
905.334	4436
905.451	4398
905.569	4459
905.686	4561
905.803	4592
905.921	4440
906.038	4527
906.155	4470
906.272	4409
906.389	4474
906.506	4363
906.623	4360
906.74	4375
906.857	4348
906.974	4386
907.091	4611
907.208	4691
907.324	4603
907.441	4512
907.557	4371
907.674	4299
907.79	4329
907.907	4352
908.023	4519
908.139	4481
908.256	4417
908.372	4512
908.488	4409
908.604	4337
908.72	4436
908.836	4383
908.952	4348
909.068	4436
909.184	4508
909.3	4493
909.415	4618
909.531	4561
909.647	4306
909.762	4405
909.878	4394
909.993	4443
910.108	4421
910.224	4436
910.339	4466
910.454	4390
910.57	4363
910.685	4329
910.8	4607
910.915	4603
911.03	4489
911.145	4337
911.259	4333
911.374	4363
911.489	4337
911.604	4280
911.718	4211
911.833	4173
911.947	4135
912.062	4044
912.176	4192
912.291	4230
912.405	4261
912.519	4424
912.633	4478
912.748	4360
912.862	4299
912.976	4196
913.09	4109
913.204	4185
913.318	4295
913.431	4402
913.545	4398
913.659	4451
913.772	4379
913.886	4287
914	4249
914.113	4424
914.226	4451
914.34	4363
914.453	4253
914.566	4447
914.68	4303
914.793	4329
914.906	4158
915.019	4109
915.132	4078
915.245	4192
915.358	4238
915.47	4257
915.583	4265
915.696	4318
915.809	4352
915.921	4451
916.034	4280
916.146	4310
916.259	4230
916.371	4386
916.483	4398
916.595	4268
916.708	4299
916.82	4356
916.932	4371
917.044	4352
917.156	4363
917.268	4299
917.38	4303
917.491	4287
917.603	4363
917.715	4451
917.826	4413
917.938	4295
918.049	4280
918.161	4432
918.272	4504
918.384	4538
918.495	4504
918.606	4322
918.717	4249
918.828	4360
918.939	4375
919.05	4249
919.161	4337
919.272	4139
919.383	4257
919.494	4466
919.604	4607
919.715	4481
919.826	4348
919.936	4409
920.047	4504
920.157	4531
920.267	4733
920.378	4523
920.488	4538
920.598	4725
920.708	4892
920.818	4793
920.928	4797
921.038	4938
921.148	4915
921.258	4607
921.368	4542
921.477	4508
921.587	4466
921.697	4352
921.806	4542
921.916	4462
922.025	4265
922.134	4268
922.244	4196
922.353	4344
922.462	4196
922.571	4150
922.68	4044
922.789	3968
922.898	4036
923.007	4006
923.116	4101
923.224	4074
923.333	4112
923.442	3953
923.55	3975
923.659	4013
923.767	4135
923.876	4071
923.984	4078
924.092	3983
924.201	4101
924.309	4097
924.417	4147
924.525	4093
924.633	4116
924.741	4843
924.849	3937
924.956	4101
925.064	3960
925.172	3926
925.279	3968
925.387	4055
925.494	4032
925.602	4227
925.709	4192
925.816	4017
925.924	4120
926.031	4246
926.138	4162
926.245	4227
926.352	4086
926.459	4280
926.566	4303
926.673	4192
926.779	4055
926.886	4082
926.993	4002
927.099	3926
927.206	3945
927.312	3926
927.419	4048
927.525	4013
927.631	4044
927.737	4006
927.843	3930
927.95	3827
928.056	3949
928.162	3983
928.267	4055
928.373	4687
928.479	4116
928.585	3857
928.69	4006
928.796	4074
928.901	3998
929.007	3865
929.112	4025
929.218	3956
929.323	3941
929.428	3899
929.533	4109
929.638	3915
929.743	3987
929.848	4067
929.953	4017
930.058	3918
930.163	3808
930.267	3823
930.372	3972
930.477	3842
930.581	4101
930.685	3953
930.79	3797
930.894	3918
930.998	3907
931.103	4036
931.207	3713
931.311	3679
931.415	3667
931.519	3473
931.623	3534
