Data from test_V78500241_2509.txt Node
Date: Fri Mar 25 17:06:26 CST 2022
User: usil
Spectrometer: V785-0024
Trigger mode: 0
Integration Time (sec): 4.000000E-1
Scans to average: 1
Nonlinearity correction enabled: false
Boxcar width: 0
Storing dark spectrum: false
XAxis mode: Wavelengths
Number of Pixels in Spectrum: 1024
>>>>>Begin Spectral Data<<<<<
801.071	8035
801.214	7974
801.356	7875
801.499	7795
801.641	7780
801.783	7803
801.926	8008
802.068	7982
802.211	7887
802.353	8020
802.496	7833
802.638	7799
802.78	7928
802.923	7932
803.065	7826
803.208	7875
803.35	7959
803.492	8103
803.635	8115
803.777	8046
803.919	8119
804.061	8495
804.204	8180
804.346	8016
804.488	7970
804.63	8081
804.773	7993
804.915	8126
805.057	8286
805.199	8123
805.341	8225
805.483	8286
805.626	8271
805.768	8111
805.91	8210
806.052	8142
806.194	8062
806.336	8290
806.478	8161
806.62	8081
806.762	8065
806.904	8267
807.046	8476
807.188	8343
807.33	8355
807.472	8400
807.614	8183
807.756	8107
807.898	8005
808.04	7852
808.182	7860
808.324	7852
808.465	7951
808.607	8103
808.749	8043
808.891	8263
809.033	8313
809.174	8199
809.316	8103
809.458	8058
809.6	7970
809.741	8058
809.883	8046
810.025	8016
810.166	8065
810.308	7997
810.45	8035
810.591	7890
810.733	7704
810.875	7628
811.016	7540
811.158	7502
811.299	7567
811.441	7704
811.582	7674
811.724	7529
811.865	7529
812.007	7518
812.148	7586
812.29	7582
812.431	7742
812.573	7875
812.714	7963
812.855	8183
812.997	8240
813.138	8298
813.279	8138
813.421	8039
813.562	7967
813.703	7868
813.845	7765
813.986	7422
814.127	7213
814.268	7202
814.41	7236
814.551	7152
814.692	7251
814.833	7103
814.974	7046
815.115	7114
815.256	6954
815.397	6970
815.539	6981
815.68	6875
815.821	6772
815.962	6810
816.103	6749
816.244	6730
816.385	6627
816.526	6578
816.666	6502
816.807	6319
816.948	6445
817.089	6441
817.23	6422
817.371	6422
817.512	6353
817.653	6380
817.793	6395
817.934	6395
818.075	6467
818.216	6429
818.356	6399
818.497	6235
818.638	6110
818.778	6220
818.919	6159
819.06	6163
819.2	6338
819.341	6304
819.481	6391
819.622	6547
819.762	6768
819.903	6703
820.043	6623
820.184	6608
820.324	6597
820.465	6730
820.605	6650
820.746	6635
820.886	6536
821.026	6684
821.167	6798
821.307	6844
821.447	6848
821.588	6673
821.728	6620
821.868	6494
822.008	6327
822.149	6380
822.289	6395
822.429	6171
822.569	6095
822.709	6182
822.849	5889
822.99	5885
823.13	5958
823.27	5923
823.41	5775
823.55	5798
823.69	5771
823.83	5824
823.97	5638
824.11	5528
824.25	5532
824.389	5520
824.529	5596
824.669	5562
824.809	5615
824.949	5668
825.089	5630
825.228	5551
825.368	5391
825.508	5349
825.648	5376
825.787	5417
825.927	5387
826.067	5318
826.206	5269
826.346	5398
826.485	5425
826.625	5376
826.765	5558
826.904	5490
827.044	5288
827.183	5201
827.323	5159
827.462	5258
827.601	5117
827.741	5170
827.88	5174
828.02	5090
828.159	5250
828.298	5334
828.437	5326
828.577	5277
828.716	5433
828.855	5318
828.994	5121
829.134	5113
829.273	5162
829.412	5143
829.551	5147
829.69	5113
829.829	5193
829.968	5372
830.107	5269
830.246	5227
830.385	5178
830.524	5140
830.663	5102
830.802	4949
830.941	4877
831.08	4870
831.219	4968
831.357	5014
831.496	5151
831.635	4927
831.774	4847
831.913	4854
832.051	4714
832.19	4763
832.329	4809
832.467	4637
832.606	4641
832.744	4725
832.883	4714
833.022	4710
833.16	4771
833.299	4790
833.437	4805
833.576	4812
833.714	4870
833.852	4831
833.991	4889
834.129	4968
834.267	4968
834.406	4904
834.544	4976
834.682	4957
834.821	4972
834.959	5151
835.097	4934
835.235	5193
835.373	5071
835.511	5121
835.65	4972
835.788	5010
835.926	4908
836.064	4862
836.202	4915
836.34	5193
836.478	5231
836.615	5052
836.753	5261
836.891	5288
837.029	5239
837.167	5174
837.305	5170
837.443	5128
837.58	5083
837.718	5273
837.856	5124
837.993	5155
838.131	5223
838.269	5212
838.406	5216
838.544	5162
838.681	5060
838.819	5022
838.956	4900
839.094	4850
839.231	4934
839.369	5079
839.506	5490
839.643	5254
839.781	5052
839.918	5029
840.055	5094
840.193	5060
840.33	5117
840.467	5140
840.604	5185
840.742	5429
840.879	5117
841.016	5136
841.153	5155
841.29	5368
841.427	5326
841.564	5307
841.701	5337
841.838	5277
841.975	5288
842.112	5284
842.249	5166
842.385	5117
842.522	5303
842.659	5185
842.796	5170
842.933	5185
843.069	5166
843.206	5147
843.343	5303
843.479	5239
843.616	5239
843.752	4987
843.889	5045
844.025	5269
844.162	5048
844.298	5216
844.435	5075
844.571	5025
844.708	5178
844.844	5303
844.98	5303
845.117	5307
845.253	5166
845.389	5029
845.525	5159
845.661	5083
845.798	4968
845.934	5109
846.07	5083
846.206	5178
846.342	5269
846.478	5216
846.614	5022
846.75	4949
846.886	4900
847.022	5124
847.158	5022
847.294	5037
847.429	5140
847.565	5048
847.701	5334
847.837	4866
847.972	4805
848.108	4942
848.244	4908
848.379	4797
848.515	4729
848.65	4694
848.786	4717
848.921	4778
849.057	4862
849.192	4904
849.328	4812
849.463	4828
849.598	4816
849.734	4771
849.869	4691
850.004	4668
850.14	4649
850.275	4569
850.41	4546
850.545	4535
850.68	4569
850.815	4622
850.95	4618
851.085	4831
851.22	4740
851.355	4660
851.49	4645
851.625	4565
851.76	4653
851.895	4558
852.03	4519
852.165	4645
852.299	4710
852.434	4793
852.569	4763
852.703	4767
852.838	4866
852.973	4904
853.107	4923
853.242	4736
853.376	4664
853.511	4565
853.645	4611
853.78	4809
853.914	4698
854.048	4649
854.183	4630
854.317	4733
854.451	4843
854.585	4668
854.72	4668
854.854	4740
854.988	4694
855.122	4603
855.256	4542
855.39	4630
855.524	4771
855.658	4748
855.792	4679
855.926	4729
856.06	4656
856.194	4809
856.327	4698
856.461	4580
856.595	4599
856.729	4641
856.862	4759
856.996	4717
857.13	4679
857.263	4782
857.397	4805
857.53	4637
857.664	4664
857.797	4782
857.931	4759
858.064	4698
858.197	4740
858.331	4634
858.464	4618
858.597	4481
858.731	4649
858.864	4592
858.997	4626
859.13	4641
859.263	4675
859.396	4733
859.529	4558
859.662	4573
859.795	4474
859.928	4615
860.061	4786
860.194	4778
860.327	4626
860.46	4596
860.592	4740
860.725	4714
860.858	4736
860.99	4538
861.123	4516
861.256	4489
861.388	4588
861.521	5216
861.653	4428
861.786	4466
861.918	4474
862.05	4527
862.183	4565
862.315	4618
862.447	4672
862.58	4554
862.712	4402
862.844	4318
862.976	4508
863.108	4432
863.24	4854
863.372	4299
863.504	4405
863.636	4417
863.768	4512
863.9	4451
864.032	4375
864.164	4455
864.296	4470
864.428	4508
864.559	4558
864.691	4561
864.823	4523
864.954	4497
865.086	4447
865.217	4443
865.349	4405
865.48	4474
865.612	4500
865.743	4649
865.875	4493
866.006	4447
866.137	4470
866.269	4436
866.4	4455
866.531	4417
866.662	4360
866.793	4386
866.924	4500
867.055	4485
867.186	4451
867.317	4451
867.448	4356
867.579	4398
867.71	4402
867.841	4413
867.972	4470
868.103	4451
868.233	4436
868.364	4474
868.495	4523
868.625	4683
868.756	4786
868.886	4554
869.017	4630
869.147	4786
869.278	4790
869.408	4668
869.539	4637
869.669	4672
869.799	4683
869.929	4774
870.06	4736
870.19	4976
870.32	4889
870.45	4904
870.58	5033
870.71	5086
870.84	5109
870.97	4923
871.1	4881
871.23	5124
871.36	5117
871.489	5045
871.619	5079
871.749	5098
871.879	5060
872.008	5197
872.138	5086
872.267	4987
872.397	4870
872.526	4801
872.656	4740
872.785	4831
872.915	4923
873.044	5025
873.173	4946
873.303	4923
873.432	4968
873.561	4953
873.69	4927
873.819	4850
873.948	4900
874.077	4812
874.206	4706
874.335	4809
874.464	4908
874.593	5048
874.722	4976
874.851	5098
874.979	5102
875.108	5010
875.237	4900
875.365	4866
875.494	4858
875.623	5006
875.751	4824
875.88	4892
876.008	4927
876.136	5075
876.265	5166
876.393	5345
876.521	5250
876.65	5235
876.778	5147
876.906	5067
877.034	5033
877.162	5075
877.29	5048
877.418	5033
877.546	5060
877.674	5052
877.802	5052
877.93	5022
878.058	4972
878.185	4866
878.313	4961
878.441	4934
878.568	4835
878.696	4911
878.824	4991
878.951	4938
879.079	5136
879.206	5303
879.333	5105
879.461	5022
879.588	5071
879.715	5143
879.842	5265
879.97	5064
880.097	4843
880.224	4736
880.351	4809
880.478	4801
880.605	4801
880.732	4774
880.859	5086
880.986	4862
881.112	4911
881.239	4801
881.366	4706
881.493	4622
881.619	4592
881.746	4622
881.872	4618
881.999	4645
882.125	4691
882.252	4793
882.378	4793
882.505	4949
882.631	4786
882.757	4656
882.883	4733
883.01	4710
883.136	4668
883.262	4603
883.388	4615
883.514	4839
883.64	4843
883.766	4809
883.892	4714
884.018	4698
884.143	4850
884.269	4999
884.395	4645
884.52	4615
884.646	4637
884.772	4577
884.897	4580
885.023	4664
885.148	4790
885.274	4831
885.399	4831
885.524	4649
885.65	4664
885.775	4721
885.9	4675
886.025	4877
886.15	4805
886.275	4729
886.4	4664
886.525	4687
886.65	4634
886.775	4675
886.9	4892
887.025	5071
887.149	4801
887.274	4675
887.399	4569
887.523	4584
887.648	4577
887.773	4531
887.897	4790
888.021	4793
888.146	4729
888.27	4786
888.395	4889
888.519	4816
888.643	4831
888.767	4824
888.891	4740
889.015	4599
889.139	4656
889.263	4596
889.387	4771
889.511	4877
889.635	4820
889.759	4675
889.883	4615
890.006	4694
890.13	4831
890.254	4599
890.377	4733
890.501	4523
890.624	4516
890.748	4611
890.871	4493
890.995	4424
891.118	4352
891.241	4508
891.364	4535
891.488	4656
891.611	4516
891.734	4558
891.857	4558
891.98	4535
892.103	4706
892.226	4615
892.349	4497
892.471	4402
892.594	4558
892.717	4592
892.839	4615
892.962	4615
893.085	4691
893.207	4607
893.33	4497
893.452	4554
893.575	4694
893.697	4561
893.819	4793
893.941	4824
894.064	4767
894.186	4569
894.308	4554
894.43	4721
894.552	4835
894.674	4793
894.796	4531
894.918	4596
895.04	4519
895.161	4706
895.283	4622
895.405	4580
895.526	4668
895.648	4714
895.769	4694
895.891	4664
896.012	4694
896.134	4714
896.255	4683
896.376	4615
896.498	4618
896.619	4664
896.74	4588
896.861	4668
896.982	4938
897.103	5071
897.224	4801
897.345	4706
897.466	4592
897.587	4733
897.708	4820
897.828	4755
897.949	4668
898.07	4500
898.19	4634
898.311	4866
898.431	4664
898.552	4736
898.672	4805
898.792	4812
898.913	4710
899.033	4649
899.153	4519
899.273	4413
899.393	4474
899.513	4542
899.633	4527
899.753	4500
899.873	4523
899.993	4592
900.113	4519
900.232	4558
900.352	4573
900.472	4462
900.591	4398
900.711	4523
900.83	4405
900.95	4622
901.069	4706
901.189	4550
901.308	4333
901.427	4348
901.546	4428
901.665	4481
901.784	4489
901.904	4402
902.023	4360
902.141	4169
902.26	4166
902.379	4318
902.498	4284
902.617	4200
902.735	4440
902.854	4405
902.973	4337
903.091	4211
903.21	4234
903.328	4344
903.446	4306
903.565	4268
903.683	4344
903.801	4295
903.919	4440
904.038	4424
904.156	4322
904.274	4417
904.392	4379
904.51	4402
904.627	4497
904.745	4538
904.863	4626
904.981	4405
905.098	4303
905.216	4375
905.334	4409
905.451	4470
905.569	4394
905.686	4523
905.803	4523
905.921	4417
906.038	4535
906.155	4455
906.272	4367
906.389	4500
906.506	4356
906.623	4405
906.74	4383
906.857	4356
906.974	4371
907.091	4546
907.208	4637
907.324	4569
907.441	4451
907.557	4386
907.674	4325
907.79	4318
907.907	4352
908.023	4497
908.139	4493
908.256	4360
908.372	4508
908.488	4402
908.604	4375
908.72	4318
908.836	4360
908.952	4348
909.068	4409
909.184	4577
909.3	4481
909.415	4611
909.531	4489
909.647	4386
909.762	4352
909.878	4344
909.993	4413
910.108	4390
910.224	4394
910.339	4485
910.454	4371
910.57	4356
910.685	4314
910.8	4634
910.915	4592
911.03	4497
911.145	4341
911.259	4360
911.374	4306
911.489	4295
911.604	4287
911.718	4158
911.833	4192
911.947	4025
912.062	4025
912.176	4223
912.291	4211
912.405	4291
912.519	4436
912.633	4531
912.748	4325
912.862	4303
912.976	4234
913.09	4059
913.204	4150
913.318	4242
913.431	4405
913.545	4409
913.659	4459
913.772	4379
913.886	4223
914	4211
914.113	4386
914.226	4462
914.34	4443
914.453	4284
914.566	4447
914.68	4344
914.793	4344
914.906	4177
915.019	4128
915.132	4055
915.245	4192
915.358	4219
915.47	4265
915.583	4219
915.696	4337
915.809	4432
915.921	4417
916.034	4238
916.146	4234
916.259	4177
916.371	4344
916.483	4348
916.595	4261
916.708	4280
916.82	4299
916.932	4318
917.044	4356
917.156	4337
917.268	4238
917.38	4253
917.491	4268
917.603	4299
917.715	4394
917.826	4413
917.938	4333
918.049	4268
918.161	4333
918.272	4497
918.384	4516
918.495	4421
918.606	4329
918.717	4207
918.828	4352
918.939	4390
919.05	4265
919.161	4257
919.272	4116
919.383	4268
919.494	4409
919.604	4660
919.715	4402
919.826	4356
919.936	4436
920.047	4542
920.157	4504
920.267	4744
920.378	4546
920.488	4497
920.598	4706
920.708	4885
920.818	4759
920.928	4752
921.038	4995
921.148	4942
921.258	4626
921.368	4535
921.477	4504
921.587	4443
921.697	4405
921.806	4527
921.916	4421
922.025	4253
922.134	4322
922.244	4192
922.353	4356
922.462	4162
922.571	4135
922.68	4006
922.789	4021
922.898	4017
923.007	3983
923.116	4082
923.224	4021
923.333	4067
923.442	3987
923.55	3975
923.659	4032
923.767	4131
923.876	3987
923.984	4135
924.092	4017
924.201	4086
924.309	4067
924.417	4090
924.525	4055
924.633	4128
924.741	5033
924.849	3888
924.956	4143
925.064	3941
925.172	3930
925.279	3941
925.387	4090
925.494	4029
925.602	4230
925.709	4177
925.816	4021
925.924	4173
926.031	4234
926.138	4143
926.245	4200
926.352	4090
926.459	4230
926.566	4272
926.673	4154
926.779	4109
926.886	4063
926.993	3956
927.099	3975
927.206	3968
927.312	3930
927.419	4032
927.525	4055
927.631	4097
927.737	3998
927.843	3937
927.95	3838
928.056	3926
928.162	3987
928.267	4044
928.373	4577
928.479	4120
928.585	3876
928.69	3994
928.796	4071
928.901	3983
929.007	3800
929.112	3968
929.218	3918
929.323	3949
929.428	3945
929.533	4139
929.638	3911
929.743	3956
929.848	4006
929.953	4025
930.058	3945
930.163	3762
930.267	3819
930.372	3960
930.477	3823
930.581	4074
930.685	3937
930.79	3812
930.894	3880
930.998	3888
931.103	4013
931.207	3660
931.311	3667
931.415	3656
931.519	3538
931.623	3584
