Data from test_V78500241_141.txt Node
Date: Fri Mar 25 16:49:59 CST 2022
User: usil
Spectrometer: V785-0024
Trigger mode: 0
Integration Time (sec): 4.000000E-1
Scans to average: 1
Nonlinearity correction enabled: false
Boxcar width: 0
Storing dark spectrum: false
XAxis mode: Wavelengths
Number of Pixels in Spectrum: 1024
>>>>>Begin Spectral Data<<<<<
801.071	7993
801.214	8031
801.356	7856
801.499	7967
801.641	7849
801.783	7811
801.926	8043
802.068	8020
802.211	8020
802.353	8027
802.496	7898
802.638	7898
802.78	7955
802.923	8035
803.065	7887
803.208	7852
803.35	8016
803.492	8096
803.635	8100
803.777	8050
803.919	8111
804.061	8412
804.204	8138
804.346	8084
804.488	7898
804.63	8069
804.773	7989
804.915	8088
805.057	8225
805.199	8119
805.341	8172
805.483	8229
805.626	8229
805.768	8024
805.91	8229
806.052	8153
806.194	8123
806.336	8358
806.478	8176
806.62	8123
806.762	8126
806.904	8221
807.046	8488
807.188	8404
807.33	8294
807.472	8351
807.614	8202
807.756	8138
807.898	8050
808.04	7940
808.182	7951
808.324	7982
808.465	7909
808.607	8065
808.749	8145
808.891	8225
809.033	8328
809.174	8233
809.316	7997
809.458	8027
809.6	7928
809.741	8054
809.883	8043
810.025	8134
810.166	8119
810.308	8145
810.45	8031
810.591	7925
810.733	7792
810.875	7696
811.016	7571
811.158	7487
811.299	7655
811.441	7704
811.582	7700
811.724	7647
811.865	7616
812.007	7651
812.148	7632
812.29	7719
812.431	7841
812.573	7890
812.714	8031
812.855	8191
812.997	8279
813.138	8412
813.279	8301
813.421	8180
813.562	8065
813.703	7921
813.845	7788
813.986	7472
814.127	7293
814.268	7293
814.41	7202
814.551	7255
814.692	7263
814.833	7126
814.974	7141
815.115	7168
815.256	7069
815.397	6939
815.539	6993
815.68	6897
815.821	6852
815.962	6932
816.103	6760
816.244	6779
816.385	6692
816.526	6631
816.666	6502
816.807	6304
816.948	6521
817.089	6582
817.23	6509
817.371	6452
817.512	6429
817.653	6433
817.793	6372
817.934	6452
818.075	6441
818.216	6456
818.356	6399
818.497	6277
818.638	6121
818.778	6175
818.919	6171
819.06	6102
819.2	6350
819.341	6311
819.481	6407
819.622	6574
819.762	6757
819.903	6776
820.043	6597
820.184	6574
820.324	6536
820.465	6688
820.605	6665
820.746	6684
820.886	6563
821.026	6684
821.167	6772
821.307	6833
821.447	6833
821.588	6700
821.728	6642
821.868	6513
822.008	6300
822.149	6342
822.289	6410
822.429	6186
822.569	6117
822.709	6182
822.849	5988
822.99	5958
823.13	6007
823.27	5923
823.41	5828
823.55	5866
823.69	5821
823.83	5794
823.97	5710
824.11	5581
824.25	5581
824.389	5642
824.529	5653
824.669	5558
824.809	5642
824.949	5630
825.089	5676
825.228	5562
825.368	5357
825.508	5368
825.648	5341
825.787	5398
825.927	5402
826.067	5311
826.206	5303
826.346	5444
826.485	5417
826.625	5455
826.765	5554
826.904	5562
827.044	5337
827.183	5246
827.323	5162
827.462	5269
827.601	5273
827.741	5227
827.88	5208
828.02	5117
828.159	5250
828.298	5292
828.437	5337
828.577	5292
828.716	5585
828.855	5330
828.994	5231
829.134	5143
829.273	5204
829.412	5181
829.551	5201
829.69	5166
829.829	5269
829.968	5372
830.107	5265
830.246	5273
830.385	5208
830.524	5189
830.663	5105
830.802	5014
830.941	4877
831.08	4858
831.219	4999
831.357	5014
831.496	5185
831.635	4911
831.774	4847
831.913	4831
832.051	4774
832.19	4790
832.329	4870
832.467	4698
832.606	4683
832.744	4710
832.883	4736
833.022	4736
833.16	4843
833.299	4870
833.437	4858
833.576	4870
833.714	4877
833.852	4877
833.991	4942
834.129	4995
834.267	4911
834.406	4934
834.544	5037
834.682	5029
834.821	5014
834.959	5193
835.097	5006
835.235	5151
835.373	5064
835.511	5166
835.65	5018
835.788	5067
835.926	4915
836.064	4885
836.202	4934
836.34	5147
836.478	5307
836.615	5204
836.753	5246
836.891	5299
837.029	5292
837.167	5159
837.305	5151
837.443	5140
837.58	5105
837.718	5277
837.856	5166
837.993	5155
838.131	5227
838.269	5204
838.406	5216
838.544	5189
838.681	5052
838.819	5033
838.956	4873
839.094	4968
839.231	4999
839.369	5086
839.506	5398
839.643	5261
839.781	5086
839.918	5045
840.055	5113
840.193	5113
840.33	5136
840.467	5128
840.604	5212
840.742	5512
840.879	5121
841.016	5083
841.153	5193
841.29	5417
841.427	5334
841.564	5341
841.701	5372
841.838	5299
841.975	5265
842.112	5254
842.249	5132
842.385	5083
842.522	5322
842.659	5159
842.796	5181
842.933	5242
843.069	5132
843.206	5235
843.343	5292
843.479	5280
843.616	5322
843.752	5029
843.889	5029
844.025	5185
844.162	5029
844.298	5239
844.435	5060
844.571	5052
844.708	5239
844.844	5337
844.98	5330
845.117	5303
845.253	5174
845.389	5071
845.525	5159
845.661	5185
845.798	5071
845.934	5136
846.07	5079
846.206	5223
846.342	5239
846.478	5166
846.614	5079
846.75	4980
846.886	5006
847.022	5178
847.158	5006
847.294	5117
847.429	5143
847.565	5052
847.701	5341
847.837	4870
847.972	4801
848.108	4957
848.244	4949
848.379	4831
848.515	4759
848.65	4744
848.786	4740
848.921	4828
849.057	4896
849.192	4896
849.328	4831
849.463	4843
849.598	4793
849.734	4729
849.869	4706
850.004	4702
850.14	4664
850.275	4599
850.41	4550
850.545	4538
850.68	4592
850.815	4672
850.95	4630
851.085	4870
851.22	4790
851.355	4706
851.49	4691
851.625	4645
851.76	4649
851.895	4580
852.03	4538
852.165	4630
852.299	4714
852.434	4809
852.569	4805
852.703	4763
852.838	4873
852.973	4915
853.107	4862
853.242	4774
853.376	4698
853.511	4573
853.645	4637
853.78	4793
853.914	4706
854.048	4668
854.183	4656
854.317	4714
854.451	4854
854.585	4649
854.72	4668
854.854	4790
854.988	4634
855.122	4660
855.256	4527
855.39	4656
855.524	4790
855.658	4725
855.792	4660
855.926	4740
856.06	4744
856.194	4847
856.327	4733
856.461	4637
856.595	4649
856.729	4618
856.862	4740
856.996	4706
857.13	4691
857.263	4797
857.397	4816
857.53	4717
857.664	4729
857.797	4767
857.931	4801
858.064	4679
858.197	4767
858.331	4694
858.464	4664
858.597	4554
858.731	4626
858.864	4710
858.997	4626
859.13	4706
859.263	4714
859.396	4793
859.529	4550
859.662	4577
859.795	4542
859.928	4664
860.061	4767
860.194	4797
860.327	4649
860.46	4584
860.592	4717
860.725	4782
860.858	4786
860.99	4558
861.123	4569
861.256	4531
861.388	4592
861.521	5421
861.653	4493
861.786	4405
861.918	4432
862.05	4516
862.183	4592
862.315	4565
862.447	4599
862.58	4622
862.712	4390
862.844	4341
862.976	4535
863.108	4462
863.24	4900
863.372	4440
863.504	4402
863.636	4390
863.768	4500
863.9	4421
864.032	4383
864.164	4363
864.296	4478
864.428	4565
864.559	4592
864.691	4554
864.823	4565
864.954	4512
865.086	4519
865.217	4493
865.349	4424
865.48	4493
865.612	4516
865.743	4607
865.875	4531
866.006	4516
866.137	4462
866.269	4478
866.4	4462
866.531	4405
866.662	4428
866.793	4363
866.924	4428
867.055	4535
867.186	4466
867.317	4455
867.448	4367
867.579	4375
867.71	4413
867.841	4413
867.972	4493
868.103	4481
868.233	4470
868.364	4523
868.495	4493
868.625	4710
868.756	4790
868.886	4588
869.017	4599
869.147	4812
869.278	4786
869.408	4668
869.539	4637
869.669	4744
869.799	4668
869.929	4736
870.06	4725
870.19	4961
870.32	4889
870.45	4961
870.58	5029
870.71	5128
870.84	5117
870.97	4976
871.1	4972
871.23	5132
871.36	5155
871.489	5060
871.619	5117
871.749	5094
871.879	5143
872.008	5170
872.138	5105
872.267	5022
872.397	4847
872.526	4847
872.656	4672
872.785	4854
872.915	5018
873.044	5056
873.173	5014
873.303	5003
873.432	4972
873.561	4968
873.69	4919
873.819	4896
873.948	4934
874.077	4793
874.206	4790
874.335	4809
874.464	4965
874.593	5022
874.722	4946
874.851	5086
874.979	5029
875.108	5064
875.237	4908
875.365	4934
875.494	4877
875.623	4972
875.751	4858
875.88	4862
876.008	4987
876.136	5037
876.265	5181
876.393	5349
876.521	5265
876.65	5193
876.778	5136
876.906	5056
877.034	4995
877.162	5147
877.29	5014
877.418	5060
877.546	5067
877.674	5033
877.802	5056
877.93	5056
878.058	4961
878.185	4919
878.313	4987
878.441	4938
878.568	4771
878.696	4900
878.824	4972
878.951	5029
879.079	5147
879.206	5288
879.333	5155
879.461	5075
879.588	5071
879.715	5132
879.842	5311
879.97	4984
880.097	4767
880.224	4755
880.351	4828
880.478	4866
880.605	4854
880.732	4816
880.859	5102
880.986	4908
881.112	4942
881.239	4767
881.366	4668
881.493	4637
881.619	4592
881.746	4687
881.872	4634
881.999	4675
882.125	4744
882.252	4809
882.378	4820
882.505	4953
882.631	4843
882.757	4702
882.883	4767
883.01	4748
883.136	4714
883.262	4622
883.388	4603
883.514	4839
883.64	4892
883.766	4790
883.892	4683
884.018	4717
884.143	4881
884.269	5003
884.395	4702
884.52	4660
884.646	4656
884.772	4584
884.897	4599
885.023	4691
885.148	4801
885.274	4896
885.399	4812
885.524	4755
885.65	4740
885.775	4790
885.9	4740
886.025	4923
886.15	4797
886.275	4683
886.4	4649
886.525	4778
886.65	4733
886.775	4679
886.9	4892
887.025	5052
887.149	4828
887.274	4698
887.399	4607
887.523	4584
887.648	4573
887.773	4573
887.897	4763
888.021	4858
888.146	4660
888.27	4854
888.395	4923
888.519	4797
888.643	4862
888.767	4892
888.891	4691
889.015	4634
889.139	4660
889.263	4664
889.387	4793
889.511	4889
889.635	4847
889.759	4641
889.883	4664
890.006	4767
890.13	4831
890.254	4618
890.377	4717
890.501	4577
890.624	4561
890.748	4660
890.871	4535
890.995	4470
891.118	4409
891.241	4554
891.364	4519
891.488	4637
891.611	4516
891.734	4554
891.857	4615
891.98	4542
892.103	4596
892.226	4622
892.349	4527
892.471	4455
892.594	4561
892.717	4596
892.839	4569
892.962	4611
893.085	4649
893.207	4618
893.33	4462
893.452	4535
893.575	4668
893.697	4561
893.819	4778
893.941	4881
894.064	4729
894.186	4641
894.308	4580
894.43	4729
894.552	4873
894.674	4755
894.796	4565
894.918	4660
895.04	4546
895.161	4675
895.283	4618
895.405	4558
895.526	4630
895.648	4733
895.769	4706
895.891	4702
896.012	4740
896.134	4733
896.255	4710
896.376	4653
896.498	4687
896.619	4668
896.74	4634
896.861	4668
896.982	4934
897.103	5071
897.224	4809
897.345	4790
897.466	4691
897.587	4729
897.708	4904
897.828	4790
897.949	4687
898.07	4599
898.19	4637
898.311	4839
898.431	4698
898.552	4763
898.672	4862
898.792	4809
898.913	4752
899.033	4611
899.153	4497
899.273	4447
899.393	4500
899.513	4565
899.633	4508
899.753	4542
899.873	4535
899.993	4641
900.113	4561
900.232	4580
900.352	4531
900.472	4519
900.591	4443
900.711	4523
900.83	4478
900.95	4645
901.069	4694
901.189	4538
901.308	4394
901.427	4344
901.546	4409
901.665	4538
901.784	4519
901.904	4379
902.023	4310
902.141	4242
902.26	4173
902.379	4322
902.498	4246
902.617	4238
902.735	4348
902.854	4394
902.973	4398
903.091	4211
903.21	4227
903.328	4303
903.446	4280
903.565	4280
903.683	4363
903.801	4303
903.919	4379
904.038	4440
904.156	4291
904.274	4417
904.392	4462
904.51	4466
904.627	4527
904.745	4569
904.863	4656
904.981	4428
905.098	4325
905.216	4329
905.334	4436
905.451	4424
905.569	4470
905.686	4569
905.803	4527
905.921	4466
906.038	4550
906.155	4478
906.272	4417
906.389	4485
906.506	4367
906.623	4417
906.74	4360
906.857	4306
906.974	4432
907.091	4596
907.208	4691
907.324	4550
907.441	4451
907.557	4337
907.674	4402
907.79	4329
907.907	4348
908.023	4538
908.139	4535
908.256	4424
908.372	4466
908.488	4478
908.604	4367
908.72	4329
908.836	4371
908.952	4409
909.068	4421
909.184	4573
909.3	4432
909.415	4592
909.531	4550
909.647	4329
909.762	4405
909.878	4390
909.993	4466
910.108	4462
910.224	4417
910.339	4470
910.454	4424
910.57	4333
910.685	4325
910.8	4645
910.915	4611
911.03	4523
911.145	4284
911.259	4333
911.374	4371
911.489	4322
911.604	4280
911.718	4192
911.833	4200
911.947	4067
912.062	4032
912.176	4207
912.291	4211
912.405	4238
912.519	4481
912.633	4531
912.748	4409
912.862	4322
912.976	4249
913.09	4116
913.204	4196
913.318	4257
913.431	4363
913.545	4371
913.659	4447
913.772	4413
913.886	4284
914	4265
914.113	4409
914.226	4459
914.34	4421
914.453	4227
914.566	4443
914.68	4337
914.793	4341
914.906	4185
915.019	4139
915.132	4116
915.245	4207
915.358	4207
915.47	4261
915.583	4341
915.696	4314
915.809	4451
915.921	4428
916.034	4291
916.146	4257
916.259	4219
916.371	4363
916.483	4409
916.595	4287
916.708	4371
916.82	4383
916.932	4314
917.044	4375
917.156	4333
917.268	4242
917.38	4253
917.491	4268
917.603	4303
917.715	4455
917.826	4481
917.938	4367
918.049	4246
918.161	4424
918.272	4535
918.384	4569
918.495	4451
918.606	4295
918.717	4230
918.828	4329
918.939	4421
919.05	4268
919.161	4363
919.272	4150
919.383	4234
919.494	4489
919.604	4626
919.715	4451
919.826	4329
919.936	4409
920.047	4504
920.157	4474
920.267	4702
920.378	4584
920.488	4478
920.598	4744
920.708	4919
920.818	4733
920.928	4763
921.038	4930
921.148	4923
921.258	4611
921.368	4561
921.477	4481
921.587	4481
921.697	4363
921.806	4542
921.916	4474
922.025	4268
922.134	4280
922.244	4261
922.353	4360
922.462	4192
922.571	4112
922.68	4029
922.789	4002
922.898	4063
923.007	4029
923.116	4078
923.224	4105
923.333	4078
923.442	4006
923.55	3972
923.659	4017
923.767	4112
923.876	3994
923.984	4112
924.092	3987
924.201	4097
924.309	4112
924.417	4101
924.525	4082
924.633	4128
924.741	4892
924.849	3945
924.956	4158
925.064	3949
925.172	3960
925.279	3975
925.387	4074
925.494	4074
925.602	4227
925.709	4196
925.816	4097
925.924	4154
926.031	4238
926.138	4154
926.245	4272
926.352	4086
926.459	4265
926.566	4295
926.673	4177
926.779	4105
926.886	4112
926.993	3987
927.099	4021
927.206	3960
927.312	3953
927.419	4067
927.525	4048
927.631	4139
927.737	3937
927.843	3960
927.95	3888
928.056	3964
928.162	4010
928.267	4086
928.373	4611
928.479	4185
928.585	3903
928.69	4055
928.796	4093
928.901	3998
929.007	3888
929.112	4063
929.218	4010
929.323	3956
929.428	3953
929.533	4135
929.638	3922
929.743	3968
929.848	4063
929.953	3975
930.058	3968
930.163	3785
930.267	3892
930.372	3975
930.477	3800
930.581	4120
930.685	3945
930.79	3800
930.894	3907
930.998	3850
931.103	4032
931.207	3709
931.311	3682
931.415	3698
931.519	3500
931.623	3530
