Data from test_V78500241_297.txt Node
Date: Fri Mar 25 16:51:04 CST 2022
User: usil
Spectrometer: V785-0024
Trigger mode: 0
Integration Time (sec): 4.000000E-1
Scans to average: 1
Nonlinearity correction enabled: false
Boxcar width: 0
Storing dark spectrum: false
XAxis mode: Wavelengths
Number of Pixels in Spectrum: 1024
>>>>>Begin Spectral Data<<<<<
801.071	8054
801.214	8027
801.356	7906
801.499	7864
801.641	7894
801.783	7799
801.926	7970
802.068	7978
802.211	8065
802.353	8043
802.496	7921
802.638	7951
802.78	7947
802.923	7928
803.065	7879
803.208	7818
803.35	7947
803.492	8027
803.635	8073
803.777	8043
803.919	8153
804.061	8442
804.204	8123
804.346	8081
804.488	7921
804.63	8126
804.773	7970
804.915	8054
805.057	8221
805.199	8130
805.341	8214
805.483	8214
805.626	8149
805.768	8069
805.91	8187
806.052	8263
806.194	8050
806.336	8332
806.478	8191
806.62	8115
806.762	8123
806.904	8305
807.046	8526
807.188	8339
807.33	8244
807.472	8305
807.614	8103
807.756	8149
807.898	8012
808.04	7883
808.182	7921
808.324	7860
808.465	7921
808.607	8077
808.749	8107
808.891	8248
809.033	8309
809.174	8100
809.316	8054
809.458	8058
809.6	7989
809.741	8035
809.883	8039
810.025	8069
810.166	8115
810.308	8103
810.45	7986
810.591	7989
810.733	7738
810.875	7681
811.016	7556
811.158	7460
811.299	7616
811.441	7750
811.582	7696
811.724	7578
811.865	7525
812.007	7670
812.148	7590
812.29	7647
812.431	7772
812.573	7864
812.714	7978
812.855	8145
812.997	8206
813.138	8252
813.279	8157
813.421	8142
813.562	8012
813.703	7875
813.845	7772
813.986	7472
814.127	7297
814.268	7251
814.41	7217
814.551	7137
814.692	7255
814.833	7034
814.974	7072
815.115	7110
815.256	6966
815.397	6878
815.539	6954
815.68	6894
815.821	6791
815.962	6916
816.103	6821
816.244	6768
816.385	6623
816.526	6665
816.666	6525
816.807	6239
816.948	6456
817.089	6494
817.23	6422
817.371	6365
817.512	6414
817.653	6414
817.793	6311
817.934	6429
818.075	6414
818.216	6391
818.356	6391
818.497	6213
818.638	6144
818.778	6152
818.919	6182
819.06	6133
819.2	6323
819.341	6296
819.481	6350
819.622	6570
819.762	6703
819.903	6707
820.043	6650
820.184	6578
820.324	6540
820.465	6707
820.605	6650
820.746	6608
820.886	6521
821.026	6662
821.167	6665
821.307	6829
821.447	6753
821.588	6639
821.728	6570
821.868	6532
822.008	6388
822.149	6376
822.289	6315
822.429	6163
822.569	6110
822.709	6095
822.849	5961
822.99	5931
823.13	5893
823.27	5904
823.41	5813
823.55	5805
823.69	5817
823.83	5809
823.97	5699
824.11	5512
824.25	5509
824.389	5543
824.529	5558
824.669	5512
824.809	5558
824.949	5665
825.089	5642
825.228	5592
825.368	5425
825.508	5368
825.648	5395
825.787	5383
825.927	5345
826.067	5296
826.206	5315
826.346	5315
826.485	5452
826.625	5357
826.765	5577
826.904	5501
827.044	5227
827.183	5212
827.323	5128
827.462	5181
827.601	5166
827.741	5159
827.88	5178
828.02	5094
828.159	5239
828.298	5269
828.437	5364
828.577	5254
828.716	5520
828.855	5364
828.994	5181
829.134	5155
829.273	5231
829.412	5113
829.551	5132
829.69	5128
829.829	5303
829.968	5330
830.107	5296
830.246	5288
830.385	5162
830.524	5113
830.663	5064
830.802	4953
830.941	4892
831.08	4915
831.219	4938
831.357	4930
831.496	5166
831.635	4957
831.774	4862
831.913	4877
832.051	4740
832.19	4759
832.329	4812
832.467	4649
832.606	4637
832.744	4698
832.883	4717
833.022	4679
833.16	4816
833.299	4820
833.437	4771
833.576	4854
833.714	4889
833.852	4793
833.991	4881
834.129	4953
834.267	4942
834.406	4889
834.544	4961
834.682	4976
834.821	4984
834.959	5181
835.097	5022
835.235	5128
835.373	5113
835.511	5162
835.65	5079
835.788	5003
835.926	4892
836.064	4919
836.202	4961
836.34	5128
836.478	5212
836.615	5121
836.753	5250
836.891	5280
837.029	5254
837.167	5246
837.305	5223
837.443	5151
837.58	5071
837.718	5250
837.856	5181
837.993	5124
838.131	5231
838.269	5220
838.406	5178
838.544	5185
838.681	5041
838.819	5048
838.956	4915
839.094	4942
839.231	4938
839.369	5147
839.506	5467
839.643	5250
839.781	5121
839.918	5086
840.055	5132
840.193	5159
840.33	5109
840.467	5117
840.604	5132
840.742	5406
840.879	5113
841.016	5105
841.153	5143
841.29	5379
841.427	5337
841.564	5261
841.701	5429
841.838	5261
841.975	5254
842.112	5273
842.249	5121
842.385	5113
842.522	5299
842.659	5136
842.796	5170
842.933	5132
843.069	5124
843.206	5147
843.343	5280
843.479	5223
843.616	5296
843.752	4987
843.889	5033
844.025	5223
844.162	5022
844.298	5201
844.435	5098
844.571	5025
844.708	5250
844.844	5330
844.98	5337
845.117	5296
845.253	5094
845.389	5102
845.525	5185
845.661	5162
845.798	5056
845.934	5181
846.07	5075
846.206	5235
846.342	5296
846.478	5216
846.614	5025
846.75	4946
846.886	4946
847.022	5136
847.158	5056
847.294	5045
847.429	5113
847.565	5033
847.701	5330
847.837	4881
847.972	4828
848.108	4953
848.244	4896
848.379	4790
848.515	4740
848.65	4733
848.786	4717
848.921	4740
849.057	4885
849.192	4911
849.328	4862
849.463	4831
849.598	4824
849.734	4740
849.869	4694
850.004	4596
850.14	4702
850.275	4679
850.41	4538
850.545	4519
850.68	4618
850.815	4596
850.95	4618
851.085	4831
851.22	4782
851.355	4615
851.49	4672
851.625	4615
851.76	4668
851.895	4626
852.03	4538
852.165	4622
852.299	4664
852.434	4774
852.569	4759
852.703	4763
852.838	4831
852.973	4934
853.107	4911
853.242	4771
853.376	4721
853.511	4459
853.645	4656
853.78	4812
853.914	4694
854.048	4706
854.183	4668
854.317	4691
854.451	4835
854.585	4706
854.72	4653
854.854	4774
854.988	4584
855.122	4698
855.256	4516
855.39	4641
855.524	4797
855.658	4744
855.792	4733
855.926	4740
856.06	4725
856.194	4774
856.327	4725
856.461	4588
856.595	4622
856.729	4653
856.862	4763
856.996	4691
857.13	4736
857.263	4763
857.397	4771
857.53	4683
857.664	4717
857.797	4771
857.931	4790
858.064	4691
858.197	4733
858.331	4691
858.464	4607
858.597	4542
858.731	4622
858.864	4637
858.997	4611
859.13	4634
859.263	4698
859.396	4714
859.529	4599
859.662	4527
859.795	4599
859.928	4626
860.061	4767
860.194	4729
860.327	4634
860.46	4611
860.592	4691
860.725	4717
860.858	4744
860.99	4588
861.123	4519
861.256	4485
861.388	4615
861.521	5353
861.653	4485
861.786	4478
861.918	4462
862.05	4500
862.183	4550
862.315	4573
862.447	4626
862.58	4478
862.712	4424
862.844	4287
862.976	4440
863.108	4443
863.24	4911
863.372	4325
863.504	4421
863.636	4447
863.768	4485
863.9	4478
864.032	4394
864.164	4394
864.296	4436
864.428	4538
864.559	4588
864.691	4554
864.823	4527
864.954	4489
865.086	4542
865.217	4478
865.349	4417
865.48	4443
865.612	4474
865.743	4649
865.875	4455
866.006	4451
866.137	4462
866.269	4489
866.4	4481
866.531	4424
866.662	4394
866.793	4451
866.924	4398
867.055	4504
867.186	4443
867.317	4451
867.448	4421
867.579	4367
867.71	4417
867.841	4394
867.972	4466
868.103	4455
868.233	4436
868.364	4462
868.495	4489
868.625	4687
868.756	4755
868.886	4599
869.017	4626
869.147	4820
869.278	4801
869.408	4656
869.539	4672
869.669	4744
869.799	4683
869.929	4744
870.06	4759
870.19	4942
870.32	4957
870.45	4927
870.58	5014
870.71	5113
870.84	5128
870.97	4919
871.1	4949
871.23	5128
871.36	5162
871.489	5018
871.619	5071
871.749	5121
871.879	5102
872.008	5159
872.138	5033
872.267	5006
872.397	4870
872.526	4839
872.656	4725
872.785	4862
872.915	4938
873.044	5045
873.173	4965
873.303	4995
873.432	4946
873.561	4987
873.69	4877
873.819	4919
873.948	4904
874.077	4790
874.206	4759
874.335	4759
874.464	4919
874.593	5083
874.722	4953
874.851	5117
874.979	5022
875.108	5033
875.237	4908
875.365	4862
875.494	4881
875.623	5003
875.751	4820
875.88	4843
876.008	4957
876.136	5071
876.265	5147
876.393	5330
876.521	5277
876.65	5220
876.778	5185
876.906	5086
877.034	5010
877.162	5033
877.29	4984
877.418	5033
877.546	5025
877.674	5075
877.802	5010
877.93	4976
878.058	4919
878.185	4911
878.313	4957
878.441	4908
878.568	4797
878.696	4843
878.824	5003
878.951	4999
879.079	5113
879.206	5330
879.333	5102
879.461	4984
879.588	4965
879.715	5105
879.842	5212
879.97	5014
880.097	4774
880.224	4778
880.351	4828
880.478	4782
880.605	4797
880.732	4782
880.859	5140
880.986	4908
881.112	4889
881.239	4763
881.366	4687
881.493	4615
881.619	4615
881.746	4630
881.872	4668
881.999	4668
882.125	4714
882.252	4793
882.378	4839
882.505	4965
882.631	4820
882.757	4641
882.883	4733
883.01	4740
883.136	4664
883.262	4596
883.388	4630
883.514	4801
883.64	4892
883.766	4793
883.892	4630
884.018	4733
884.143	4927
884.269	5022
884.395	4683
884.52	4599
884.646	4622
884.772	4554
884.897	4504
885.023	4630
885.148	4839
885.274	4908
885.399	4812
885.524	4733
885.65	4691
885.775	4767
885.9	4725
886.025	4850
886.15	4774
886.275	4759
886.4	4706
886.525	4721
886.65	4660
886.775	4687
886.9	4881
887.025	5041
887.149	4809
887.274	4630
887.399	4588
887.523	4622
887.648	4573
887.773	4577
887.897	4778
888.021	4790
888.146	4656
888.27	4816
888.395	4854
888.519	4774
888.643	4797
888.767	4828
888.891	4691
889.015	4588
889.139	4618
889.263	4645
889.387	4744
889.511	4889
889.635	4736
889.759	4637
889.883	4672
890.006	4752
890.13	4831
890.254	4622
890.377	4694
890.501	4542
890.624	4561
890.748	4618
890.871	4497
890.995	4451
891.118	4386
891.241	4554
891.364	4485
891.488	4679
891.611	4538
891.734	4542
891.857	4626
891.98	4569
892.103	4660
892.226	4599
892.349	4542
892.471	4489
892.594	4531
892.717	4569
892.839	4618
892.962	4558
893.085	4649
893.207	4592
893.33	4440
893.452	4535
893.575	4668
893.697	4599
893.819	4774
893.941	4862
894.064	4824
894.186	4577
894.308	4558
894.43	4771
894.552	4850
894.674	4778
894.796	4569
894.918	4615
895.04	4554
895.161	4687
895.283	4679
895.405	4527
895.526	4675
895.648	4656
895.769	4679
895.891	4717
896.012	4767
896.134	4714
896.255	4702
896.376	4607
896.498	4660
896.619	4660
896.74	4634
896.861	4649
896.982	4930
897.103	5010
897.224	4778
897.345	4706
897.466	4679
897.587	4710
897.708	4843
897.828	4767
897.949	4706
898.07	4607
898.19	4653
898.311	4847
898.431	4683
898.552	4702
898.672	4850
898.792	4790
898.913	4763
899.033	4645
899.153	4504
899.273	4371
899.393	4504
899.513	4561
899.633	4512
899.753	4569
899.873	4481
899.993	4592
900.113	4508
900.232	4607
900.352	4577
900.472	4474
900.591	4402
900.711	4459
900.83	4462
900.95	4603
901.069	4698
901.189	4550
901.308	4371
901.427	4352
901.546	4409
901.665	4504
901.784	4489
901.904	4352
902.023	4341
902.141	4196
902.26	4200
902.379	4337
902.498	4223
902.617	4219
902.735	4394
902.854	4424
902.973	4375
903.091	4265
903.21	4242
903.328	4306
903.446	4276
903.565	4295
903.683	4402
903.801	4287
903.919	4386
904.038	4455
904.156	4295
904.274	4497
904.392	4413
904.51	4432
904.627	4462
904.745	4596
904.863	4668
904.981	4424
905.098	4303
905.216	4337
905.334	4432
905.451	4421
905.569	4424
905.686	4592
905.803	4599
905.921	4409
906.038	4584
906.155	4474
906.272	4394
906.389	4481
906.506	4356
906.623	4440
906.74	4447
906.857	4322
906.974	4405
907.091	4527
907.208	4645
907.324	4588
907.441	4478
907.557	4375
907.674	4325
907.79	4306
907.907	4440
908.023	4455
908.139	4485
908.256	4462
908.372	4432
908.488	4447
908.604	4341
908.72	4356
908.836	4371
908.952	4390
909.068	4394
909.184	4580
909.3	4462
909.415	4577
909.531	4546
909.647	4379
909.762	4360
909.878	4337
909.993	4470
910.108	4417
910.224	4413
910.339	4550
910.454	4443
910.57	4371
910.685	4341
910.8	4679
910.915	4577
911.03	4493
911.145	4409
911.259	4383
911.374	4322
911.489	4310
911.604	4318
911.718	4196
911.833	4211
911.947	4112
912.062	3987
912.176	4211
912.291	4242
912.405	4276
912.519	4481
912.633	4459
912.748	4356
912.862	4341
912.976	4169
913.09	4120
913.204	4192
913.318	4230
913.431	4405
913.545	4379
913.659	4440
913.772	4356
913.886	4261
914	4234
914.113	4367
914.226	4440
914.34	4421
914.453	4204
914.566	4436
914.68	4276
914.793	4322
914.906	4116
915.019	4090
915.132	4074
915.245	4211
915.358	4188
915.47	4219
915.583	4265
915.696	4303
915.809	4417
915.921	4424
916.034	4295
916.146	4242
916.259	4234
916.371	4402
916.483	4322
916.595	4249
916.708	4367
916.82	4310
916.932	4344
917.044	4390
917.156	4390
917.268	4295
917.38	4261
917.491	4303
917.603	4299
917.715	4379
917.826	4421
917.938	4375
918.049	4265
918.161	4413
918.272	4512
918.384	4569
918.495	4424
918.606	4325
918.717	4215
918.828	4333
918.939	4371
919.05	4265
919.161	4337
919.272	4135
919.383	4265
919.494	4462
919.604	4645
919.715	4451
919.826	4341
919.936	4363
920.047	4459
920.157	4485
920.267	4664
920.378	4584
920.488	4508
920.598	4687
920.708	4835
920.818	4790
920.928	4771
921.038	4892
921.148	4908
921.258	4649
921.368	4592
921.477	4535
921.587	4417
921.697	4432
921.806	4550
921.916	4424
922.025	4246
922.134	4246
922.244	4238
922.353	4356
922.462	4207
922.571	4143
922.68	3975
922.789	3949
922.898	4055
923.007	4006
923.116	4048
923.224	4128
923.333	4044
923.442	4010
923.55	3994
923.659	4059
923.767	4097
923.876	3987
923.984	4139
924.092	3987
924.201	4086
924.309	4135
924.417	4101
924.525	4055
924.633	4090
924.741	5052
924.849	3953
924.956	4131
925.064	3983
925.172	3861
925.279	3960
925.387	4055
925.494	4017
925.602	4196
925.709	4207
925.816	4051
925.924	4158
926.031	4204
926.138	4207
926.245	4200
926.352	4101
926.459	4238
926.566	4291
926.673	4139
926.779	4120
926.886	4078
926.993	3998
927.099	3964
927.206	3930
927.312	3937
927.419	4032
927.525	4063
927.631	4074
927.737	3987
927.843	3930
927.95	3835
928.056	3945
928.162	3994
928.267	4124
928.373	4729
928.479	4101
928.585	3854
928.69	4017
928.796	4143
928.901	3968
929.007	3850
929.112	3987
929.218	3937
929.323	3960
929.428	3949
929.533	4093
929.638	3918
929.743	3975
929.848	4044
929.953	4025
930.058	3918
930.163	3770
930.267	3816
930.372	3972
930.477	3800
930.581	4067
930.685	3937
930.79	3819
930.894	3876
930.998	3835
931.103	4002
931.207	3740
931.311	3690
931.415	3660
931.519	3530
931.623	3519
