Data from test_V78500241_1602.txt Node
Date: Fri Mar 25 17:00:08 CST 2022
User: usil
Spectrometer: V785-0024
Trigger mode: 0
Integration Time (sec): 4.000000E-1
Scans to average: 1
Nonlinearity correction enabled: false
Boxcar width: 0
Storing dark spectrum: false
XAxis mode: Wavelengths
Number of Pixels in Spectrum: 1024
>>>>>Begin Spectral Data<<<<<
801.071	7925
801.214	8008
801.356	7913
801.499	7826
801.641	7807
801.783	7788
801.926	7978
802.068	7970
802.211	7936
802.353	7925
802.496	7826
802.638	7807
802.78	7849
802.923	7890
803.065	7841
803.208	7875
803.35	7940
803.492	7986
803.635	8065
803.777	8073
803.919	8153
804.061	8389
804.204	8115
804.346	8069
804.488	8020
804.63	8035
804.773	8012
804.915	8008
805.057	8320
805.199	8199
805.341	8240
805.483	8279
805.626	8161
805.768	8153
805.91	8202
806.052	8256
806.194	8046
806.336	8301
806.478	8077
806.62	8065
806.762	8107
806.904	8313
807.046	8473
807.188	8396
807.33	8263
807.472	8256
807.614	8240
807.756	8134
807.898	8020
808.04	7913
808.182	7925
808.324	7830
808.465	7875
808.607	8088
808.749	8062
808.891	8115
809.033	8279
809.174	8195
809.316	8081
809.458	8046
809.6	7967
809.741	8016
809.883	8001
810.025	8069
810.166	8073
810.308	8062
810.45	7947
810.591	7875
810.733	7723
810.875	7658
811.016	7544
811.158	7396
811.299	7597
811.441	7727
811.582	7647
811.724	7559
811.865	7499
812.007	7540
812.148	7590
812.29	7609
812.431	7750
812.573	7822
812.714	7944
812.855	8138
812.997	8153
813.138	8320
813.279	8142
813.421	8077
813.562	8062
813.703	7818
813.845	7738
813.986	7400
814.127	7164
814.268	7190
814.41	7217
814.551	7072
814.692	7232
814.833	7084
814.974	7156
815.115	7095
815.256	6939
815.397	6970
815.539	6973
815.68	6818
815.821	6707
815.962	6871
816.103	6715
816.244	6722
816.385	6650
816.526	6635
816.666	6464
816.807	6281
816.948	6433
817.089	6437
817.23	6384
817.371	6338
817.512	6346
817.653	6369
817.793	6380
817.934	6357
818.075	6426
818.216	6380
818.356	6410
818.497	6251
818.638	6121
818.778	6201
818.919	6106
819.06	6098
819.2	6296
819.341	6289
819.481	6388
819.622	6502
819.762	6757
819.903	6681
820.043	6585
820.184	6563
820.324	6601
820.465	6692
820.605	6684
820.746	6604
820.886	6502
821.026	6639
821.167	6700
821.307	6806
821.447	6787
821.588	6692
821.728	6582
821.868	6528
822.008	6285
822.149	6350
822.289	6384
822.429	6163
822.569	6057
822.709	6087
822.849	5927
822.99	5882
823.13	5882
823.27	5904
823.41	5786
823.55	5767
823.69	5760
823.83	5752
823.97	5688
824.11	5493
824.25	5562
824.389	5615
824.529	5577
824.669	5501
824.809	5630
824.949	5638
825.089	5539
825.228	5558
825.368	5368
825.508	5299
825.648	5296
825.787	5311
825.927	5349
826.067	5284
826.206	5307
826.346	5402
826.485	5433
826.625	5440
826.765	5589
826.904	5512
827.044	5254
827.183	5185
827.323	5124
827.462	5231
827.601	5102
827.741	5216
827.88	5212
828.02	5159
828.159	5288
828.298	5303
828.437	5360
828.577	5231
828.716	5463
828.855	5288
828.994	5181
829.134	5083
829.273	5197
829.412	5041
829.551	5143
829.69	5185
829.829	5239
829.968	5337
830.107	5235
830.246	5250
830.385	5178
830.524	5105
830.663	5029
830.802	4946
830.941	4877
831.08	4873
831.219	4919
831.357	4995
831.496	5159
831.635	4961
831.774	4824
831.913	4843
832.051	4702
832.19	4653
832.329	4839
832.467	4672
832.606	4561
832.744	4698
832.883	4679
833.022	4748
833.16	4782
833.299	4805
833.437	4778
833.576	4824
833.714	4774
833.852	4892
833.991	4873
834.129	4949
834.267	4911
834.406	4927
834.544	4934
834.682	4965
834.821	4972
834.959	5136
835.097	4942
835.235	5170
835.373	5117
835.511	5052
835.65	5006
835.788	5045
835.926	4900
836.064	4858
836.202	4919
836.34	5193
836.478	5246
836.615	5174
836.753	5193
836.891	5311
837.029	5280
837.167	5162
837.305	5105
837.443	5162
837.58	5083
837.718	5284
837.856	5201
837.993	5113
838.131	5223
838.269	5223
838.406	5242
838.544	5159
838.681	5018
838.819	5029
838.956	4904
839.094	4885
839.231	4995
839.369	5064
839.506	5372
839.643	5201
839.781	5075
839.918	5056
840.055	5109
840.193	5086
840.33	5086
840.467	5105
840.604	5155
840.742	5421
840.879	5075
841.016	5094
841.153	5155
841.29	5326
841.427	5307
841.564	5292
841.701	5337
841.838	5273
841.975	5193
842.112	5220
842.249	5166
842.385	5056
842.522	5318
842.659	5128
842.796	5109
842.933	5223
843.069	5147
843.206	5181
843.343	5250
843.479	5277
843.616	5246
843.752	5056
843.889	4991
844.025	5220
844.162	5029
844.298	5193
844.435	5079
844.571	5090
844.708	5193
844.844	5315
844.98	5311
845.117	5284
845.253	5162
845.389	5136
845.525	5105
845.661	5117
845.798	5003
845.934	5132
846.07	5056
846.206	5231
846.342	5261
846.478	5117
846.614	5022
846.75	4957
846.886	4965
847.022	5083
847.158	5029
847.294	5048
847.429	5098
847.565	5102
847.701	5330
847.837	4812
847.972	4824
848.108	4961
848.244	4927
848.379	4786
848.515	4687
848.65	4729
848.786	4740
848.921	4744
849.057	4850
849.192	4862
849.328	4774
849.463	4820
849.598	4847
849.734	4698
849.869	4683
850.004	4615
850.14	4675
850.275	4603
850.41	4527
850.545	4535
850.68	4596
850.815	4618
850.95	4622
851.085	4820
851.22	4782
851.355	4706
851.49	4637
851.625	4634
851.76	4645
851.895	4516
852.03	4516
852.165	4668
852.299	4702
852.434	4752
852.569	4759
852.703	4752
852.838	4862
852.973	4938
853.107	4896
853.242	4755
853.376	4687
853.511	4523
853.645	4546
853.78	4828
853.914	4691
854.048	4641
854.183	4596
854.317	4717
854.451	4805
854.585	4675
854.72	4679
854.854	4812
854.988	4592
855.122	4694
855.256	4550
855.39	4664
855.524	4790
855.658	4714
855.792	4630
855.926	4710
856.06	4782
856.194	4797
856.327	4664
856.461	4649
856.595	4577
856.729	4645
856.862	4714
856.996	4668
857.13	4733
857.263	4744
857.397	4809
857.53	4649
857.664	4721
857.797	4778
857.931	4759
858.064	4664
858.197	4725
858.331	4679
858.464	4645
858.597	4523
858.731	4618
858.864	4580
858.997	4599
859.13	4645
859.263	4637
859.396	4733
859.529	4538
859.662	4622
859.795	4527
859.928	4607
860.061	4717
860.194	4729
860.327	4607
860.46	4554
860.592	4672
860.725	4721
860.858	4702
860.99	4584
861.123	4493
861.256	4500
861.388	4603
861.521	5174
861.653	4531
861.786	4462
861.918	4497
862.05	4573
862.183	4573
862.315	4645
862.447	4694
862.58	4565
862.712	4402
862.844	4265
862.976	4481
863.108	4474
863.24	4740
863.372	4314
863.504	4424
863.636	4375
863.768	4466
863.9	4367
864.032	4383
864.164	4432
864.296	4462
864.428	4531
864.559	4535
864.691	4504
864.823	4516
864.954	4485
865.086	4527
865.217	4455
865.349	4413
865.48	4459
865.612	4493
865.743	4618
865.875	4485
866.006	4428
866.137	4462
866.269	4474
866.4	4421
866.531	4417
866.662	4352
866.793	4409
866.924	4421
867.055	4508
867.186	4398
867.317	4421
867.448	4367
867.579	4375
867.71	4413
867.841	4360
867.972	4474
868.103	4459
868.233	4451
868.364	4417
868.495	4485
868.625	4660
868.756	4782
868.886	4519
869.017	4607
869.147	4767
869.278	4740
869.408	4603
869.539	4626
869.669	4694
869.799	4691
869.929	4748
870.06	4744
870.19	4923
870.32	4930
870.45	4965
870.58	5022
870.71	5067
870.84	5086
870.97	4908
871.1	4858
871.23	5147
871.36	5136
871.489	4999
871.619	5124
871.749	5064
871.879	5090
872.008	5143
872.138	5041
872.267	4987
872.397	4793
872.526	4771
872.656	4755
872.785	4790
872.915	4881
873.044	5064
873.173	4908
873.303	4957
873.432	4934
873.561	4965
873.69	4866
873.819	4866
873.948	4930
874.077	4858
874.206	4721
874.335	4763
874.464	4885
874.593	5067
874.722	4927
874.851	5117
874.979	5018
875.108	5052
875.237	4904
875.365	4866
875.494	4828
875.623	5018
875.751	4805
875.88	4847
876.008	4942
876.136	5003
876.265	5162
876.393	5303
876.521	5242
876.65	5208
876.778	5102
876.906	5033
877.034	5003
877.162	5041
877.29	4942
877.418	5048
877.546	5037
877.674	5033
877.802	5079
877.93	5014
878.058	4972
878.185	4896
878.313	4946
878.441	4927
878.568	4805
878.696	4835
878.824	4965
878.951	4995
879.079	5105
879.206	5242
879.333	5079
879.461	4934
879.588	5022
879.715	5105
879.842	5235
879.97	4984
880.097	4748
880.224	4774
880.351	4752
880.478	4797
880.605	4809
880.732	4843
880.859	5102
880.986	4900
881.112	4889
881.239	4805
881.366	4649
881.493	4607
881.619	4561
881.746	4637
881.872	4683
881.999	4645
882.125	4691
882.252	4717
882.378	4824
882.505	4938
882.631	4767
882.757	4691
882.883	4702
883.01	4759
883.136	4664
883.262	4588
883.388	4607
883.514	4828
883.64	4881
883.766	4744
883.892	4683
884.018	4721
884.143	4904
884.269	5018
884.395	4656
884.52	4664
884.646	4645
884.772	4516
884.897	4592
885.023	4641
885.148	4744
885.274	4835
885.399	4774
885.524	4694
885.65	4687
885.775	4793
885.9	4729
886.025	4778
886.15	4744
886.275	4664
886.4	4694
886.525	4714
886.65	4691
886.775	4653
886.9	4908
887.025	5018
887.149	4790
887.274	4637
887.399	4554
887.523	4577
887.648	4569
887.773	4565
887.897	4694
888.021	4752
888.146	4653
888.27	4839
888.395	4896
888.519	4733
888.643	4820
888.767	4793
888.891	4675
889.015	4565
889.139	4626
889.263	4615
889.387	4759
889.511	4862
889.635	4786
889.759	4607
889.883	4649
890.006	4755
890.13	4786
890.254	4637
890.377	4656
890.501	4489
890.624	4497
890.748	4649
890.871	4558
890.995	4409
891.118	4371
891.241	4516
891.364	4550
891.488	4649
891.611	4451
891.734	4519
891.857	4618
891.98	4565
892.103	4611
892.226	4615
892.349	4500
892.471	4371
892.594	4565
892.717	4626
892.839	4554
892.962	4569
893.085	4668
893.207	4554
893.33	4428
893.452	4478
893.575	4649
893.697	4580
893.819	4790
893.941	4809
894.064	4771
894.186	4531
894.308	4569
894.43	4786
894.552	4839
894.674	4744
894.796	4561
894.918	4565
895.04	4569
895.161	4683
895.283	4660
895.405	4584
895.526	4618
895.648	4691
895.769	4710
895.891	4694
896.012	4714
896.134	4714
896.255	4698
896.376	4599
896.498	4618
896.619	4599
896.74	4584
896.861	4584
896.982	4896
897.103	5079
897.224	4858
897.345	4702
897.466	4660
897.587	4744
897.708	4824
897.828	4733
897.949	4683
898.07	4542
898.19	4584
898.311	4843
898.431	4683
898.552	4675
898.672	4793
898.792	4771
898.913	4748
899.033	4637
899.153	4538
899.273	4398
899.393	4538
899.513	4550
899.633	4516
899.753	4538
899.873	4512
899.993	4592
900.113	4512
900.232	4603
900.352	4489
900.472	4489
900.591	4383
900.711	4497
900.83	4421
900.95	4599
901.069	4637
901.189	4497
901.308	4329
901.427	4249
901.546	4379
901.665	4459
901.784	4516
901.904	4390
902.023	4303
902.141	4185
902.26	4131
902.379	4299
902.498	4253
902.617	4223
902.735	4363
902.854	4443
902.973	4363
903.091	4173
903.21	4188
903.328	4299
903.446	4188
903.565	4249
903.683	4333
903.801	4253
903.919	4417
904.038	4440
904.156	4325
904.274	4421
904.392	4405
904.51	4424
904.627	4481
904.745	4554
904.863	4641
904.981	4390
905.098	4306
905.216	4417
905.334	4455
905.451	4417
905.569	4424
905.686	4538
905.803	4577
905.921	4417
906.038	4497
906.155	4500
906.272	4390
906.389	4470
906.506	4356
906.623	4398
906.74	4398
906.857	4242
906.974	4383
907.091	4554
907.208	4660
907.324	4596
907.441	4459
907.557	4329
907.674	4314
907.79	4348
907.907	4402
908.023	4455
908.139	4508
908.256	4432
908.372	4432
908.488	4436
908.604	4314
908.72	4303
908.836	4352
908.952	4390
909.068	4459
909.184	4565
909.3	4500
909.415	4603
909.531	4512
909.647	4344
909.762	4310
909.878	4341
909.993	4402
910.108	4386
910.224	4428
910.339	4459
910.454	4421
910.57	4390
910.685	4284
910.8	4649
910.915	4580
911.03	4466
911.145	4344
911.259	4295
911.374	4314
911.489	4272
911.604	4242
911.718	4200
911.833	4230
911.947	4055
912.062	4010
912.176	4166
912.291	4268
912.405	4207
912.519	4478
912.633	4550
912.748	4276
912.862	4253
912.976	4154
913.09	4105
913.204	4143
913.318	4234
913.431	4360
913.545	4356
913.659	4413
913.772	4398
913.886	4211
914	4238
914.113	4348
914.226	4451
914.34	4405
914.453	4234
914.566	4394
914.68	4295
914.793	4284
914.906	4112
915.019	4112
915.132	4059
915.245	4211
915.358	4185
915.47	4185
915.583	4234
915.696	4303
915.809	4333
915.921	4386
916.034	4242
916.146	4265
916.259	4249
916.371	4329
916.483	4367
916.595	4211
916.708	4325
916.82	4310
916.932	4284
917.044	4295
917.156	4306
917.268	4204
917.38	4234
917.491	4242
917.603	4333
917.715	4348
917.826	4417
917.938	4379
918.049	4246
918.161	4379
918.272	4519
918.384	4554
918.495	4447
918.606	4295
918.717	4211
918.828	4363
918.939	4363
919.05	4257
919.161	4329
919.272	4116
919.383	4268
919.494	4402
919.604	4637
919.715	4440
919.826	4341
919.936	4405
920.047	4538
920.157	4497
920.267	4710
920.378	4546
920.488	4489
920.598	4683
920.708	4915
920.818	4725
920.928	4752
921.038	4949
921.148	4987
921.258	4645
921.368	4561
921.477	4516
921.587	4466
921.697	4383
921.806	4596
921.916	4462
922.025	4291
922.134	4314
922.244	4234
922.353	4329
922.462	4211
922.571	4154
922.68	4017
922.789	3968
922.898	4093
923.007	4025
923.116	4097
923.224	4135
923.333	4105
923.442	4021
923.55	4025
923.659	4040
923.767	4196
923.876	4044
923.984	4154
924.092	4063
924.201	4128
924.309	4105
924.417	4158
924.525	4097
924.633	4120
924.741	4892
924.849	3994
924.956	4200
925.064	4017
925.172	3930
925.279	4002
925.387	4082
925.494	4097
925.602	4207
925.709	4219
925.816	4124
925.924	4204
926.031	4284
926.138	4234
926.245	4268
926.352	4074
926.459	4329
926.566	4325
926.673	4215
926.779	4154
926.886	4093
926.993	4029
927.099	3991
927.206	3945
927.312	3998
927.419	4128
927.525	4097
927.631	4128
927.737	4006
927.843	3941
927.95	3892
928.056	3968
928.162	4025
928.267	4059
928.373	4611
928.479	4150
928.585	3926
928.69	4059
928.796	4090
928.901	4036
929.007	3892
929.112	4025
929.218	4032
929.323	3987
929.428	3956
929.533	4131
929.638	3941
929.743	3994
929.848	4067
929.953	4036
930.058	3949
930.163	3835
930.267	3869
930.372	3994
930.477	3857
930.581	4097
930.685	4002
930.79	3873
930.894	3922
930.998	3911
931.103	4101
931.207	3732
931.311	3740
931.415	3705
931.519	3572
931.623	3591
