Data from test_V78500241_944.txt Node
Date: Fri Mar 25 16:55:33 CST 2022
User: usil
Spectrometer: V785-0024
Trigger mode: 0
Integration Time (sec): 4.000000E-1
Scans to average: 1
Nonlinearity correction enabled: false
Boxcar width: 0
Storing dark spectrum: false
XAxis mode: Wavelengths
Number of Pixels in Spectrum: 1024
>>>>>Begin Spectral Data<<<<<
801.071	8043
801.214	8058
801.356	7811
801.499	7906
801.641	7776
801.783	7803
801.926	8008
802.068	7845
802.211	7967
802.353	7894
802.496	7940
802.638	7833
802.78	7887
802.923	7959
803.065	7894
803.208	7852
803.35	8065
803.492	8153
803.635	8210
803.777	8058
803.919	8096
804.061	8393
804.204	8065
804.346	7978
804.488	7959
804.63	8168
804.773	8031
804.915	8043
805.057	8282
805.199	8218
805.341	8218
805.483	8275
805.626	8206
805.768	8145
805.91	8164
806.052	8130
806.194	8027
806.336	8240
806.478	8100
806.62	8088
806.762	8138
806.904	8248
807.046	8431
807.188	8282
807.33	8309
807.472	8294
807.614	8100
807.756	8107
807.898	8027
808.04	7849
808.182	7917
808.324	7887
808.465	7883
808.607	8050
808.749	8062
808.891	8176
809.033	8267
809.174	8153
809.316	8100
809.458	8012
809.6	7986
809.741	8008
809.883	7955
810.025	8138
810.166	8058
810.308	7989
810.45	7993
810.591	7925
810.733	7727
810.875	7632
811.016	7415
811.158	7464
811.299	7556
811.441	7700
811.582	7700
811.724	7537
811.865	7533
812.007	7521
812.148	7586
812.29	7605
812.431	7738
812.573	7799
812.714	7959
812.855	8115
812.997	8145
813.138	8336
813.279	8164
813.421	8119
813.562	7947
813.703	7864
813.845	7822
813.986	7495
814.127	7236
814.268	7160
814.41	7179
814.551	7114
814.692	7072
814.833	7091
814.974	7038
815.115	7095
815.256	6905
815.397	6909
815.539	6951
815.68	6856
815.821	6772
815.962	6848
816.103	6825
816.244	6722
816.385	6654
816.526	6635
816.666	6498
816.807	6296
816.948	6384
817.089	6441
817.23	6403
817.371	6395
817.512	6410
817.653	6395
817.793	6467
817.934	6395
818.075	6391
818.216	6429
818.356	6369
818.497	6182
818.638	6106
818.778	6152
818.919	6133
819.06	6205
819.2	6334
819.341	6289
819.481	6296
819.622	6544
819.762	6795
819.903	6726
820.043	6620
820.184	6544
820.324	6585
820.465	6639
820.605	6677
820.746	6658
820.886	6502
821.026	6654
821.167	6692
821.307	6795
821.447	6730
821.588	6642
821.728	6585
821.868	6483
822.008	6289
822.149	6399
822.289	6369
822.429	6117
822.569	6095
822.709	6053
822.849	5916
822.99	5901
823.13	5893
823.27	5923
823.41	5817
823.55	5798
823.69	5809
823.83	5828
823.97	5688
824.11	5539
824.25	5417
824.389	5554
824.529	5532
824.669	5490
824.809	5551
824.949	5634
825.089	5646
825.228	5497
825.368	5341
825.508	5368
825.648	5311
825.787	5429
825.927	5391
826.067	5360
826.206	5242
826.346	5406
826.485	5433
826.625	5433
826.765	5505
826.904	5436
827.044	5246
827.183	5124
827.323	5094
827.462	5235
827.601	5136
827.741	5220
827.88	5235
828.02	5094
828.159	5254
828.298	5254
828.437	5334
828.577	5288
828.716	5444
828.855	5311
828.994	5155
829.134	5102
829.273	5147
829.412	5109
829.551	5056
829.69	5162
829.829	5250
829.968	5364
830.107	5212
830.246	5239
830.385	5178
830.524	5147
830.663	5071
830.802	4991
830.941	4854
831.08	4850
831.219	4987
831.357	4965
831.496	5166
831.635	4881
831.774	4809
831.913	4820
832.051	4710
832.19	4755
832.329	4847
832.467	4664
832.606	4641
832.744	4679
832.883	4668
833.022	4774
833.16	4767
833.299	4809
833.437	4782
833.576	4805
833.714	4850
833.852	4866
833.991	4904
834.129	4930
834.267	4942
834.406	4927
834.544	4946
834.682	5006
834.821	4984
834.959	5204
835.097	4965
835.235	5075
835.373	4987
835.511	5048
835.65	5037
835.788	5037
835.926	4858
836.064	4850
836.202	4904
836.34	5208
836.478	5159
836.615	5117
836.753	5204
836.891	5299
837.029	5220
837.167	5140
837.305	5128
837.443	5067
837.58	5045
837.718	5277
837.856	5155
837.993	5113
838.131	5193
838.269	5212
838.406	5178
838.544	5193
838.681	5060
838.819	5003
838.956	4930
839.094	4923
839.231	4957
839.369	5124
839.506	5379
839.643	5269
839.781	5094
839.918	5037
840.055	5140
840.193	5094
840.33	5075
840.467	5132
840.604	5239
840.742	5455
840.879	5079
841.016	5071
841.153	5170
841.29	5353
841.427	5318
841.564	5292
841.701	5303
841.838	5273
841.975	5223
842.112	5273
842.249	5151
842.385	5117
842.522	5326
842.659	5147
842.796	5048
842.933	5124
843.069	5132
843.206	5151
843.343	5273
843.479	5193
843.616	5208
843.752	4991
843.889	5018
844.025	5128
844.162	5041
844.298	5136
844.435	5075
844.571	5071
844.708	5151
844.844	5288
844.98	5315
845.117	5288
845.253	5128
845.389	5136
845.525	5132
845.661	5159
845.798	5022
845.934	5113
846.07	5064
846.206	5155
846.342	5239
846.478	5121
846.614	5029
846.75	4980
846.886	4904
847.022	5124
847.158	5014
847.294	5048
847.429	5090
847.565	5056
847.701	5307
847.837	4831
847.972	4759
848.108	4938
848.244	4896
848.379	4774
848.515	4687
848.65	4706
848.786	4694
848.921	4748
849.057	4908
849.192	4866
849.328	4835
849.463	4835
849.598	4782
849.734	4698
849.869	4710
850.004	4592
850.14	4645
850.275	4542
850.41	4466
850.545	4542
850.68	4660
850.815	4618
850.95	4561
851.085	4812
851.22	4733
851.355	4641
851.49	4535
851.625	4607
851.76	4611
851.895	4508
852.03	4504
852.165	4592
852.299	4706
852.434	4763
852.569	4725
852.703	4748
852.838	4812
852.973	4892
853.107	4877
853.242	4729
853.376	4668
853.511	4561
853.645	4641
853.78	4812
853.914	4675
854.048	4630
854.183	4615
854.317	4653
854.451	4839
854.585	4687
854.72	4653
854.854	4755
854.988	4550
855.122	4603
855.256	4538
855.39	4691
855.524	4744
855.658	4698
855.792	4675
855.926	4706
856.06	4736
856.194	4778
856.327	4698
856.461	4573
856.595	4588
856.729	4592
856.862	4733
856.996	4637
857.13	4714
857.263	4752
857.397	4759
857.53	4660
857.664	4702
857.797	4752
857.931	4767
858.064	4687
858.197	4736
858.331	4588
858.464	4622
858.597	4481
858.731	4630
858.864	4622
858.997	4573
859.13	4634
859.263	4668
859.396	4664
859.529	4615
859.662	4542
859.795	4512
859.928	4580
860.061	4710
860.194	4740
860.327	4542
860.46	4527
860.592	4679
860.725	4706
860.858	4687
860.99	4561
861.123	4546
861.256	4489
861.388	4554
861.521	5102
861.653	4470
861.786	4390
861.918	4443
862.05	4523
862.183	4538
862.315	4580
862.447	4592
862.58	4516
862.712	4402
862.844	4268
862.976	4424
863.108	4459
863.24	4740
863.372	4325
863.504	4474
863.636	4394
863.768	4455
863.9	4417
864.032	4295
864.164	4386
864.296	4443
864.428	4527
864.559	4516
864.691	4512
864.823	4500
864.954	4478
865.086	4500
865.217	4481
865.349	4386
865.48	4443
865.612	4500
865.743	4599
865.875	4405
866.006	4409
866.137	4424
866.269	4455
866.4	4436
866.531	4402
866.662	4409
866.793	4375
866.924	4371
867.055	4508
867.186	4481
867.317	4383
867.448	4329
867.579	4322
867.71	4379
867.841	4344
867.972	4413
868.103	4417
868.233	4428
868.364	4424
868.495	4459
868.625	4672
868.756	4733
868.886	4607
869.017	4588
869.147	4733
869.278	4714
869.408	4641
869.539	4649
869.669	4725
869.799	4645
869.929	4771
870.06	4729
870.19	4889
870.32	4896
870.45	4930
870.58	4965
870.71	5075
870.84	5079
870.97	4911
871.1	4870
871.23	5124
871.36	5094
871.489	4995
871.619	5025
871.749	5056
871.879	5117
872.008	5185
872.138	5014
872.267	4915
872.397	4809
872.526	4793
872.656	4683
872.785	4831
872.915	4900
873.044	5006
873.173	4870
873.303	4949
873.432	4923
873.561	4927
873.69	4889
873.819	4885
873.948	4862
874.077	4790
874.206	4733
874.335	4786
874.464	4938
874.593	5033
874.722	4953
874.851	5094
874.979	5067
875.108	5003
875.237	4866
875.365	4908
875.494	4866
875.623	4995
875.751	4793
875.88	4885
876.008	4957
876.136	4995
876.265	5208
876.393	5265
876.521	5223
876.65	5189
876.778	5128
876.906	5037
877.034	4980
877.162	5018
877.29	5006
877.418	5014
877.546	4980
877.674	5052
877.802	4999
877.93	4991
878.058	4961
878.185	4828
878.313	4923
878.441	4946
878.568	4755
878.696	4881
878.824	4911
878.951	4987
879.079	5094
879.206	5227
879.333	5083
879.461	4930
879.588	4961
879.715	5075
879.842	5181
879.97	4915
880.097	4771
880.224	4771
880.351	4790
880.478	4786
880.605	4752
880.732	4744
880.859	5083
880.986	4896
881.112	4889
881.239	4729
881.366	4660
881.493	4626
881.619	4584
881.746	4637
881.872	4637
881.999	4675
882.125	4637
882.252	4771
882.378	4809
882.505	4957
882.631	4801
882.757	4698
882.883	4748
883.01	4656
883.136	4618
883.262	4577
883.388	4599
883.514	4801
883.64	4809
883.766	4790
883.892	4637
884.018	4729
884.143	4854
884.269	4968
884.395	4702
884.52	4558
884.646	4611
884.772	4592
884.897	4523
885.023	4645
885.148	4740
885.274	4812
885.399	4740
885.524	4721
885.65	4691
885.775	4694
885.9	4710
886.025	4854
886.15	4771
886.275	4694
886.4	4615
886.525	4694
886.65	4694
886.775	4649
886.9	4892
887.025	5014
887.149	4820
887.274	4626
887.399	4542
887.523	4626
887.648	4592
887.773	4550
887.897	4725
888.021	4744
888.146	4645
888.27	4801
888.395	4843
888.519	4774
888.643	4782
888.767	4740
888.891	4664
889.015	4565
889.139	4611
889.263	4535
889.387	4755
889.511	4843
889.635	4816
889.759	4683
889.883	4634
890.006	4759
890.13	4809
890.254	4641
890.377	4653
890.501	4558
890.624	4565
890.748	4618
890.871	4516
890.995	4432
891.118	4398
891.241	4519
891.364	4569
891.488	4710
891.611	4516
891.734	4497
891.857	4611
891.98	4580
892.103	4649
892.226	4603
892.349	4580
892.471	4432
892.594	4546
892.717	4584
892.839	4596
892.962	4588
893.085	4668
893.207	4618
893.33	4516
893.452	4558
893.575	4653
893.697	4611
893.819	4858
893.941	4858
894.064	4763
894.186	4569
894.308	4592
894.43	4771
894.552	4873
894.674	4786
894.796	4607
894.918	4615
895.04	4641
895.161	4767
895.283	4683
895.405	4653
895.526	4672
895.648	4668
895.769	4660
895.891	4721
896.012	4755
896.134	4786
896.255	4763
896.376	4653
896.498	4653
896.619	4706
896.74	4615
896.861	4664
896.982	4972
897.103	5102
897.224	4870
897.345	4774
897.466	4744
897.587	4729
897.708	4904
897.828	4797
897.949	4691
898.07	4596
898.19	4679
898.311	4812
898.431	4721
898.552	4797
898.672	4850
898.792	4850
898.913	4809
899.033	4683
899.153	4485
899.273	4447
899.393	4519
899.513	4500
899.633	4580
899.753	4542
899.873	4531
899.993	4611
900.113	4573
900.232	4626
900.352	4573
900.472	4500
900.591	4440
900.711	4512
900.83	4462
900.95	4596
901.069	4733
901.189	4546
901.308	4398
901.427	4348
901.546	4344
901.665	4455
901.784	4546
901.904	4375
902.023	4375
902.141	4181
902.26	4169
902.379	4333
902.498	4314
902.617	4253
902.735	4436
902.854	4459
902.973	4348
903.091	4238
903.21	4234
903.328	4318
903.446	4284
903.565	4291
903.683	4386
903.801	4318
903.919	4413
904.038	4462
904.156	4329
904.274	4447
904.392	4424
904.51	4470
904.627	4531
904.745	4565
904.863	4645
904.981	4436
905.098	4306
905.216	4386
905.334	4489
905.451	4405
905.569	4466
905.686	4603
905.803	4634
905.921	4432
906.038	4580
906.155	4481
906.272	4428
906.389	4455
906.506	4383
906.623	4375
906.74	4383
906.857	4276
906.974	4424
907.091	4580
907.208	4622
907.324	4584
907.441	4485
907.557	4344
907.674	4371
907.79	4367
907.907	4367
908.023	4485
908.139	4489
908.256	4405
908.372	4489
908.488	4493
908.604	4367
908.72	4352
908.836	4443
908.952	4379
909.068	4413
909.184	4565
909.3	4462
909.415	4596
909.531	4599
909.647	4383
909.762	4428
909.878	4394
909.993	4432
910.108	4489
910.224	4436
910.339	4512
910.454	4443
910.57	4367
910.685	4329
910.8	4714
910.915	4626
911.03	4500
911.145	4405
911.259	4356
911.374	4417
911.489	4265
911.604	4284
911.718	4150
911.833	4219
911.947	4086
912.062	4097
912.176	4227
912.291	4276
912.405	4284
912.519	4462
912.633	4497
912.748	4390
912.862	4276
912.976	4219
913.09	4147
913.204	4173
913.318	4261
913.431	4386
913.545	4390
913.659	4436
913.772	4394
913.886	4287
914	4219
914.113	4367
914.226	4493
914.34	4405
914.453	4257
914.566	4440
914.68	4341
914.793	4371
914.906	4181
915.019	4188
915.132	4116
915.245	4230
915.358	4257
915.47	4230
915.583	4310
915.696	4318
915.809	4417
915.921	4432
916.034	4303
916.146	4299
916.259	4272
916.371	4409
916.483	4371
916.595	4295
916.708	4325
916.82	4318
916.932	4379
917.044	4325
917.156	4405
917.268	4303
917.38	4287
917.491	4318
917.603	4356
917.715	4402
917.826	4455
917.938	4363
918.049	4261
918.161	4413
918.272	4580
918.384	4561
918.495	4497
918.606	4295
918.717	4272
918.828	4352
918.939	4443
919.05	4261
919.161	4379
919.272	4135
919.383	4253
919.494	4451
919.604	4717
919.715	4455
919.826	4367
919.936	4402
920.047	4546
920.157	4554
920.267	4736
920.378	4558
920.488	4523
920.598	4736
920.708	4900
920.818	4759
920.928	4774
921.038	4991
921.148	4946
921.258	4675
921.368	4531
921.477	4546
921.587	4470
921.697	4371
921.806	4596
921.916	4440
922.025	4284
922.134	4284
922.244	4261
922.353	4341
922.462	4173
922.571	4124
922.68	4059
922.789	3983
922.898	4067
923.007	3972
923.116	4116
923.224	4109
923.333	4101
923.442	3998
923.55	4002
923.659	4071
923.767	4139
923.876	4017
923.984	4124
924.092	4074
924.201	4086
924.309	4124
924.417	4120
924.525	4074
924.633	4120
924.741	5109
924.849	3922
924.956	4116
925.064	3994
925.172	3907
925.279	3945
925.387	4067
925.494	4082
925.602	4211
925.709	4166
925.816	4067
925.924	4169
926.031	4246
926.138	4196
926.245	4238
926.352	4074
926.459	4246
926.566	4329
926.673	4169
926.779	4067
926.886	4143
926.993	4010
927.099	3945
927.206	3930
927.312	3960
927.419	4025
927.525	4074
927.631	4112
927.737	3964
927.843	3956
927.95	3823
928.056	3960
928.162	4021
928.267	4055
928.373	4675
928.479	4128
928.585	3884
928.69	4029
928.796	4078
928.901	3987
929.007	3842
929.112	4025
929.218	3956
929.323	3945
929.428	3972
929.533	4116
929.638	3956
929.743	3941
929.848	4051
929.953	4040
930.058	3937
930.163	3762
930.267	3854
930.372	3991
930.477	3869
930.581	4124
930.685	3979
930.79	3827
930.894	3876
930.998	3869
931.103	4044
931.207	3740
931.311	3740
931.415	3728
931.519	3519
931.623	3584
