Data from test_V78500241_1080.txt Node
Date: Fri Mar 25 16:56:30 CST 2022
User: usil
Spectrometer: V785-0024
Trigger mode: 0
Integration Time (sec): 4.000000E-1
Scans to average: 1
Nonlinearity correction enabled: false
Boxcar width: 0
Storing dark spectrum: false
XAxis mode: Wavelengths
Number of Pixels in Spectrum: 1024
>>>>>Begin Spectral Data<<<<<
801.071	8050
801.214	8031
801.356	7852
801.499	7921
801.641	7765
801.783	7795
801.926	7921
802.068	7887
802.211	7959
802.353	7978
802.496	7780
802.638	7917
802.78	7944
802.923	7921
803.065	7883
803.208	7890
803.35	7970
803.492	8073
803.635	8210
803.777	8016
803.919	8164
804.061	8450
804.204	8138
804.346	8069
804.488	8005
804.63	8126
804.773	7959
804.915	8138
805.057	8309
805.199	8180
805.341	8313
805.483	8298
805.626	8221
805.768	8172
805.91	8248
806.052	8202
806.194	8054
806.336	8351
806.478	8142
806.62	8043
806.762	8161
806.904	8218
807.046	8427
807.188	8358
807.33	8351
807.472	8301
807.614	8153
807.756	8134
807.898	8016
808.04	7883
808.182	7890
808.324	7902
808.465	7944
808.607	8111
808.749	8073
808.891	8214
809.033	8343
809.174	8183
809.316	8012
809.458	8069
809.6	7970
809.741	8096
809.883	7997
810.025	8119
810.166	8050
810.308	8008
810.45	8012
810.591	7909
810.733	7677
810.875	7742
811.016	7499
811.158	7521
811.299	7605
811.441	7696
811.582	7689
811.724	7616
811.865	7563
812.007	7582
812.148	7651
812.29	7658
812.431	7784
812.573	7887
812.714	7940
812.855	8126
812.997	8214
813.138	8362
813.279	8168
813.421	8096
813.562	7982
813.703	7864
813.845	7757
813.986	7468
814.127	7209
814.268	7202
814.41	7137
814.551	7103
814.692	7141
814.833	7088
814.974	7008
815.115	7027
815.256	6939
815.397	6886
815.539	6970
815.68	6802
815.821	6806
815.962	6875
816.103	6779
816.244	6749
816.385	6623
816.526	6616
816.666	6441
816.807	6346
816.948	6395
817.089	6521
817.23	6467
817.371	6391
817.512	6346
817.653	6384
817.793	6365
817.934	6410
818.075	6414
818.216	6391
818.356	6437
818.497	6235
818.638	6171
818.778	6186
818.919	6197
819.06	6110
819.2	6285
819.341	6361
819.481	6369
819.622	6467
819.762	6730
819.903	6688
820.043	6642
820.184	6578
820.324	6578
820.465	6627
820.605	6684
820.746	6642
820.886	6467
821.026	6635
821.167	6738
821.307	6730
821.447	6779
821.588	6662
821.728	6525
821.868	6467
822.008	6319
822.149	6346
822.289	6353
822.429	6125
822.569	6049
822.709	6224
822.849	5893
822.99	5927
823.13	5866
823.27	5855
823.41	5832
823.55	5760
823.69	5767
823.83	5805
823.97	5691
824.11	5539
824.25	5493
824.389	5558
824.529	5596
824.669	5535
824.809	5630
824.949	5646
825.089	5634
825.228	5543
825.368	5391
825.508	5311
825.648	5315
825.787	5360
825.927	5311
826.067	5277
826.206	5265
826.346	5395
826.485	5406
826.625	5395
826.765	5486
826.904	5501
827.044	5231
827.183	5220
827.323	5098
827.462	5231
827.601	5159
827.741	5189
827.88	5212
828.02	5090
828.159	5254
828.298	5296
828.437	5330
828.577	5288
828.716	5486
828.855	5334
828.994	5143
829.134	5140
829.273	5189
829.412	5178
829.551	5124
829.69	5197
829.829	5220
829.968	5402
830.107	5307
830.246	5311
830.385	5151
830.524	5102
830.663	5060
830.802	4942
830.941	4923
831.08	4873
831.219	4976
831.357	4942
831.496	5140
831.635	4873
831.774	4820
831.913	4820
832.051	4733
832.19	4782
832.329	4835
832.467	4698
832.606	4634
832.744	4706
832.883	4752
833.022	4706
833.16	4793
833.299	4797
833.437	4873
833.576	4854
833.714	4870
833.852	4839
833.991	4873
834.129	4972
834.267	4972
834.406	4904
834.544	4938
834.682	5014
834.821	4972
834.959	5216
835.097	4957
835.235	5124
835.373	5056
835.511	5094
835.65	5003
835.788	5029
835.926	4877
836.064	4828
836.202	4885
836.34	5136
836.478	5178
836.615	5159
836.753	5197
836.891	5284
837.029	5269
837.167	5166
837.305	5201
837.443	5181
837.58	5052
837.718	5246
837.856	5109
837.993	5128
838.131	5227
838.269	5204
838.406	5201
838.544	5166
838.681	4980
838.819	4987
838.956	4892
839.094	4870
839.231	4991
839.369	5094
839.506	5459
839.643	5235
839.781	5052
839.918	4987
840.055	5094
840.193	5079
840.33	5060
840.467	5086
840.604	5216
840.742	5406
840.879	5105
841.016	5079
841.153	5117
841.29	5360
841.427	5318
841.564	5269
841.701	5398
841.838	5250
841.975	5151
842.112	5235
842.249	5079
842.385	5105
842.522	5315
842.659	5117
842.796	5136
842.933	5193
843.069	5086
843.206	5132
843.343	5296
843.479	5185
843.616	5246
843.752	5010
843.889	4999
844.025	5189
844.162	4968
844.298	5220
844.435	5117
844.571	5083
844.708	5178
844.844	5296
844.98	5368
845.117	5284
845.253	5121
845.389	5086
845.525	5117
845.661	5071
845.798	5010
845.934	5109
846.07	5086
846.206	5178
846.342	5265
846.478	5166
846.614	4991
846.75	4923
846.886	4911
847.022	5124
847.158	4980
847.294	5022
847.429	5071
847.565	5041
847.701	5307
847.837	4847
847.972	4786
848.108	4934
848.244	4873
848.379	4778
848.515	4721
848.65	4740
848.786	4767
848.921	4771
849.057	4801
849.192	4885
849.328	4763
849.463	4828
849.598	4809
849.734	4812
849.869	4687
850.004	4599
850.14	4641
850.275	4611
850.41	4489
850.545	4573
850.68	4615
850.815	4622
850.95	4615
851.085	4873
851.22	4721
851.355	4683
851.49	4607
851.625	4626
851.76	4634
851.895	4542
852.03	4538
852.165	4641
852.299	4687
852.434	4771
852.569	4748
852.703	4774
852.838	4862
852.973	4904
853.107	4866
853.242	4752
853.376	4656
853.511	4558
853.645	4592
853.78	4774
853.914	4668
854.048	4649
854.183	4630
854.317	4653
854.451	4877
854.585	4649
854.72	4634
854.854	4736
854.988	4573
855.122	4630
855.256	4531
855.39	4641
855.524	4771
855.658	4649
855.792	4706
855.926	4725
856.06	4786
856.194	4801
856.327	4691
856.461	4580
856.595	4607
856.729	4588
856.862	4717
856.996	4679
857.13	4706
857.263	4793
857.397	4805
857.53	4653
857.664	4733
857.797	4767
857.931	4793
858.064	4694
858.197	4729
858.331	4694
858.464	4664
858.597	4554
858.731	4611
858.864	4626
858.997	4550
859.13	4637
859.263	4668
859.396	4694
859.529	4565
859.662	4550
859.795	4500
859.928	4607
860.061	4706
860.194	4771
860.327	4550
860.46	4531
860.592	4694
860.725	4702
860.858	4714
860.99	4519
861.123	4470
861.256	4535
861.388	4588
861.521	5391
861.653	4440
861.786	4462
861.918	4466
862.05	4478
862.183	4519
862.315	4550
862.447	4641
862.58	4516
862.712	4405
862.844	4314
862.976	4474
863.108	4428
863.24	4877
863.372	4348
863.504	4383
863.636	4432
863.768	4459
863.9	4470
864.032	4375
864.164	4363
864.296	4466
864.428	4554
864.559	4527
864.691	4523
864.823	4500
864.954	4459
865.086	4470
865.217	4493
865.349	4413
865.48	4462
865.612	4485
865.743	4622
865.875	4485
866.006	4375
866.137	4504
866.269	4371
866.4	4413
866.531	4462
866.662	4371
866.793	4367
866.924	4413
867.055	4481
867.186	4394
867.317	4421
867.448	4413
867.579	4352
867.71	4295
867.841	4344
867.972	4451
868.103	4462
868.233	4432
868.364	4459
868.495	4455
868.625	4599
868.756	4809
868.886	4565
869.017	4603
869.147	4691
869.278	4740
869.408	4649
869.539	4603
869.669	4668
869.799	4641
869.929	4778
870.06	4710
870.19	4919
870.32	4854
870.45	4961
870.58	4972
870.71	5098
870.84	5113
870.97	4961
871.1	4873
871.23	5105
871.36	5113
871.489	5014
871.619	5083
871.749	5098
871.879	5071
872.008	5204
872.138	5048
872.267	5045
872.397	4839
872.526	4774
872.656	4672
872.785	4809
872.915	4930
873.044	5033
873.173	4896
873.303	4946
873.432	4915
873.561	4919
873.69	4854
873.819	4820
873.948	4885
874.077	4812
874.206	4759
874.335	4835
874.464	4908
874.593	4991
874.722	4938
874.851	5090
874.979	5060
875.108	5025
875.237	4915
875.365	4858
875.494	4850
875.623	4980
875.751	4820
875.88	4870
876.008	4991
876.136	5045
876.265	5235
876.393	5337
876.521	5261
876.65	5201
876.778	5117
876.906	5098
877.034	5006
877.162	5033
877.29	5014
877.418	5045
877.546	4995
877.674	5052
877.802	5014
877.93	4980
878.058	4976
878.185	4828
878.313	4938
878.441	4942
878.568	4744
878.696	4831
878.824	4946
878.951	5006
879.079	5124
879.206	5250
879.333	5102
879.461	4900
879.588	4953
879.715	5071
879.842	5197
879.97	5018
880.097	4805
880.224	4733
880.351	4759
880.478	4816
880.605	4740
880.732	4774
880.859	5052
880.986	4904
881.112	4942
881.239	4740
881.366	4668
881.493	4596
881.619	4577
881.746	4641
881.872	4668
881.999	4637
882.125	4675
882.252	4782
882.378	4862
882.505	4908
882.631	4782
882.757	4683
882.883	4675
883.01	4740
883.136	4664
883.262	4561
883.388	4584
883.514	4812
883.64	4896
883.766	4759
883.892	4637
884.018	4725
884.143	4949
884.269	4995
884.395	4668
884.52	4565
884.646	4630
884.772	4577
884.897	4535
885.023	4672
885.148	4793
885.274	4816
885.399	4733
885.524	4702
885.65	4653
885.775	4698
885.9	4691
886.025	4812
886.15	4778
886.275	4694
886.4	4603
886.525	4702
886.65	4691
886.775	4668
886.9	4873
887.025	5041
887.149	4790
887.274	4634
887.399	4603
887.523	4622
887.648	4584
887.773	4558
887.897	4763
888.021	4748
888.146	4683
888.27	4816
888.395	4889
888.519	4778
888.643	4805
888.767	4782
888.891	4679
889.015	4569
889.139	4645
889.263	4607
889.387	4759
889.511	4919
889.635	4774
889.759	4641
889.883	4645
890.006	4698
890.13	4828
890.254	4565
890.377	4637
890.501	4527
890.624	4504
890.748	4653
890.871	4500
890.995	4394
891.118	4360
891.241	4508
891.364	4535
891.488	4641
891.611	4478
891.734	4504
891.857	4622
891.98	4569
892.103	4588
892.226	4596
892.349	4512
892.471	4375
892.594	4550
892.717	4596
892.839	4546
892.962	4577
893.085	4656
893.207	4588
893.33	4424
893.452	4519
893.575	4607
893.697	4554
893.819	4752
893.941	4858
894.064	4793
894.186	4615
894.308	4527
894.43	4691
894.552	4786
894.674	4744
894.796	4569
894.918	4607
895.04	4519
895.161	4668
895.283	4664
895.405	4550
895.526	4622
895.648	4668
895.769	4630
895.891	4645
896.012	4729
896.134	4679
896.255	4656
896.376	4618
896.498	4626
896.619	4725
896.74	4596
896.861	4611
896.982	4942
897.103	5105
897.224	4820
897.345	4717
897.466	4660
897.587	4721
897.708	4820
897.828	4759
897.949	4672
898.07	4542
898.19	4634
898.311	4790
898.431	4694
898.552	4744
898.672	4771
898.792	4782
898.913	4729
899.033	4656
899.153	4466
899.273	4451
899.393	4485
899.513	4493
899.633	4512
899.753	4527
899.873	4474
899.993	4599
900.113	4519
900.232	4569
900.352	4558
900.472	4443
900.591	4409
900.711	4489
900.83	4417
900.95	4584
901.069	4675
901.189	4497
901.308	4367
901.427	4318
901.546	4352
901.665	4451
901.784	4512
901.904	4371
902.023	4318
902.141	4200
902.26	4128
902.379	4348
902.498	4249
902.617	4188
902.735	4329
902.854	4440
902.973	4356
903.091	4188
903.21	4181
903.328	4276
903.446	4284
903.565	4246
903.683	4314
903.801	4284
903.919	4402
904.038	4352
904.156	4306
904.274	4447
904.392	4394
904.51	4424
904.627	4474
904.745	4603
904.863	4592
904.981	4409
905.098	4310
905.216	4367
905.334	4383
905.451	4470
905.569	4466
905.686	4527
905.803	4573
905.921	4447
906.038	4500
906.155	4459
906.272	4352
906.389	4447
906.506	4348
906.623	4352
906.74	4360
906.857	4284
906.974	4375
907.091	4519
907.208	4687
907.324	4569
907.441	4504
907.557	4352
907.674	4329
907.79	4310
907.907	4325
908.023	4459
908.139	4436
908.256	4367
908.372	4413
908.488	4424
908.604	4348
908.72	4386
908.836	4379
908.952	4383
909.068	4432
909.184	4535
909.3	4436
909.415	4577
909.531	4512
909.647	4352
909.762	4417
909.878	4295
909.993	4459
910.108	4424
910.224	4455
910.339	4497
910.454	4333
910.57	4348
910.685	4284
910.8	4645
910.915	4626
911.03	4481
911.145	4276
911.259	4352
911.374	4333
911.489	4280
911.604	4211
911.718	4173
911.833	4188
911.947	4044
912.062	4044
912.176	4227
912.291	4253
912.405	4276
912.519	4443
912.633	4493
912.748	4333
912.862	4287
912.976	4200
913.09	4074
913.204	4101
913.318	4295
913.431	4333
913.545	4367
913.659	4447
913.772	4363
913.886	4246
914	4177
914.113	4375
914.226	4470
914.34	4424
914.453	4196
914.566	4394
914.68	4333
914.793	4310
914.906	4158
915.019	4109
915.132	4063
915.245	4162
915.358	4181
915.47	4227
915.583	4280
915.696	4272
915.809	4383
915.921	4386
916.034	4265
916.146	4223
916.259	4200
916.371	4352
916.483	4394
916.595	4303
916.708	4325
916.82	4348
916.932	4291
917.044	4257
917.156	4344
917.268	4234
917.38	4291
917.491	4204
917.603	4325
917.715	4405
917.826	4447
917.938	4291
918.049	4215
918.161	4390
918.272	4504
918.384	4538
918.495	4436
918.606	4272
918.717	4227
918.828	4272
918.939	4344
919.05	4211
919.161	4272
919.272	4158
919.383	4242
919.494	4432
919.604	4637
919.715	4516
919.826	4367
919.936	4367
920.047	4519
920.157	4459
920.267	4672
920.378	4508
920.488	4485
920.598	4717
920.708	4850
920.818	4786
920.928	4736
921.038	4930
921.148	4885
921.258	4656
921.368	4478
921.477	4466
921.587	4466
921.697	4390
921.806	4531
921.916	4409
922.025	4276
922.134	4261
922.244	4215
922.353	4295
922.462	4173
922.571	4105
922.68	4010
922.789	3945
922.898	4044
923.007	3979
923.116	4112
923.224	4051
923.333	4040
923.442	3975
923.55	3991
923.659	3998
923.767	4067
923.876	4010
923.984	4124
924.092	4010
924.201	4071
924.309	4143
924.417	4116
924.525	4059
924.633	4074
924.741	5079
924.849	3869
924.956	4166
925.064	3956
925.172	3869
925.279	3911
925.387	4051
925.494	4040
925.602	4185
925.709	4166
925.816	4044
925.924	4128
926.031	4211
926.138	4215
926.245	4196
926.352	4059
926.459	4253
926.566	4295
926.673	4128
926.779	4067
926.886	4078
926.993	3975
927.099	3964
927.206	3896
927.312	3926
927.419	4032
927.525	4029
927.631	4048
927.737	3960
927.843	3915
927.95	3819
928.056	3968
928.162	3964
928.267	4078
928.373	4641
928.479	4124
928.585	3850
928.69	3949
928.796	4059
928.901	3945
929.007	3793
929.112	4021
929.218	3979
929.323	3922
929.428	3922
929.533	4097
929.638	3903
929.743	3975
929.848	4029
929.953	4006
930.058	3907
930.163	3755
930.267	3842
930.372	3964
930.477	3793
930.581	4086
930.685	3949
930.79	3797
930.894	3880
930.998	3876
931.103	4055
931.207	3713
931.311	3694
931.415	3690
931.519	3507
931.623	3507
