Data from test_V78500241_2290.txt Node
Date: Fri Mar 25 17:04:55 CST 2022
User: usil
Spectrometer: V785-0024
Trigger mode: 0
Integration Time (sec): 4.000000E-1
Scans to average: 1
Nonlinearity correction enabled: false
Boxcar width: 0
Storing dark spectrum: false
XAxis mode: Wavelengths
Number of Pixels in Spectrum: 1024
>>>>>Begin Spectral Data<<<<<
801.071	8020
801.214	7951
801.356	7807
801.499	7860
801.641	7742
801.783	7811
801.926	7974
802.068	7883
802.211	7986
802.353	7936
802.496	7917
802.638	7807
802.78	7860
802.923	7925
803.065	7875
803.208	7894
803.35	7913
803.492	8100
803.635	8153
803.777	8016
803.919	8103
804.061	8442
804.204	8123
804.346	8062
804.488	7993
804.63	8107
804.773	7970
804.915	8115
805.057	8305
805.199	8142
805.341	8237
805.483	8275
805.626	8187
805.768	8081
805.91	8157
806.052	8214
806.194	8084
806.336	8237
806.478	8119
806.62	8103
806.762	8115
806.904	8301
807.046	8446
807.188	8301
807.33	8309
807.472	8343
807.614	8168
807.756	8176
807.898	8016
808.04	7868
808.182	7909
808.324	7917
808.465	7917
808.607	8050
808.749	8138
808.891	8206
809.033	8298
809.174	8195
809.316	8115
809.458	8065
809.6	7967
809.741	8050
809.883	7951
810.025	8092
810.166	8020
810.308	8020
810.45	7978
810.591	7852
810.733	7792
810.875	7670
811.016	7483
811.158	7502
811.299	7571
811.441	7708
811.582	7666
811.724	7537
811.865	7559
812.007	7578
812.148	7590
812.29	7605
812.431	7761
812.573	7845
812.714	8027
812.855	8100
812.997	8134
813.138	8214
813.279	8206
813.421	8103
813.562	7936
813.703	7845
813.845	7753
813.986	7445
814.127	7255
814.268	7209
814.41	7206
814.551	7149
814.692	7183
814.833	7152
814.974	7076
815.115	7133
815.256	6977
815.397	6905
815.539	6954
815.68	6783
815.821	6757
815.962	6848
816.103	6806
816.244	6715
816.385	6589
816.526	6646
816.666	6509
816.807	6319
816.948	6471
817.089	6509
817.23	6422
817.371	6384
817.512	6350
817.653	6346
817.793	6292
817.934	6445
818.075	6494
818.216	6441
818.356	6418
818.497	6247
818.638	6072
818.778	6159
818.919	6167
819.06	6148
819.2	6300
819.341	6281
819.481	6403
819.622	6521
819.762	6703
819.903	6684
820.043	6578
820.184	6566
820.324	6570
820.465	6700
820.605	6642
820.746	6604
820.886	6532
821.026	6665
821.167	6688
821.307	6818
821.447	6776
821.588	6722
821.728	6582
821.868	6570
822.008	6304
822.149	6365
822.289	6350
822.429	6136
822.569	6148
822.709	6102
822.849	5961
822.99	5927
823.13	5923
823.27	5904
823.41	5824
823.55	5783
823.69	5748
823.83	5733
823.97	5676
824.11	5596
824.25	5509
824.389	5604
824.529	5532
824.669	5535
824.809	5638
824.949	5684
825.089	5627
825.228	5577
825.368	5364
825.508	5318
825.648	5322
825.787	5402
825.927	5383
826.067	5299
826.206	5277
826.346	5357
826.485	5429
826.625	5421
826.765	5566
826.904	5490
827.044	5265
827.183	5166
827.323	5128
827.462	5231
827.601	5162
827.741	5181
827.88	5254
828.02	5117
828.159	5216
828.298	5292
828.437	5322
828.577	5231
828.716	5516
828.855	5330
828.994	5181
829.134	5113
829.273	5212
829.412	5140
829.551	5094
829.69	5162
829.829	5220
829.968	5379
830.107	5269
830.246	5261
830.385	5109
830.524	5197
830.663	5037
830.802	4987
830.941	4854
831.08	4908
831.219	4953
831.357	4972
831.496	5083
831.635	4881
831.774	4835
831.913	4911
832.051	4725
832.19	4740
832.329	4854
832.467	4641
832.606	4615
832.744	4702
832.883	4759
833.022	4714
833.16	4805
833.299	4824
833.437	4816
833.576	4824
833.714	4824
833.852	4866
833.991	4923
834.129	4972
834.267	4889
834.406	4927
834.544	4961
834.682	4965
834.821	4942
834.959	5117
835.097	4965
835.235	5132
835.373	5151
835.511	5090
835.65	5022
835.788	5033
835.926	4877
836.064	4873
836.202	4908
836.34	5159
836.478	5235
836.615	5140
836.753	5151
836.891	5269
837.029	5254
837.167	5189
837.305	5170
837.443	5136
837.58	5090
837.718	5258
837.856	5216
837.993	5147
838.131	5181
838.269	5162
838.406	5201
838.544	5193
838.681	5029
838.819	5006
838.956	4858
839.094	4889
839.231	4991
839.369	5071
839.506	5452
839.643	5216
839.781	5041
839.918	4999
840.055	5170
840.193	5083
840.33	5102
840.467	5075
840.604	5128
840.742	5402
840.879	5071
841.016	5090
841.153	5193
841.29	5357
841.427	5292
841.564	5296
841.701	5315
841.838	5296
841.975	5227
842.112	5334
842.249	5121
842.385	5064
842.522	5318
842.659	5143
842.796	5086
842.933	5166
843.069	5166
843.206	5151
843.343	5292
843.479	5261
843.616	5284
843.752	5037
843.889	5048
844.025	5197
844.162	5022
844.298	5204
844.435	5045
844.571	5025
844.708	5216
844.844	5303
844.98	5372
845.117	5334
845.253	5090
845.389	5041
845.525	5098
845.661	5159
845.798	5056
845.934	5102
846.07	5045
846.206	5147
846.342	5273
846.478	5159
846.614	5010
846.75	4961
846.886	4934
847.022	5037
847.158	5022
847.294	5060
847.429	5098
847.565	5041
847.701	5334
847.837	4839
847.972	4782
848.108	4934
848.244	4892
848.379	4755
848.515	4744
848.65	4683
848.786	4767
848.921	4759
849.057	4862
849.192	4892
849.328	4816
849.463	4850
849.598	4763
849.734	4824
849.869	4675
850.004	4607
850.14	4729
850.275	4577
850.41	4504
850.545	4558
850.68	4641
850.815	4637
850.95	4615
851.085	4892
851.22	4771
851.355	4694
851.49	4626
851.625	4641
851.76	4573
851.895	4565
852.03	4550
852.165	4664
852.299	4740
852.434	4786
852.569	4774
852.703	4831
852.838	4824
852.973	4949
853.107	4900
853.242	4694
853.376	4691
853.511	4573
853.645	4607
853.78	4778
853.914	4672
854.048	4668
854.183	4649
854.317	4717
854.451	4755
854.585	4668
854.72	4645
854.854	4717
854.988	4599
855.122	4653
855.256	4535
855.39	4649
855.524	4748
855.658	4736
855.792	4664
855.926	4736
856.06	4812
856.194	4824
856.327	4679
856.461	4637
856.595	4649
856.729	4626
856.862	4748
856.996	4710
857.13	4725
857.263	4740
857.397	4801
857.53	4656
857.664	4736
857.797	4752
857.931	4786
858.064	4679
858.197	4782
858.331	4679
858.464	4607
858.597	4519
858.731	4653
858.864	4618
858.997	4580
859.13	4675
859.263	4641
859.396	4721
859.529	4584
859.662	4538
859.795	4538
859.928	4630
860.061	4767
860.194	4748
860.327	4596
860.46	4580
860.592	4694
860.725	4683
860.858	4733
860.99	4573
861.123	4542
861.256	4500
861.388	4660
861.521	5223
861.653	4459
861.786	4451
861.918	4462
862.05	4500
862.183	4512
862.315	4577
862.447	4611
862.58	4573
862.712	4421
862.844	4337
862.976	4443
863.108	4451
863.24	4843
863.372	4318
863.504	4421
863.636	4383
863.768	4459
863.9	4424
864.032	4356
864.164	4413
864.296	4428
864.428	4497
864.559	4596
864.691	4558
864.823	4538
864.954	4504
865.086	4527
865.217	4447
865.349	4447
865.48	4462
865.612	4481
865.743	4622
865.875	4497
866.006	4421
866.137	4443
866.269	4440
866.4	4447
866.531	4443
866.662	4390
866.793	4428
866.924	4459
867.055	4478
867.186	4470
867.317	4432
867.448	4375
867.579	4375
867.71	4383
867.841	4375
867.972	4481
868.103	4497
868.233	4466
868.364	4478
868.495	4512
868.625	4664
868.756	4763
868.886	4550
869.017	4561
869.147	4793
869.278	4786
869.408	4687
869.539	4649
869.669	4698
869.799	4645
869.929	4748
870.06	4698
870.19	4942
870.32	4892
870.45	4896
870.58	5006
870.71	5041
870.84	5102
870.97	4957
871.1	4889
871.23	5159
871.36	5109
871.489	5056
871.619	5090
871.749	5094
871.879	5151
872.008	5162
872.138	5083
872.267	5014
872.397	4835
872.526	4774
872.656	4698
872.785	4816
872.915	4892
873.044	4999
873.173	4946
873.303	4942
873.432	4942
873.561	4980
873.69	4850
873.819	4850
873.948	4900
874.077	4862
874.206	4771
874.335	4759
874.464	4896
874.593	5071
874.722	4968
874.851	5075
874.979	5048
875.108	5018
875.237	4904
875.365	4889
875.494	4946
875.623	5041
875.751	4892
875.88	4866
876.008	4968
876.136	5010
876.265	5170
876.393	5277
876.521	5231
876.65	5174
876.778	5143
876.906	5064
877.034	5067
877.162	5056
877.29	5014
877.418	5048
877.546	5060
877.674	5056
877.802	5045
877.93	5033
878.058	4968
878.185	4896
878.313	4927
878.441	4946
878.568	4786
878.696	4885
878.824	4961
878.951	4995
879.079	5079
879.206	5277
879.333	5090
879.461	4968
879.588	4984
879.715	5109
879.842	5216
879.97	4957
880.097	4786
880.224	4733
880.351	4786
880.478	4831
880.605	4778
880.732	4809
880.859	5064
880.986	4885
881.112	4915
881.239	4824
881.366	4603
881.493	4577
881.619	4565
881.746	4645
881.872	4622
881.999	4611
882.125	4675
882.252	4782
882.378	4858
882.505	4972
882.631	4809
882.757	4702
882.883	4740
883.01	4736
883.136	4649
883.262	4535
883.388	4607
883.514	4774
883.64	4862
883.766	4755
883.892	4641
884.018	4660
884.143	4873
884.269	5052
884.395	4683
884.52	4664
884.646	4615
884.772	4554
884.897	4561
885.023	4649
885.148	4809
885.274	4870
885.399	4828
885.524	4771
885.65	4717
885.775	4744
885.9	4702
886.025	4843
886.15	4778
886.275	4694
886.4	4622
886.525	4702
886.65	4637
886.775	4733
886.9	4881
887.025	5014
887.149	4793
887.274	4630
887.399	4592
887.523	4596
887.648	4588
887.773	4546
887.897	4717
888.021	4801
888.146	4706
888.27	4767
888.395	4896
888.519	4805
888.643	4839
888.767	4812
888.891	4649
889.015	4599
889.139	4668
889.263	4569
889.387	4752
889.511	4828
889.635	4786
889.759	4656
889.883	4637
890.006	4786
890.13	4831
890.254	4561
890.377	4679
890.501	4554
890.624	4558
890.748	4649
890.871	4474
890.995	4417
891.118	4394
891.241	4527
891.364	4531
891.488	4622
891.611	4497
891.734	4542
891.857	4577
891.98	4535
892.103	4653
892.226	4615
892.349	4512
892.471	4421
892.594	4519
892.717	4607
892.839	4603
892.962	4622
893.085	4698
893.207	4599
893.33	4451
893.452	4535
893.575	4645
893.697	4603
893.819	4801
893.941	4828
894.064	4767
894.186	4561
894.308	4561
894.43	4721
894.552	4831
894.674	4778
894.796	4558
894.918	4603
895.04	4577
895.161	4698
895.283	4630
895.405	4626
895.526	4615
895.648	4672
895.769	4717
895.891	4687
896.012	4717
896.134	4706
896.255	4637
896.376	4664
896.498	4660
896.619	4683
896.74	4565
896.861	4649
896.982	4930
897.103	5071
897.224	4782
897.345	4744
897.466	4607
897.587	4759
897.708	4870
897.828	4782
897.949	4698
898.07	4550
898.19	4649
898.311	4839
898.431	4687
898.552	4748
898.672	4767
898.792	4786
898.913	4763
899.033	4607
899.153	4478
899.273	4413
899.393	4497
899.513	4500
899.633	4519
899.753	4554
899.873	4504
899.993	4577
900.113	4565
900.232	4611
900.352	4519
900.472	4459
900.591	4417
900.711	4508
900.83	4447
900.95	4649
901.069	4675
901.189	4527
901.308	4363
901.427	4310
901.546	4379
901.665	4459
901.784	4531
901.904	4386
902.023	4325
902.141	4124
902.26	4177
902.379	4291
902.498	4253
902.617	4215
902.735	4352
902.854	4386
902.973	4299
903.091	4166
903.21	4200
903.328	4299
903.446	4272
903.565	4295
903.683	4398
903.801	4265
903.919	4405
904.038	4421
904.156	4322
904.274	4417
904.392	4432
904.51	4421
904.627	4474
904.745	4561
904.863	4653
904.981	4363
905.098	4306
905.216	4379
905.334	4436
905.451	4451
905.569	4459
905.686	4580
905.803	4558
905.921	4413
906.038	4554
906.155	4443
906.272	4375
906.389	4443
906.506	4356
906.623	4394
906.74	4421
906.857	4284
906.974	4341
907.091	4561
907.208	4653
907.324	4622
907.441	4504
907.557	4386
907.674	4348
907.79	4333
907.907	4375
908.023	4459
908.139	4478
908.256	4451
908.372	4436
908.488	4493
908.604	4341
908.72	4306
908.836	4413
908.952	4333
909.068	4402
909.184	4538
909.3	4497
909.415	4554
909.531	4531
909.647	4295
909.762	4394
909.878	4322
909.993	4413
910.108	4383
910.224	4409
910.339	4432
910.454	4421
910.57	4341
910.685	4287
910.8	4596
910.915	4615
911.03	4558
911.145	4341
911.259	4310
911.374	4322
911.489	4295
911.604	4211
911.718	4162
911.833	4207
911.947	4093
912.062	4021
912.176	4219
912.291	4234
912.405	4223
912.519	4470
912.633	4500
912.748	4344
912.862	4344
912.976	4173
913.09	4090
913.204	4185
913.318	4265
913.431	4367
913.545	4310
913.659	4443
913.772	4375
913.886	4268
914	4242
914.113	4394
914.226	4440
914.34	4367
914.453	4249
914.566	4363
914.68	4284
914.793	4287
914.906	4200
915.019	4109
915.132	4067
915.245	4139
915.358	4219
915.47	4219
915.583	4265
915.696	4306
915.809	4390
915.921	4436
916.034	4291
916.146	4257
916.259	4204
916.371	4390
916.483	4386
916.595	4303
916.708	4295
916.82	4295
916.932	4295
917.044	4318
917.156	4333
917.268	4211
917.38	4238
917.491	4246
917.603	4322
917.715	4443
917.826	4432
917.938	4306
918.049	4238
918.161	4409
918.272	4531
918.384	4504
918.495	4470
918.606	4291
918.717	4223
918.828	4341
918.939	4310
919.05	4329
919.161	4360
919.272	4135
919.383	4219
919.494	4432
919.604	4630
919.715	4417
919.826	4360
919.936	4390
920.047	4527
920.157	4474
920.267	4694
920.378	4493
920.488	4459
920.598	4721
920.708	4877
920.818	4740
920.928	4782
921.038	4930
921.148	4881
921.258	4637
921.368	4565
921.477	4459
921.587	4489
921.697	4375
921.806	4550
921.916	4413
922.025	4303
922.134	4295
922.244	4200
922.353	4284
922.462	4192
922.571	4131
922.68	3998
922.789	4006
922.898	3998
923.007	4010
923.116	4093
923.224	4067
923.333	4112
923.442	4017
923.55	3941
923.659	4032
923.767	4101
923.876	3994
923.984	4071
924.092	3979
924.201	4067
924.309	4048
924.417	4105
924.525	4048
924.633	4082
924.741	5067
924.849	3884
924.956	4105
925.064	3972
925.172	3854
925.279	3956
925.387	4063
925.494	4055
925.602	4223
925.709	4150
925.816	4013
925.924	4124
926.031	4230
926.138	4116
926.245	4181
926.352	4120
926.459	4257
926.566	4268
926.673	4150
926.779	4067
926.886	4063
926.993	3953
927.099	3968
927.206	3918
927.312	3953
927.419	4036
927.525	4029
927.631	4105
927.737	3956
927.843	3953
927.95	3812
928.056	3975
928.162	3994
928.267	4040
928.373	4664
928.479	4097
928.585	3869
928.69	4029
928.796	4059
928.901	3983
929.007	3838
929.112	4025
929.218	3975
929.323	3956
929.428	3960
929.533	4082
929.638	3972
929.743	4021
929.848	4002
929.953	4002
930.058	3880
930.163	3774
930.267	3827
930.372	3968
930.477	3804
930.581	4093
930.685	3945
930.79	3869
930.894	3896
930.998	3762
931.103	4051
931.207	3686
931.311	3671
931.415	3656
931.519	3526
931.623	3545
