Data from test_V78500241_1911.txt Node
Date: Fri Mar 25 17:02:17 CST 2022
User: usil
Spectrometer: V785-0024
Trigger mode: 0
Integration Time (sec): 4.000000E-1
Scans to average: 1
Nonlinearity correction enabled: false
Boxcar width: 0
Storing dark spectrum: false
XAxis mode: Wavelengths
Number of Pixels in Spectrum: 1024
>>>>>Begin Spectral Data<<<<<
801.071	7902
801.214	7932
801.356	7906
801.499	7837
801.641	7765
801.783	7799
801.926	7951
802.068	7932
802.211	7967
802.353	8001
802.496	7875
802.638	7845
802.78	7902
802.923	7898
803.065	7906
803.208	7833
803.35	7967
803.492	8103
803.635	8103
803.777	7936
803.919	8077
804.061	8438
804.204	8157
804.346	8035
804.488	7970
804.63	8103
804.773	7978
804.915	8027
805.057	8263
805.199	8035
805.341	8149
805.483	8221
805.626	8145
805.768	8107
805.91	8202
806.052	8240
806.194	8092
806.336	8240
806.478	8100
806.62	8050
806.762	8134
806.904	8271
807.046	8461
807.188	8355
807.33	8320
807.472	8324
807.614	8206
807.756	8115
807.898	8001
808.04	7883
808.182	7879
808.324	7909
808.465	7906
808.607	8008
808.749	8081
808.891	8225
809.033	8286
809.174	8180
809.316	8130
809.458	8119
809.6	8001
809.741	8069
809.883	8027
810.025	8081
810.166	8081
810.308	7978
810.45	8043
810.591	7852
810.733	7666
810.875	7655
811.016	7533
811.158	7392
811.299	7552
811.441	7742
811.582	7658
811.724	7537
811.865	7594
812.007	7537
812.148	7590
812.29	7658
812.431	7780
812.573	7879
812.714	7887
812.855	8149
812.997	8180
813.138	8202
813.279	8100
813.421	8069
813.562	7982
813.703	7776
813.845	7685
813.986	7365
814.127	7194
814.268	7209
814.41	7164
814.551	7149
814.692	7266
814.833	7088
814.974	7088
815.115	7038
815.256	6954
815.397	7000
815.539	7000
815.68	6859
815.821	6760
815.962	6840
816.103	6856
816.244	6692
816.385	6532
816.526	6635
816.666	6498
816.807	6365
816.948	6471
817.089	6456
817.23	6365
817.371	6357
817.512	6365
817.653	6384
817.793	6361
817.934	6426
818.075	6467
818.216	6429
818.356	6456
818.497	6247
818.638	6144
818.778	6110
818.919	6194
819.06	6159
819.2	6346
819.341	6315
819.481	6338
819.622	6490
819.762	6734
819.903	6738
820.043	6555
820.184	6593
820.324	6608
820.465	6741
820.605	6623
820.746	6662
820.886	6521
821.026	6585
821.167	6703
821.307	6772
821.447	6684
821.588	6642
821.728	6593
821.868	6467
822.008	6300
822.149	6403
822.289	6315
822.429	6201
822.569	6064
822.709	6030
822.849	5870
822.99	5920
823.13	5908
823.27	5863
823.41	5771
823.55	5779
823.69	5764
823.83	5775
823.97	5634
824.11	5543
824.25	5524
824.389	5554
824.529	5585
824.669	5486
824.809	5649
824.949	5657
825.089	5592
825.228	5512
825.368	5395
825.508	5345
825.648	5353
825.787	5425
825.927	5368
826.067	5334
826.206	5299
826.346	5364
826.485	5372
826.625	5379
826.765	5528
826.904	5455
827.044	5227
827.183	5181
827.323	5124
827.462	5258
827.601	5140
827.741	5170
827.88	5208
828.02	5086
828.159	5212
828.298	5353
828.437	5326
828.577	5299
828.716	5490
828.855	5315
828.994	5143
829.134	5174
829.273	5124
829.412	5109
829.551	5140
829.69	5113
829.829	5261
829.968	5349
830.107	5220
830.246	5296
830.385	5189
830.524	5136
830.663	5079
830.802	4999
830.941	4843
831.08	4843
831.219	4999
831.357	4949
831.496	5166
831.635	4885
831.774	4854
831.913	4828
832.051	4710
832.19	4725
832.329	4812
832.467	4683
832.606	4679
832.744	4694
832.883	4710
833.022	4717
833.16	4733
833.299	4816
833.437	4812
833.576	4824
833.714	4820
833.852	4896
833.991	4885
834.129	4915
834.267	4976
834.406	4908
834.544	4980
834.682	5003
834.821	4953
834.959	5121
835.097	4938
835.235	5117
835.373	5121
835.511	5102
835.65	5079
835.788	5003
835.926	4858
836.064	4866
836.202	4938
836.34	5159
836.478	5193
836.615	5075
836.753	5162
836.891	5315
837.029	5280
837.167	5147
837.305	5162
837.443	5151
837.58	5079
837.718	5258
837.856	5197
837.993	5151
838.131	5284
838.269	5178
838.406	5181
838.544	5166
838.681	5006
838.819	4957
838.956	4968
839.094	4927
839.231	5006
839.369	5067
839.506	5448
839.643	5216
839.781	5083
839.918	4949
840.055	5052
840.193	5045
840.33	5128
840.467	5121
840.604	5212
840.742	5421
840.879	5060
841.016	5113
841.153	5117
841.29	5376
841.427	5398
841.564	5322
841.701	5326
841.838	5277
841.975	5216
842.112	5265
842.249	5117
842.385	5098
842.522	5303
842.659	5147
842.796	5143
842.933	5174
843.069	5193
843.206	5159
843.343	5357
843.479	5201
843.616	5254
843.752	5010
843.889	4999
844.025	5193
844.162	5006
844.298	5189
844.435	5064
844.571	5037
844.708	5181
844.844	5307
844.98	5341
845.117	5250
845.253	5121
845.389	5003
845.525	5181
845.661	5128
845.798	5041
845.934	5155
846.07	5025
846.206	5197
846.342	5364
846.478	5208
846.614	5056
846.75	4987
846.886	4953
847.022	5151
847.158	4995
847.294	5105
847.429	5090
847.565	5041
847.701	5277
847.837	4870
847.972	4759
848.108	4984
848.244	4904
848.379	4721
848.515	4744
848.65	4725
848.786	4740
848.921	4774
849.057	4870
849.192	4900
849.328	4793
849.463	4828
849.598	4793
849.734	4797
849.869	4687
850.004	4664
850.14	4656
850.275	4618
850.41	4535
850.545	4550
850.68	4630
850.815	4607
850.95	4622
851.085	4854
851.22	4767
851.355	4660
851.49	4615
851.625	4611
851.76	4672
851.895	4550
852.03	4542
852.165	4660
852.299	4675
852.434	4801
852.569	4733
852.703	4740
852.838	4839
852.973	4919
853.107	4904
853.242	4736
853.376	4649
853.511	4550
853.645	4653
853.78	4771
853.914	4672
854.048	4725
854.183	4637
854.317	4710
854.451	4824
854.585	4641
854.72	4630
854.854	4683
854.988	4599
855.122	4580
855.256	4531
855.39	4618
855.524	4767
855.658	4725
855.792	4679
855.926	4729
856.06	4763
856.194	4759
856.327	4691
856.461	4577
856.595	4599
856.729	4603
856.862	4736
856.996	4641
857.13	4748
857.263	4778
857.397	4812
857.53	4634
857.664	4733
857.797	4778
857.931	4771
858.064	4710
858.197	4717
858.331	4675
858.464	4626
858.597	4516
858.731	4645
858.864	4630
858.997	4535
859.13	4641
859.263	4683
859.396	4656
859.529	4603
859.662	4569
859.795	4588
859.928	4656
860.061	4759
860.194	4763
860.327	4569
860.46	4577
860.592	4710
860.725	4729
860.858	4683
860.99	4573
861.123	4523
861.256	4478
861.388	4637
861.521	5269
861.653	4538
861.786	4428
861.918	4504
862.05	4493
862.183	4542
862.315	4584
862.447	4637
862.58	4546
862.712	4409
862.844	4348
862.976	4451
863.108	4421
863.24	4774
863.372	4318
863.504	4394
863.636	4409
863.768	4500
863.9	4421
864.032	4341
864.164	4421
864.296	4459
864.428	4538
864.559	4596
864.691	4527
864.823	4489
864.954	4535
865.086	4512
865.217	4443
865.349	4367
865.48	4508
865.612	4516
865.743	4577
865.875	4459
866.006	4386
866.137	4436
866.269	4443
866.4	4424
866.531	4409
866.662	4421
866.793	4371
866.924	4371
867.055	4519
867.186	4405
867.317	4405
867.448	4329
867.579	4379
867.71	4432
867.841	4337
867.972	4462
868.103	4474
868.233	4470
868.364	4443
868.495	4447
868.625	4672
868.756	4820
868.886	4592
869.017	4656
869.147	4801
869.278	4752
869.408	4679
869.539	4634
869.669	4694
869.799	4668
869.929	4774
870.06	4755
870.19	4965
870.32	4915
870.45	4965
870.58	4984
870.71	5052
870.84	5090
870.97	4949
871.1	4904
871.23	5048
871.36	5102
871.489	4976
871.619	5094
871.749	5159
871.879	5094
872.008	5178
872.138	5113
872.267	4972
872.397	4866
872.526	4786
872.656	4744
872.785	4755
872.915	4911
873.044	5014
873.173	4904
873.303	4957
873.432	4927
873.561	4953
873.69	4866
873.819	4866
873.948	4892
874.077	4805
874.206	4744
874.335	4847
874.464	4942
874.593	5041
874.722	4930
874.851	5075
874.979	5075
875.108	4987
875.237	4915
875.365	4862
875.494	4850
875.623	4984
875.751	4847
875.88	4866
876.008	4915
876.136	5075
876.265	5181
876.393	5360
876.521	5261
876.65	5227
876.778	5128
876.906	5067
877.034	4968
877.162	5029
877.29	4957
877.418	5048
877.546	4995
877.674	5037
877.802	5064
877.93	5010
878.058	4915
878.185	4854
878.313	4946
878.441	4961
878.568	4774
878.696	4908
878.824	4946
878.951	5022
879.079	5098
879.206	5277
879.333	5075
879.461	4987
879.588	5014
879.715	5060
879.842	5220
879.97	5037
880.097	4763
880.224	4736
880.351	4767
880.478	4809
880.605	4782
880.732	4771
880.859	5083
880.986	4877
881.112	4873
881.239	4774
881.366	4634
881.493	4580
881.619	4561
881.746	4603
881.872	4645
881.999	4607
882.125	4645
882.252	4767
882.378	4843
882.505	4919
882.631	4786
882.757	4668
882.883	4759
883.01	4736
883.136	4634
883.262	4599
883.388	4584
883.514	4858
883.64	4870
883.766	4801
883.892	4607
884.018	4736
884.143	4915
884.269	5014
884.395	4664
884.52	4622
884.646	4679
884.772	4580
884.897	4561
885.023	4637
885.148	4740
885.274	4866
885.399	4786
885.524	4694
885.65	4717
885.775	4725
885.9	4710
886.025	4858
886.15	4767
886.275	4748
886.4	4634
886.525	4725
886.65	4691
886.775	4717
886.9	4915
887.025	5033
887.149	4736
887.274	4634
887.399	4596
887.523	4634
887.648	4611
887.773	4599
887.897	4748
888.021	4858
888.146	4668
888.27	4793
888.395	4896
888.519	4790
888.643	4782
888.767	4809
888.891	4630
889.015	4569
889.139	4668
889.263	4611
889.387	4748
889.511	4847
889.635	4801
889.759	4634
889.883	4622
890.006	4744
890.13	4782
890.254	4588
890.377	4687
890.501	4443
890.624	4493
890.748	4630
890.871	4500
890.995	4394
891.118	4371
891.241	4538
891.364	4531
891.488	4618
891.611	4497
891.734	4523
891.857	4516
891.98	4535
892.103	4710
892.226	4573
892.349	4519
892.471	4379
892.594	4516
892.717	4596
892.839	4561
892.962	4577
893.085	4660
893.207	4607
893.33	4497
893.452	4546
893.575	4637
893.697	4584
893.819	4733
893.941	4793
894.064	4706
894.186	4561
894.308	4588
894.43	4752
894.552	4812
894.674	4748
894.796	4542
894.918	4580
895.04	4569
895.161	4740
895.283	4634
895.405	4603
895.526	4634
895.648	4733
895.769	4641
895.891	4683
896.012	4767
896.134	4691
896.255	4694
896.376	4656
896.498	4637
896.619	4710
896.74	4596
896.861	4637
896.982	4927
897.103	5067
897.224	4801
897.345	4717
897.466	4653
897.587	4729
897.708	4862
897.828	4759
897.949	4622
898.07	4573
898.19	4618
898.311	4847
898.431	4660
898.552	4683
898.672	4759
898.792	4752
898.913	4698
899.033	4569
899.153	4489
899.273	4428
899.393	4519
899.513	4516
899.633	4546
899.753	4558
899.873	4519
899.993	4607
900.113	4516
900.232	4584
900.352	4512
900.472	4455
900.591	4405
900.711	4470
900.83	4443
900.95	4607
901.069	4649
901.189	4523
901.308	4371
901.427	4325
901.546	4363
901.665	4455
901.784	4531
901.904	4371
902.023	4325
902.141	4192
902.26	4143
902.379	4272
902.498	4280
902.617	4181
902.735	4310
902.854	4398
902.973	4360
903.091	4223
903.21	4223
903.328	4257
903.446	4318
903.565	4276
903.683	4348
903.801	4284
903.919	4379
904.038	4421
904.156	4280
904.274	4436
904.392	4383
904.51	4428
904.627	4512
904.745	4592
904.863	4626
904.981	4371
905.098	4310
905.216	4352
905.334	4443
905.451	4493
905.569	4421
905.686	4561
905.803	4546
905.921	4402
906.038	4550
906.155	4474
906.272	4375
906.389	4459
906.506	4276
906.623	4356
906.74	4409
906.857	4303
906.974	4318
907.091	4542
907.208	4660
907.324	4535
907.441	4485
907.557	4356
907.674	4329
907.79	4306
907.907	4375
908.023	4538
908.139	4432
908.256	4394
908.372	4436
908.488	4459
908.604	4318
908.72	4299
908.836	4371
908.952	4325
909.068	4432
909.184	4580
909.3	4417
909.415	4558
909.531	4550
909.647	4352
909.762	4428
909.878	4375
909.993	4447
910.108	4451
910.224	4398
910.339	4459
910.454	4371
910.57	4383
910.685	4337
910.8	4672
910.915	4569
911.03	4474
911.145	4325
911.259	4322
911.374	4375
911.489	4322
911.604	4265
911.718	4185
911.833	4192
911.947	4059
912.062	4021
912.176	4219
912.291	4223
912.405	4204
912.519	4485
912.633	4478
912.748	4394
912.862	4322
912.976	4177
913.09	4109
913.204	4200
913.318	4227
913.431	4356
913.545	4318
913.659	4466
913.772	4337
913.886	4261
914	4272
914.113	4360
914.226	4432
914.34	4398
914.453	4234
914.566	4455
914.68	4291
914.793	4337
914.906	4143
915.019	4131
915.132	4124
915.245	4188
915.358	4196
915.47	4238
915.583	4265
915.696	4276
915.809	4371
915.921	4405
916.034	4246
916.146	4207
916.259	4147
916.371	4413
916.483	4356
916.595	4215
916.708	4341
916.82	4268
916.932	4295
917.044	4322
917.156	4348
917.268	4196
917.38	4276
917.491	4280
917.603	4356
917.715	4428
917.826	4405
917.938	4303
918.049	4253
918.161	4417
918.272	4504
918.384	4550
918.495	4466
918.606	4291
918.717	4253
918.828	4322
918.939	4417
919.05	4242
919.161	4284
919.272	4135
919.383	4253
919.494	4466
919.604	4653
919.715	4405
919.826	4379
919.936	4379
920.047	4523
920.157	4519
920.267	4706
920.378	4565
920.488	4508
920.598	4687
920.708	4900
920.818	4736
920.928	4748
921.038	4961
921.148	4885
921.258	4645
921.368	4558
921.477	4527
921.587	4421
921.697	4352
921.806	4512
921.916	4447
922.025	4246
922.134	4230
922.244	4196
922.353	4287
922.462	4177
922.571	4105
922.68	4002
922.789	3983
922.898	3998
923.007	3968
923.116	4071
923.224	4051
923.333	4082
923.442	3949
923.55	3972
923.659	4002
923.767	4101
923.876	3991
923.984	4120
924.092	3956
924.201	4032
924.309	4082
924.417	4120
924.525	4021
924.633	4105
924.741	5052
924.849	3896
924.956	4143
925.064	3979
925.172	3884
925.279	3964
925.387	4086
925.494	4036
925.602	4215
925.709	4150
925.816	3994
925.924	4109
926.031	4215
926.138	4162
926.245	4173
926.352	4063
926.459	4257
926.566	4287
926.673	4211
926.779	4097
926.886	4067
926.993	3972
927.099	3949
927.206	3915
927.312	3922
927.419	4055
927.525	4071
927.631	4105
927.737	3937
927.843	3918
927.95	3869
928.056	3960
928.162	3983
928.267	4059
928.373	4584
928.479	4109
928.585	3812
928.69	4017
928.796	4101
928.901	3964
929.007	3804
929.112	4010
929.218	3953
929.323	3972
929.428	3949
929.533	4109
929.638	3869
929.743	3945
929.848	4063
929.953	3983
930.058	3907
930.163	3770
930.267	3785
930.372	3964
930.477	3842
930.581	4074
930.685	3934
930.79	3823
930.894	3838
930.998	3835
931.103	4032
931.207	3694
931.311	3686
931.415	3660
931.519	3511
931.623	3507
