Data from test_V78500241_2806.txt Node
Date: Fri Mar 25 17:08:30 CST 2022
User: usil
Spectrometer: V785-0024
Trigger mode: 0
Integration Time (sec): 4.000000E-1
Scans to average: 1
Nonlinearity correction enabled: false
Boxcar width: 0
Storing dark spectrum: false
XAxis mode: Wavelengths
Number of Pixels in Spectrum: 1024
>>>>>Begin Spectral Data<<<<<
801.071	8039
801.214	7951
801.356	7917
801.499	7928
801.641	7830
801.783	7860
801.926	7940
802.068	7982
802.211	7993
802.353	8050
802.496	7822
802.638	7902
802.78	7909
802.923	7913
803.065	7795
803.208	7780
803.35	7978
803.492	8107
803.635	8153
803.777	8084
803.919	8206
804.061	8434
804.204	8157
804.346	8096
804.488	7936
804.63	8065
804.773	8134
804.915	8077
805.057	8351
805.199	8176
805.341	8214
805.483	8301
805.626	8237
805.768	8233
805.91	8279
806.052	8248
806.194	8172
806.336	8328
806.478	8161
806.62	8088
806.762	8123
806.904	8210
807.046	8507
807.188	8438
807.33	8347
807.472	8370
807.614	8210
807.756	8210
807.898	8054
808.04	7833
808.182	7928
808.324	7890
808.465	7868
808.607	8081
808.749	8199
808.891	8275
809.033	8339
809.174	8202
809.316	8073
809.458	8107
809.6	8054
809.741	7978
809.883	8100
810.025	8168
810.166	8107
810.308	8031
810.45	8020
810.591	7841
810.733	7795
810.875	7712
811.016	7540
811.158	7544
811.299	7651
811.441	7753
811.582	7746
811.724	7628
811.865	7594
812.007	7662
812.148	7651
812.29	7693
812.431	7833
812.573	7864
812.714	8024
812.855	8145
812.997	8225
813.138	8320
813.279	8168
813.421	8130
813.562	8058
813.703	7894
813.845	7772
813.986	7491
814.127	7354
814.268	7247
814.41	7282
814.551	7164
814.692	7171
814.833	7126
814.974	7183
815.115	7137
815.256	6996
815.397	6913
815.539	6981
815.68	6859
815.821	6806
815.962	6875
816.103	6863
816.244	6719
816.385	6616
816.526	6662
816.666	6452
816.807	6342
816.948	6445
817.089	6498
817.23	6490
817.371	6391
817.512	6448
817.653	6464
817.793	6403
817.934	6399
818.075	6464
818.216	6433
818.356	6437
818.497	6243
818.638	6140
818.778	6186
818.919	6171
819.06	6155
819.2	6365
819.341	6304
819.481	6350
819.622	6528
819.762	6760
819.903	6684
820.043	6665
820.184	6582
820.324	6616
820.465	6715
820.605	6741
820.746	6677
820.886	6525
821.026	6707
821.167	6738
821.307	6802
821.447	6760
821.588	6639
821.728	6540
821.868	6498
822.008	6338
822.149	6353
822.289	6410
822.429	6178
822.569	6148
822.709	6106
822.849	5901
822.99	5912
823.13	5935
823.27	5897
823.41	5840
823.55	5805
823.69	5752
823.83	5783
823.97	5638
824.11	5532
824.25	5543
824.389	5551
824.529	5649
824.669	5573
824.809	5649
824.949	5691
825.089	5562
825.228	5520
825.368	5421
825.508	5383
825.648	5364
825.787	5387
825.927	5425
826.067	5364
826.206	5254
826.346	5421
826.485	5440
826.625	5452
826.765	5581
826.904	5543
827.044	5284
827.183	5178
827.323	5166
827.462	5250
827.601	5170
827.741	5231
827.88	5223
828.02	5117
828.159	5261
828.298	5307
828.437	5379
828.577	5277
828.716	5505
828.855	5292
828.994	5185
829.134	5155
829.273	5178
829.412	5159
829.551	5151
829.69	5178
829.829	5223
829.968	5395
830.107	5258
830.246	5265
830.385	5201
830.524	5151
830.663	5083
830.802	4995
830.941	4892
831.08	4858
831.219	5014
831.357	4995
831.496	5174
831.635	4976
831.774	4877
831.913	4854
832.051	4752
832.19	4767
832.329	4828
832.467	4694
832.606	4653
832.744	4752
832.883	4706
833.022	4698
833.16	4816
833.299	4843
833.437	4835
833.576	4831
833.714	4885
833.852	4885
833.991	4885
834.129	4938
834.267	4930
834.406	4892
834.544	4980
834.682	4987
834.821	4991
834.959	5185
835.097	5025
835.235	5136
835.373	5056
835.511	5098
835.65	5041
835.788	5033
835.926	4881
836.064	4835
836.202	4934
836.34	5239
836.478	5201
836.615	5140
836.753	5197
836.891	5330
837.029	5254
837.167	5155
837.305	5185
837.443	5094
837.58	5094
837.718	5235
837.856	5166
837.993	5170
838.131	5193
838.269	5185
838.406	5181
838.544	5174
838.681	5033
838.819	4957
838.956	4915
839.094	4927
839.231	5048
839.369	5124
839.506	5429
839.643	5235
839.781	5102
839.918	5010
840.055	5128
840.193	5071
840.33	5075
840.467	5170
840.604	5166
840.742	5471
840.879	5067
841.016	5124
841.153	5193
841.29	5406
841.427	5318
841.564	5326
841.701	5315
841.838	5250
841.975	5223
842.112	5280
842.249	5147
842.385	5079
842.522	5284
842.659	5143
842.796	5208
842.933	5132
843.069	5113
843.206	5189
843.343	5330
843.479	5246
843.616	5269
843.752	5022
843.889	4987
844.025	5258
844.162	5029
844.298	5201
844.435	5079
844.571	5025
844.708	5174
844.844	5303
844.98	5337
845.117	5261
845.253	5185
845.389	5086
845.525	5151
845.661	5132
845.798	5037
845.934	5113
846.07	5067
846.206	5193
846.342	5284
846.478	5197
846.614	5090
846.75	4930
846.886	4923
847.022	5170
847.158	4965
847.294	5124
847.429	5102
847.565	5048
847.701	5341
847.837	4885
847.972	4831
848.108	4946
848.244	4934
848.379	4763
848.515	4759
848.65	4710
848.786	4752
848.921	4733
849.057	4885
849.192	4915
849.328	4858
849.463	4870
849.598	4771
849.734	4702
849.869	4668
850.004	4668
850.14	4698
850.275	4630
850.41	4470
850.545	4573
850.68	4596
850.815	4656
850.95	4641
851.085	4847
851.22	4763
851.355	4634
851.49	4565
851.625	4630
851.76	4675
851.895	4538
852.03	4531
852.165	4675
852.299	4714
852.434	4767
852.569	4717
852.703	4729
852.838	4854
852.973	4892
853.107	4915
853.242	4752
853.376	4653
853.511	4565
853.645	4653
853.78	4797
853.914	4691
854.048	4683
854.183	4637
854.317	4714
854.451	4805
854.585	4691
854.72	4626
854.854	4733
854.988	4630
855.122	4660
855.256	4546
855.39	4687
855.524	4771
855.658	4694
855.792	4691
855.926	4721
856.06	4763
856.194	4767
856.327	4702
856.461	4630
856.595	4630
856.729	4637
856.862	4752
856.996	4664
857.13	4679
857.263	4767
857.397	4767
857.53	4649
857.664	4702
857.797	4774
857.931	4759
858.064	4691
858.197	4717
858.331	4653
858.464	4580
858.597	4531
858.731	4660
858.864	4634
858.997	4634
859.13	4622
859.263	4710
859.396	4725
859.529	4615
859.662	4596
859.795	4558
859.928	4656
860.061	4755
860.194	4710
860.327	4637
860.46	4512
860.592	4698
860.725	4736
860.858	4740
860.99	4592
861.123	4481
861.256	4485
861.388	4615
861.521	5303
861.653	4447
861.786	4462
861.918	4451
862.05	4535
862.183	4558
862.315	4550
862.447	4656
862.58	4550
862.712	4360
862.844	4318
862.976	4508
863.108	4478
863.24	4725
863.372	4333
863.504	4440
863.636	4424
863.768	4508
863.9	4462
864.032	4413
864.164	4375
864.296	4519
864.428	4565
864.559	4535
864.691	4535
864.823	4497
864.954	4493
865.086	4500
865.217	4451
865.349	4394
865.48	4428
865.612	4500
865.743	4611
865.875	4512
866.006	4455
866.137	4466
866.269	4451
866.4	4424
866.531	4428
866.662	4379
866.793	4440
866.924	4432
867.055	4500
867.186	4478
867.317	4443
867.448	4367
867.579	4383
867.71	4363
867.841	4383
867.972	4440
868.103	4443
868.233	4455
868.364	4459
868.495	4527
868.625	4637
868.756	4797
868.886	4550
869.017	4649
869.147	4797
869.278	4805
869.408	4630
869.539	4645
869.669	4694
869.799	4664
869.929	4748
870.06	4767
870.19	4946
870.32	4930
870.45	4957
870.58	5025
870.71	5079
870.84	5124
870.97	4892
871.1	4858
871.23	5193
871.36	5162
871.489	5052
871.619	5098
871.749	5105
871.879	5128
872.008	5189
872.138	5071
872.267	5014
872.397	4866
872.526	4790
872.656	4721
872.785	4816
872.915	4953
873.044	4995
873.173	4984
873.303	4949
873.432	4957
873.561	4911
873.69	4847
873.819	4843
873.948	4881
874.077	4755
874.206	4744
874.335	4759
874.464	4984
874.593	5056
874.722	4968
874.851	5098
874.979	5033
875.108	5052
875.237	4877
875.365	4870
875.494	4896
875.623	4949
875.751	4793
875.88	4873
876.008	4961
876.136	5037
876.265	5189
876.393	5330
876.521	5246
876.65	5220
876.778	5193
876.906	5094
877.034	5064
877.162	4991
877.29	4984
877.418	5048
877.546	5025
877.674	5041
877.802	5056
877.93	5033
878.058	4930
878.185	4877
878.313	4965
878.441	4953
878.568	4843
878.696	4858
878.824	4927
878.951	5014
879.079	5181
879.206	5299
879.333	5086
879.461	4976
879.588	5060
879.715	5124
879.842	5201
879.97	4991
880.097	4782
880.224	4778
880.351	4801
880.478	4828
880.605	4767
880.732	4858
880.859	5094
880.986	4934
881.112	4938
881.239	4831
881.366	4691
881.493	4611
881.619	4588
881.746	4607
881.872	4664
881.999	4618
882.125	4725
882.252	4816
882.378	4862
882.505	4972
882.631	4820
882.757	4641
882.883	4714
883.01	4672
883.136	4637
883.262	4596
883.388	4611
883.514	4782
883.64	4885
883.766	4816
883.892	4660
884.018	4744
884.143	4927
884.269	4991
884.395	4660
884.52	4592
884.646	4611
884.772	4588
884.897	4565
885.023	4649
885.148	4786
885.274	4881
885.399	4816
885.524	4683
885.65	4721
885.775	4733
885.9	4710
886.025	4850
886.15	4763
886.275	4698
886.4	4645
886.525	4691
886.65	4706
886.775	4706
886.9	4915
887.025	5022
887.149	4828
887.274	4641
887.399	4634
887.523	4588
887.648	4588
887.773	4679
887.897	4763
888.021	4778
888.146	4637
888.27	4824
888.395	4946
888.519	4801
888.643	4755
888.767	4793
888.891	4706
889.015	4630
889.139	4687
889.263	4603
889.387	4733
889.511	4877
889.635	4782
889.759	4637
889.883	4630
890.006	4736
890.13	4801
890.254	4599
890.377	4672
890.501	4493
890.624	4523
890.748	4679
890.871	4508
890.995	4447
891.118	4386
891.241	4519
891.364	4538
891.488	4630
891.611	4489
891.734	4519
891.857	4615
891.98	4516
892.103	4599
892.226	4599
892.349	4558
892.471	4390
892.594	4531
892.717	4622
892.839	4546
892.962	4599
893.085	4653
893.207	4630
893.33	4474
893.452	4569
893.575	4691
893.697	4626
893.819	4774
893.941	4850
894.064	4763
894.186	4634
894.308	4607
894.43	4797
894.552	4805
894.674	4725
894.796	4538
894.918	4584
895.04	4603
895.161	4675
895.283	4656
895.405	4592
895.526	4653
895.648	4721
895.769	4630
895.891	4748
896.012	4752
896.134	4740
896.255	4649
896.376	4615
896.498	4569
896.619	4660
896.74	4603
896.861	4668
896.982	4927
897.103	5071
897.224	4782
897.345	4733
897.466	4672
897.587	4717
897.708	4862
897.828	4793
897.949	4668
898.07	4599
898.19	4698
898.311	4820
898.431	4683
898.552	4714
898.672	4771
898.792	4850
898.913	4725
899.033	4603
899.153	4504
899.273	4459
899.393	4508
899.513	4500
899.633	4489
899.753	4542
899.873	4493
899.993	4603
900.113	4542
900.232	4538
900.352	4558
900.472	4443
900.591	4390
900.711	4489
900.83	4440
900.95	4630
901.069	4656
901.189	4603
901.308	4379
901.427	4341
901.546	4352
901.665	4478
901.784	4523
901.904	4421
902.023	4325
902.141	4204
902.26	4177
902.379	4314
902.498	4249
902.617	4287
902.735	4394
902.854	4344
902.973	4360
903.091	4234
903.21	4242
903.328	4291
903.446	4253
903.565	4200
903.683	4325
903.801	4272
903.919	4383
904.038	4481
904.156	4299
904.274	4421
904.392	4405
904.51	4405
904.627	4478
904.745	4580
904.863	4687
904.981	4363
905.098	4291
905.216	4341
905.334	4402
905.451	4421
905.569	4504
905.686	4569
905.803	4542
905.921	4417
906.038	4599
906.155	4466
906.272	4413
906.389	4462
906.506	4367
906.623	4398
906.74	4428
906.857	4291
906.974	4390
907.091	4542
907.208	4679
907.324	4622
907.441	4489
907.557	4337
907.674	4333
907.79	4329
907.907	4379
908.023	4508
908.139	4497
908.256	4500
908.372	4443
908.488	4443
908.604	4337
908.72	4310
908.836	4371
908.952	4344
909.068	4436
909.184	4550
909.3	4470
909.415	4554
909.531	4546
909.647	4394
909.762	4356
909.878	4333
909.993	4421
910.108	4363
910.224	4379
910.339	4462
910.454	4360
910.57	4325
910.685	4352
910.8	4630
910.915	4592
911.03	4512
911.145	4375
911.259	4341
911.374	4386
911.489	4265
911.604	4238
911.718	4139
911.833	4219
911.947	4090
912.062	4025
912.176	4200
912.291	4227
912.405	4219
912.519	4474
912.633	4497
912.748	4356
912.862	4306
912.976	4238
913.09	4086
913.204	4181
913.318	4238
913.431	4367
913.545	4367
913.659	4440
913.772	4371
913.886	4291
914	4242
914.113	4386
914.226	4413
914.34	4371
914.453	4234
914.566	4432
914.68	4318
914.793	4318
914.906	4105
915.019	4128
915.132	4044
915.245	4158
915.358	4227
915.47	4234
915.583	4230
915.696	4310
915.809	4462
915.921	4440
916.034	4280
916.146	4242
916.259	4265
916.371	4375
916.483	4356
916.595	4314
916.708	4329
916.82	4329
916.932	4322
917.044	4295
917.156	4314
917.268	4223
917.38	4253
917.491	4314
917.603	4352
917.715	4409
917.826	4424
917.938	4352
918.049	4219
918.161	4436
918.272	4497
918.384	4558
918.495	4451
918.606	4310
918.717	4253
918.828	4333
918.939	4367
919.05	4272
919.161	4299
919.272	4150
919.383	4215
919.494	4474
919.604	4656
919.715	4428
919.826	4291
919.936	4402
920.047	4500
920.157	4519
920.267	4675
920.378	4542
920.488	4493
920.598	4668
920.708	4934
920.818	4782
920.928	4744
921.038	4930
921.148	4938
921.258	4626
921.368	4535
921.477	4459
921.587	4421
921.697	4386
921.806	4538
921.916	4383
922.025	4280
922.134	4306
922.244	4234
922.353	4352
922.462	4177
922.571	4116
922.68	4010
922.789	3972
922.898	4036
923.007	3949
923.116	4090
923.224	4086
923.333	4059
923.442	3979
923.55	3945
923.659	4071
923.767	4074
923.876	4017
923.984	4101
924.092	4017
924.201	4112
924.309	4082
924.417	4101
924.525	4040
924.633	4071
924.741	4870
924.849	3915
924.956	4090
925.064	3998
925.172	3880
925.279	3968
925.387	4025
925.494	4071
925.602	4215
925.709	4204
925.816	4036
925.924	4147
926.031	4246
926.138	4204
926.245	4196
926.352	4120
926.459	4253
926.566	4318
926.673	4139
926.779	4074
926.886	4071
926.993	3972
927.099	3987
927.206	3960
927.312	3941
927.419	4071
927.525	4010
927.631	4090
927.737	3979
927.843	3975
927.95	3827
928.056	3975
928.162	4002
928.267	4063
928.373	4664
928.479	4116
928.585	3899
928.69	4021
928.796	4105
928.901	3937
929.007	3869
929.112	4036
929.218	3991
929.323	3941
929.428	3949
929.533	4124
929.638	3884
929.743	3972
929.848	4067
929.953	3994
930.058	3896
930.163	3759
930.267	3823
930.372	3975
930.477	3831
930.581	4120
930.685	3941
930.79	3804
930.894	3876
930.998	3861
931.103	4029
931.207	3705
931.311	3720
931.415	3732
931.519	3507
931.623	3572
