Data from test_V78500241_2113.txt Node
Date: Fri Mar 25 17:03:41 CST 2022
User: usil
Spectrometer: V785-0024
Trigger mode: 0
Integration Time (sec): 4.000000E-1
Scans to average: 1
Nonlinearity correction enabled: false
Boxcar width: 0
Storing dark spectrum: false
XAxis mode: Wavelengths
Number of Pixels in Spectrum: 1024
>>>>>Begin Spectral Data<<<<<
801.071	8081
801.214	7970
801.356	7887
801.499	7845
801.641	7742
801.783	7788
801.926	8043
802.068	7944
802.211	7974
802.353	8016
802.496	7879
802.638	7871
802.78	7814
802.923	7940
803.065	7864
803.208	7852
803.35	7982
803.492	8008
803.635	8168
803.777	8069
803.919	8172
804.061	8438
804.204	8180
804.346	8145
804.488	7860
804.63	8054
804.773	8001
804.915	8107
805.057	8271
805.199	8103
805.341	8138
805.483	8218
805.626	8161
805.768	8058
805.91	8157
806.052	8199
806.194	8187
806.336	8309
806.478	8058
806.62	8088
806.762	8180
806.904	8294
807.046	8408
807.188	8347
807.33	8256
807.472	8275
807.614	8183
807.756	8092
807.898	8008
808.04	7883
808.182	7902
808.324	7845
808.465	7944
808.607	8024
808.749	8081
808.891	8275
809.033	8267
809.174	8271
809.316	8069
809.458	8058
809.6	8012
809.741	8043
809.883	7997
810.025	8123
810.166	8107
810.308	8001
810.45	7921
810.591	7902
810.733	7715
810.875	7685
811.016	7518
811.158	7369
811.299	7514
811.441	7734
811.582	7666
811.724	7597
811.865	7552
812.007	7616
812.148	7540
812.29	7552
812.431	7757
812.573	7917
812.714	7970
812.855	8134
812.997	8237
813.138	8259
813.279	8187
813.421	8069
813.562	8024
813.703	7795
813.845	7708
813.986	7434
814.127	7236
814.268	7209
814.41	7213
814.551	7164
814.692	7244
814.833	7088
814.974	7126
815.115	7091
815.256	6924
815.397	6924
815.539	6920
815.68	6730
815.821	6776
815.962	6882
816.103	6848
816.244	6741
816.385	6593
816.526	6642
816.666	6460
816.807	6319
816.948	6369
817.089	6464
817.23	6395
817.371	6369
817.512	6372
817.653	6315
817.793	6399
817.934	6353
818.075	6452
818.216	6475
818.356	6399
818.497	6289
818.638	6155
818.778	6155
818.919	6133
819.06	6197
819.2	6372
819.341	6292
819.481	6403
819.622	6525
819.762	6779
819.903	6715
820.043	6646
820.184	6566
820.324	6566
820.465	6654
820.605	6650
820.746	6677
820.886	6551
821.026	6620
821.167	6681
821.307	6772
821.447	6734
821.588	6703
821.728	6631
821.868	6532
822.008	6357
822.149	6346
822.289	6315
822.429	6136
822.569	6076
822.709	6129
822.849	5904
822.99	5824
823.13	5961
823.27	5912
823.41	5805
823.55	5752
823.69	5760
823.83	5786
823.97	5672
824.11	5509
824.25	5512
824.389	5570
824.529	5562
824.669	5562
824.809	5680
824.949	5638
825.089	5585
825.228	5539
825.368	5425
825.508	5303
825.648	5341
825.787	5372
825.927	5395
826.067	5201
826.206	5284
826.346	5334
826.485	5444
826.625	5421
826.765	5501
826.904	5509
827.044	5269
827.183	5170
827.323	5113
827.462	5223
827.601	5140
827.741	5220
827.88	5204
828.02	5151
828.159	5212
828.298	5353
828.437	5341
828.577	5288
828.716	5493
828.855	5303
828.994	5143
829.134	5121
829.273	5155
829.412	5166
829.551	5124
829.69	5159
829.829	5204
829.968	5307
830.107	5315
830.246	5250
830.385	5174
830.524	5109
830.663	5102
830.802	5018
830.941	4908
831.08	4892
831.219	4980
831.357	4949
831.496	5170
831.635	4923
831.774	4831
831.913	4828
832.051	4767
832.19	4714
832.329	4854
832.467	4679
832.606	4645
832.744	4691
832.883	4736
833.022	4694
833.16	4752
833.299	4744
833.437	4755
833.576	4831
833.714	4881
833.852	4812
833.991	4919
834.129	4957
834.267	4923
834.406	4896
834.544	5006
834.682	4961
834.821	4934
834.959	5151
835.097	5025
835.235	5170
835.373	5098
835.511	5090
835.65	4980
835.788	5037
835.926	4908
836.064	4900
836.202	4908
836.34	5159
836.478	5227
836.615	5102
836.753	5208
836.891	5299
837.029	5242
837.167	5220
837.305	5109
837.443	5166
837.58	5090
837.718	5239
837.856	5181
837.993	5136
838.131	5204
838.269	5201
838.406	5204
838.544	5216
838.681	5003
838.819	4972
838.956	4908
839.094	4896
839.231	4972
839.369	5037
839.506	5467
839.643	5250
839.781	5018
839.918	5029
840.055	5105
840.193	5086
840.33	5098
840.467	5075
840.604	5159
840.742	5452
840.879	5075
841.016	5071
841.153	5128
841.29	5353
841.427	5337
841.564	5292
841.701	5357
841.838	5235
841.975	5258
842.112	5235
842.249	5132
842.385	5124
842.522	5296
842.659	5109
842.796	5147
842.933	5220
843.069	5109
843.206	5185
843.343	5296
843.479	5216
843.616	5242
843.752	5037
843.889	4965
844.025	5212
844.162	4984
844.298	5246
844.435	5067
844.571	5052
844.708	5201
844.844	5250
844.98	5341
845.117	5261
845.253	5071
845.389	5075
845.525	5151
845.661	5162
845.798	5048
845.934	5094
846.07	4999
846.206	5193
846.342	5201
846.478	5197
846.614	5083
846.75	4957
846.886	4915
847.022	5102
847.158	5022
847.294	5086
847.429	5132
847.565	5018
847.701	5357
847.837	4862
847.972	4885
848.108	4927
848.244	4961
848.379	4828
848.515	4725
848.65	4733
848.786	4725
848.921	4740
849.057	4873
849.192	4847
849.328	4763
849.463	4801
849.598	4771
849.734	4744
849.869	4736
850.004	4618
850.14	4615
850.275	4649
850.41	4497
850.545	4535
850.68	4592
850.815	4660
850.95	4641
851.085	4763
851.22	4771
851.355	4672
851.49	4645
851.625	4630
851.76	4630
851.895	4577
852.03	4542
852.165	4653
852.299	4698
852.434	4733
852.569	4778
852.703	4828
852.838	4767
852.973	4873
853.107	4892
853.242	4672
853.376	4649
853.511	4580
853.645	4596
853.78	4782
853.914	4656
854.048	4668
854.183	4630
854.317	4717
854.451	4774
854.585	4679
854.72	4626
854.854	4683
854.988	4645
855.122	4641
855.256	4512
855.39	4691
855.524	4805
855.658	4736
855.792	4668
855.926	4706
856.06	4755
856.194	4774
856.327	4656
856.461	4618
856.595	4569
856.729	4565
856.862	4767
856.996	4691
857.13	4778
857.263	4740
857.397	4782
857.53	4668
857.664	4733
857.797	4733
857.931	4740
858.064	4687
858.197	4767
858.331	4675
858.464	4637
858.597	4489
858.731	4599
858.864	4656
858.997	4596
859.13	4664
859.263	4683
859.396	4702
859.529	4592
859.662	4561
859.795	4531
859.928	4660
860.061	4748
860.194	4755
860.327	4580
860.46	4569
860.592	4683
860.725	4752
860.858	4694
860.99	4573
861.123	4542
861.256	4500
861.388	4626
861.521	5452
861.653	4470
861.786	4421
861.918	4436
862.05	4554
862.183	4592
862.315	4660
862.447	4626
862.58	4580
862.712	4375
862.844	4291
862.976	4470
863.108	4474
863.24	4763
863.372	4329
863.504	4443
863.636	4421
863.768	4485
863.9	4424
864.032	4325
864.164	4325
864.296	4497
864.428	4527
864.559	4561
864.691	4497
864.823	4493
864.954	4538
865.086	4481
865.217	4481
865.349	4455
865.48	4462
865.612	4493
865.743	4577
865.875	4417
866.006	4421
866.137	4485
866.269	4451
866.4	4470
866.531	4402
866.662	4394
866.793	4451
866.924	4440
867.055	4474
867.186	4455
867.317	4424
867.448	4341
867.579	4398
867.71	4341
867.841	4383
867.972	4447
868.103	4447
868.233	4512
868.364	4470
868.495	4455
868.625	4660
868.756	4759
868.886	4550
869.017	4573
869.147	4733
869.278	4763
869.408	4675
869.539	4649
869.669	4721
869.799	4626
869.929	4759
870.06	4717
870.19	4900
870.32	4915
870.45	4938
870.58	4999
870.71	5090
870.84	5113
870.97	4938
871.1	4938
871.23	5124
871.36	5132
871.489	5056
871.619	5064
871.749	5140
871.879	5121
872.008	5201
872.138	5052
872.267	5025
872.397	4835
872.526	4805
872.656	4729
872.785	4782
872.915	4965
873.044	4999
873.173	4930
873.303	4968
873.432	4953
873.561	4972
873.69	4892
873.819	4873
873.948	4904
874.077	4790
874.206	4786
874.335	4809
874.464	4942
874.593	5029
874.722	4919
874.851	5041
874.979	5075
875.108	5064
875.237	4904
875.365	4850
875.494	4927
875.623	4946
875.751	4797
875.88	4843
876.008	4968
876.136	4995
876.265	5197
876.393	5315
876.521	5174
876.65	5239
876.778	5181
876.906	5041
877.034	4987
877.162	5022
877.29	5029
877.418	5052
877.546	5079
877.674	5102
877.802	5067
877.93	5003
878.058	4942
878.185	4866
878.313	4949
878.441	4934
878.568	4782
878.696	4850
878.824	4949
878.951	5010
879.079	5143
879.206	5220
879.333	5109
879.461	4991
879.588	5006
879.715	5124
879.842	5197
879.97	4999
880.097	4774
880.224	4714
880.351	4793
880.478	4850
880.605	4801
880.732	4797
880.859	5056
880.986	4892
881.112	4889
881.239	4733
881.366	4622
881.493	4630
881.619	4550
881.746	4626
881.872	4653
881.999	4645
882.125	4687
882.252	4755
882.378	4793
882.505	4946
882.631	4797
882.757	4637
882.883	4740
883.01	4733
883.136	4672
883.262	4618
883.388	4645
883.514	4797
883.64	4862
883.766	4801
883.892	4603
884.018	4702
884.143	4877
884.269	4984
884.395	4660
884.52	4622
884.646	4653
884.772	4561
884.897	4508
885.023	4660
885.148	4759
885.274	4858
885.399	4786
885.524	4736
885.65	4664
885.775	4736
885.9	4721
886.025	4896
886.15	4786
886.275	4729
886.4	4618
886.525	4736
886.65	4672
886.775	4691
886.9	4839
887.025	5064
887.149	4809
887.274	4675
887.399	4580
887.523	4626
887.648	4603
887.773	4592
887.897	4729
888.021	4790
888.146	4687
888.27	4812
888.395	4904
888.519	4824
888.643	4801
888.767	4805
888.891	4691
889.015	4577
889.139	4641
889.263	4626
889.387	4725
889.511	4858
889.635	4839
889.759	4607
889.883	4630
890.006	4778
890.13	4793
890.254	4592
890.377	4649
890.501	4500
890.624	4489
890.748	4577
890.871	4474
890.995	4466
891.118	4367
891.241	4470
891.364	4538
891.488	4622
891.611	4455
891.734	4531
891.857	4615
891.98	4504
892.103	4649
892.226	4603
892.349	4478
892.471	4421
892.594	4489
892.717	4561
892.839	4584
892.962	4558
893.085	4656
893.207	4561
893.33	4489
893.452	4485
893.575	4656
893.697	4603
893.819	4729
893.941	4790
894.064	4797
894.186	4546
894.308	4558
894.43	4668
894.552	4782
894.674	4679
894.796	4584
894.918	4603
895.04	4584
895.161	4714
895.283	4622
895.405	4546
895.526	4618
895.648	4630
895.769	4675
895.891	4691
896.012	4679
896.134	4672
896.255	4668
896.376	4622
896.498	4603
896.619	4668
896.74	4561
896.861	4622
896.982	4854
897.103	5105
897.224	4828
897.345	4748
897.466	4649
897.587	4710
897.708	4881
897.828	4793
897.949	4664
898.07	4493
898.19	4641
898.311	4778
898.431	4660
898.552	4687
898.672	4774
898.792	4759
898.913	4679
899.033	4607
899.153	4478
899.273	4394
899.393	4462
899.513	4542
899.633	4489
899.753	4580
899.873	4512
899.993	4516
900.113	4535
900.232	4611
900.352	4569
900.472	4470
900.591	4371
900.711	4443
900.83	4390
900.95	4592
901.069	4675
901.189	4535
901.308	4329
901.427	4333
901.546	4379
901.665	4459
901.784	4497
901.904	4424
902.023	4329
902.141	4169
902.26	4173
902.379	4322
902.498	4242
902.617	4268
902.735	4325
902.854	4367
902.973	4325
903.091	4200
903.21	4162
903.328	4257
903.446	4230
903.565	4268
903.683	4329
903.801	4246
903.919	4405
904.038	4443
904.156	4291
904.274	4398
904.392	4383
904.51	4417
904.627	4466
904.745	4538
904.863	4599
904.981	4413
905.098	4276
905.216	4341
905.334	4432
905.451	4451
905.569	4451
905.686	4565
905.803	4538
905.921	4417
906.038	4538
906.155	4455
906.272	4436
906.389	4428
906.506	4318
906.623	4409
906.74	4432
906.857	4352
906.974	4325
907.091	4535
907.208	4687
907.324	4607
907.441	4516
907.557	4379
907.674	4352
907.79	4325
907.907	4390
908.023	4519
908.139	4519
908.256	4436
908.372	4512
908.488	4451
908.604	4363
908.72	4325
908.836	4375
908.952	4386
909.068	4451
909.184	4599
909.3	4516
909.415	4630
909.531	4599
909.647	4405
909.762	4383
909.878	4398
909.993	4409
910.108	4405
910.224	4462
910.339	4512
910.454	4470
910.57	4394
910.685	4348
910.8	4683
910.915	4618
911.03	4508
911.145	4428
911.259	4367
911.374	4409
911.489	4287
911.604	4310
911.718	4219
911.833	4249
911.947	4124
912.062	4090
912.176	4200
912.291	4276
912.405	4272
912.519	4481
912.633	4561
912.748	4432
912.862	4337
912.976	4215
913.09	4131
913.204	4185
913.318	4337
913.431	4405
913.545	4367
913.659	4459
913.772	4443
913.886	4333
914	4253
914.113	4371
914.226	4447
914.34	4462
914.453	4265
914.566	4497
914.68	4352
914.793	4383
914.906	4238
915.019	4166
915.132	4135
915.245	4204
915.358	4230
915.47	4242
915.583	4299
915.696	4310
915.809	4459
915.921	4470
916.034	4295
916.146	4299
916.259	4261
916.371	4428
916.483	4360
916.595	4291
916.708	4386
916.82	4379
916.932	4352
917.044	4352
917.156	4363
917.268	4253
917.38	4291
917.491	4306
917.603	4375
917.715	4413
917.826	4493
917.938	4363
918.049	4284
918.161	4417
918.272	4584
918.384	4603
918.495	4481
918.606	4303
918.717	4291
918.828	4360
918.939	4367
919.05	4268
919.161	4329
919.272	4207
919.383	4303
919.494	4504
919.604	4637
919.715	4402
919.826	4417
919.936	4478
920.047	4580
920.157	4481
920.267	4729
920.378	4584
920.488	4531
920.598	4759
920.708	4904
920.818	4805
920.928	4812
921.038	4995
921.148	4961
921.258	4626
921.368	4580
921.477	4527
921.587	4470
921.697	4367
921.806	4542
921.916	4462
922.025	4325
922.134	4306
922.244	4261
922.353	4371
922.462	4188
922.571	4177
922.68	4090
922.789	4036
922.898	4032
923.007	4048
923.116	4120
923.224	4048
923.333	4109
923.442	4021
923.55	4032
923.659	4071
923.767	4116
923.876	4048
923.984	4112
924.092	3960
924.201	4109
924.309	4074
924.417	4120
924.525	4074
924.633	4135
924.741	5079
924.849	3949
924.956	4196
925.064	3975
925.172	3960
925.279	4006
925.387	4074
925.494	4097
925.602	4246
925.709	4177
925.816	4040
925.924	4131
926.031	4280
926.138	4200
926.245	4227
926.352	4128
926.459	4280
926.566	4356
926.673	4200
926.779	4109
926.886	4097
926.993	4006
927.099	3972
927.206	3983
927.312	3987
927.419	4086
927.525	4048
927.631	4109
927.737	4013
927.843	3960
927.95	3842
928.056	3964
928.162	3998
928.267	4109
928.373	4577
928.479	4162
928.585	3869
928.69	4048
928.796	4124
928.901	3964
929.007	3888
929.112	4021
929.218	4021
929.323	3994
929.428	3968
929.533	4105
929.638	3937
929.743	3968
929.848	4074
929.953	4055
930.058	3972
930.163	3808
930.267	3861
930.372	4021
930.477	3816
930.581	4112
930.685	3987
930.79	3865
930.894	3896
930.998	3876
931.103	4067
931.207	3759
931.311	3736
931.415	3701
931.519	3584
931.623	3584
