Data from test_V78500241_712.txt Node
Date: Fri Mar 25 16:53:57 CST 2022
User: usil
Spectrometer: V785-0024
Trigger mode: 0
Integration Time (sec): 4.000000E-1
Scans to average: 1
Nonlinearity correction enabled: false
Boxcar width: 0
Storing dark spectrum: false
XAxis mode: Wavelengths
Number of Pixels in Spectrum: 1024
>>>>>Begin Spectral Data<<<<<
801.071	7906
801.214	7989
801.356	7864
801.499	7799
801.641	7822
801.783	7830
801.926	7959
802.068	7993
802.211	8005
802.353	8005
802.496	7875
802.638	7909
802.78	7936
802.923	7906
803.065	7871
803.208	7803
803.35	7947
803.492	8043
803.635	8149
803.777	7982
803.919	8100
804.061	8389
804.204	8119
804.346	7997
804.488	8020
804.63	8138
804.773	8024
804.915	8119
805.057	8225
805.199	8237
805.341	8195
805.483	8271
805.626	8130
805.768	8084
805.91	8210
806.052	8164
806.194	8088
806.336	8301
806.478	8054
806.62	8073
806.762	8172
806.904	8263
807.046	8412
807.188	8389
807.33	8343
807.472	8279
807.614	8191
807.756	8126
807.898	7906
808.04	7875
808.182	7925
808.324	7826
808.465	7898
808.607	8043
808.749	8103
808.891	8119
809.033	8313
809.174	8172
809.316	8054
809.458	8016
809.6	7955
809.741	8008
809.883	8043
810.025	8077
810.166	7997
810.308	8001
810.45	8031
810.591	7845
810.733	7700
810.875	7647
811.016	7422
811.158	7476
811.299	7578
811.441	7655
811.582	7639
811.724	7556
811.865	7483
812.007	7548
812.148	7548
812.29	7556
812.431	7719
812.573	7830
812.714	7982
812.855	8031
812.997	8176
813.138	8309
813.279	8107
813.421	8084
813.562	8043
813.703	7898
813.845	7818
813.986	7460
814.127	7312
814.268	7209
814.41	7228
814.551	7053
814.692	7118
814.833	7038
814.974	7080
815.115	7110
815.256	6920
815.397	6913
815.539	6954
815.68	6875
815.821	6722
815.962	6863
816.103	6810
816.244	6623
816.385	6585
816.526	6642
816.666	6460
816.807	6327
816.948	6399
817.089	6456
817.23	6441
817.371	6399
817.512	6369
817.653	6369
817.793	6323
817.934	6407
818.075	6407
818.216	6391
818.356	6361
818.497	6273
818.638	6064
818.778	6152
818.919	6155
819.06	6148
819.2	6311
819.341	6296
819.481	6350
819.622	6509
819.762	6719
819.903	6669
820.043	6582
820.184	6551
820.324	6540
820.465	6654
820.605	6719
820.746	6608
820.886	6441
821.026	6673
821.167	6631
821.307	6741
821.447	6745
821.588	6654
821.728	6555
821.868	6452
822.008	6262
822.149	6315
822.289	6346
822.429	6114
822.569	6072
822.709	6076
822.849	5878
822.99	5908
823.13	5874
823.27	5897
823.41	5779
823.55	5722
823.69	5722
823.83	5767
823.97	5653
824.11	5512
824.25	5509
824.389	5551
824.529	5573
824.669	5509
824.809	5642
824.949	5630
825.089	5566
825.228	5528
825.368	5357
825.508	5292
825.648	5349
825.787	5372
825.927	5318
826.067	5330
826.206	5288
826.346	5379
826.485	5395
826.625	5402
826.765	5547
826.904	5452
827.044	5227
827.183	5227
827.323	5113
827.462	5220
827.601	5136
827.741	5113
827.88	5185
828.02	5071
828.159	5178
828.298	5303
828.437	5357
828.577	5273
828.716	5436
828.855	5296
828.994	5094
829.134	5174
829.273	5223
829.412	5124
829.551	5147
829.69	5140
829.829	5216
829.968	5341
830.107	5254
830.246	5277
830.385	5147
830.524	5147
830.663	5102
830.802	4938
830.941	4873
831.08	4839
831.219	4938
831.357	4923
831.496	5185
831.635	4961
831.774	4839
831.913	4805
832.051	4694
832.19	4721
832.329	4854
832.467	4664
832.606	4626
832.744	4725
832.883	4664
833.022	4721
833.16	4824
833.299	4790
833.437	4767
833.576	4866
833.714	4877
833.852	4854
833.991	4896
834.129	4976
834.267	4972
834.406	4862
834.544	4923
834.682	4961
834.821	4923
834.959	5181
835.097	4961
835.235	5159
835.373	5037
835.511	5136
835.65	5067
835.788	5052
835.926	4908
836.064	4843
836.202	4911
836.34	5181
836.478	5170
836.615	5102
836.753	5162
836.891	5280
837.029	5273
837.167	5242
837.305	5128
837.443	5140
837.58	5025
837.718	5227
837.856	5140
837.993	5166
838.131	5185
838.269	5181
838.406	5201
838.544	5212
838.681	4984
838.819	5003
838.956	4904
839.094	4889
839.231	4946
839.369	5064
839.506	5341
839.643	5204
839.781	5018
839.918	4957
840.055	5128
840.193	5067
840.33	5090
840.467	5113
840.604	5128
840.742	5421
840.879	5075
841.016	5094
841.153	5113
841.29	5383
841.427	5345
841.564	5273
841.701	5334
841.838	5311
841.975	5223
842.112	5223
842.249	5075
842.385	5029
842.522	5353
842.659	5140
842.796	5143
842.933	5212
843.069	5113
843.206	5140
843.343	5292
843.479	5212
843.616	5269
843.752	5006
843.889	5014
844.025	5185
844.162	5025
844.298	5174
844.435	5029
844.571	5006
844.708	5174
844.844	5311
844.98	5330
845.117	5284
845.253	5147
845.389	5117
845.525	5185
845.661	5140
845.798	5041
845.934	5109
846.07	5014
846.206	5193
846.342	5269
846.478	5189
846.614	5006
846.75	4946
846.886	4968
847.022	5159
847.158	5003
847.294	5067
847.429	5109
847.565	5014
847.701	5349
847.837	4881
847.972	4816
848.108	4915
848.244	4896
848.379	4774
848.515	4717
848.65	4710
848.786	4763
848.921	4767
849.057	4866
849.192	4911
849.328	4835
849.463	4862
849.598	4801
849.734	4733
849.869	4736
850.004	4618
850.14	4675
850.275	4603
850.41	4519
850.545	4535
850.68	4622
850.815	4599
850.95	4611
851.085	4828
851.22	4736
851.355	4683
851.49	4626
851.625	4660
851.76	4634
851.895	4550
852.03	4546
852.165	4675
852.299	4740
852.434	4774
852.569	4763
852.703	4710
852.838	4843
852.973	4915
853.107	4946
853.242	4763
853.376	4664
853.511	4546
853.645	4626
853.78	4790
853.914	4649
854.048	4694
854.183	4603
854.317	4668
854.451	4774
854.585	4687
854.72	4679
854.854	4714
854.988	4577
855.122	4607
855.256	4497
855.39	4710
855.524	4759
855.658	4694
855.792	4691
855.926	4698
856.06	4748
856.194	4839
856.327	4710
856.461	4626
856.595	4615
856.729	4573
856.862	4698
856.996	4729
857.13	4736
857.263	4721
857.397	4801
857.53	4622
857.664	4660
857.797	4786
857.931	4793
858.064	4710
858.197	4736
858.331	4634
858.464	4584
858.597	4516
858.731	4675
858.864	4588
858.997	4577
859.13	4653
859.263	4626
859.396	4683
859.529	4611
859.662	4565
859.795	4558
859.928	4615
860.061	4740
860.194	4767
860.327	4626
860.46	4554
860.592	4687
860.725	4729
860.858	4793
860.99	4565
861.123	4531
861.256	4523
861.388	4603
861.521	5417
861.653	4504
861.786	4421
861.918	4466
862.05	4493
862.183	4531
862.315	4596
862.447	4615
862.58	4527
862.712	4436
862.844	4337
862.976	4440
863.108	4485
863.24	4839
863.372	4322
863.504	4375
863.636	4363
863.768	4508
863.9	4417
864.032	4371
864.164	4383
864.296	4451
864.428	4546
864.559	4584
864.691	4516
864.823	4481
864.954	4508
865.086	4462
865.217	4447
865.349	4386
865.48	4421
865.612	4466
865.743	4607
865.875	4455
866.006	4398
866.137	4462
866.269	4428
866.4	4421
866.531	4424
866.662	4390
866.793	4405
866.924	4443
867.055	4474
867.186	4447
867.317	4386
867.448	4371
867.579	4409
867.71	4421
867.841	4386
867.972	4459
868.103	4462
868.233	4428
868.364	4428
868.495	4493
868.625	4691
868.756	4755
868.886	4603
869.017	4637
869.147	4782
869.278	4725
869.408	4649
869.539	4611
869.669	4710
869.799	4641
869.929	4752
870.06	4710
870.19	4923
870.32	4892
870.45	4934
870.58	4949
870.71	5124
870.84	5098
870.97	4930
871.1	4892
871.23	5140
871.36	5098
871.489	5022
871.619	5086
871.749	5045
871.879	5128
872.008	5159
872.138	5003
872.267	4976
872.397	4831
872.526	4809
872.656	4733
872.785	4816
872.915	4957
873.044	5010
873.173	4923
873.303	4923
873.432	4923
873.561	4961
873.69	4843
873.819	4854
873.948	4934
874.077	4778
874.206	4778
874.335	4774
874.464	4930
874.593	5041
874.722	4991
874.851	5079
874.979	5056
875.108	5018
875.237	4923
875.365	4843
875.494	4847
875.623	5006
875.751	4828
875.88	4881
876.008	4923
876.136	5048
876.265	5166
876.393	5368
876.521	5201
876.65	5239
876.778	5121
876.906	5090
877.034	5048
877.162	4965
877.29	5018
877.418	5071
877.546	5018
877.674	5086
877.802	5014
877.93	4980
878.058	4957
878.185	4877
878.313	4965
878.441	4946
878.568	4828
878.696	4847
878.824	4949
878.951	5010
879.079	5128
879.206	5273
879.333	5083
879.461	5003
879.588	5003
879.715	5132
879.842	5246
879.97	4999
880.097	4793
880.224	4748
880.351	4805
880.478	4835
880.605	4778
880.732	4790
880.859	5102
880.986	4976
881.112	4892
881.239	4759
881.366	4649
881.493	4599
881.619	4588
881.746	4603
881.872	4637
881.999	4660
882.125	4706
882.252	4797
882.378	4824
882.505	4949
882.631	4736
882.757	4714
882.883	4687
883.01	4691
883.136	4672
883.262	4573
883.388	4626
883.514	4820
883.64	4873
883.766	4824
883.892	4660
884.018	4675
884.143	4870
884.269	5006
884.395	4607
884.52	4618
884.646	4660
884.772	4618
884.897	4565
885.023	4664
885.148	4786
885.274	4854
885.399	4790
885.524	4687
885.65	4691
885.775	4752
885.9	4675
886.025	4828
886.15	4786
886.275	4691
886.4	4634
886.525	4706
886.65	4634
886.775	4653
886.9	4877
887.025	5022
887.149	4847
887.274	4611
887.399	4569
887.523	4569
887.648	4558
887.773	4577
887.897	4721
888.021	4759
888.146	4679
888.27	4805
888.395	4885
888.519	4805
888.643	4801
888.767	4809
888.891	4683
889.015	4603
889.139	4611
889.263	4607
889.387	4786
889.511	4835
889.635	4801
889.759	4641
889.883	4630
890.006	4675
890.13	4843
890.254	4622
890.377	4687
890.501	4588
890.624	4512
890.748	4634
890.871	4504
890.995	4405
891.118	4413
891.241	4584
891.364	4573
891.488	4607
891.611	4512
891.734	4519
891.857	4592
891.98	4584
892.103	4634
892.226	4592
892.349	4550
892.471	4451
892.594	4565
892.717	4542
892.839	4603
892.962	4577
893.085	4626
893.207	4542
893.33	4459
893.452	4481
893.575	4668
893.697	4573
893.819	4774
893.941	4801
894.064	4790
894.186	4550
894.308	4588
894.43	4733
894.552	4816
894.674	4733
894.796	4550
894.918	4569
895.04	4561
895.161	4683
895.283	4672
895.405	4569
895.526	4626
895.648	4694
895.769	4660
895.891	4675
896.012	4702
896.134	4729
896.255	4683
896.376	4615
896.498	4611
896.619	4698
896.74	4611
896.861	4607
896.982	4904
897.103	5067
897.224	4858
897.345	4752
897.466	4672
897.587	4710
897.708	4793
897.828	4763
897.949	4668
898.07	4542
898.19	4641
898.311	4858
898.431	4649
898.552	4691
898.672	4797
898.792	4752
898.913	4733
899.033	4641
899.153	4478
899.273	4417
899.393	4443
899.513	4531
899.633	4504
899.753	4531
899.873	4481
899.993	4611
900.113	4535
900.232	4615
900.352	4523
900.472	4500
900.591	4394
900.711	4443
900.83	4417
900.95	4588
901.069	4656
901.189	4500
901.308	4367
901.427	4325
901.546	4394
901.665	4466
901.784	4512
901.904	4352
902.023	4268
902.141	4204
902.26	4211
902.379	4291
902.498	4211
902.617	4272
902.735	4348
902.854	4383
902.973	4344
903.091	4211
903.21	4238
903.328	4280
903.446	4284
903.565	4299
903.683	4291
903.801	4276
903.919	4375
904.038	4394
904.156	4333
904.274	4447
904.392	4413
904.51	4402
904.627	4481
904.745	4596
904.863	4634
904.981	4375
905.098	4261
905.216	4295
905.334	4443
905.451	4432
905.569	4413
905.686	4546
905.803	4531
905.921	4379
906.038	4523
906.155	4462
906.272	4386
906.389	4493
906.506	4306
906.623	4398
906.74	4360
906.857	4325
906.974	4394
907.091	4565
907.208	4660
907.324	4584
907.441	4451
907.557	4318
907.674	4325
907.79	4322
907.907	4405
908.023	4489
908.139	4451
908.256	4413
908.372	4474
908.488	4428
908.604	4329
908.72	4318
908.836	4363
908.952	4402
909.068	4386
909.184	4558
909.3	4470
909.415	4569
909.531	4554
909.647	4371
909.762	4367
909.878	4356
909.993	4451
910.108	4421
910.224	4390
910.339	4451
910.454	4352
910.57	4394
910.685	4337
910.8	4649
910.915	4615
911.03	4451
911.145	4329
911.259	4352
911.374	4333
911.489	4314
911.604	4276
911.718	4158
911.833	4169
911.947	4124
912.062	4032
912.176	4219
912.291	4257
912.405	4284
912.519	4485
912.633	4436
912.748	4363
912.862	4265
912.976	4238
913.09	4082
913.204	4173
913.318	4268
913.431	4352
913.545	4341
913.659	4405
913.772	4341
913.886	4234
914	4265
914.113	4352
914.226	4440
914.34	4341
914.453	4192
914.566	4443
914.68	4287
914.793	4299
914.906	4173
915.019	4090
915.132	4086
915.245	4192
915.358	4200
915.47	4219
915.583	4291
915.696	4280
915.809	4413
915.921	4432
916.034	4211
916.146	4204
916.259	4166
916.371	4436
916.483	4352
916.595	4188
916.708	4325
916.82	4314
916.932	4314
917.044	4310
917.156	4344
917.268	4246
917.38	4280
917.491	4276
917.603	4348
917.715	4436
917.826	4470
917.938	4371
918.049	4192
918.161	4375
918.272	4512
918.384	4516
918.495	4440
918.606	4306
918.717	4238
918.828	4284
918.939	4287
919.05	4265
919.161	4227
919.272	4109
919.383	4196
919.494	4424
919.604	4618
919.715	4424
919.826	4386
919.936	4375
920.047	4512
920.157	4470
920.267	4645
920.378	4554
920.488	4459
920.598	4637
920.708	4858
920.818	4740
920.928	4740
921.038	4930
921.148	4919
921.258	4618
921.368	4535
921.477	4459
921.587	4470
921.697	4405
921.806	4527
921.916	4421
922.025	4227
922.134	4253
922.244	4204
922.353	4367
922.462	4162
922.571	4154
922.68	4002
922.789	3991
922.898	4078
923.007	4010
923.116	4078
923.224	4071
923.333	4059
923.442	4010
923.55	4029
923.659	4025
923.767	4093
923.876	4040
923.984	4135
924.092	4010
924.201	4074
924.309	4109
924.417	4105
924.525	4086
924.633	4135
924.741	5071
924.849	3896
924.956	4124
925.064	3991
925.172	3934
925.279	3987
925.387	4078
925.494	4032
925.602	4272
925.709	4196
925.816	4093
925.924	4120
926.031	4291
926.138	4204
926.245	4234
926.352	4093
926.459	4306
926.566	4352
926.673	4188
926.779	4101
926.886	4139
926.993	4010
927.099	3998
927.206	3998
927.312	4025
927.419	4093
927.525	4074
927.631	4147
927.737	4013
927.843	3956
927.95	3888
928.056	4002
928.162	4055
928.267	4109
928.373	4752
928.479	4162
928.585	3899
928.69	4105
928.796	4120
928.901	4029
929.007	3892
929.112	4055
929.218	4017
929.323	3987
929.428	4002
929.533	4124
929.638	3987
929.743	4040
929.848	4063
929.953	4040
930.058	3960
930.163	3835
930.267	3842
930.372	4017
930.477	3873
930.581	4109
930.685	3930
930.79	3865
930.894	3968
930.998	3876
931.103	4086
931.207	3759
931.311	3717
931.415	3720
931.519	3572
931.623	3542
