Data from test_V78500241_2599.txt Node
Date: Fri Mar 25 17:07:04 CST 2022
User: usil
Spectrometer: V785-0024
Trigger mode: 0
Integration Time (sec): 4.000000E-1
Scans to average: 1
Nonlinearity correction enabled: false
Boxcar width: 0
Storing dark spectrum: false
XAxis mode: Wavelengths
Number of Pixels in Spectrum: 1024
>>>>>Begin Spectral Data<<<<<
801.071	8069
801.214	7951
801.356	7860
801.499	7852
801.641	7849
801.783	7837
801.926	7909
802.068	7894
802.211	7959
802.353	8016
802.496	7921
802.638	7936
802.78	7906
802.923	7982
803.065	7906
803.208	7852
803.35	8005
803.492	8065
803.635	8123
803.777	8046
803.919	8119
804.061	8469
804.204	8115
804.346	8058
804.488	7963
804.63	8149
804.773	8031
804.915	8039
805.057	8248
805.199	8123
805.341	8168
805.483	8305
805.626	8229
805.768	8187
805.91	8176
806.052	8206
806.194	8130
806.336	8298
806.478	8115
806.62	8008
806.762	8157
806.904	8275
807.046	8370
807.188	8343
807.33	8298
807.472	8290
807.614	8180
807.756	8062
807.898	8035
808.04	7864
808.182	7921
808.324	7887
808.465	7947
808.607	8050
808.749	8157
808.891	8275
809.033	8358
809.174	8240
809.316	8069
809.458	8096
809.6	7959
809.741	8046
809.883	8020
810.025	8046
810.166	8039
810.308	7993
810.45	8016
810.591	7852
810.733	7681
810.875	7529
811.016	7518
811.158	7430
811.299	7594
811.441	7704
811.582	7674
811.724	7620
811.865	7563
812.007	7613
812.148	7567
812.29	7609
812.431	7693
812.573	7860
812.714	7959
812.855	8123
812.997	8259
813.138	8370
813.279	8145
813.421	8050
813.562	8016
813.703	7860
813.845	7788
813.986	7411
814.127	7282
814.268	7225
814.41	7168
814.551	7236
814.692	7232
814.833	7149
814.974	7114
815.115	7152
815.256	6973
815.397	6916
815.539	6951
815.68	6833
815.821	6757
815.962	6863
816.103	6821
816.244	6818
816.385	6631
816.526	6589
816.666	6513
816.807	6315
816.948	6414
817.089	6471
817.23	6452
817.371	6334
817.512	6445
817.653	6353
817.793	6372
817.934	6414
818.075	6426
818.216	6452
818.356	6426
818.497	6209
818.638	6121
818.778	6194
818.919	6213
819.06	6163
819.2	6308
819.341	6342
819.481	6414
819.622	6532
819.762	6688
819.903	6829
820.043	6582
820.184	6574
820.324	6631
820.465	6783
820.605	6665
820.746	6696
820.886	6540
821.026	6662
821.167	6734
821.307	6825
821.447	6772
821.588	6715
821.728	6582
821.868	6547
822.008	6331
822.149	6369
822.289	6338
822.429	6216
822.569	6091
822.709	6125
822.849	5935
822.99	5904
823.13	5923
823.27	5870
823.41	5790
823.55	5798
823.69	5809
823.83	5783
823.97	5714
824.11	5573
824.25	5497
824.389	5589
824.529	5562
824.669	5497
824.809	5608
824.949	5699
825.089	5619
825.228	5543
825.368	5337
825.508	5364
825.648	5299
825.787	5417
825.927	5311
826.067	5330
826.206	5337
826.346	5391
826.485	5372
826.625	5429
826.765	5539
826.904	5467
827.044	5239
827.183	5246
827.323	5170
827.462	5269
827.601	5162
827.741	5128
827.88	5178
828.02	5113
828.159	5307
828.298	5334
828.437	5402
828.577	5296
828.716	5509
828.855	5273
828.994	5147
829.134	5216
829.273	5201
829.412	5151
829.551	5162
829.69	5102
829.829	5242
829.968	5360
830.107	5296
830.246	5246
830.385	5174
830.524	5151
830.663	5075
830.802	4980
830.941	4915
831.08	4923
831.219	4999
831.357	4984
831.496	5121
831.635	4911
831.774	4850
831.913	4850
832.051	4714
832.19	4748
832.329	4862
832.467	4702
832.606	4675
832.744	4733
832.883	4748
833.022	4725
833.16	4748
833.299	4854
833.437	4866
833.576	4873
833.714	4850
833.852	4870
833.991	4854
834.129	4942
834.267	4972
834.406	4915
834.544	5003
834.682	5029
834.821	5010
834.959	5147
835.097	5006
835.235	5155
835.373	5060
835.511	5094
835.65	5052
835.788	5018
835.926	4930
836.064	4896
836.202	4957
836.34	5155
836.478	5216
836.615	5102
836.753	5201
836.891	5311
837.029	5246
837.167	5242
837.305	5151
837.443	5166
837.58	5071
837.718	5242
837.856	5159
837.993	5132
838.131	5227
838.269	5239
838.406	5204
838.544	5178
838.681	4991
838.819	4976
838.956	4900
839.094	4892
839.231	4976
839.369	5045
839.506	5452
839.643	5246
839.781	5067
839.918	5014
840.055	5105
840.193	5060
840.33	5124
840.467	5124
840.604	5220
840.742	5417
840.879	5067
841.016	5124
841.153	5140
841.29	5330
841.427	5337
841.564	5265
841.701	5360
841.838	5261
841.975	5220
842.112	5239
842.249	5117
842.385	5117
842.522	5341
842.659	5162
842.796	5193
842.933	5178
843.069	5086
843.206	5170
843.343	5299
843.479	5220
843.616	5258
843.752	5033
843.889	5022
844.025	5246
844.162	4946
844.298	5239
844.435	5109
844.571	5102
844.708	5223
844.844	5315
844.98	5402
845.117	5284
845.253	5155
845.389	5109
845.525	5162
845.661	5132
845.798	5006
845.934	5121
846.07	5025
846.206	5189
846.342	5269
846.478	5223
846.614	5022
846.75	4938
846.886	4946
847.022	5124
847.158	5022
847.294	5067
847.429	5094
847.565	5117
847.701	5322
847.837	4858
847.972	4778
848.108	4930
848.244	4911
848.379	4759
848.515	4752
848.65	4687
848.786	4744
848.921	4790
849.057	4885
849.192	4923
849.328	4820
849.463	4854
849.598	4793
849.734	4755
849.869	4656
850.004	4645
850.14	4637
850.275	4634
850.41	4519
850.545	4599
850.68	4630
850.815	4645
850.95	4641
851.085	4835
851.22	4740
851.355	4653
851.49	4622
851.625	4611
851.76	4637
851.895	4603
852.03	4542
852.165	4717
852.299	4736
852.434	4721
852.569	4763
852.703	4778
852.838	4801
852.973	4919
853.107	4946
853.242	4725
853.376	4679
853.511	4527
853.645	4634
853.78	4771
853.914	4721
854.048	4706
854.183	4656
854.317	4679
854.451	4812
854.585	4641
854.72	4653
854.854	4740
854.988	4649
855.122	4679
855.256	4535
855.39	4660
855.524	4828
855.658	4714
855.792	4634
855.926	4733
856.06	4759
856.194	4786
856.327	4744
856.461	4630
856.595	4645
856.729	4622
856.862	4786
856.996	4702
857.13	4691
857.263	4725
857.397	4790
857.53	4683
857.664	4710
857.797	4816
857.931	4740
858.064	4668
858.197	4748
858.331	4675
858.464	4569
858.597	4504
858.731	4599
858.864	4672
858.997	4592
859.13	4637
859.263	4645
859.396	4702
859.529	4554
859.662	4542
859.795	4531
859.928	4630
860.061	4729
860.194	4771
860.327	4588
860.46	4580
860.592	4717
860.725	4668
860.858	4774
860.99	4577
861.123	4546
861.256	4504
861.388	4615
861.521	5452
861.653	4481
861.786	4470
861.918	4451
862.05	4584
862.183	4546
862.315	4542
862.447	4668
862.58	4493
862.712	4379
862.844	4314
862.976	4436
863.108	4447
863.24	4790
863.372	4325
863.504	4379
863.636	4383
863.768	4459
863.9	4432
864.032	4405
864.164	4398
864.296	4516
864.428	4523
864.559	4577
864.691	4580
864.823	4542
864.954	4466
865.086	4443
865.217	4462
865.349	4402
865.48	4424
865.612	4516
865.743	4607
865.875	4440
866.006	4451
866.137	4481
866.269	4421
866.4	4424
866.531	4398
866.662	4413
866.793	4390
866.924	4436
867.055	4462
867.186	4493
867.317	4417
867.448	4360
867.579	4390
867.71	4421
867.841	4341
867.972	4466
868.103	4451
868.233	4447
868.364	4447
868.495	4500
868.625	4672
868.756	4759
868.886	4531
869.017	4630
869.147	4759
869.278	4801
869.408	4630
869.539	4710
869.669	4675
869.799	4611
869.929	4774
870.06	4710
870.19	4904
870.32	4938
870.45	4946
870.58	5037
870.71	5094
870.84	5109
870.97	4942
871.1	4908
871.23	5159
871.36	5140
871.489	5060
871.619	5109
871.749	5090
871.879	5067
872.008	5201
872.138	5022
872.267	4980
872.397	4873
872.526	4797
872.656	4717
872.785	4797
872.915	4968
873.044	5025
873.173	4927
873.303	4961
873.432	4984
873.561	4892
873.69	4885
873.819	4858
873.948	4919
874.077	4755
874.206	4824
874.335	4778
874.464	4934
874.593	5041
874.722	5006
874.851	5048
874.979	5067
875.108	5022
875.237	4896
875.365	4896
875.494	4881
875.623	4984
875.751	4839
875.88	4896
876.008	5003
876.136	5041
876.265	5197
876.393	5330
876.521	5231
876.65	5212
876.778	5174
876.906	5094
877.034	5018
877.162	5052
877.29	5018
877.418	5025
877.546	5064
877.674	5067
877.802	4995
877.93	5037
878.058	4949
878.185	4904
878.313	4980
878.441	4892
878.568	4805
878.696	4900
878.824	4968
878.951	5014
879.079	5109
879.206	5269
879.333	5105
879.461	4984
879.588	4995
879.715	5102
879.842	5254
879.97	4999
880.097	4824
880.224	4744
880.351	4771
880.478	4812
880.605	4816
880.732	4805
880.859	5136
880.986	4858
881.112	4881
881.239	4816
881.366	4687
881.493	4672
881.619	4561
881.746	4672
881.872	4645
881.999	4634
882.125	4668
882.252	4748
882.378	4763
882.505	5003
882.631	4774
882.757	4694
882.883	4706
883.01	4755
883.136	4645
883.262	4611
883.388	4637
883.514	4797
883.64	4862
883.766	4809
883.892	4660
884.018	4706
884.143	4885
884.269	5022
884.395	4706
884.52	4641
884.646	4649
884.772	4584
884.897	4554
885.023	4653
885.148	4786
885.274	4824
885.399	4797
885.524	4691
885.65	4656
885.775	4748
885.9	4698
886.025	4858
886.15	4782
886.275	4767
886.4	4645
886.525	4752
886.65	4675
886.775	4710
886.9	4896
887.025	5056
887.149	4831
887.274	4653
887.399	4615
887.523	4630
887.648	4569
887.773	4561
887.897	4767
888.021	4805
888.146	4641
888.27	4805
888.395	4885
888.519	4759
888.643	4809
888.767	4782
888.891	4694
889.015	4573
889.139	4664
889.263	4588
889.387	4714
889.511	4889
889.635	4786
889.759	4626
889.883	4615
890.006	4763
890.13	4866
890.254	4615
890.377	4664
890.501	4550
890.624	4512
890.748	4618
890.871	4485
890.995	4417
891.118	4367
891.241	4535
891.364	4527
891.488	4634
891.611	4481
891.734	4504
891.857	4615
891.98	4558
892.103	4599
892.226	4523
892.349	4481
892.471	4455
892.594	4561
892.717	4584
892.839	4561
892.962	4634
893.085	4668
893.207	4622
893.33	4459
893.452	4504
893.575	4683
893.697	4637
893.819	4793
893.941	4824
894.064	4763
894.186	4599
894.308	4599
894.43	4710
894.552	4847
894.674	4755
894.796	4512
894.918	4622
895.04	4577
895.161	4744
895.283	4653
895.405	4573
895.526	4660
895.648	4679
895.769	4710
895.891	4755
896.012	4736
896.134	4714
896.255	4714
896.376	4675
896.498	4622
896.619	4714
896.74	4603
896.861	4668
896.982	4961
897.103	5064
897.224	4793
897.345	4771
897.466	4664
897.587	4717
897.708	4877
897.828	4778
897.949	4656
898.07	4546
898.19	4611
898.311	4824
898.431	4668
898.552	4740
898.672	4812
898.792	4790
898.913	4733
899.033	4622
899.153	4485
899.273	4436
899.393	4493
899.513	4603
899.633	4508
899.753	4546
899.873	4550
899.993	4580
900.113	4554
900.232	4592
900.352	4538
900.472	4538
900.591	4440
900.711	4474
900.83	4447
900.95	4611
901.069	4660
901.189	4508
901.308	4413
901.427	4318
901.546	4371
901.665	4512
901.784	4508
901.904	4363
902.023	4303
902.141	4207
902.26	4124
902.379	4329
902.498	4227
902.617	4215
902.735	4398
902.854	4394
902.973	4379
903.091	4234
903.21	4234
903.328	4314
903.446	4265
903.565	4200
903.683	4379
903.801	4276
903.919	4375
904.038	4409
904.156	4314
904.274	4428
904.392	4386
904.51	4428
904.627	4428
904.745	4542
904.863	4618
904.981	4398
905.098	4375
905.216	4394
905.334	4428
905.451	4440
905.569	4413
905.686	4546
905.803	4618
905.921	4379
906.038	4569
906.155	4508
906.272	4379
906.389	4474
906.506	4337
906.623	4367
906.74	4363
906.857	4287
906.974	4303
907.091	4558
907.208	4683
907.324	4588
907.441	4489
907.557	4356
907.674	4371
907.79	4265
907.907	4405
908.023	4474
908.139	4493
908.256	4386
908.372	4447
908.488	4405
908.604	4310
908.72	4325
908.836	4402
908.952	4356
909.068	4432
909.184	4535
909.3	4481
909.415	4558
909.531	4584
909.647	4398
909.762	4341
909.878	4344
909.993	4440
910.108	4440
910.224	4386
910.339	4459
910.454	4367
910.57	4344
910.685	4299
910.8	4675
910.915	4546
911.03	4485
911.145	4363
911.259	4348
911.374	4367
911.489	4333
911.604	4276
911.718	4162
911.833	4177
911.947	4090
912.062	4048
912.176	4192
912.291	4268
912.405	4246
912.519	4470
912.633	4474
912.748	4421
912.862	4314
912.976	4211
913.09	4097
913.204	4143
913.318	4253
913.431	4341
913.545	4379
913.659	4440
913.772	4329
913.886	4246
914	4234
914.113	4394
914.226	4451
914.34	4390
914.453	4246
914.566	4409
914.68	4261
914.793	4341
914.906	4200
915.019	4124
915.132	4105
915.245	4143
915.358	4234
915.47	4196
915.583	4310
915.696	4261
915.809	4413
915.921	4440
916.034	4257
916.146	4265
916.259	4230
916.371	4371
916.483	4322
916.595	4257
916.708	4303
916.82	4295
916.932	4306
917.044	4284
917.156	4284
917.268	4219
917.38	4268
917.491	4299
917.603	4356
917.715	4394
917.826	4424
917.938	4428
918.049	4211
918.161	4375
918.272	4504
918.384	4508
918.495	4443
918.606	4234
918.717	4230
918.828	4341
918.939	4352
919.05	4246
919.161	4295
919.272	4166
919.383	4272
919.494	4474
919.604	4611
919.715	4421
919.826	4329
919.936	4459
920.047	4523
920.157	4493
920.267	4660
920.378	4516
920.488	4493
920.598	4729
920.708	4877
920.818	4793
920.928	4714
921.038	4980
921.148	4915
921.258	4645
921.368	4523
921.477	4474
921.587	4485
921.697	4367
921.806	4512
921.916	4455
922.025	4238
922.134	4253
922.244	4227
922.353	4322
922.462	4188
922.571	4143
922.68	3968
922.789	3994
922.898	4048
923.007	3994
923.116	4040
923.224	4032
923.333	4074
923.442	3972
923.55	4002
923.659	4010
923.767	4071
923.876	3949
923.984	4093
924.092	4013
924.201	4090
924.309	4135
924.417	4147
924.525	4086
924.633	4040
924.741	5041
924.849	3888
924.956	4086
925.064	3953
925.172	3888
925.279	3987
925.387	4051
925.494	4055
925.602	4215
925.709	4204
925.816	4036
925.924	4139
926.031	4246
926.138	4177
926.245	4188
926.352	4101
926.459	4246
926.566	4284
926.673	4162
926.779	4109
926.886	4036
926.993	3975
927.099	3937
927.206	3922
927.312	3934
927.419	4063
927.525	3994
927.631	4074
927.737	3930
927.843	3907
927.95	3869
928.056	3968
928.162	4048
928.267	4063
928.373	4596
928.479	4086
928.585	3888
928.69	4006
928.796	4071
928.901	3968
929.007	3888
929.112	4021
929.218	3960
929.323	3953
929.428	3949
929.533	4067
929.638	3915
929.743	3937
929.848	4055
929.953	4044
930.058	3956
930.163	3759
930.267	3808
930.372	3991
930.477	3812
930.581	4086
930.685	3987
930.79	3846
930.894	3827
930.998	3854
931.103	4071
931.207	3682
931.311	3648
931.415	3622
931.519	3492
931.623	3526
