Data from test_V78500241_1133.txt Node
Date: Fri Mar 25 16:56:52 CST 2022
User: usil
Spectrometer: V785-0024
Trigger mode: 0
Integration Time (sec): 4.000000E-1
Scans to average: 1
Nonlinearity correction enabled: false
Boxcar width: 0
Storing dark spectrum: false
XAxis mode: Wavelengths
Number of Pixels in Spectrum: 1024
>>>>>Begin Spectral Data<<<<<
801.071	8107
801.214	8069
801.356	7875
801.499	7936
801.641	7845
801.783	7860
801.926	7883
802.068	7917
802.211	7974
802.353	8084
802.496	7841
802.638	7902
802.78	7913
802.923	7906
803.065	7928
803.208	7879
803.35	7974
803.492	8172
803.635	8157
803.777	8035
803.919	8229
804.061	8431
804.204	8073
804.346	7970
804.488	7989
804.63	8073
804.773	7997
804.915	8077
805.057	8263
805.199	8111
805.341	8229
805.483	8275
805.626	8191
805.768	8134
805.91	8233
806.052	8263
806.194	8054
806.336	8259
806.478	8008
806.62	8069
806.762	8145
806.904	8252
807.046	8457
807.188	8263
807.33	8256
807.472	8324
807.614	8134
807.756	8050
807.898	8024
808.04	7951
808.182	7868
808.324	7982
808.465	7967
808.607	8043
808.749	8138
808.891	8218
809.033	8256
809.174	8191
809.316	8054
809.458	8069
809.6	7993
809.741	8001
809.883	8077
810.025	8134
810.166	8043
810.308	8035
810.45	8020
810.591	7883
810.733	7704
810.875	7639
811.016	7476
811.158	7464
811.299	7586
811.441	7715
811.582	7700
811.724	7639
811.865	7563
812.007	7616
812.148	7601
812.29	7628
812.431	7719
812.573	7830
812.714	7963
812.855	8199
812.997	8237
813.138	8320
813.279	8168
813.421	8077
813.562	8020
813.703	7833
813.845	7772
813.986	7438
814.127	7255
814.268	7221
814.41	7244
814.551	7145
814.692	7156
814.833	6981
814.974	7095
815.115	7091
815.256	6970
815.397	6932
815.539	6966
815.68	6840
815.821	6772
815.962	6863
816.103	6791
816.244	6741
816.385	6642
816.526	6677
816.666	6467
816.807	6300
816.948	6414
817.089	6521
817.23	6494
817.371	6395
817.512	6369
817.653	6357
817.793	6422
817.934	6384
818.075	6475
818.216	6403
818.356	6376
818.497	6243
818.638	6121
818.778	6148
818.919	6175
819.06	6167
819.2	6323
819.341	6304
819.481	6365
819.622	6555
819.762	6741
819.903	6802
820.043	6639
820.184	6540
820.324	6532
820.465	6734
820.605	6692
820.746	6631
820.886	6498
821.026	6669
821.167	6745
821.307	6749
821.447	6715
821.588	6707
821.728	6582
821.868	6506
822.008	6350
822.149	6407
822.289	6384
822.429	6148
822.569	6091
822.709	6152
822.849	5942
822.99	5942
823.13	5889
823.27	5923
823.41	5840
823.55	5794
823.69	5691
823.83	5817
823.97	5676
824.11	5505
824.25	5543
824.389	5493
824.529	5585
824.669	5551
824.809	5676
824.949	5638
825.089	5581
825.228	5524
825.368	5353
825.508	5330
825.648	5303
825.787	5364
825.927	5364
826.067	5303
826.206	5273
826.346	5364
826.485	5417
826.625	5383
826.765	5532
826.904	5467
827.044	5235
827.183	5189
827.323	5178
827.462	5250
827.601	5162
827.741	5250
827.88	5178
828.02	5113
828.159	5223
828.298	5307
828.437	5357
828.577	5284
828.716	5497
828.855	5284
828.994	5136
829.134	5136
829.273	5162
829.412	5178
829.551	5079
829.69	5185
829.829	5277
829.968	5353
830.107	5250
830.246	5239
830.385	5231
830.524	5159
830.663	5056
830.802	5010
830.941	4873
831.08	4862
831.219	4972
831.357	4991
831.496	5132
831.635	4908
831.774	4824
831.913	4824
832.051	4763
832.19	4740
832.329	4885
832.467	4641
832.606	4656
832.744	4721
832.883	4698
833.022	4752
833.16	4790
833.299	4763
833.437	4835
833.576	4797
833.714	4831
833.852	4873
833.991	4885
834.129	4965
834.267	4972
834.406	4870
834.544	4984
834.682	5014
834.821	4984
834.959	5170
835.097	5018
835.235	5159
835.373	5090
835.511	5117
835.65	5033
835.788	5090
835.926	4862
836.064	4839
836.202	4885
836.34	5159
836.478	5212
836.615	5113
836.753	5242
836.891	5277
837.029	5246
837.167	5208
837.305	5201
837.443	5143
837.58	5075
837.718	5239
837.856	5204
837.993	5117
838.131	5231
838.269	5235
838.406	5147
838.544	5166
838.681	5045
838.819	5056
838.956	4908
839.094	4919
839.231	4995
839.369	5071
839.506	5455
839.643	5296
839.781	5056
839.918	5018
840.055	5079
840.193	5105
840.33	5067
840.467	5166
840.604	5181
840.742	5516
840.879	5086
841.016	5136
841.153	5197
841.29	5334
841.427	5368
841.564	5296
841.701	5353
841.838	5284
841.975	5258
842.112	5280
842.249	5113
842.385	5128
842.522	5334
842.659	5201
842.796	5117
842.933	5185
843.069	5143
843.206	5147
843.343	5303
843.479	5265
843.616	5284
843.752	5075
843.889	5003
844.025	5201
844.162	5029
844.298	5208
844.435	5014
844.571	5075
844.708	5166
844.844	5273
844.98	5402
845.117	5303
845.253	5151
845.389	5037
845.525	5121
845.661	5132
845.798	5033
845.934	5174
846.07	5033
846.206	5201
846.342	5292
846.478	5151
846.614	5052
846.75	4942
846.886	4957
847.022	5132
847.158	5006
847.294	5064
847.429	5090
847.565	5048
847.701	5315
847.837	4847
847.972	4839
848.108	4961
848.244	4908
848.379	4824
848.515	4736
848.65	4691
848.786	4778
848.921	4774
849.057	4908
849.192	4900
849.328	4790
849.463	4866
849.598	4767
849.734	4782
849.869	4706
850.004	4580
850.14	4641
850.275	4656
850.41	4542
850.545	4565
850.68	4596
850.815	4634
850.95	4660
851.085	4839
851.22	4733
851.355	4729
851.49	4580
851.625	4569
851.76	4596
851.895	4580
852.03	4474
852.165	4634
852.299	4702
852.434	4786
852.569	4710
852.703	4767
852.838	4854
852.973	4953
853.107	4942
853.242	4717
853.376	4672
853.511	4565
853.645	4561
853.78	4778
853.914	4653
854.048	4679
854.183	4630
854.317	4664
854.451	4862
854.585	4615
854.72	4596
854.854	4752
854.988	4630
855.122	4698
855.256	4519
855.39	4649
855.524	4725
855.658	4672
855.792	4694
855.926	4702
856.06	4721
856.194	4793
856.327	4672
856.461	4611
856.595	4641
856.729	4580
856.862	4763
856.996	4641
857.13	4706
857.263	4752
857.397	4809
857.53	4656
857.664	4694
857.797	4797
857.931	4801
858.064	4679
858.197	4706
858.331	4626
858.464	4634
858.597	4508
858.731	4599
858.864	4656
858.997	4565
859.13	4611
859.263	4641
859.396	4702
859.529	4584
859.662	4573
859.795	4508
859.928	4622
860.061	4759
860.194	4725
860.327	4584
860.46	4584
860.592	4759
860.725	4675
860.858	4710
860.99	4569
861.123	4546
861.256	4519
861.388	4577
861.521	5318
861.653	4516
861.786	4451
861.918	4470
862.05	4531
862.183	4561
862.315	4588
862.447	4679
862.58	4519
862.712	4371
862.844	4322
862.976	4443
863.108	4466
863.24	4877
863.372	4322
863.504	4432
863.636	4394
863.768	4466
863.9	4428
864.032	4356
864.164	4398
864.296	4508
864.428	4561
864.559	4550
864.691	4550
864.823	4497
864.954	4481
865.086	4516
865.217	4481
865.349	4390
865.48	4417
865.612	4459
865.743	4607
865.875	4443
866.006	4466
866.137	4462
866.269	4459
866.4	4417
866.531	4394
866.662	4440
866.793	4402
866.924	4455
867.055	4489
867.186	4428
867.317	4451
867.448	4413
867.579	4375
867.71	4360
867.841	4386
867.972	4443
868.103	4428
868.233	4440
868.364	4428
868.495	4508
868.625	4672
868.756	4714
868.886	4584
869.017	4630
869.147	4809
869.278	4782
869.408	4596
869.539	4599
869.669	4714
869.799	4656
869.929	4725
870.06	4694
870.19	4908
870.32	4961
870.45	4938
870.58	5010
870.71	5079
870.84	5113
870.97	4923
871.1	4881
871.23	5181
871.36	5143
871.489	4999
871.619	5083
871.749	5098
871.879	5094
872.008	5079
872.138	5048
872.267	4961
872.397	4809
872.526	4774
872.656	4721
872.785	4870
872.915	4980
873.044	5006
873.173	4957
873.303	4923
873.432	4953
873.561	4896
873.69	4885
873.819	4805
873.948	4858
874.077	4843
874.206	4748
874.335	4793
874.464	4923
874.593	5022
874.722	4942
874.851	5067
874.979	5018
875.108	4968
875.237	4889
875.365	4820
875.494	4870
875.623	4930
875.751	4828
875.88	4877
876.008	4938
876.136	5018
876.265	5166
876.393	5345
876.521	5216
876.65	5216
876.778	5117
876.906	5083
877.034	5022
877.162	4987
877.29	4984
877.418	5029
877.546	5056
877.674	5025
877.802	5094
877.93	4984
878.058	4934
878.185	4877
878.313	4904
878.441	4949
878.568	4790
878.696	4896
878.824	4896
878.951	4999
879.079	5124
879.206	5292
879.333	5075
879.461	5029
879.588	4949
879.715	5102
879.842	5216
879.97	4995
880.097	4790
880.224	4725
880.351	4774
880.478	4809
880.605	4824
880.732	4820
880.859	5071
880.986	4877
881.112	4892
881.239	4744
881.366	4672
881.493	4588
881.619	4588
881.746	4630
881.872	4645
881.999	4588
882.125	4702
882.252	4759
882.378	4752
882.505	4946
882.631	4881
882.757	4702
882.883	4748
883.01	4691
883.136	4748
883.262	4641
883.388	4580
883.514	4767
883.64	4862
883.766	4793
883.892	4645
884.018	4687
884.143	4919
884.269	5014
884.395	4653
884.52	4679
884.646	4653
884.772	4542
884.897	4580
885.023	4668
885.148	4755
885.274	4866
885.399	4786
885.524	4698
885.65	4725
885.775	4740
885.9	4691
886.025	4805
886.15	4740
886.275	4653
886.4	4611
886.525	4694
886.65	4698
886.775	4698
886.9	4923
887.025	4999
887.149	4786
887.274	4626
887.399	4565
887.523	4618
887.648	4580
887.773	4580
887.897	4740
888.021	4805
888.146	4675
888.27	4782
888.395	4938
888.519	4797
888.643	4809
888.767	4812
888.891	4691
889.015	4584
889.139	4641
889.263	4558
889.387	4759
889.511	4843
889.635	4820
889.759	4664
889.883	4653
890.006	4729
890.13	4812
890.254	4622
890.377	4618
890.501	4538
890.624	4538
890.748	4626
890.871	4523
890.995	4462
891.118	4394
891.241	4561
891.364	4512
891.488	4622
891.611	4466
891.734	4554
891.857	4580
891.98	4558
892.103	4580
892.226	4596
892.349	4531
892.471	4413
892.594	4519
892.717	4542
892.839	4550
892.962	4611
893.085	4649
893.207	4630
893.33	4409
893.452	4523
893.575	4641
893.697	4550
893.819	4748
893.941	4786
894.064	4755
894.186	4554
894.308	4603
894.43	4698
894.552	4839
894.674	4740
894.796	4527
894.918	4580
895.04	4554
895.161	4702
895.283	4611
895.405	4603
895.526	4615
895.648	4706
895.769	4691
895.891	4725
896.012	4641
896.134	4706
896.255	4660
896.376	4588
896.498	4596
896.619	4702
896.74	4618
896.861	4683
896.982	5003
897.103	5083
897.224	4858
897.345	4771
897.466	4645
897.587	4759
897.708	4885
897.828	4801
897.949	4649
898.07	4561
898.19	4615
898.311	4820
898.431	4660
898.552	4763
898.672	4778
898.792	4812
898.913	4725
899.033	4599
899.153	4519
899.273	4417
899.393	4459
899.513	4500
899.633	4497
899.753	4535
899.873	4538
899.993	4592
900.113	4516
900.232	4573
900.352	4554
900.472	4459
900.591	4383
900.711	4497
900.83	4386
900.95	4596
901.069	4675
901.189	4504
901.308	4360
901.427	4337
901.546	4344
901.665	4451
901.784	4531
901.904	4390
902.023	4268
902.141	4128
902.26	4150
902.379	4276
902.498	4242
902.617	4177
902.735	4383
902.854	4424
902.973	4356
903.091	4227
903.21	4238
903.328	4261
903.446	4207
903.565	4314
903.683	4325
903.801	4253
903.919	4436
904.038	4383
904.156	4329
904.274	4428
904.392	4383
904.51	4421
904.627	4447
904.745	4538
904.863	4653
904.981	4398
905.098	4284
905.216	4409
905.334	4363
905.451	4417
905.569	4413
905.686	4485
905.803	4558
905.921	4371
906.038	4573
906.155	4459
906.272	4409
906.389	4493
906.506	4318
906.623	4432
906.74	4375
906.857	4280
906.974	4375
907.091	4519
907.208	4649
907.324	4565
907.441	4466
907.557	4360
907.674	4337
907.79	4333
907.907	4421
908.023	4489
908.139	4436
908.256	4455
908.372	4489
908.488	4474
908.604	4322
908.72	4295
908.836	4325
908.952	4356
909.068	4402
909.184	4554
909.3	4459
909.415	4535
909.531	4588
909.647	4325
909.762	4325
909.878	4337
909.993	4443
910.108	4440
910.224	4390
910.339	4478
910.454	4363
910.57	4322
910.685	4280
910.8	4649
910.915	4622
911.03	4516
911.145	4337
911.259	4348
911.374	4363
911.489	4295
911.604	4272
911.718	4177
911.833	4188
911.947	4059
912.062	4036
912.176	4238
912.291	4242
912.405	4219
912.519	4455
912.633	4527
912.748	4341
912.862	4284
912.976	4200
913.09	4128
913.204	4173
913.318	4242
913.431	4375
913.545	4360
913.659	4436
913.772	4360
913.886	4211
914	4219
914.113	4402
914.226	4402
914.34	4352
914.453	4276
914.566	4398
914.68	4284
914.793	4367
914.906	4162
915.019	4112
915.132	4124
915.245	4185
915.358	4192
915.47	4219
915.583	4287
915.696	4284
915.809	4386
915.921	4405
916.034	4227
916.146	4257
916.259	4230
916.371	4352
916.483	4360
916.595	4257
916.708	4360
916.82	4299
916.932	4337
917.044	4306
917.156	4325
917.268	4215
917.38	4253
917.491	4261
917.603	4325
917.715	4409
917.826	4466
917.938	4344
918.049	4284
918.161	4352
918.272	4542
918.384	4584
918.495	4417
918.606	4280
918.717	4215
918.828	4325
918.939	4341
919.05	4211
919.161	4306
919.272	4090
919.383	4249
919.494	4424
919.604	4622
919.715	4424
919.826	4375
919.936	4436
920.047	4527
920.157	4466
920.267	4672
920.378	4538
920.488	4481
920.598	4725
920.708	4870
920.818	4752
920.928	4767
921.038	4904
921.148	4850
921.258	4626
921.368	4542
921.477	4489
921.587	4447
921.697	4394
921.806	4535
921.916	4367
922.025	4276
922.134	4257
922.244	4249
922.353	4333
922.462	4166
922.571	4135
922.68	4006
922.789	3972
922.898	4051
923.007	4040
923.116	4093
923.224	4029
923.333	4055
923.442	4029
923.55	3975
923.659	4006
923.767	4116
923.876	4006
923.984	4109
924.092	3991
924.201	4017
924.309	4082
924.417	4051
924.525	4025
924.633	4109
924.741	5083
924.849	3956
924.956	4120
925.064	3960
925.172	3869
925.279	3953
925.387	4010
925.494	4036
925.602	4215
925.709	4162
925.816	4017
925.924	4112
926.031	4234
926.138	4147
926.245	4215
926.352	4135
926.459	4276
926.566	4257
926.673	4116
926.779	4105
926.886	4055
926.993	3953
927.099	3960
927.206	3926
927.312	3956
927.419	4074
927.525	4017
927.631	4097
927.737	3903
927.843	3876
927.95	3823
928.056	3983
928.162	3964
928.267	4013
928.373	4630
928.479	4124
928.585	3861
928.69	4013
928.796	4036
928.901	3953
929.007	3823
929.112	3956
929.218	3991
929.323	3956
929.428	3934
929.533	4082
929.638	3922
929.743	3956
929.848	4029
929.953	3991
930.058	3922
930.163	3774
930.267	3797
930.372	3945
930.477	3816
930.581	4124
930.685	3937
930.79	3789
930.894	3880
930.998	3835
931.103	3994
931.207	3701
931.311	3698
931.415	3728
931.519	3526
931.623	3519
