Data from test_V78500241_2170.txt Node
Date: Fri Mar 25 17:04:05 CST 2022
User: usil
Spectrometer: V785-0024
Trigger mode: 0
Integration Time (sec): 4.000000E-1
Scans to average: 1
Nonlinearity correction enabled: false
Boxcar width: 0
Storing dark spectrum: false
XAxis mode: Wavelengths
Number of Pixels in Spectrum: 1024
>>>>>Begin Spectral Data<<<<<
801.071	8008
801.214	8005
801.356	7833
801.499	7799
801.641	7818
801.783	7826
801.926	7947
802.068	7921
802.211	8016
802.353	7986
802.496	7868
802.638	7856
802.78	7928
802.923	7894
803.065	7826
803.208	7871
803.35	7989
803.492	8054
803.635	8153
803.777	8024
803.919	8138
804.061	8434
804.204	8157
804.346	8100
804.488	7982
804.63	8050
804.773	8008
804.915	8084
805.057	8279
805.199	8130
805.341	8187
805.483	8290
805.626	8233
805.768	8107
805.91	8225
806.052	8191
806.194	8130
806.336	8248
806.478	8103
806.62	7978
806.762	8138
806.904	8252
807.046	8560
807.188	8370
807.33	8305
807.472	8366
807.614	8103
807.756	8218
807.898	8043
808.04	7894
808.182	7898
808.324	7792
808.465	7841
808.607	8100
808.749	8172
808.891	8202
809.033	8282
809.174	8195
809.316	8073
809.458	8054
809.6	8008
809.741	8073
809.883	7974
810.025	8145
810.166	8081
810.308	7955
810.45	8035
810.591	7795
810.733	7704
810.875	7624
811.016	7582
811.158	7491
811.299	7563
811.441	7632
811.582	7685
811.724	7544
811.865	7544
812.007	7605
812.148	7548
812.29	7632
812.431	7712
812.573	7837
812.714	7982
812.855	8153
812.997	8153
813.138	8381
813.279	8180
813.421	8062
813.562	7993
813.703	7860
813.845	7731
813.986	7377
814.127	7225
814.268	7202
814.41	7168
814.551	7244
814.692	7228
814.833	7103
814.974	7145
815.115	7091
815.256	7031
815.397	6966
815.539	6905
815.68	6818
815.821	6764
815.962	6882
816.103	6821
816.244	6703
816.385	6654
816.526	6566
816.666	6490
816.807	6315
816.948	6429
817.089	6426
817.23	6426
817.371	6384
817.512	6380
817.653	6403
817.793	6357
817.934	6410
818.075	6479
818.216	6395
818.356	6445
818.497	6296
818.638	6133
818.778	6129
818.919	6117
819.06	6201
819.2	6395
819.341	6304
819.481	6380
819.622	6582
819.762	6722
819.903	6791
820.043	6593
820.184	6623
820.324	6578
820.465	6646
820.605	6745
820.746	6627
820.886	6483
821.026	6669
821.167	6692
821.307	6779
821.447	6768
821.588	6719
821.728	6540
821.868	6448
822.008	6304
822.149	6296
822.289	6289
822.429	6163
822.569	6087
822.709	6121
822.849	5904
822.99	5908
823.13	5882
823.27	5897
823.41	5802
823.55	5794
823.69	5676
823.83	5775
823.97	5657
824.11	5512
824.25	5501
824.389	5554
824.529	5543
824.669	5577
824.809	5615
824.949	5642
825.089	5558
825.228	5471
825.368	5410
825.508	5357
825.648	5379
825.787	5326
825.927	5425
826.067	5258
826.206	5258
826.346	5360
826.485	5376
826.625	5398
826.765	5562
826.904	5486
827.044	5296
827.183	5204
827.323	5105
827.462	5242
827.601	5140
827.741	5220
827.88	5212
828.02	5083
828.159	5220
828.298	5258
828.437	5387
828.577	5296
828.716	5516
828.855	5292
828.994	5147
829.134	5151
829.273	5220
829.412	5151
829.551	5117
829.69	5136
829.829	5254
829.968	5379
830.107	5227
830.246	5242
830.385	5105
830.524	5155
830.663	5052
830.802	4980
830.941	4889
831.08	4858
831.219	4980
831.357	5010
831.496	5166
831.635	4854
831.774	4793
831.913	4805
832.051	4755
832.19	4763
832.329	4816
832.467	4641
832.606	4584
832.744	4759
832.883	4729
833.022	4763
833.16	4778
833.299	4835
833.437	4801
833.576	4801
833.714	4847
833.852	4820
833.991	4877
834.129	4927
834.267	4908
834.406	4919
834.544	4949
834.682	4953
834.821	4957
834.959	5159
835.097	4957
835.235	5098
835.373	5086
835.511	5075
835.65	5056
835.788	5003
835.926	4877
836.064	4850
836.202	4896
836.34	5132
836.478	5117
836.615	5098
836.753	5189
836.891	5231
837.029	5204
837.167	5193
837.305	5162
837.443	5147
837.58	5098
837.718	5239
837.856	5174
837.993	5121
838.131	5220
838.269	5193
838.406	5181
838.544	5109
838.681	5056
838.819	4991
838.956	4904
839.094	4881
839.231	5014
839.369	5071
839.506	5398
839.643	5254
839.781	5041
839.918	5010
840.055	5064
840.193	5094
840.33	5079
840.467	5086
840.604	5147
840.742	5414
840.879	5086
841.016	5083
841.153	5136
841.29	5414
841.427	5341
841.564	5296
841.701	5357
841.838	5296
841.975	5273
842.112	5235
842.249	5056
842.385	5075
842.522	5345
842.659	5143
842.796	5079
842.933	5181
843.069	5147
843.206	5155
843.343	5299
843.479	5193
843.616	5212
843.752	5060
843.889	5010
844.025	5223
844.162	5033
844.298	5193
844.435	5121
844.571	5018
844.708	5220
844.844	5273
844.98	5398
845.117	5254
845.253	5102
845.389	5037
845.525	5159
845.661	5159
845.798	5041
845.934	5124
846.07	5014
846.206	5181
846.342	5231
846.478	5227
846.614	5048
846.75	4999
846.886	4900
847.022	5151
847.158	5048
847.294	5075
847.429	5105
847.565	5075
847.701	5330
847.837	4820
847.972	4755
848.108	4927
848.244	4946
848.379	4812
848.515	4717
848.65	4702
848.786	4759
848.921	4755
849.057	4881
849.192	4885
849.328	4786
849.463	4843
849.598	4771
849.734	4771
849.869	4672
850.004	4668
850.14	4645
850.275	4584
850.41	4523
850.545	4607
850.68	4611
850.815	4660
850.95	4626
851.085	4889
851.22	4706
851.355	4645
851.49	4569
851.625	4618
851.76	4580
851.895	4588
852.03	4500
852.165	4611
852.299	4679
852.434	4771
852.569	4702
852.703	4759
852.838	4786
852.973	4881
853.107	4934
853.242	4702
853.376	4668
853.511	4592
853.645	4592
853.78	4790
853.914	4641
854.048	4675
854.183	4607
854.317	4717
854.451	4816
854.585	4694
854.72	4672
854.854	4752
854.988	4577
855.122	4584
855.256	4489
855.39	4653
855.524	4786
855.658	4740
855.792	4660
855.926	4679
856.06	4736
856.194	4725
856.327	4626
856.461	4561
856.595	4592
856.729	4622
856.862	4755
856.996	4672
857.13	4683
857.263	4748
857.397	4793
857.53	4592
857.664	4714
857.797	4717
857.931	4740
858.064	4611
858.197	4668
858.331	4641
858.464	4599
858.597	4512
858.731	4641
858.864	4603
858.997	4558
859.13	4618
859.263	4630
859.396	4702
859.529	4596
859.662	4538
859.795	4546
859.928	4588
860.061	4710
860.194	4759
860.327	4653
860.46	4561
860.592	4660
860.725	4687
860.858	4725
860.99	4516
861.123	4519
861.256	4489
861.388	4607
861.521	5448
861.653	4508
861.786	4443
861.918	4440
862.05	4565
862.183	4569
862.315	4611
862.447	4675
862.58	4519
862.712	4405
862.844	4333
862.976	4508
863.108	4443
863.24	4774
863.372	4341
863.504	4455
863.636	4428
863.768	4466
863.9	4462
864.032	4375
864.164	4383
864.296	4527
864.428	4577
864.559	4531
864.691	4596
864.823	4550
864.954	4535
865.086	4558
865.217	4474
865.349	4436
865.48	4500
865.612	4538
865.743	4706
865.875	4519
866.006	4462
866.137	4500
866.269	4500
866.4	4497
866.531	4497
866.662	4424
866.793	4462
866.924	4470
867.055	4538
867.186	4527
867.317	4436
867.448	4447
867.579	4455
867.71	4455
867.841	4470
867.972	4527
868.103	4478
868.233	4447
868.364	4500
868.495	4558
868.625	4679
868.756	4801
868.886	4603
869.017	4641
869.147	4812
869.278	4839
869.408	4702
869.539	4687
869.669	4786
869.799	4752
869.929	4839
870.06	4790
870.19	5037
870.32	4930
870.45	4949
870.58	5045
870.71	5151
870.84	5132
870.97	4968
871.1	4915
871.23	5185
871.36	5185
871.489	5056
871.619	5117
871.749	5143
871.879	5147
872.008	5212
872.138	5109
872.267	5033
872.397	4885
872.526	4866
872.656	4786
872.785	4839
872.915	5014
873.044	5056
873.173	4942
873.303	4999
873.432	5018
873.561	4972
873.69	4949
873.819	4900
873.948	4968
874.077	4870
874.206	4824
874.335	4831
874.464	4987
874.593	5132
874.722	5052
874.851	5124
874.979	5067
875.108	5067
875.237	4961
875.365	4908
875.494	4911
875.623	5025
875.751	4866
875.88	4892
876.008	4995
876.136	5022
876.265	5246
876.393	5406
876.521	5288
876.65	5261
876.778	5235
876.906	5121
877.034	5041
877.162	5098
877.29	5064
877.418	5113
877.546	5067
877.674	5075
877.802	5041
877.93	5025
878.058	4934
878.185	4911
878.313	4999
878.441	4972
878.568	4824
878.696	4919
878.824	5006
878.951	5064
879.079	5155
879.206	5341
879.333	5178
879.461	5029
879.588	5022
879.715	5193
879.842	5280
879.97	5052
880.097	4793
880.224	4809
880.351	4820
880.478	4908
880.605	4850
880.732	4877
880.859	5086
880.986	4934
881.112	4927
881.239	4828
881.366	4694
881.493	4683
881.619	4615
881.746	4607
881.872	4679
881.999	4645
882.125	4683
882.252	4793
882.378	4889
882.505	4953
882.631	4866
882.757	4729
882.883	4771
883.01	4714
883.136	4710
883.262	4683
883.388	4653
883.514	4835
883.64	4831
883.766	4870
883.892	4717
884.018	4744
884.143	4923
884.269	5033
884.395	4710
884.52	4672
884.646	4668
884.772	4577
884.897	4584
885.023	4683
885.148	4797
885.274	4866
885.399	4850
885.524	4793
885.65	4752
885.775	4797
885.9	4748
886.025	4843
886.15	4843
886.275	4767
886.4	4679
886.525	4748
886.65	4691
886.775	4702
886.9	4949
887.025	5056
887.149	4793
887.274	4641
887.399	4660
887.523	4596
887.648	4607
887.773	4603
887.897	4778
888.021	4797
888.146	4694
888.27	4839
888.395	4953
888.519	4850
888.643	4812
888.767	4870
888.891	4748
889.015	4615
889.139	4691
889.263	4634
889.387	4755
889.511	4885
889.635	4812
889.759	4664
889.883	4672
890.006	4782
890.13	4850
890.254	4637
890.377	4698
890.501	4550
890.624	4561
890.748	4634
890.871	4565
890.995	4447
891.118	4390
891.241	4550
891.364	4580
891.488	4656
891.611	4504
891.734	4546
891.857	4634
891.98	4626
892.103	4691
892.226	4656
892.349	4546
892.471	4470
892.594	4573
892.717	4630
892.839	4626
892.962	4558
893.085	4691
893.207	4611
893.33	4531
893.452	4550
893.575	4736
893.697	4592
893.819	4816
893.941	4858
894.064	4801
894.186	4645
894.308	4618
894.43	4793
894.552	4854
894.674	4786
894.796	4577
894.918	4634
895.04	4622
895.161	4755
895.283	4683
895.405	4565
895.526	4653
895.648	4691
895.769	4714
895.891	4767
896.012	4725
896.134	4797
896.255	4664
896.376	4664
896.498	4683
896.619	4729
896.74	4622
896.861	4660
896.982	4915
897.103	5109
897.224	4862
897.345	4736
897.466	4702
897.587	4752
897.708	4900
897.828	4812
897.949	4660
898.07	4550
898.19	4611
898.311	4820
898.431	4744
898.552	4736
898.672	4877
898.792	4801
898.913	4752
899.033	4710
899.153	4508
899.273	4493
899.393	4523
899.513	4500
899.633	4554
899.753	4554
899.873	4546
899.993	4546
900.113	4550
900.232	4630
900.352	4550
900.472	4519
900.591	4398
900.711	4546
900.83	4436
900.95	4645
901.069	4714
901.189	4588
901.308	4367
901.427	4371
901.546	4363
901.665	4508
901.784	4523
901.904	4436
902.023	4344
902.141	4207
902.26	4166
902.379	4341
902.498	4272
902.617	4276
902.735	4383
902.854	4436
902.973	4379
903.091	4219
903.21	4253
903.328	4257
903.446	4322
903.565	4272
903.683	4375
903.801	4318
903.919	4409
904.038	4443
904.156	4306
904.274	4455
904.392	4379
904.51	4462
904.627	4538
904.745	4664
904.863	4664
904.981	4417
905.098	4344
905.216	4379
905.334	4497
905.451	4432
905.569	4455
905.686	4535
905.803	4504
905.921	4443
906.038	4565
906.155	4455
906.272	4413
906.389	4440
906.506	4375
906.623	4375
906.74	4390
906.857	4314
906.974	4417
907.091	4523
907.208	4675
907.324	4592
907.441	4519
907.557	4341
907.674	4375
907.79	4367
907.907	4383
908.023	4497
908.139	4535
908.256	4436
908.372	4489
908.488	4428
908.604	4356
908.72	4367
908.836	4379
908.952	4394
909.068	4421
909.184	4622
909.3	4493
909.415	4611
909.531	4558
909.647	4360
909.762	4386
909.878	4360
909.993	4432
910.108	4390
910.224	4379
910.339	4489
910.454	4402
910.57	4318
910.685	4337
910.8	4710
910.915	4584
911.03	4466
911.145	4341
911.259	4375
911.374	4386
911.489	4299
911.604	4337
911.718	4211
911.833	4227
911.947	4078
912.062	4074
912.176	4234
912.291	4246
912.405	4287
912.519	4470
912.633	4508
912.748	4436
912.862	4352
912.976	4257
913.09	4112
913.204	4215
913.318	4291
913.431	4386
913.545	4375
913.659	4421
913.772	4363
913.886	4215
914	4261
914.113	4333
914.226	4436
914.34	4405
914.453	4268
914.566	4443
914.68	4291
914.793	4306
914.906	4169
915.019	4200
915.132	4109
915.245	4192
915.358	4242
915.47	4253
915.583	4310
915.696	4314
915.809	4428
915.921	4459
916.034	4242
916.146	4295
916.259	4257
916.371	4409
916.483	4371
916.595	4306
916.708	4344
916.82	4333
916.932	4325
917.044	4303
917.156	4325
917.268	4265
917.38	4242
917.491	4261
917.603	4371
917.715	4485
917.826	4440
917.938	4341
918.049	4227
918.161	4436
918.272	4558
918.384	4527
918.495	4470
918.606	4291
918.717	4257
918.828	4360
918.939	4333
919.05	4276
919.161	4325
919.272	4143
919.383	4215
919.494	4462
919.604	4649
919.715	4432
919.826	4337
919.936	4402
920.047	4603
920.157	4478
920.267	4717
920.378	4573
920.488	4538
920.598	4706
920.708	4877
920.818	4698
920.928	4809
921.038	4942
921.148	4923
921.258	4664
921.368	4561
921.477	4527
921.587	4508
921.697	4405
921.806	4512
921.916	4428
922.025	4276
922.134	4303
922.244	4230
922.353	4375
922.462	4192
922.571	4150
922.68	4013
922.789	3968
922.898	4048
923.007	4032
923.116	4101
923.224	4059
923.333	4093
923.442	4006
923.55	3994
923.659	4029
923.767	4131
923.876	4040
923.984	4139
924.092	3972
924.201	4101
924.309	4082
924.417	4120
924.525	4048
924.633	4147
924.741	5067
924.849	3934
924.956	4147
925.064	3972
925.172	3896
925.279	3945
925.387	4071
925.494	4067
925.602	4204
925.709	4154
925.816	4029
925.924	4143
926.031	4230
926.138	4158
926.245	4234
926.352	4120
926.459	4291
926.566	4344
926.673	4188
926.779	4124
926.886	4097
926.993	4010
927.099	4021
927.206	3926
927.312	3960
927.419	4044
927.525	4036
927.631	4067
927.737	4013
927.843	3972
927.95	3846
928.056	3956
928.162	3979
928.267	4044
928.373	4744
928.479	4143
928.585	3873
928.69	4074
928.796	4112
928.901	3972
929.007	3835
929.112	4048
929.218	3941
929.323	3930
929.428	3964
929.533	4131
929.638	3896
929.743	3972
929.848	4086
929.953	4006
930.058	3918
930.163	3812
930.267	3876
930.372	3994
930.477	3823
930.581	4116
930.685	3964
930.79	3857
930.894	3876
930.998	3892
931.103	4090
931.207	3770
931.311	3720
931.415	3671
931.519	3561
931.623	3584
