Data from test_V78500241_1284.txt Node
Date: Fri Mar 25 16:57:55 CST 2022
User: usil
Spectrometer: V785-0024
Trigger mode: 0
Integration Time (sec): 4.000000E-1
Scans to average: 1
Nonlinearity correction enabled: false
Boxcar width: 0
Storing dark spectrum: false
XAxis mode: Wavelengths
Number of Pixels in Spectrum: 1024
>>>>>Begin Spectral Data<<<<<
801.071	8043
801.214	8031
801.356	7928
801.499	7837
801.641	7814
801.783	7860
801.926	7875
802.068	7955
802.211	8024
802.353	7947
802.496	7852
802.638	7902
802.78	7917
802.923	7868
803.065	7852
803.208	7852
803.35	7986
803.492	8058
803.635	8229
803.777	8054
803.919	8256
804.061	8438
804.204	8172
804.346	8035
804.488	8065
804.63	8161
804.773	8054
804.915	8149
805.057	8332
805.199	8191
805.341	8240
805.483	8301
805.626	8267
805.768	8157
805.91	8199
806.052	8225
806.194	8088
806.336	8271
806.478	8134
806.62	8123
806.762	8138
806.904	8339
807.046	8450
807.188	8301
807.33	8339
807.472	8351
807.614	8225
807.756	8126
807.898	8069
808.04	7883
808.182	7925
808.324	7940
808.465	7974
808.607	8043
808.749	8172
808.891	8233
809.033	8305
809.174	8218
809.316	8043
809.458	8077
809.6	8016
809.741	8100
809.883	8027
810.025	8073
810.166	8062
810.308	8092
810.45	7978
810.591	7887
810.733	7734
810.875	7757
811.016	7597
811.158	7582
811.299	7601
811.441	7772
811.582	7658
811.724	7613
811.865	7624
812.007	7613
812.148	7620
812.29	7689
812.431	7704
812.573	7894
812.714	8024
812.855	8096
812.997	8271
813.138	8389
813.279	8157
813.421	8180
813.562	8035
813.703	7837
813.845	7784
813.986	7510
814.127	7251
814.268	7255
814.41	7266
814.551	7164
814.692	7263
814.833	7076
814.974	7141
815.115	7133
815.256	7008
815.397	6909
815.539	7019
815.68	6856
815.821	6806
815.962	6840
816.103	6772
816.244	6703
816.385	6662
816.526	6616
816.666	6544
816.807	6300
816.948	6490
817.089	6460
817.23	6467
817.371	6433
817.512	6391
817.653	6483
817.793	6376
817.934	6437
818.075	6471
818.216	6498
818.356	6460
818.497	6281
818.638	6171
818.778	6178
818.919	6167
819.06	6178
819.2	6342
819.341	6369
819.481	6433
819.622	6547
819.762	6745
819.903	6738
820.043	6574
820.184	6601
820.324	6555
820.465	6730
820.605	6703
820.746	6669
820.886	6544
821.026	6677
821.167	6654
821.307	6768
821.447	6795
821.588	6692
821.728	6563
821.868	6563
822.008	6350
822.149	6407
822.289	6399
822.429	6152
822.569	6087
822.709	6117
822.849	5946
822.99	5923
823.13	5908
823.27	5984
823.41	5824
823.55	5779
823.69	5809
823.83	5783
823.97	5676
824.11	5573
824.25	5573
824.389	5611
824.529	5623
824.669	5570
824.809	5653
824.949	5657
825.089	5646
825.228	5619
825.368	5402
825.508	5318
825.648	5402
825.787	5357
825.927	5387
826.067	5315
826.206	5246
826.346	5360
826.485	5391
826.625	5433
826.765	5608
826.904	5532
827.044	5277
827.183	5201
827.323	5162
827.462	5258
827.601	5204
827.741	5231
827.88	5242
828.02	5166
828.159	5220
828.298	5330
828.437	5368
828.577	5296
828.716	5448
828.855	5315
828.994	5162
829.134	5170
829.273	5159
829.412	5136
829.551	5208
829.69	5128
829.829	5258
829.968	5429
830.107	5258
830.246	5349
830.385	5216
830.524	5151
830.663	5079
830.802	4991
830.941	4896
831.08	4873
831.219	5025
831.357	4942
831.496	5178
831.635	4946
831.774	4820
831.913	4835
832.051	4748
832.19	4710
832.329	4858
832.467	4702
832.606	4679
832.744	4752
832.883	4752
833.022	4797
833.16	4843
833.299	4812
833.437	4828
833.576	4870
833.714	4934
833.852	4877
833.991	4889
834.129	4949
834.267	4987
834.406	4923
834.544	5033
834.682	4980
834.821	5029
834.959	5162
835.097	4984
835.235	5140
835.373	5083
835.511	5090
835.65	5033
835.788	5006
835.926	4919
836.064	4919
836.202	4911
836.34	5189
836.478	5246
836.615	5162
836.753	5216
836.891	5299
837.029	5246
837.167	5181
837.305	5181
837.443	5181
837.58	5109
837.718	5246
837.856	5178
837.993	5159
838.131	5201
838.269	5216
838.406	5235
838.544	5181
838.681	5033
838.819	5041
838.956	4885
839.094	4965
839.231	4965
839.369	5124
839.506	5391
839.643	5280
839.781	5064
839.918	5006
840.055	5094
840.193	5075
840.33	5128
840.467	5162
840.604	5208
840.742	5410
840.879	5117
841.016	5102
841.153	5185
841.29	5357
841.427	5307
841.564	5376
841.701	5383
841.838	5288
841.975	5246
842.112	5273
842.249	5162
842.385	5174
842.522	5357
842.659	5113
842.796	5181
842.933	5201
843.069	5140
843.206	5124
843.343	5277
843.479	5265
843.616	5303
843.752	5045
843.889	5022
844.025	5235
844.162	5056
844.298	5261
844.435	5102
844.571	5113
844.708	5239
844.844	5315
844.98	5376
845.117	5284
845.253	5136
845.389	5060
845.525	5197
845.661	5121
845.798	5075
845.934	5102
846.07	5025
846.206	5189
846.342	5239
846.478	5185
846.614	5052
846.75	5029
846.886	4976
847.022	5113
847.158	5029
847.294	5136
847.429	5140
847.565	5064
847.701	5330
847.837	4896
847.972	4831
848.108	4984
848.244	4953
848.379	4812
848.515	4748
848.65	4717
848.786	4752
848.921	4774
849.057	4889
849.192	4881
849.328	4831
849.463	4843
849.598	4812
849.734	4717
849.869	4660
850.004	4622
850.14	4672
850.275	4607
850.41	4531
850.545	4577
850.68	4588
850.815	4656
850.95	4622
851.085	4839
851.22	4748
851.355	4729
851.49	4630
851.625	4649
851.76	4660
851.895	4607
852.03	4546
852.165	4679
852.299	4714
852.434	4850
852.569	4763
852.703	4771
852.838	4885
852.973	4930
853.107	4965
853.242	4767
853.376	4691
853.511	4592
853.645	4675
853.78	4820
853.914	4725
854.048	4698
854.183	4672
854.317	4748
854.451	4896
854.585	4683
854.72	4679
854.854	4778
854.988	4580
855.122	4637
855.256	4504
855.39	4664
855.524	4812
855.658	4733
855.792	4748
855.926	4778
856.06	4729
856.194	4805
856.327	4679
856.461	4615
856.595	4615
856.729	4626
856.862	4774
856.996	4744
857.13	4725
857.263	4820
857.397	4801
857.53	4672
857.664	4694
857.797	4774
857.931	4733
858.064	4714
858.197	4759
858.331	4660
858.464	4599
858.597	4558
858.731	4603
858.864	4672
858.997	4603
859.13	4649
859.263	4660
859.396	4679
859.529	4603
859.662	4565
859.795	4569
859.928	4637
860.061	4812
860.194	4771
860.327	4653
860.46	4596
860.592	4733
860.725	4733
860.858	4691
860.99	4630
861.123	4584
861.256	4523
861.388	4618
861.521	5166
861.653	4485
861.786	4462
861.918	4417
862.05	4538
862.183	4542
862.315	4584
862.447	4607
862.58	4527
862.712	4379
862.844	4337
862.976	4550
863.108	4478
863.24	4881
863.372	4341
863.504	4402
863.636	4470
863.768	4512
863.9	4421
864.032	4379
864.164	4413
864.296	4428
864.428	4596
864.559	4573
864.691	4516
864.823	4500
864.954	4493
865.086	4550
865.217	4398
865.349	4363
865.48	4462
865.612	4516
865.743	4637
865.875	4474
866.006	4394
866.137	4466
866.269	4443
866.4	4356
866.531	4402
866.662	4363
866.793	4405
866.924	4398
867.055	4542
867.186	4447
867.317	4417
867.448	4398
867.579	4360
867.71	4421
867.841	4386
867.972	4447
868.103	4447
868.233	4489
868.364	4440
868.495	4500
868.625	4649
868.756	4733
868.886	4508
869.017	4645
869.147	4801
869.278	4752
869.408	4672
869.539	4615
869.669	4725
869.799	4653
869.929	4767
870.06	4782
870.19	4946
870.32	4927
870.45	4972
870.58	5041
870.71	5083
870.84	5102
870.97	4942
871.1	4847
871.23	5105
871.36	5151
871.489	5033
871.619	5033
871.749	5109
871.879	5143
872.008	5083
872.138	5033
872.267	5003
872.397	4843
872.526	4862
872.656	4687
872.785	4801
872.915	4976
873.044	5033
873.173	4938
873.303	4987
873.432	4938
873.561	4949
873.69	4824
873.819	4870
873.948	4900
874.077	4828
874.206	4782
874.335	4767
874.464	4927
874.593	5033
874.722	4980
874.851	5041
874.979	5041
875.108	5064
875.237	4889
875.365	4885
875.494	4892
875.623	4965
875.751	4782
875.88	4919
876.008	4976
876.136	5025
876.265	5178
876.393	5372
876.521	5254
876.65	5235
876.778	5174
876.906	5098
877.034	5010
877.162	5083
877.29	5029
877.418	5052
877.546	5010
877.674	5045
877.802	5048
877.93	5010
878.058	4911
878.185	4908
878.313	4927
878.441	4980
878.568	4809
878.696	4870
878.824	4900
878.951	5003
879.079	5185
879.206	5303
879.333	5098
879.461	5003
879.588	5003
879.715	5075
879.842	5201
879.97	5025
880.097	4790
880.224	4752
880.351	4778
880.478	4862
880.605	4805
880.732	4767
880.859	5067
880.986	4877
881.112	4873
881.239	4767
881.366	4668
881.493	4603
881.619	4596
881.746	4634
881.872	4683
881.999	4702
882.125	4714
882.252	4797
882.378	4820
882.505	5006
882.631	4771
882.757	4637
882.883	4763
883.01	4706
883.136	4694
883.262	4550
883.388	4611
883.514	4793
883.64	4858
883.766	4771
883.892	4694
884.018	4710
884.143	4919
884.269	4991
884.395	4710
884.52	4603
884.646	4691
884.772	4637
884.897	4580
885.023	4626
885.148	4767
885.274	4870
885.399	4805
885.524	4702
885.65	4672
885.775	4702
885.9	4721
886.025	4820
886.15	4820
886.275	4706
886.4	4687
886.525	4774
886.65	4672
886.775	4664
886.9	4873
887.025	4999
887.149	4831
887.274	4630
887.399	4580
887.523	4596
887.648	4535
887.773	4622
887.897	4744
888.021	4755
888.146	4675
888.27	4797
888.395	4870
888.519	4850
888.643	4790
888.767	4854
888.891	4672
889.015	4542
889.139	4641
889.263	4622
889.387	4752
889.511	4847
889.635	4820
889.759	4615
889.883	4630
890.006	4736
890.13	4828
890.254	4592
890.377	4653
890.501	4527
890.624	4489
890.748	4649
890.871	4470
890.995	4371
891.118	4333
891.241	4546
891.364	4554
891.488	4596
891.611	4474
891.734	4527
891.857	4580
891.98	4550
892.103	4626
892.226	4558
892.349	4538
892.471	4432
892.594	4592
892.717	4634
892.839	4588
892.962	4596
893.085	4641
893.207	4558
893.33	4428
893.452	4535
893.575	4683
893.697	4569
893.819	4820
893.941	4820
894.064	4752
894.186	4577
894.308	4580
894.43	4744
894.552	4839
894.674	4763
894.796	4523
894.918	4580
895.04	4569
895.161	4649
895.283	4687
895.405	4565
895.526	4622
895.648	4649
895.769	4698
895.891	4698
896.012	4725
896.134	4672
896.255	4637
896.376	4675
896.498	4626
896.619	4710
896.74	4592
896.861	4626
896.982	4923
897.103	5052
897.224	4839
897.345	4714
897.466	4664
897.587	4725
897.708	4801
897.828	4755
897.949	4645
898.07	4546
898.19	4615
898.311	4828
898.431	4653
898.552	4748
898.672	4828
898.792	4774
898.913	4717
899.033	4668
899.153	4497
899.273	4462
899.393	4478
899.513	4504
899.633	4523
899.753	4516
899.873	4516
899.993	4588
900.113	4512
900.232	4569
900.352	4500
900.472	4436
900.591	4421
900.711	4485
900.83	4440
900.95	4531
901.069	4694
901.189	4569
901.308	4394
901.427	4318
901.546	4360
901.665	4516
901.784	4504
901.904	4383
902.023	4276
902.141	4185
902.26	4166
902.379	4303
902.498	4234
902.617	4200
902.735	4409
902.854	4371
902.973	4318
903.091	4143
903.21	4261
903.328	4314
903.446	4287
903.565	4249
903.683	4344
903.801	4246
903.919	4417
904.038	4405
904.156	4329
904.274	4417
904.392	4394
904.51	4459
904.627	4436
904.745	4554
904.863	4653
904.981	4405
905.098	4322
905.216	4333
905.334	4386
905.451	4421
905.569	4409
905.686	4538
905.803	4599
905.921	4455
906.038	4527
906.155	4470
906.272	4398
906.389	4455
906.506	4383
906.623	4386
906.74	4337
906.857	4303
906.974	4371
907.091	4569
907.208	4656
907.324	4584
907.441	4508
907.557	4325
907.674	4333
907.79	4329
907.907	4348
908.023	4538
908.139	4478
908.256	4432
908.372	4459
908.488	4462
908.604	4375
908.72	4360
908.836	4428
908.952	4344
909.068	4390
909.184	4546
909.3	4474
909.415	4569
909.531	4523
909.647	4333
909.762	4318
909.878	4352
909.993	4462
910.108	4443
910.224	4405
910.339	4470
910.454	4417
910.57	4360
910.685	4284
910.8	4649
910.915	4641
911.03	4455
911.145	4310
911.259	4352
911.374	4344
911.489	4261
911.604	4257
911.718	4135
911.833	4200
911.947	4071
912.062	3983
912.176	4253
912.291	4238
912.405	4181
912.519	4386
912.633	4497
912.748	4379
912.862	4295
912.976	4207
913.09	4082
913.204	4173
913.318	4253
913.431	4394
913.545	4333
913.659	4375
913.772	4322
913.886	4268
914	4204
914.113	4367
914.226	4417
914.34	4390
914.453	4261
914.566	4367
914.68	4299
914.793	4310
914.906	4139
915.019	4128
915.132	4131
915.245	4120
915.358	4192
915.47	4211
915.583	4272
915.696	4291
915.809	4390
915.921	4432
916.034	4249
916.146	4230
916.259	4211
916.371	4390
916.483	4314
916.595	4249
916.708	4295
916.82	4322
916.932	4318
917.044	4306
917.156	4314
917.268	4242
917.38	4268
917.491	4257
917.603	4341
917.715	4489
917.826	4428
917.938	4337
918.049	4188
918.161	4360
918.272	4558
918.384	4519
918.495	4443
918.606	4314
918.717	4261
918.828	4333
918.939	4322
919.05	4276
919.161	4329
919.272	4097
919.383	4215
919.494	4436
919.604	4596
919.715	4447
919.826	4329
919.936	4402
920.047	4500
920.157	4428
920.267	4668
920.378	4588
920.488	4512
920.598	4691
920.708	4873
920.818	4771
920.928	4725
921.038	4934
921.148	4892
921.258	4573
921.368	4542
921.477	4538
921.587	4428
921.697	4360
921.806	4508
921.916	4447
922.025	4268
922.134	4257
922.244	4204
922.353	4344
922.462	4192
922.571	4109
922.68	3994
922.789	3994
922.898	3991
923.007	3937
923.116	4120
923.224	4055
923.333	4086
923.442	3987
923.55	3960
923.659	4025
923.767	4078
923.876	3941
923.984	4097
924.092	3975
924.201	4036
924.309	4101
924.417	4101
924.525	4029
924.633	4074
924.741	5003
924.849	3892
924.956	4109
925.064	3922
925.172	3876
925.279	3941
925.387	4055
925.494	4010
925.602	4227
925.709	4154
925.816	4013
925.924	4101
926.031	4185
926.138	4158
926.245	4147
926.352	4082
926.459	4219
926.566	4314
926.673	4105
926.779	4086
926.886	4029
926.993	3960
927.099	3911
927.206	3949
927.312	3892
927.419	4044
927.525	4006
927.631	4116
927.737	3956
927.843	3960
927.95	3812
928.056	3937
928.162	3987
928.267	4074
928.373	4679
928.479	4101
928.585	3819
928.69	4013
928.796	4044
928.901	3926
929.007	3835
929.112	4002
929.218	3987
929.323	3941
929.428	3899
929.533	4063
929.638	3915
929.743	3975
929.848	3983
929.953	3994
930.058	3918
930.163	3747
930.267	3778
930.372	3953
930.477	3842
930.581	4059
930.685	3953
930.79	3789
930.894	3846
930.998	3892
931.103	4032
931.207	3759
931.311	3660
931.415	3667
931.519	3492
931.623	3500
