Data from test_V78500241_2051.txt Node
Date: Fri Mar 25 17:03:15 CST 2022
User: usil
Spectrometer: V785-0024
Trigger mode: 0
Integration Time (sec): 4.000000E-1
Scans to average: 1
Nonlinearity correction enabled: false
Boxcar width: 0
Storing dark spectrum: false
XAxis mode: Wavelengths
Number of Pixels in Spectrum: 1024
>>>>>Begin Spectral Data<<<<<
801.071	7951
801.214	8081
801.356	7868
801.499	7898
801.641	7860
801.783	7928
801.926	7932
802.068	7925
802.211	7997
802.353	7970
802.496	7883
802.638	7860
802.78	7959
802.923	7913
803.065	7925
803.208	7898
803.35	8001
803.492	8153
803.635	8214
803.777	8024
803.919	8119
804.061	8454
804.204	8199
804.346	8115
804.488	7936
804.63	8096
804.773	8016
804.915	8107
805.057	8259
805.199	8187
805.341	8240
805.483	8225
805.626	8229
805.768	8111
805.91	8286
806.052	8229
806.194	8138
806.336	8347
806.478	8111
806.62	8077
806.762	8077
806.904	8286
807.046	8454
807.188	8358
807.33	8381
807.472	8320
807.614	8210
807.756	8176
807.898	8008
808.04	7906
808.182	7925
808.324	7970
808.465	7902
808.607	8077
808.749	8111
808.891	8233
809.033	8290
809.174	8237
809.316	8077
809.458	8062
809.6	8050
809.741	8062
809.883	8081
810.025	8111
810.166	8088
810.308	8012
810.45	7963
810.591	7925
810.733	7769
810.875	7742
811.016	7567
811.158	7445
811.299	7563
811.441	7689
811.582	7677
811.724	7563
811.865	7518
812.007	7616
812.148	7670
812.29	7632
812.431	7723
812.573	7925
812.714	7955
812.855	8111
812.997	8214
813.138	8324
813.279	8161
813.421	8062
813.562	7963
813.703	7849
813.845	7738
813.986	7460
814.127	7274
814.268	7232
814.41	7236
814.551	7194
814.692	7247
814.833	7088
814.974	7149
815.115	7152
815.256	6993
815.397	6958
815.539	6947
815.68	6772
815.821	6806
815.962	6840
816.103	6749
816.244	6696
816.385	6616
816.526	6635
816.666	6502
816.807	6315
816.948	6448
817.089	6517
817.23	6464
817.371	6407
817.512	6376
817.653	6418
817.793	6350
817.934	6467
818.075	6448
818.216	6448
818.356	6407
818.497	6213
818.638	6114
818.778	6201
818.919	6182
819.06	6155
819.2	6292
819.341	6315
819.481	6357
819.622	6578
819.762	6764
819.903	6726
820.043	6612
820.184	6642
820.324	6604
820.465	6741
820.605	6707
820.746	6669
820.886	6506
821.026	6650
821.167	6703
821.307	6840
821.447	6738
821.588	6753
821.728	6601
821.868	6490
822.008	6372
822.149	6395
822.289	6327
822.429	6186
822.569	6125
822.709	6136
822.849	5950
822.99	5916
823.13	5916
823.27	5931
823.41	5821
823.55	5752
823.69	5748
823.83	5779
823.97	5741
824.11	5562
824.25	5501
824.389	5596
824.529	5627
824.669	5543
824.809	5623
824.949	5680
825.089	5676
825.228	5528
825.368	5395
825.508	5364
825.648	5330
825.787	5448
825.927	5345
826.067	5337
826.206	5334
826.346	5463
826.485	5410
826.625	5387
826.765	5551
826.904	5486
827.044	5265
827.183	5181
827.323	5109
827.462	5227
827.601	5193
827.741	5231
827.88	5181
828.02	5185
828.159	5322
828.298	5349
828.437	5391
828.577	5318
828.716	5463
828.855	5337
828.994	5189
829.134	5201
829.273	5185
829.412	5159
829.551	5143
829.69	5212
829.829	5269
829.968	5414
830.107	5261
830.246	5307
830.385	5155
830.524	5136
830.663	5124
830.802	5029
830.941	4904
831.08	4915
831.219	4984
831.357	4961
831.496	5166
831.635	4961
831.774	4866
831.913	4896
832.051	4702
832.19	4767
832.329	4824
832.467	4714
832.606	4649
832.744	4752
832.883	4733
833.022	4790
833.16	4858
833.299	4892
833.437	4866
833.576	4873
833.714	4862
833.852	4946
833.991	4908
834.129	4923
834.267	4908
834.406	4938
834.544	4976
834.682	4976
834.821	4987
834.959	5147
835.097	5025
835.235	5075
835.373	5090
835.511	5117
835.65	5060
835.788	5014
835.926	4915
836.064	4881
836.202	4908
836.34	5155
836.478	5239
836.615	5102
836.753	5204
836.891	5288
837.029	5284
837.167	5220
837.305	5197
837.443	5147
837.58	5094
837.718	5269
837.856	5185
837.993	5083
838.131	5250
838.269	5204
838.406	5185
838.544	5201
838.681	5064
838.819	5029
838.956	4915
839.094	4915
839.231	4976
839.369	5041
839.506	5433
839.643	5239
839.781	5056
839.918	4984
840.055	5083
840.193	5143
840.33	5132
840.467	5140
840.604	5208
840.742	5474
840.879	5121
841.016	5109
841.153	5159
841.29	5372
841.427	5357
841.564	5337
841.701	5334
841.838	5315
841.975	5284
842.112	5288
842.249	5178
842.385	5064
842.522	5379
842.659	5132
842.796	5181
842.933	5239
843.069	5174
843.206	5109
843.343	5307
843.479	5273
843.616	5258
843.752	5048
843.889	5014
844.025	5204
844.162	4984
844.298	5197
844.435	5045
844.571	5117
844.708	5197
844.844	5273
844.98	5341
845.117	5296
845.253	5170
845.389	5086
845.525	5174
845.661	5128
845.798	5037
845.934	5109
846.07	5037
846.206	5185
846.342	5239
846.478	5166
846.614	5033
846.75	5003
846.886	4942
847.022	5109
847.158	5041
847.294	5113
847.429	5109
847.565	5056
847.701	5303
847.837	4835
847.972	4801
848.108	4957
848.244	4908
848.379	4771
848.515	4744
848.65	4698
848.786	4740
848.921	4782
849.057	4866
849.192	4900
849.328	4824
849.463	4889
849.598	4828
849.734	4786
849.869	4683
850.004	4592
850.14	4691
850.275	4672
850.41	4561
850.545	4573
850.68	4599
850.815	4637
850.95	4630
851.085	4854
851.22	4729
851.355	4698
851.49	4630
851.625	4675
851.76	4694
851.895	4618
852.03	4580
852.165	4687
852.299	4698
852.434	4778
852.569	4801
852.703	4839
852.838	4866
852.973	5014
853.107	4972
853.242	4752
853.376	4748
853.511	4630
853.645	4721
853.78	4843
853.914	4782
854.048	4714
854.183	4668
854.317	4710
854.451	4873
854.585	4752
854.72	4679
854.854	4805
854.988	4679
855.122	4710
855.256	4538
855.39	4714
855.524	4809
855.658	4774
855.792	4755
855.926	4793
856.06	4797
856.194	4790
856.327	4759
856.461	4634
856.595	4668
856.729	4668
856.862	4805
856.996	4725
857.13	4812
857.263	4786
857.397	4881
857.53	4687
857.664	4774
857.797	4812
857.931	4854
858.064	4736
858.197	4816
858.331	4679
858.464	4664
858.597	4565
858.731	4683
858.864	4725
858.997	4607
859.13	4729
859.263	4725
859.396	4752
859.529	4630
859.662	4592
859.795	4580
859.928	4691
860.061	4797
860.194	4778
860.327	4664
860.46	4565
860.592	4744
860.725	4736
860.858	4771
860.99	4577
861.123	4558
861.256	4565
861.388	4645
861.521	5296
861.653	4550
861.786	4474
861.918	4447
862.05	4577
862.183	4554
862.315	4596
862.447	4637
862.58	4558
862.712	4443
862.844	4371
862.976	4508
863.108	4485
863.24	4816
863.372	4390
863.504	4470
863.636	4421
863.768	4531
863.9	4470
864.032	4363
864.164	4466
864.296	4504
864.428	4584
864.559	4596
864.691	4561
864.823	4550
864.954	4516
865.086	4538
865.217	4497
865.349	4459
865.48	4481
865.612	4512
865.743	4679
865.875	4485
866.006	4455
866.137	4485
866.269	4462
866.4	4455
866.531	4478
866.662	4413
866.793	4394
866.924	4489
867.055	4542
867.186	4500
867.317	4478
867.448	4451
867.579	4421
867.71	4462
867.841	4421
867.972	4508
868.103	4535
868.233	4451
868.364	4516
868.495	4516
868.625	4710
868.756	4733
868.886	4573
869.017	4664
869.147	4843
869.278	4809
869.408	4687
869.539	4626
869.669	4771
869.799	4687
869.929	4793
870.06	4774
870.19	5010
870.32	4949
870.45	4892
870.58	5067
870.71	5159
870.84	5166
870.97	5022
871.1	4976
871.23	5136
871.36	5151
871.489	4999
871.619	5113
871.749	5136
871.879	5204
872.008	5193
872.138	5098
872.267	5003
872.397	4938
872.526	4820
872.656	4767
872.785	4809
872.915	5003
873.044	5048
873.173	4987
873.303	4987
873.432	5010
873.561	4949
873.69	4885
873.819	4908
873.948	4908
874.077	4858
874.206	4809
874.335	4774
874.464	4972
874.593	5079
874.722	4953
874.851	5151
874.979	5105
875.108	5052
875.237	4904
875.365	4953
875.494	4957
875.623	4972
875.751	4858
875.88	4965
876.008	4972
876.136	5064
876.265	5216
876.393	5318
876.521	5284
876.65	5246
876.778	5204
876.906	5128
877.034	5105
877.162	5113
877.29	5033
877.418	5094
877.546	5048
877.674	5117
877.802	5048
877.93	5045
878.058	4984
878.185	4911
878.313	5033
878.441	4999
878.568	4828
878.696	4900
878.824	4976
878.951	5029
879.079	5155
879.206	5326
879.333	5151
879.461	5010
879.588	5010
879.715	5178
879.842	5212
879.97	5064
880.097	4850
880.224	4763
880.351	4812
880.478	4858
880.605	4843
880.732	4847
880.859	5109
880.986	4999
881.112	4949
881.239	4767
881.366	4717
881.493	4660
881.619	4607
881.746	4649
881.872	4679
881.999	4714
882.125	4744
882.252	4839
882.378	4892
882.505	4980
882.631	4892
882.757	4672
882.883	4755
883.01	4759
883.136	4714
883.262	4641
883.388	4618
883.514	4858
883.64	4896
883.766	4816
883.892	4694
884.018	4774
884.143	4908
884.269	5071
884.395	4664
884.52	4691
884.646	4672
884.772	4588
884.897	4599
885.023	4694
885.148	4812
885.274	4957
885.399	4847
885.524	4759
885.65	4744
885.775	4740
885.9	4710
886.025	4835
886.15	4809
886.275	4790
886.4	4653
886.525	4774
886.65	4752
886.775	4702
886.9	4927
887.025	5029
887.149	4885
887.274	4660
887.399	4607
887.523	4615
887.648	4630
887.773	4599
887.897	4778
888.021	4812
888.146	4698
888.27	4835
888.395	4904
888.519	4828
888.643	4862
888.767	4839
888.891	4710
889.015	4634
889.139	4687
889.263	4668
889.387	4782
889.511	4904
889.635	4824
889.759	4645
889.883	4675
890.006	4748
890.13	4850
890.254	4645
890.377	4740
890.501	4584
890.624	4542
890.748	4656
890.871	4546
890.995	4527
891.118	4383
891.241	4558
891.364	4573
891.488	4664
891.611	4558
891.734	4535
891.857	4596
891.98	4565
892.103	4641
892.226	4653
892.349	4584
892.471	4443
892.594	4580
892.717	4637
892.839	4607
892.962	4592
893.085	4660
893.207	4611
893.33	4481
893.452	4565
893.575	4721
893.697	4592
893.819	4793
893.941	4858
894.064	4801
894.186	4622
894.308	4592
894.43	4706
894.552	4866
894.674	4740
894.796	4607
894.918	4599
895.04	4565
895.161	4710
895.283	4710
895.405	4630
895.526	4656
895.648	4702
895.769	4714
895.891	4729
896.012	4729
896.134	4740
896.255	4675
896.376	4607
896.498	4611
896.619	4706
896.74	4626
896.861	4687
896.982	4927
897.103	5060
897.224	4854
897.345	4767
897.466	4702
897.587	4736
897.708	4870
897.828	4767
897.949	4702
898.07	4607
898.19	4683
898.311	4858
898.431	4649
898.552	4771
898.672	4801
898.792	4828
898.913	4816
899.033	4656
899.153	4504
899.273	4432
899.393	4504
899.513	4554
899.633	4558
899.753	4542
899.873	4558
899.993	4573
900.113	4538
900.232	4573
900.352	4584
900.472	4531
900.591	4447
900.711	4535
900.83	4478
900.95	4649
901.069	4698
901.189	4565
901.308	4367
901.427	4318
901.546	4383
901.665	4447
901.784	4485
901.904	4386
902.023	4341
902.141	4234
902.26	4219
902.379	4360
902.498	4268
902.617	4242
902.735	4341
902.854	4447
902.973	4379
903.091	4219
903.21	4230
903.328	4341
903.446	4280
903.565	4299
903.683	4375
903.801	4333
903.919	4417
904.038	4447
904.156	4322
904.274	4428
904.392	4421
904.51	4451
904.627	4500
904.745	4584
904.863	4691
904.981	4440
905.098	4303
905.216	4337
905.334	4417
905.451	4489
905.569	4497
905.686	4538
905.803	4615
905.921	4455
906.038	4592
906.155	4500
906.272	4413
906.389	4481
906.506	4390
906.623	4379
906.74	4436
906.857	4295
906.974	4409
907.091	4542
907.208	4660
907.324	4618
907.441	4565
907.557	4398
907.674	4402
907.79	4341
907.907	4455
908.023	4500
908.139	4455
908.256	4402
908.372	4485
908.488	4489
908.604	4367
908.72	4325
908.836	4363
908.952	4363
909.068	4405
909.184	4580
909.3	4508
909.415	4615
909.531	4607
909.647	4352
909.762	4398
909.878	4379
909.993	4443
910.108	4443
910.224	4383
910.339	4443
910.454	4447
910.57	4352
910.685	4352
910.8	4637
910.915	4615
911.03	4481
911.145	4375
911.259	4341
911.374	4344
911.489	4322
911.604	4337
911.718	4215
911.833	4242
911.947	4101
912.062	4040
912.176	4253
912.291	4227
912.405	4303
912.519	4489
912.633	4489
912.748	4375
912.862	4306
912.976	4261
913.09	4131
913.204	4223
913.318	4265
913.431	4398
913.545	4356
913.659	4421
913.772	4379
913.886	4284
914	4207
914.113	4363
914.226	4455
914.34	4348
914.453	4219
914.566	4421
914.68	4325
914.793	4375
914.906	4090
915.019	4131
915.132	4116
915.245	4181
915.358	4219
915.47	4234
915.583	4306
915.696	4337
915.809	4386
915.921	4440
916.034	4276
916.146	4227
916.259	4219
916.371	4371
916.483	4413
916.595	4310
916.708	4318
916.82	4363
916.932	4318
917.044	4352
917.156	4398
917.268	4242
917.38	4276
917.491	4242
917.603	4344
917.715	4436
917.826	4436
917.938	4348
918.049	4227
918.161	4383
918.272	4500
918.384	4546
918.495	4466
918.606	4291
918.717	4284
918.828	4341
918.939	4386
919.05	4227
919.161	4337
919.272	4131
919.383	4253
919.494	4500
919.604	4630
919.715	4405
919.826	4352
919.936	4375
920.047	4519
920.157	4519
920.267	4675
920.378	4550
920.488	4519
920.598	4694
920.708	4866
920.818	4729
920.928	4759
921.038	4980
921.148	4930
921.258	4691
921.368	4569
921.477	4519
921.587	4459
921.697	4428
921.806	4592
921.916	4421
922.025	4291
922.134	4276
922.244	4284
922.353	4329
922.462	4204
922.571	4150
922.68	3998
922.789	3987
922.898	4071
923.007	4010
923.116	4124
923.224	4082
923.333	4078
923.442	4025
923.55	3953
923.659	4055
923.767	4082
923.876	4017
923.984	4082
924.092	3960
924.201	4048
924.309	4116
924.417	4143
924.525	4109
924.633	4124
924.741	5045
924.849	3896
924.956	4147
925.064	4017
925.172	3892
925.279	3945
925.387	4055
925.494	4059
925.602	4280
925.709	4181
925.816	4074
925.924	4173
926.031	4242
926.138	4181
926.245	4211
926.352	4101
926.459	4246
926.566	4310
926.673	4143
926.779	4032
926.886	4097
926.993	3975
927.099	3972
927.206	3945
927.312	3964
927.419	4051
927.525	3991
927.631	4105
927.737	4002
927.843	3979
927.95	3854
928.056	3941
928.162	4017
928.267	4078
928.373	4580
928.479	4112
928.585	3896
928.69	3979
928.796	4067
928.901	3975
929.007	3838
929.112	4044
929.218	3994
929.323	3983
929.428	3922
929.533	4071
929.638	3884
929.743	3918
929.848	4071
929.953	4010
930.058	3915
930.163	3774
930.267	3857
930.372	3975
930.477	3797
930.581	4109
930.685	3956
930.79	3838
930.894	3884
930.998	3880
931.103	4036
931.207	3679
931.311	3682
931.415	3717
931.519	3519
931.623	3515
