Data from test_V78500241_310.txt Node
Date: Fri Mar 25 16:51:09 CST 2022
User: usil
Spectrometer: V785-0024
Trigger mode: 0
Integration Time (sec): 4.000000E-1
Scans to average: 1
Nonlinearity correction enabled: false
Boxcar width: 0
Storing dark spectrum: false
XAxis mode: Wavelengths
Number of Pixels in Spectrum: 1024
>>>>>Begin Spectral Data<<<<<
801.071	8081
801.214	8005
801.356	7849
801.499	7917
801.641	7845
801.783	7849
801.926	8012
802.068	7974
802.211	8039
802.353	8005
802.496	7871
802.638	7986
802.78	7967
802.923	7978
803.065	7894
803.208	7871
803.35	7951
803.492	8130
803.635	8088
803.777	8024
803.919	8206
804.061	8423
804.204	8195
804.346	8020
804.488	7967
804.63	8073
804.773	7997
804.915	8107
805.057	8252
805.199	8214
805.341	8233
805.483	8244
805.626	8221
805.768	8096
805.91	8233
806.052	8244
806.194	8138
806.336	8347
806.478	8130
806.62	8149
806.762	8164
806.904	8267
807.046	8575
807.188	8396
807.33	8309
807.472	8305
807.614	8115
807.756	8100
807.898	8012
808.04	7856
808.182	7967
808.324	7944
808.465	7978
808.607	8084
808.749	8123
808.891	8183
809.033	8336
809.174	8142
809.316	8027
809.458	8062
809.6	7986
809.741	8043
809.883	8039
810.025	8084
810.166	8065
810.308	8062
810.45	8012
810.591	7909
810.733	7731
810.875	7689
811.016	7464
811.158	7514
811.299	7567
811.441	7757
811.582	7655
811.724	7552
811.865	7556
812.007	7578
812.148	7571
812.29	7647
812.431	7750
812.573	7879
812.714	7936
812.855	8126
812.997	8180
813.138	8298
813.279	8176
813.421	8111
813.562	8035
813.703	7833
813.845	7746
813.986	7453
814.127	7320
814.268	7274
814.41	7168
814.551	7179
814.692	7198
814.833	7061
814.974	7114
815.115	7103
815.256	6939
815.397	6939
815.539	6894
815.68	6852
815.821	6753
815.962	6844
816.103	6802
816.244	6696
816.385	6692
816.526	6662
816.666	6528
816.807	6304
816.948	6426
817.089	6456
817.23	6357
817.371	6399
817.512	6357
817.653	6418
817.793	6361
817.934	6494
818.075	6490
818.216	6460
818.356	6437
818.497	6216
818.638	6155
818.778	6121
818.919	6091
819.06	6091
819.2	6311
819.341	6308
819.481	6376
819.622	6525
819.762	6730
819.903	6692
820.043	6582
820.184	6574
820.324	6585
820.465	6688
820.605	6627
820.746	6570
820.886	6448
821.026	6604
821.167	6696
821.307	6760
821.447	6840
821.588	6700
821.728	6536
821.868	6448
822.008	6262
822.149	6399
822.289	6361
822.429	6281
822.569	6110
822.709	6083
822.849	5942
822.99	5916
823.13	5893
823.27	5923
823.41	5821
823.55	5817
823.69	5821
823.83	5764
823.97	5634
824.11	5554
824.25	5520
824.389	5566
824.529	5562
824.669	5524
824.809	5592
824.949	5676
825.089	5558
825.228	5535
825.368	5429
825.508	5353
825.648	5341
825.787	5349
825.927	5360
826.067	5334
826.206	5318
826.346	5398
826.485	5391
826.625	5436
826.765	5573
826.904	5493
827.044	5280
827.183	5155
827.323	5155
827.462	5246
827.601	5166
827.741	5185
827.88	5227
828.02	5086
828.159	5223
828.298	5311
828.437	5379
828.577	5261
828.716	5516
828.855	5353
828.994	5128
829.134	5140
829.273	5193
829.412	5178
829.551	5143
829.69	5128
829.829	5239
829.968	5395
830.107	5242
830.246	5273
830.385	5208
830.524	5162
830.663	5124
830.802	4965
830.941	4930
831.08	4858
831.219	4949
831.357	4946
831.496	5136
831.635	4919
831.774	4870
831.913	4835
832.051	4755
832.19	4767
832.329	4885
832.467	4706
832.606	4656
832.744	4771
832.883	4763
833.022	4729
833.16	4767
833.299	4820
833.437	4816
833.576	4820
833.714	4824
833.852	4885
833.991	4908
834.129	5006
834.267	4976
834.406	4904
834.544	4980
834.682	4984
834.821	4995
834.959	5178
835.097	5041
835.235	5166
835.373	5071
835.511	5094
835.65	5060
835.788	5033
835.926	4900
836.064	4908
836.202	4908
836.34	5208
836.478	5185
836.615	5117
836.753	5239
836.891	5303
837.029	5254
837.167	5178
837.305	5181
837.443	5166
837.58	5083
837.718	5254
837.856	5162
837.993	5254
838.131	5227
838.269	5273
838.406	5258
838.544	5223
838.681	5071
838.819	5048
838.956	4892
839.094	4923
839.231	4938
839.369	5090
839.506	5376
839.643	5280
839.781	5071
839.918	5056
840.055	5109
840.193	5090
840.33	5094
840.467	5121
840.604	5212
840.742	5452
840.879	5079
841.016	5090
841.153	5102
841.29	5376
841.427	5349
841.564	5315
841.701	5337
841.838	5254
841.975	5246
842.112	5296
842.249	5128
842.385	5083
842.522	5345
842.659	5170
842.796	5212
842.933	5269
843.069	5155
843.206	5201
843.343	5360
843.479	5254
843.616	5296
843.752	5029
843.889	5037
844.025	5235
844.162	5033
844.298	5166
844.435	5033
844.571	5083
844.708	5239
844.844	5318
844.98	5364
845.117	5318
845.253	5128
845.389	5102
845.525	5140
845.661	5140
845.798	5048
845.934	5178
846.07	5048
846.206	5220
846.342	5280
846.478	5208
846.614	5003
846.75	4942
846.886	4904
847.022	5140
847.158	4999
847.294	5067
847.429	5025
847.565	5079
847.701	5288
847.837	4824
847.972	4782
848.108	4968
848.244	4980
848.379	4786
848.515	4748
848.65	4710
848.786	4778
848.921	4790
849.057	4862
849.192	4938
849.328	4809
849.463	4839
849.598	4816
849.734	4778
849.869	4679
850.004	4679
850.14	4698
850.275	4626
850.41	4550
850.545	4512
850.68	4580
850.815	4645
850.95	4615
851.085	4828
851.22	4717
851.355	4702
851.49	4596
851.625	4664
851.76	4656
851.895	4565
852.03	4542
852.165	4634
852.299	4706
852.434	4793
852.569	4736
852.703	4778
852.838	4843
852.973	4949
853.107	4908
853.242	4805
853.376	4694
853.511	4565
853.645	4618
853.78	4793
853.914	4672
854.048	4668
854.183	4634
854.317	4679
854.451	4816
854.585	4687
854.72	4607
854.854	4729
854.988	4630
855.122	4626
855.256	4584
855.39	4645
855.524	4793
855.658	4740
855.792	4710
855.926	4710
856.06	4744
856.194	4812
856.327	4683
856.461	4603
856.595	4641
856.729	4618
856.862	4740
856.996	4714
857.13	4744
857.263	4759
857.397	4816
857.53	4679
857.664	4710
857.797	4733
857.931	4786
858.064	4759
858.197	4691
858.331	4649
858.464	4584
858.597	4523
858.731	4592
858.864	4637
858.997	4626
859.13	4675
859.263	4668
859.396	4698
859.529	4561
859.662	4527
859.795	4546
859.928	4615
860.061	4782
860.194	4801
860.327	4573
860.46	4565
860.592	4683
860.725	4706
860.858	4782
860.99	4622
861.123	4542
861.256	4531
861.388	4649
861.521	5303
861.653	4470
861.786	4443
861.918	4436
862.05	4542
862.183	4550
862.315	4630
862.447	4634
862.58	4558
862.712	4379
862.844	4352
862.976	4451
863.108	4436
863.24	4850
863.372	4333
863.504	4451
863.636	4443
863.768	4516
863.9	4413
864.032	4344
864.164	4390
864.296	4542
864.428	4542
864.559	4550
864.691	4508
864.823	4550
864.954	4504
865.086	4478
865.217	4462
865.349	4447
865.48	4466
865.612	4527
865.743	4641
865.875	4470
866.006	4428
866.137	4481
866.269	4470
866.4	4417
866.531	4455
866.662	4417
866.793	4375
866.924	4447
867.055	4508
867.186	4504
867.317	4402
867.448	4413
867.579	4394
867.71	4413
867.841	4356
867.972	4485
868.103	4455
868.233	4451
868.364	4413
868.495	4428
868.625	4645
868.756	4752
868.886	4535
869.017	4641
869.147	4816
869.278	4816
869.408	4656
869.539	4653
869.669	4782
869.799	4660
869.929	4755
870.06	4752
870.19	4934
870.32	4911
870.45	4911
870.58	5014
870.71	5117
870.84	5147
870.97	4915
871.1	4881
871.23	5132
871.36	5102
871.489	5041
871.619	5083
871.749	5117
871.879	5143
872.008	5143
872.138	5083
872.267	4999
872.397	4843
872.526	4839
872.656	4691
872.785	4774
872.915	4987
873.044	5006
873.173	4953
873.303	4938
873.432	4934
873.561	4965
873.69	4866
873.819	4866
873.948	4930
874.077	4862
874.206	4733
874.335	4831
874.464	4915
874.593	5060
874.722	4965
874.851	5052
874.979	5098
875.108	5045
875.237	4896
875.365	4889
875.494	4942
875.623	4961
875.751	4812
875.88	4904
876.008	5014
876.136	5079
876.265	5181
876.393	5391
876.521	5242
876.65	5162
876.778	5166
876.906	5041
877.034	4991
877.162	5045
877.29	5022
877.418	5056
877.546	5025
877.674	5045
877.802	5025
877.93	5060
878.058	4904
878.185	4881
878.313	4957
878.441	4972
878.568	4790
878.696	4862
878.824	4946
878.951	4995
879.079	5079
879.206	5292
879.333	5143
879.461	4984
879.588	5003
879.715	5178
879.842	5189
879.97	4968
880.097	4831
880.224	4774
880.351	4843
880.478	4843
880.605	4850
880.732	4805
880.859	5075
880.986	4877
881.112	4900
881.239	4812
881.366	4706
881.493	4611
881.619	4592
881.746	4668
881.872	4656
881.999	4694
882.125	4672
882.252	4793
882.378	4801
882.505	4976
882.631	4793
882.757	4763
882.883	4771
883.01	4755
883.136	4645
883.262	4615
883.388	4607
883.514	4805
883.64	4820
883.766	4805
883.892	4710
884.018	4710
884.143	4877
884.269	5022
884.395	4717
884.52	4637
884.646	4645
884.772	4588
884.897	4569
885.023	4702
885.148	4774
885.274	4843
885.399	4835
885.524	4698
885.65	4706
885.775	4729
885.9	4698
886.025	4854
886.15	4771
886.275	4706
886.4	4630
886.525	4778
886.65	4691
886.775	4649
886.9	4892
887.025	5006
887.149	4801
887.274	4683
887.399	4584
887.523	4569
887.648	4573
887.773	4565
887.897	4774
888.021	4771
888.146	4694
888.27	4858
888.395	4923
888.519	4736
888.643	4809
888.767	4831
888.891	4630
889.015	4599
889.139	4622
889.263	4603
889.387	4809
889.511	4873
889.635	4824
889.759	4645
889.883	4664
890.006	4721
890.13	4831
890.254	4561
890.377	4736
890.501	4599
890.624	4519
890.748	4641
890.871	4478
890.995	4485
891.118	4375
891.241	4519
891.364	4538
891.488	4637
891.611	4497
891.734	4523
891.857	4599
891.98	4565
892.103	4721
892.226	4588
892.349	4500
892.471	4421
892.594	4554
892.717	4584
892.839	4599
892.962	4542
893.085	4660
893.207	4588
893.33	4508
893.452	4561
893.575	4641
893.697	4615
893.819	4850
893.941	4843
894.064	4744
894.186	4622
894.308	4584
894.43	4755
894.552	4805
894.674	4771
894.796	4558
894.918	4569
895.04	4607
895.161	4702
895.283	4702
895.405	4573
895.526	4649
895.648	4694
895.769	4721
895.891	4691
896.012	4763
896.134	4687
896.255	4641
896.376	4630
896.498	4645
896.619	4672
896.74	4618
896.861	4653
896.982	4965
897.103	5143
897.224	4835
897.345	4748
897.466	4691
897.587	4725
897.708	4862
897.828	4774
897.949	4687
898.07	4584
898.19	4675
898.311	4858
898.431	4687
898.552	4755
898.672	4797
898.792	4866
898.913	4755
899.033	4607
899.153	4561
899.273	4451
899.393	4500
899.513	4554
899.633	4500
899.753	4516
899.873	4546
899.993	4618
900.113	4546
900.232	4607
900.352	4508
900.472	4478
900.591	4417
900.711	4478
900.83	4466
900.95	4577
901.069	4660
901.189	4527
901.308	4405
901.427	4322
901.546	4341
901.665	4436
901.784	4493
901.904	4363
902.023	4352
902.141	4188
902.26	4204
902.379	4306
902.498	4284
902.617	4207
902.735	4436
902.854	4481
902.973	4383
903.091	4196
903.21	4238
903.328	4295
903.446	4287
903.565	4246
903.683	4348
903.801	4344
903.919	4409
904.038	4451
904.156	4314
904.274	4440
904.392	4398
904.51	4424
904.627	4478
904.745	4561
904.863	4656
904.981	4413
905.098	4329
905.216	4322
905.334	4421
905.451	4500
905.569	4417
905.686	4569
905.803	4577
905.921	4447
906.038	4569
906.155	4459
906.272	4386
906.389	4428
906.506	4352
906.623	4348
906.74	4405
906.857	4276
906.974	4348
907.091	4554
907.208	4656
907.324	4580
907.441	4478
907.557	4360
907.674	4333
907.79	4375
907.907	4405
908.023	4485
908.139	4478
908.256	4466
908.372	4459
908.488	4474
908.604	4360
908.72	4337
908.836	4413
908.952	4375
909.068	4459
909.184	4565
909.3	4481
909.415	4577
909.531	4580
909.647	4371
909.762	4386
909.878	4352
909.993	4455
910.108	4424
910.224	4405
910.339	4451
910.454	4424
910.57	4402
910.685	4299
910.8	4637
910.915	4603
911.03	4519
911.145	4360
911.259	4303
911.374	4375
911.489	4341
911.604	4272
911.718	4162
911.833	4192
911.947	4090
912.062	4044
912.176	4188
912.291	4246
912.405	4284
912.519	4459
912.633	4550
912.748	4383
912.862	4371
912.976	4215
913.09	4124
913.204	4188
913.318	4242
913.431	4371
913.545	4348
913.659	4421
913.772	4405
913.886	4299
914	4223
914.113	4421
914.226	4478
914.34	4417
914.453	4265
914.566	4451
914.68	4318
914.793	4383
914.906	4139
915.019	4139
915.132	4131
915.245	4215
915.358	4204
915.47	4204
915.583	4219
915.696	4325
915.809	4424
915.921	4462
916.034	4348
916.146	4306
916.259	4249
916.371	4383
916.483	4333
916.595	4314
916.708	4363
916.82	4329
916.932	4337
917.044	4303
917.156	4337
917.268	4276
917.38	4299
917.491	4280
917.603	4318
917.715	4459
917.826	4443
917.938	4329
918.049	4234
918.161	4329
918.272	4512
918.384	4538
918.495	4459
918.606	4306
918.717	4272
918.828	4352
918.939	4341
919.05	4257
919.161	4379
919.272	4135
919.383	4249
919.494	4455
919.604	4588
919.715	4421
919.826	4344
919.936	4390
920.047	4546
920.157	4478
920.267	4672
920.378	4546
920.488	4535
920.598	4748
920.708	4850
920.818	4721
920.928	4694
921.038	5010
921.148	4946
921.258	4626
921.368	4580
921.477	4516
921.587	4459
921.697	4398
921.806	4504
921.916	4428
922.025	4287
922.134	4314
922.244	4261
922.353	4379
922.462	4177
922.571	4173
922.68	4017
922.789	3968
922.898	4017
923.007	3979
923.116	4128
923.224	4090
923.333	4093
923.442	4002
923.55	3979
923.659	4002
923.767	4109
923.876	3994
923.984	4067
924.092	3983
924.201	4082
924.309	4131
924.417	4112
924.525	4059
924.633	4082
924.741	4885
924.849	3915
924.956	4086
925.064	3991
925.172	3907
925.279	3960
925.387	4048
925.494	4017
925.602	4177
925.709	4185
925.816	4044
925.924	4162
926.031	4211
926.138	4200
926.245	4211
926.352	4093
926.459	4242
926.566	4295
926.673	4169
926.779	4067
926.886	4105
926.993	3998
927.099	3956
927.206	3926
927.312	3953
927.419	4040
927.525	4013
927.631	4097
927.737	3945
927.843	3964
927.95	3857
928.056	3945
928.162	3975
928.267	4051
928.373	4710
928.479	4128
928.585	3922
928.69	4006
928.796	4067
928.901	3987
929.007	3835
929.112	4021
929.218	4029
929.323	3918
929.428	3956
929.533	4131
929.638	3892
929.743	3918
929.848	4017
929.953	4002
930.058	3945
930.163	3766
930.267	3823
930.372	3998
930.477	3808
930.581	4128
930.685	3949
930.79	3804
930.894	3922
930.998	3857
931.103	4067
931.207	3728
931.311	3724
931.415	3663
931.519	3515
931.623	3568
