Data from test_V78500241_1495.txt Node
Date: Fri Mar 25 16:59:23 CST 2022
User: usil
Spectrometer: V785-0024
Trigger mode: 0
Integration Time (sec): 4.000000E-1
Scans to average: 1
Nonlinearity correction enabled: false
Boxcar width: 0
Storing dark spectrum: false
XAxis mode: Wavelengths
Number of Pixels in Spectrum: 1024
>>>>>Begin Spectral Data<<<<<
801.071	8050
801.214	8046
801.356	7906
801.499	7841
801.641	7769
801.783	7803
801.926	7951
802.068	7978
802.211	7917
802.353	7955
802.496	7814
802.638	7795
802.78	7894
802.923	7936
803.065	7833
803.208	7845
803.35	7959
803.492	8005
803.635	8161
803.777	8001
803.919	8161
804.061	8434
804.204	8130
804.346	8046
804.488	7970
804.63	8126
804.773	7940
804.915	8100
805.057	8301
805.199	8115
805.341	8164
805.483	8221
805.626	8202
805.768	8119
805.91	8138
806.052	8210
806.194	8084
806.336	8271
806.478	8126
806.62	8054
806.762	8153
806.904	8301
807.046	8427
807.188	8309
807.33	8229
807.472	8317
807.614	8202
807.756	8115
807.898	8020
808.04	7902
808.182	7932
808.324	7830
808.465	7879
808.607	8046
808.749	8077
808.891	8157
809.033	8305
809.174	8195
809.316	8092
809.458	8107
809.6	7951
809.741	8027
809.883	8054
810.025	8081
810.166	8012
810.308	8035
810.45	8054
810.591	7879
810.733	7792
810.875	7685
811.016	7514
811.158	7480
811.299	7636
811.441	7670
811.582	7727
811.724	7540
811.865	7480
812.007	7575
812.148	7639
812.29	7628
812.431	7757
812.573	7913
812.714	7947
812.855	8115
812.997	8206
813.138	8305
813.279	8248
813.421	8073
813.562	7974
813.703	7738
813.845	7723
813.986	7438
814.127	7251
814.268	7194
814.41	7198
814.551	7164
814.692	7198
814.833	7095
814.974	7107
815.115	7088
815.256	6970
815.397	6905
815.539	6962
815.68	6848
815.821	6772
815.962	6859
816.103	6783
816.244	6719
816.385	6597
816.526	6639
816.666	6441
816.807	6235
816.948	6407
817.089	6467
817.23	6460
817.371	6346
817.512	6380
817.653	6403
817.793	6342
817.934	6479
818.075	6467
818.216	6445
818.356	6441
818.497	6266
818.638	6148
818.778	6106
818.919	6159
819.06	6155
819.2	6304
819.341	6300
819.481	6342
819.622	6566
819.762	6703
819.903	6715
820.043	6566
820.184	6544
820.324	6593
820.465	6673
820.605	6681
820.746	6646
820.886	6494
821.026	6654
821.167	6700
821.307	6795
821.447	6673
821.588	6665
821.728	6601
821.868	6517
822.008	6323
822.149	6380
822.289	6372
822.429	6171
822.569	6053
822.709	6159
822.849	5863
822.99	5920
823.13	5901
823.27	5920
823.41	5737
823.55	5741
823.69	5745
823.83	5722
823.97	5688
824.11	5562
824.25	5543
824.389	5558
824.529	5619
824.669	5474
824.809	5611
824.949	5630
825.089	5627
825.228	5509
825.368	5383
825.508	5337
825.648	5303
825.787	5398
825.927	5318
826.067	5315
826.206	5277
826.346	5330
826.485	5353
826.625	5379
826.765	5482
826.904	5448
827.044	5242
827.183	5181
827.323	5113
827.462	5254
827.601	5170
827.741	5128
827.88	5189
828.02	5162
828.159	5231
828.298	5296
828.437	5372
828.577	5254
828.716	5471
828.855	5315
828.994	5147
829.134	5124
829.273	5162
829.412	5143
829.551	5113
829.69	5151
829.829	5231
829.968	5349
830.107	5185
830.246	5227
830.385	5216
830.524	5117
830.663	5086
830.802	4961
830.941	4850
831.08	4862
831.219	4995
831.357	4965
831.496	5166
831.635	4919
831.774	4835
831.913	4862
832.051	4702
832.19	4744
832.329	4858
832.467	4714
832.606	4641
832.744	4714
832.883	4706
833.022	4656
833.16	4767
833.299	4812
833.437	4820
833.576	4824
833.714	4809
833.852	4877
833.991	4896
834.129	4968
834.267	4908
834.406	4915
834.544	4957
834.682	4976
834.821	4972
834.959	5132
835.097	4987
835.235	5170
835.373	5079
835.511	5060
835.65	5029
835.788	5037
835.926	4881
836.064	4908
836.202	4900
836.34	5162
836.478	5208
836.615	5117
836.753	5151
836.891	5318
837.029	5246
837.167	5220
837.305	5178
837.443	5155
837.58	5124
837.718	5220
837.856	5181
837.993	5155
838.131	5242
838.269	5216
838.406	5174
838.544	5189
838.681	5018
838.819	5006
838.956	4889
839.094	4824
839.231	5006
839.369	5067
839.506	5345
839.643	5277
839.781	5064
839.918	4980
840.055	5083
840.193	5048
840.33	5102
840.467	5109
840.604	5174
840.742	5410
840.879	5109
841.016	5075
841.153	5117
841.29	5353
841.427	5341
841.564	5318
841.701	5372
841.838	5280
841.975	5189
842.112	5273
842.249	5117
842.385	5102
842.522	5341
842.659	5181
842.796	5159
842.933	5147
843.069	5105
843.206	5067
843.343	5265
843.479	5204
843.616	5277
843.752	5052
843.889	5014
844.025	5185
844.162	5018
844.298	5242
844.435	5086
844.571	5022
844.708	5178
844.844	5242
844.98	5330
845.117	5307
845.253	5136
845.389	5056
845.525	5136
845.661	5143
845.798	5094
845.934	5121
846.07	5041
846.206	5174
846.342	5269
846.478	5174
846.614	5045
846.75	4965
846.886	4877
847.022	5166
847.158	5003
847.294	5037
847.429	5155
847.565	5075
847.701	5337
847.837	4854
847.972	4793
848.108	4930
848.244	4892
848.379	4767
848.515	4744
848.65	4729
848.786	4752
848.921	4763
849.057	4847
849.192	4877
849.328	4797
849.463	4843
849.598	4752
849.734	4748
849.869	4672
850.004	4649
850.14	4641
850.275	4599
850.41	4516
850.545	4611
850.68	4607
850.815	4580
850.95	4622
851.085	4831
851.22	4717
851.355	4710
851.49	4649
851.625	4622
851.76	4618
851.895	4550
852.03	4538
852.165	4637
852.299	4698
852.434	4729
852.569	4752
852.703	4809
852.838	4767
852.973	4919
853.107	4892
853.242	4744
853.376	4664
853.511	4546
853.645	4554
853.78	4828
853.914	4679
854.048	4660
854.183	4649
854.317	4694
854.451	4816
854.585	4710
854.72	4675
854.854	4755
854.988	4592
855.122	4634
855.256	4542
855.39	4618
855.524	4797
855.658	4733
855.792	4668
855.926	4721
856.06	4752
856.194	4736
856.327	4637
856.461	4577
856.595	4603
856.729	4607
856.862	4759
856.996	4649
857.13	4717
857.263	4767
857.397	4809
857.53	4683
857.664	4740
857.797	4752
857.931	4763
858.064	4729
858.197	4790
858.331	4653
858.464	4603
858.597	4531
858.731	4622
858.864	4645
858.997	4588
859.13	4668
859.263	4653
859.396	4645
859.529	4573
859.662	4527
859.795	4535
859.928	4580
860.061	4748
860.194	4740
860.327	4584
860.46	4550
860.592	4717
860.725	4725
860.858	4649
860.99	4615
861.123	4493
861.256	4516
861.388	4615
861.521	5357
861.653	4489
861.786	4432
861.918	4466
862.05	4497
862.183	4558
862.315	4607
862.447	4634
862.58	4538
862.712	4413
862.844	4348
862.976	4436
863.108	4462
863.24	4767
863.372	4287
863.504	4443
863.636	4440
863.768	4474
863.9	4386
864.032	4394
864.164	4367
864.296	4462
864.428	4546
864.559	4561
864.691	4481
864.823	4500
864.954	4531
865.086	4554
865.217	4390
865.349	4417
865.48	4451
865.612	4466
865.743	4645
865.875	4466
866.006	4402
866.137	4470
866.269	4459
866.4	4485
866.531	4383
866.662	4394
866.793	4383
866.924	4413
867.055	4474
867.186	4447
867.317	4375
867.448	4436
867.579	4405
867.71	4363
867.841	4390
867.972	4462
868.103	4443
868.233	4481
868.364	4443
868.495	4470
868.625	4641
868.756	4767
868.886	4554
869.017	4637
869.147	4763
869.278	4740
869.408	4679
869.539	4691
869.669	4694
869.799	4702
869.929	4782
870.06	4691
870.19	4961
870.32	4904
870.45	4949
870.58	4999
870.71	5075
870.84	5079
870.97	4927
871.1	4873
871.23	5098
871.36	5098
871.489	4995
871.619	5075
871.749	5102
871.879	5162
872.008	5174
872.138	5056
872.267	4923
872.397	4877
872.526	4782
872.656	4733
872.785	4831
872.915	4949
873.044	4972
873.173	4976
873.303	4976
873.432	4953
873.561	4946
873.69	4850
873.819	4858
873.948	4873
874.077	4755
874.206	4782
874.335	4812
874.464	4900
874.593	5075
874.722	4965
874.851	5075
874.979	5098
875.108	5006
875.237	4923
875.365	4854
875.494	4908
875.623	5025
875.751	4816
875.88	4889
876.008	4965
876.136	5033
876.265	5246
876.393	5364
876.521	5170
876.65	5246
876.778	5178
876.906	5067
877.034	5041
877.162	5025
877.29	5003
877.418	5045
877.546	5029
877.674	5052
877.802	5010
877.93	4984
878.058	4934
878.185	4839
878.313	4923
878.441	4938
878.568	4828
878.696	4873
878.824	4934
878.951	4976
879.079	5117
879.206	5296
879.333	5075
879.461	4927
879.588	4953
879.715	5098
879.842	5212
879.97	4980
880.097	4755
880.224	4729
880.351	4790
880.478	4771
880.605	4843
880.732	4755
880.859	5052
880.986	4915
881.112	4904
881.239	4748
881.366	4641
881.493	4603
881.619	4603
881.746	4584
881.872	4710
881.999	4683
882.125	4656
882.252	4809
882.378	4786
882.505	4976
882.631	4831
882.757	4710
882.883	4694
883.01	4653
883.136	4649
883.262	4645
883.388	4634
883.514	4759
883.64	4873
883.766	4729
883.892	4698
884.018	4721
884.143	4870
884.269	5025
884.395	4683
884.52	4611
884.646	4618
884.772	4569
884.897	4607
885.023	4664
885.148	4786
885.274	4866
885.399	4771
885.524	4691
885.65	4668
885.775	4771
885.9	4679
886.025	4812
886.15	4797
886.275	4771
886.4	4607
886.525	4660
886.65	4698
886.775	4710
886.9	4904
887.025	5010
887.149	4824
887.274	4660
887.399	4554
887.523	4615
887.648	4569
887.773	4592
887.897	4710
888.021	4782
888.146	4679
888.27	4801
888.395	4843
888.519	4786
888.643	4812
888.767	4812
888.891	4672
889.015	4546
889.139	4645
889.263	4584
889.387	4752
889.511	4862
889.635	4763
889.759	4664
889.883	4672
890.006	4702
890.13	4801
890.254	4653
890.377	4710
890.501	4516
890.624	4538
890.748	4615
890.871	4497
890.995	4409
891.118	4394
891.241	4527
891.364	4531
891.488	4622
891.611	4508
891.734	4561
891.857	4618
891.98	4519
892.103	4668
892.226	4558
892.349	4519
892.471	4421
892.594	4504
892.717	4630
892.839	4558
892.962	4565
893.085	4645
893.207	4577
893.33	4462
893.452	4485
893.575	4687
893.697	4599
893.819	4793
893.941	4873
894.064	4755
894.186	4580
894.308	4535
894.43	4706
894.552	4831
894.674	4710
894.796	4554
894.918	4611
895.04	4626
895.161	4694
895.283	4664
895.405	4592
895.526	4584
895.648	4710
895.769	4653
895.891	4717
896.012	4717
896.134	4683
896.255	4649
896.376	4588
896.498	4573
896.619	4679
896.74	4615
896.861	4615
896.982	4889
897.103	5071
897.224	4847
897.345	4759
897.466	4694
897.587	4702
897.708	4850
897.828	4790
897.949	4664
898.07	4573
898.19	4630
898.311	4786
898.431	4668
898.552	4714
898.672	4858
898.792	4774
898.913	4694
899.033	4630
899.153	4497
899.273	4424
899.393	4516
899.513	4554
899.633	4577
899.753	4512
899.873	4478
899.993	4558
900.113	4538
900.232	4607
900.352	4565
900.472	4451
900.591	4398
900.711	4459
900.83	4417
900.95	4637
901.069	4714
901.189	4531
901.308	4402
901.427	4306
901.546	4367
901.665	4489
901.784	4535
901.904	4405
902.023	4337
902.141	4215
902.26	4139
902.379	4314
902.498	4215
902.617	4188
902.735	4367
902.854	4375
902.973	4386
903.091	4211
903.21	4181
903.328	4253
903.446	4284
903.565	4272
903.683	4344
903.801	4310
903.919	4398
904.038	4424
904.156	4333
904.274	4436
904.392	4360
904.51	4390
904.627	4428
904.745	4565
904.863	4622
904.981	4379
905.098	4287
905.216	4371
905.334	4424
905.451	4394
905.569	4462
905.686	4504
905.803	4580
905.921	4394
906.038	4546
906.155	4432
906.272	4409
906.389	4489
906.506	4329
906.623	4360
906.74	4398
906.857	4276
906.974	4394
907.091	4531
907.208	4691
907.324	4588
907.441	4500
907.557	4352
907.674	4325
907.79	4329
907.907	4367
908.023	4459
908.139	4466
908.256	4417
908.372	4440
908.488	4440
908.604	4318
908.72	4303
908.836	4409
908.952	4344
909.068	4451
909.184	4569
909.3	4478
909.415	4565
909.531	4596
909.647	4375
909.762	4325
909.878	4352
909.993	4428
910.108	4383
910.224	4409
910.339	4485
910.454	4409
910.57	4367
910.685	4337
910.8	4618
910.915	4596
911.03	4512
911.145	4337
911.259	4341
911.374	4360
911.489	4253
911.604	4276
911.718	4116
911.833	4192
911.947	4078
912.062	4036
912.176	4192
912.291	4234
912.405	4276
912.519	4451
912.633	4489
912.748	4367
912.862	4280
912.976	4223
913.09	4116
913.204	4162
913.318	4238
913.431	4352
913.545	4386
913.659	4428
913.772	4405
913.886	4257
914	4261
914.113	4409
914.226	4409
914.34	4363
914.453	4211
914.566	4421
914.68	4295
914.793	4344
914.906	4169
915.019	4124
915.132	4048
915.245	4166
915.358	4196
915.47	4230
915.583	4234
915.696	4268
915.809	4413
915.921	4459
916.034	4265
916.146	4287
916.259	4173
916.371	4386
916.483	4402
916.595	4242
916.708	4314
916.82	4314
916.932	4310
917.044	4344
917.156	4295
917.268	4219
917.38	4257
917.491	4227
917.603	4344
917.715	4424
917.826	4462
917.938	4363
918.049	4238
918.161	4447
918.272	4516
918.384	4580
918.495	4455
918.606	4295
918.717	4257
918.828	4333
918.939	4386
919.05	4253
919.161	4318
919.272	4109
919.383	4234
919.494	4436
919.604	4660
919.715	4428
919.826	4402
919.936	4383
920.047	4519
920.157	4493
920.267	4698
920.378	4519
920.488	4508
920.598	4729
920.708	4854
920.818	4710
920.928	4755
921.038	4968
921.148	4881
921.258	4622
921.368	4558
921.477	4485
921.587	4478
921.697	4371
921.806	4504
921.916	4421
922.025	4257
922.134	4268
922.244	4227
922.353	4325
922.462	4131
922.571	4124
922.68	3998
922.789	3934
922.898	4044
923.007	3994
923.116	4097
923.224	4036
923.333	4051
923.442	3994
923.55	4017
923.659	3987
923.767	4086
923.876	3972
923.984	4124
924.092	4006
924.201	4055
924.309	4071
924.417	4097
924.525	4090
924.633	4112
924.741	4881
924.849	3922
924.956	4147
925.064	3979
925.172	3937
925.279	3956
925.387	4025
925.494	4032
925.602	4166
925.709	4147
925.816	4086
925.924	4139
926.031	4227
926.138	4135
926.245	4242
926.352	4078
926.459	4234
926.566	4329
926.673	4154
926.779	4082
926.886	4055
926.993	3949
927.099	3960
927.206	3899
927.312	3941
927.419	4036
927.525	4048
927.631	4139
927.737	3941
927.843	3953
927.95	3884
928.056	3926
928.162	3968
928.267	4105
928.373	4577
928.479	4086
928.585	3835
928.69	3994
928.796	4082
928.901	3949
929.007	3865
929.112	3987
929.218	3941
929.323	3960
929.428	3994
929.533	4131
929.638	3915
929.743	3991
929.848	4013
929.953	3994
930.058	3934
930.163	3759
930.267	3800
930.372	3972
930.477	3816
930.581	4063
930.685	3975
930.79	3850
930.894	3888
930.998	3816
931.103	4006
931.207	3694
931.311	3724
931.415	3690
931.519	3500
931.623	3549
