Data from test_V78500241_2027.txt Node
Date: Fri Mar 25 17:03:05 CST 2022
User: usil
Spectrometer: V785-0024
Trigger mode: 0
Integration Time (sec): 4.000000E-1
Scans to average: 1
Nonlinearity correction enabled: false
Boxcar width: 0
Storing dark spectrum: false
XAxis mode: Wavelengths
Number of Pixels in Spectrum: 1024
>>>>>Begin Spectral Data<<<<<
801.071	8008
801.214	7978
801.356	7841
801.499	7841
801.641	7811
801.783	7811
801.926	7936
802.068	7917
802.211	7967
802.353	7955
802.496	7852
802.638	7902
802.78	7826
802.923	7818
803.065	7898
803.208	7818
803.35	7913
803.492	8016
803.635	8145
803.777	7986
803.919	8142
804.061	8457
804.204	8168
804.346	8046
804.488	8005
804.63	8111
804.773	8020
804.915	8046
805.057	8267
805.199	8126
805.341	8256
805.483	8244
805.626	8149
805.768	8126
805.91	8206
806.052	8256
806.194	8062
806.336	8252
806.478	8050
806.62	8134
806.762	8142
806.904	8240
807.046	8499
807.188	8358
807.33	8298
807.472	8332
807.614	8138
807.756	8088
807.898	7959
808.04	7879
808.182	7856
808.324	7864
808.465	7921
808.607	8081
808.749	8062
808.891	8202
809.033	8286
809.174	8183
809.316	8100
809.458	8043
809.6	7978
809.741	8001
809.883	8043
810.025	8046
810.166	8065
810.308	8031
810.45	7951
810.591	7879
810.733	7753
810.875	7594
811.016	7438
811.158	7460
811.299	7590
811.441	7628
811.582	7670
811.724	7559
811.865	7559
812.007	7548
812.148	7586
812.29	7590
812.431	7792
812.573	7860
812.714	8005
812.855	8115
812.997	8191
813.138	8279
813.279	8134
813.421	8058
813.562	7986
813.703	7712
813.845	7731
813.986	7415
814.127	7259
814.268	7168
814.41	7164
814.551	7137
814.692	7168
814.833	7072
814.974	7069
815.115	7076
815.256	6920
815.397	6932
815.539	6913
815.68	6779
815.821	6745
815.962	6859
816.103	6840
816.244	6650
816.385	6635
816.526	6612
816.666	6479
816.807	6300
816.948	6410
817.089	6445
817.23	6475
817.371	6418
817.512	6380
817.653	6414
817.793	6346
817.934	6410
818.075	6376
818.216	6426
818.356	6414
818.497	6281
818.638	6178
818.778	6117
818.919	6140
819.06	6087
819.2	6285
819.341	6285
819.481	6376
819.622	6528
819.762	6741
819.903	6700
820.043	6521
820.184	6574
820.324	6582
820.465	6684
820.605	6688
820.746	6688
820.886	6471
821.026	6669
821.167	6684
821.307	6776
821.447	6726
821.588	6608
821.728	6589
821.868	6490
822.008	6331
822.149	6380
822.289	6308
822.429	6159
822.569	6064
822.709	6114
822.849	5920
822.99	5863
823.13	5866
823.27	5904
823.41	5718
823.55	5794
823.69	5752
823.83	5710
823.97	5646
824.11	5474
824.25	5482
824.389	5471
824.529	5558
824.669	5528
824.809	5577
824.949	5596
825.089	5623
825.228	5562
825.368	5410
825.508	5341
825.648	5315
825.787	5402
825.927	5376
826.067	5326
826.206	5296
826.346	5330
826.485	5398
826.625	5410
826.765	5528
826.904	5463
827.044	5254
827.183	5170
827.323	5143
827.462	5242
827.601	5193
827.741	5204
827.88	5136
828.02	5060
828.159	5216
828.298	5326
828.437	5372
828.577	5288
828.716	5471
828.855	5311
828.994	5189
829.134	5136
829.273	5159
829.412	5109
829.551	5147
829.69	5220
829.829	5299
829.968	5379
830.107	5292
830.246	5269
830.385	5193
830.524	5124
830.663	5071
830.802	4987
830.941	4961
831.08	4892
831.219	4972
831.357	4949
831.496	5216
831.635	4919
831.774	4850
831.913	4904
832.051	4790
832.19	4782
832.329	4866
832.467	4733
832.606	4698
832.744	4816
832.883	4702
833.022	4748
833.16	4831
833.299	4862
833.437	4919
833.576	4896
833.714	4858
833.852	4866
833.991	4934
834.129	5010
834.267	4980
834.406	4953
834.544	4987
834.682	5075
834.821	5003
834.959	5231
835.097	5025
835.235	5185
835.373	5143
835.511	5140
835.65	5090
835.788	5067
835.926	4942
836.064	4850
836.202	4972
836.34	5162
836.478	5284
836.615	5185
836.753	5223
836.891	5330
837.029	5288
837.167	5220
837.305	5208
837.443	5174
837.58	5060
837.718	5315
837.856	5220
837.993	5197
838.131	5231
838.269	5235
838.406	5231
838.544	5265
838.681	5064
838.819	4968
838.956	4900
839.094	4911
839.231	5037
839.369	5143
839.506	5482
839.643	5334
839.781	5083
839.918	5052
840.055	5105
840.193	5098
840.33	5105
840.467	5162
840.604	5197
840.742	5474
840.879	5128
841.016	5121
841.153	5201
841.29	5425
841.427	5372
841.564	5376
841.701	5395
841.838	5284
841.975	5246
842.112	5299
842.249	5216
842.385	5151
842.522	5315
842.659	5155
842.796	5189
842.933	5242
843.069	5166
843.206	5159
843.343	5330
843.479	5239
843.616	5269
843.752	5060
843.889	5102
844.025	5235
844.162	5025
844.298	5227
844.435	5094
844.571	5113
844.708	5189
844.844	5364
844.98	5372
845.117	5318
845.253	5159
845.389	5117
845.525	5204
845.661	5204
845.798	5117
845.934	5151
846.07	5010
846.206	5242
846.342	5318
846.478	5204
846.614	5048
846.75	4987
846.886	5006
847.022	5181
847.158	5045
847.294	5105
847.429	5136
847.565	5105
847.701	5345
847.837	4839
847.972	4812
848.108	4961
848.244	4957
848.379	4866
848.515	4759
848.65	4763
848.786	4824
848.921	4835
849.057	4934
849.192	4900
849.328	4854
849.463	4877
849.598	4801
849.734	4809
849.869	4702
850.004	4668
850.14	4698
850.275	4656
850.41	4584
850.545	4588
850.68	4691
850.815	4645
850.95	4630
851.085	4847
851.22	4782
851.355	4710
851.49	4683
851.625	4630
851.76	4660
851.895	4584
852.03	4561
852.165	4641
852.299	4786
852.434	4820
852.569	4763
852.703	4809
852.838	4850
852.973	4949
853.107	4946
853.242	4793
853.376	4706
853.511	4573
853.645	4626
853.78	4809
853.914	4729
854.048	4717
854.183	4675
854.317	4729
854.451	4889
854.585	4748
854.72	4649
854.854	4763
854.988	4660
855.122	4717
855.256	4542
855.39	4675
855.524	4816
855.658	4740
855.792	4782
855.926	4778
856.06	4740
856.194	4816
856.327	4744
856.461	4611
856.595	4641
856.729	4637
856.862	4812
856.996	4748
857.13	4710
857.263	4740
857.397	4778
857.53	4679
857.664	4763
857.797	4801
857.931	4812
858.064	4733
858.197	4767
858.331	4679
858.464	4618
858.597	4523
858.731	4660
858.864	4679
858.997	4637
859.13	4649
859.263	4656
859.396	4748
859.529	4626
859.662	4615
859.795	4561
859.928	4641
860.061	4782
860.194	4824
860.327	4660
860.46	4554
860.592	4759
860.725	4706
860.858	4736
860.99	4603
861.123	4569
861.256	4550
861.388	4611
861.521	5277
861.653	4519
861.786	4462
861.918	4535
862.05	4573
862.183	4592
862.315	4637
862.447	4721
862.58	4607
862.712	4424
862.844	4379
862.976	4485
863.108	4527
863.24	4786
863.372	4341
863.504	4474
863.636	4428
863.768	4516
863.9	4485
864.032	4424
864.164	4436
864.296	4523
864.428	4538
864.559	4577
864.691	4573
864.823	4599
864.954	4558
865.086	4542
865.217	4497
865.349	4428
865.48	4478
865.612	4565
865.743	4630
865.875	4500
866.006	4440
866.137	4474
866.269	4481
866.4	4485
866.531	4421
866.662	4451
866.793	4417
866.924	4462
867.055	4538
867.186	4542
867.317	4489
867.448	4398
867.579	4417
867.71	4413
867.841	4379
867.972	4462
868.103	4443
868.233	4459
868.364	4462
868.495	4466
868.625	4710
868.756	4797
868.886	4596
869.017	4615
869.147	4839
869.278	4782
869.408	4668
869.539	4634
869.669	4748
869.799	4721
869.929	4801
870.06	4774
870.19	4995
870.32	4949
870.45	4965
870.58	4991
870.71	5128
870.84	5162
870.97	4991
871.1	4915
871.23	5128
871.36	5109
871.489	5067
871.619	5121
871.749	5064
871.879	5147
872.008	5181
872.138	5056
872.267	4980
872.397	4873
872.526	4828
872.656	4740
872.785	4881
872.915	4942
873.044	5067
873.173	4923
873.303	4984
873.432	4968
873.561	4953
873.69	4904
873.819	4911
873.948	4889
874.077	4850
874.206	4778
874.335	4847
874.464	4930
874.593	5067
874.722	4991
874.851	5185
874.979	5075
875.108	5056
875.237	4938
875.365	4938
875.494	4866
875.623	4953
875.751	4870
875.88	4919
876.008	5029
876.136	5064
876.265	5216
876.393	5379
876.521	5269
876.65	5246
876.778	5239
876.906	5155
877.034	5052
877.162	5071
877.29	5041
877.418	5067
877.546	5067
877.674	5090
877.802	5029
877.93	5041
878.058	4949
878.185	4870
878.313	4934
878.441	4961
878.568	4809
878.696	4915
878.824	4991
878.951	5018
879.079	5174
879.206	5345
879.333	5128
879.461	5018
879.588	5041
879.715	5189
879.842	5250
879.97	5003
880.097	4771
880.224	4763
880.351	4801
880.478	4835
880.605	4812
880.732	4774
880.859	5075
880.986	4930
881.112	4889
881.239	4755
881.366	4702
881.493	4626
881.619	4599
881.746	4649
881.872	4664
881.999	4630
882.125	4691
882.252	4797
882.378	4820
882.505	4995
882.631	4797
882.757	4679
882.883	4752
883.01	4736
883.136	4694
883.262	4634
883.388	4672
883.514	4824
883.64	4816
883.766	4816
883.892	4615
884.018	4710
884.143	4934
884.269	4987
884.395	4668
884.52	4634
884.646	4634
884.772	4596
884.897	4565
885.023	4683
885.148	4816
885.274	4904
885.399	4831
885.524	4740
885.65	4710
885.775	4729
885.9	4683
886.025	4835
886.15	4786
886.275	4736
886.4	4694
886.525	4736
886.65	4706
886.775	4717
886.9	4881
887.025	5071
887.149	4824
887.274	4725
887.399	4580
887.523	4603
887.648	4615
887.773	4565
887.897	4793
888.021	4759
888.146	4733
888.27	4797
888.395	4919
888.519	4820
888.643	4839
888.767	4786
888.891	4691
889.015	4618
889.139	4615
889.263	4618
889.387	4805
889.511	4858
889.635	4793
889.759	4672
889.883	4683
890.006	4740
890.13	4862
890.254	4649
890.377	4668
890.501	4596
890.624	4558
890.748	4683
890.871	4504
890.995	4462
891.118	4379
891.241	4485
891.364	4569
891.488	4653
891.611	4474
891.734	4565
891.857	4607
891.98	4561
892.103	4672
892.226	4607
892.349	4588
892.471	4447
892.594	4538
892.717	4569
892.839	4580
892.962	4580
893.085	4653
893.207	4592
893.33	4459
893.452	4512
893.575	4649
893.697	4554
893.819	4759
893.941	4847
894.064	4797
894.186	4596
894.308	4569
894.43	4752
894.552	4858
894.674	4729
894.796	4561
894.918	4577
895.04	4569
895.161	4702
895.283	4660
895.405	4542
895.526	4622
895.648	4721
895.769	4618
895.891	4717
896.012	4698
896.134	4725
896.255	4664
896.376	4645
896.498	4622
896.619	4698
896.74	4580
896.861	4615
896.982	4968
897.103	5075
897.224	4812
897.345	4774
897.466	4721
897.587	4793
897.708	4831
897.828	4763
897.949	4637
898.07	4584
898.19	4611
898.311	4843
898.431	4687
898.552	4714
898.672	4870
898.792	4790
898.913	4710
899.033	4672
899.153	4504
899.273	4421
899.393	4470
899.513	4527
899.633	4485
899.753	4580
899.873	4554
899.993	4603
900.113	4527
900.232	4569
900.352	4542
900.472	4489
900.591	4421
900.711	4497
900.83	4417
900.95	4668
901.069	4694
901.189	4542
901.308	4394
901.427	4348
901.546	4386
901.665	4523
901.784	4523
901.904	4405
902.023	4291
902.141	4223
902.26	4196
902.379	4325
902.498	4268
902.617	4166
902.735	4383
902.854	4383
902.973	4325
903.091	4246
903.21	4207
903.328	4268
903.446	4303
903.565	4276
903.683	4371
903.801	4295
903.919	4424
904.038	4447
904.156	4329
904.274	4455
904.392	4421
904.51	4443
904.627	4497
904.745	4577
904.863	4664
904.981	4367
905.098	4352
905.216	4386
905.334	4432
905.451	4481
905.569	4485
905.686	4596
905.803	4599
905.921	4424
906.038	4596
906.155	4481
906.272	4363
906.389	4459
906.506	4386
906.623	4402
906.74	4428
906.857	4333
906.974	4451
907.091	4630
907.208	4740
907.324	4588
907.441	4573
907.557	4383
907.674	4375
907.79	4371
907.907	4440
908.023	4512
908.139	4470
908.256	4481
908.372	4489
908.488	4478
908.604	4413
908.72	4375
908.836	4402
908.952	4398
909.068	4455
909.184	4569
909.3	4523
909.415	4588
909.531	4599
909.647	4390
909.762	4451
909.878	4383
909.993	4474
910.108	4485
910.224	4474
910.339	4516
910.454	4428
910.57	4398
910.685	4356
910.8	4672
910.915	4630
911.03	4516
911.145	4352
911.259	4360
911.374	4436
911.489	4344
911.604	4329
911.718	4196
911.833	4207
911.947	4162
912.062	4013
912.176	4253
912.291	4299
912.405	4314
912.519	4481
912.633	4523
912.748	4383
912.862	4348
912.976	4246
913.09	4116
913.204	4207
913.318	4322
913.431	4405
913.545	4443
913.659	4531
913.772	4417
913.886	4284
914	4265
914.113	4386
914.226	4451
914.34	4455
914.453	4246
914.566	4485
914.68	4375
914.793	4413
914.906	4234
915.019	4177
915.132	4112
915.245	4242
915.358	4234
915.47	4253
915.583	4306
915.696	4348
915.809	4421
915.921	4466
916.034	4261
916.146	4291
916.259	4215
916.371	4413
916.483	4386
916.595	4276
916.708	4333
916.82	4421
916.932	4337
917.044	4348
917.156	4344
917.268	4261
917.38	4287
917.491	4344
917.603	4398
917.715	4451
917.826	4481
917.938	4375
918.049	4299
918.161	4424
918.272	4592
918.384	4538
918.495	4489
918.606	4322
918.717	4310
918.828	4398
918.939	4386
919.05	4284
919.161	4280
919.272	4185
919.383	4299
919.494	4470
919.604	4649
919.715	4459
919.826	4371
919.936	4432
920.047	4558
920.157	4538
920.267	4733
920.378	4580
920.488	4569
920.598	4790
920.708	4968
920.818	4790
920.928	4759
921.038	4987
921.148	4942
921.258	4645
921.368	4580
921.477	4542
921.587	4481
921.697	4428
921.806	4607
921.916	4447
922.025	4348
922.134	4333
922.244	4280
922.353	4356
922.462	4223
922.571	4181
922.68	4040
922.789	4044
922.898	4086
923.007	4032
923.116	4147
923.224	4086
923.333	4093
923.442	4006
923.55	4002
923.659	4063
923.767	4093
923.876	4074
923.984	4101
924.092	4040
924.201	4109
924.309	4116
924.417	4154
924.525	4105
924.633	4177
924.741	5052
924.849	3964
924.956	4204
925.064	3960
925.172	3960
925.279	4006
925.387	4093
925.494	4074
925.602	4234
925.709	4204
925.816	4040
925.924	4166
926.031	4234
926.138	4188
926.245	4242
926.352	4131
926.459	4299
926.566	4394
926.673	4177
926.779	4082
926.886	4120
926.993	4025
927.099	3983
927.206	3987
927.312	3956
927.419	4082
927.525	4036
927.631	4166
927.737	4017
927.843	3979
927.95	3865
928.056	4010
928.162	4029
928.267	4101
928.373	4599
928.479	4135
928.585	3922
928.69	4055
928.796	4105
928.901	3998
929.007	3869
929.112	4078
929.218	4040
929.323	3983
929.428	3964
929.533	4150
929.638	3949
929.743	4006
929.848	4040
929.953	4006
930.058	3979
930.163	3797
930.267	3888
930.372	3998
930.477	3835
930.581	4169
930.685	3968
930.79	3808
930.894	3930
930.998	3854
931.103	4093
931.207	3759
931.311	3717
931.415	3675
931.519	3530
931.623	3564
