Data from test_V78500241_1033.txt Node
Date: Fri Mar 25 16:56:11 CST 2022
User: usil
Spectrometer: V785-0024
Trigger mode: 0
Integration Time (sec): 4.000000E-1
Scans to average: 1
Nonlinearity correction enabled: false
Boxcar width: 0
Storing dark spectrum: false
XAxis mode: Wavelengths
Number of Pixels in Spectrum: 1024
>>>>>Begin Spectral Data<<<<<
801.071	8046
801.214	7997
801.356	7963
801.499	7890
801.641	7738
801.783	7830
801.926	7959
802.068	7963
802.211	7959
802.353	7944
802.496	7772
802.638	7906
802.78	7875
802.923	7982
803.065	7951
803.208	7894
803.35	8062
803.492	8084
803.635	8149
803.777	8062
803.919	8134
804.061	8503
804.204	8176
804.346	8069
804.488	7967
804.63	8103
804.773	8046
804.915	8134
805.057	8301
805.199	8161
805.341	8229
805.483	8404
805.626	8214
805.768	8081
805.91	8225
806.052	8214
806.194	8096
806.336	8275
806.478	8126
806.62	8073
806.762	8138
806.904	8286
807.046	8423
807.188	8343
807.33	8328
807.472	8324
807.614	8123
807.756	8084
807.898	8035
808.04	7936
808.182	7928
808.324	7856
808.465	7868
808.607	8069
808.749	8073
808.891	8195
809.033	8313
809.174	8191
809.316	8073
809.458	8039
809.6	7989
809.741	8084
809.883	7989
810.025	8084
810.166	8035
810.308	8043
810.45	8058
810.591	7925
810.733	7734
810.875	7647
811.016	7510
811.158	7445
811.299	7594
811.441	7632
811.582	7738
811.724	7582
811.865	7495
812.007	7571
812.148	7620
812.29	7643
812.431	7742
812.573	7902
812.714	8016
812.855	8103
812.997	8206
813.138	8313
813.279	8214
813.421	8103
813.562	7963
813.703	7887
813.845	7795
813.986	7441
814.127	7293
814.268	7225
814.41	7240
814.551	7164
814.692	7217
814.833	7057
814.974	7069
815.115	7099
815.256	6966
815.397	6886
815.539	6958
815.68	6840
815.821	6825
815.962	6867
816.103	6890
816.244	6715
816.385	6593
816.526	6658
816.666	6506
816.807	6350
816.948	6426
817.089	6544
817.23	6509
817.371	6365
817.512	6407
817.653	6422
817.793	6403
817.934	6433
818.075	6456
818.216	6422
818.356	6429
818.497	6220
818.638	6076
818.778	6178
818.919	6190
819.06	6155
819.2	6281
819.341	6327
819.481	6327
819.622	6471
819.762	6684
819.903	6662
820.043	6612
820.184	6532
820.324	6604
820.465	6665
820.605	6654
820.746	6662
820.886	6521
821.026	6654
821.167	6772
821.307	6764
821.447	6768
821.588	6665
821.728	6551
821.868	6486
822.008	6342
822.149	6353
822.289	6395
822.429	6121
822.569	6098
822.709	6155
822.849	5923
822.99	5870
823.13	5977
823.27	5927
823.41	5783
823.55	5771
823.69	5748
823.83	5798
823.97	5638
824.11	5547
824.25	5532
824.389	5554
824.529	5566
824.669	5554
824.809	5707
824.949	5611
825.089	5600
825.228	5520
825.368	5368
825.508	5364
825.648	5353
825.787	5337
825.927	5341
826.067	5318
826.206	5322
826.346	5326
826.485	5425
826.625	5353
826.765	5505
826.904	5463
827.044	5273
827.183	5181
827.323	5178
827.462	5284
827.601	5170
827.741	5185
827.88	5239
828.02	5117
828.159	5212
828.298	5326
828.437	5349
828.577	5265
828.716	5452
828.855	5349
828.994	5208
829.134	5170
829.273	5140
829.412	5113
829.551	5083
829.69	5159
829.829	5239
829.968	5337
830.107	5318
830.246	5189
830.385	5162
830.524	5105
830.663	5098
830.802	4965
830.941	4908
831.08	4870
831.219	4965
831.357	4984
831.496	5128
831.635	4915
831.774	4790
831.913	4858
832.051	4744
832.19	4748
832.329	4843
832.467	4710
832.606	4645
832.744	4702
832.883	4698
833.022	4767
833.16	4790
833.299	4847
833.437	4843
833.576	4885
833.714	4854
833.852	4896
833.991	4889
834.129	4927
834.267	4946
834.406	4915
834.544	4991
834.682	4953
834.821	4968
834.959	5178
835.097	4957
835.235	5090
835.373	5117
835.511	5113
835.65	5037
835.788	5014
835.926	4896
836.064	4896
836.202	4930
836.34	5155
836.478	5250
836.615	5151
836.753	5181
836.891	5239
837.029	5265
837.167	5170
837.305	5117
837.443	5090
837.58	5113
837.718	5296
837.856	5189
837.993	5162
838.131	5185
838.269	5193
838.406	5197
838.544	5136
838.681	5029
838.819	4999
838.956	4892
839.094	4930
839.231	4961
839.369	5071
839.506	5444
839.643	5261
839.781	5086
839.918	5052
840.055	5132
840.193	5071
840.33	5090
840.467	5136
840.604	5197
840.742	5440
840.879	5075
841.016	5117
841.153	5147
841.29	5341
841.427	5296
841.564	5269
841.701	5353
841.838	5246
841.975	5261
842.112	5292
842.249	5147
842.385	5128
842.522	5360
842.659	5105
842.796	5117
842.933	5201
843.069	5170
843.206	5193
843.343	5288
843.479	5239
843.616	5231
843.752	5037
843.889	5018
844.025	5212
844.162	5109
844.298	5204
844.435	5064
844.571	4972
844.708	5193
844.844	5303
844.98	5353
845.117	5326
845.253	5174
845.389	5086
845.525	5132
845.661	5178
845.798	5037
845.934	5151
846.07	5075
846.206	5181
846.342	5273
846.478	5201
846.614	5052
846.75	4968
846.886	4980
847.022	5181
847.158	4987
847.294	5014
847.429	5086
847.565	4965
847.701	5322
847.837	4904
847.972	4828
848.108	4968
848.244	4904
848.379	4767
848.515	4740
848.65	4778
848.786	4786
848.921	4767
849.057	4904
849.192	4877
849.328	4778
849.463	4847
849.598	4801
849.734	4729
849.869	4668
850.004	4637
850.14	4691
850.275	4588
850.41	4504
850.545	4546
850.68	4592
850.815	4607
850.95	4584
851.085	4790
851.22	4717
851.355	4645
851.49	4615
851.625	4649
851.76	4630
851.895	4558
852.03	4565
852.165	4611
852.299	4729
852.434	4748
852.569	4733
852.703	4763
852.838	4816
852.973	4911
853.107	4850
853.242	4755
853.376	4702
853.511	4500
853.645	4569
853.78	4835
853.914	4717
854.048	4672
854.183	4645
854.317	4668
854.451	4839
854.585	4668
854.72	4645
854.854	4755
854.988	4584
855.122	4679
855.256	4504
855.39	4626
855.524	4748
855.658	4721
855.792	4721
855.926	4725
856.06	4714
856.194	4763
856.327	4702
856.461	4558
856.595	4569
856.729	4687
856.862	4694
856.996	4698
857.13	4725
857.263	4733
857.397	4774
857.53	4649
857.664	4725
857.797	4725
857.931	4786
858.064	4615
858.197	4698
858.331	4634
858.464	4592
858.597	4504
858.731	4607
858.864	4626
858.997	4618
859.13	4637
859.263	4645
859.396	4645
859.529	4565
859.662	4596
859.795	4527
859.928	4683
860.061	4774
860.194	4790
860.327	4611
860.46	4622
860.592	4683
860.725	4698
860.858	4755
860.99	4558
861.123	4512
861.256	4554
861.388	4565
861.521	5265
861.653	4489
861.786	4398
861.918	4428
862.05	4493
862.183	4512
862.315	4592
862.447	4607
862.58	4538
862.712	4398
862.844	4348
862.976	4455
863.108	4447
863.24	4858
863.372	4344
863.504	4383
863.636	4383
863.768	4504
863.9	4421
864.032	4371
864.164	4405
864.296	4440
864.428	4554
864.559	4558
864.691	4523
864.823	4500
864.954	4443
865.086	4508
865.217	4455
865.349	4386
865.48	4455
865.612	4542
865.743	4622
865.875	4466
866.006	4413
866.137	4478
866.269	4470
866.4	4428
866.531	4459
866.662	4375
866.793	4436
866.924	4405
867.055	4493
867.186	4447
867.317	4402
867.448	4333
867.579	4360
867.71	4402
867.841	4356
867.972	4409
868.103	4459
868.233	4428
868.364	4466
868.495	4497
868.625	4637
868.756	4778
868.886	4569
869.017	4561
869.147	4767
869.278	4759
869.408	4599
869.539	4603
869.669	4706
869.799	4664
869.929	4763
870.06	4706
870.19	4919
870.32	4953
870.45	4930
870.58	4968
870.71	5010
870.84	5094
870.97	4938
871.1	4896
871.23	5151
871.36	5109
871.489	5014
871.619	5075
871.749	5098
871.879	5117
872.008	5170
872.138	5045
872.267	4946
872.397	4843
872.526	4805
872.656	4710
872.785	4812
872.915	4972
873.044	4968
873.173	4919
873.303	4911
873.432	4930
873.561	4908
873.69	4873
873.819	4904
873.948	4866
874.077	4801
874.206	4740
874.335	4778
874.464	4908
874.593	5033
874.722	4923
874.851	5075
874.979	5064
875.108	5041
875.237	4839
875.365	4858
875.494	4858
875.623	4999
875.751	4774
875.88	4896
876.008	5014
876.136	5003
876.265	5235
876.393	5303
876.521	5239
876.65	5212
876.778	5174
876.906	5029
877.034	5067
877.162	5033
877.29	4987
877.418	5025
877.546	4957
877.674	5006
877.802	4968
877.93	4980
878.058	4892
878.185	4831
878.313	4889
878.441	4904
878.568	4786
878.696	4812
878.824	4968
878.951	4976
879.079	5162
879.206	5299
879.333	5048
879.461	4999
879.588	4972
879.715	5060
879.842	5162
879.97	5018
880.097	4774
880.224	4744
880.351	4797
880.478	4786
880.605	4771
880.732	4790
880.859	5117
880.986	4904
881.112	4930
881.239	4752
881.366	4653
881.493	4554
881.619	4535
881.746	4634
881.872	4645
881.999	4653
882.125	4664
882.252	4771
882.378	4820
882.505	4957
882.631	4854
882.757	4615
882.883	4660
883.01	4752
883.136	4637
883.262	4588
883.388	4626
883.514	4843
883.64	4790
883.766	4786
883.892	4679
884.018	4675
884.143	4870
884.269	5006
884.395	4653
884.52	4592
884.646	4634
884.772	4573
884.897	4550
885.023	4660
885.148	4816
885.274	4877
885.399	4774
885.524	4710
885.65	4710
885.775	4740
885.9	4702
886.025	4835
886.15	4767
886.275	4729
886.4	4573
886.525	4744
886.65	4729
886.775	4675
886.9	4862
887.025	5048
887.149	4809
887.274	4653
887.399	4554
887.523	4596
887.648	4607
887.773	4542
887.897	4721
888.021	4812
888.146	4683
888.27	4801
888.395	4862
888.519	4774
888.643	4805
888.767	4797
888.891	4664
889.015	4550
889.139	4653
889.263	4554
889.387	4790
889.511	4889
889.635	4744
889.759	4630
889.883	4592
890.006	4687
890.13	4797
890.254	4599
890.377	4660
890.501	4516
890.624	4508
890.748	4664
890.871	4489
890.995	4413
891.118	4337
891.241	4523
891.364	4485
891.488	4603
891.611	4523
891.734	4565
891.857	4584
891.98	4512
892.103	4645
892.226	4580
892.349	4531
892.471	4402
892.594	4527
892.717	4558
892.839	4565
892.962	4577
893.085	4664
893.207	4569
893.33	4485
893.452	4535
893.575	4645
893.697	4558
893.819	4786
893.941	4824
894.064	4752
894.186	4561
894.308	4550
894.43	4710
894.552	4793
894.674	4721
894.796	4550
894.918	4546
895.04	4561
895.161	4717
895.283	4637
895.405	4542
895.526	4626
895.648	4656
895.769	4672
895.891	4694
896.012	4710
896.134	4717
896.255	4649
896.376	4615
896.498	4611
896.619	4664
896.74	4611
896.861	4592
896.982	4919
897.103	5083
897.224	4816
897.345	4729
897.466	4664
897.587	4729
897.708	4889
897.828	4763
897.949	4653
898.07	4497
898.19	4599
898.311	4793
898.431	4729
898.552	4736
898.672	4809
898.792	4771
898.913	4698
899.033	4637
899.153	4474
899.273	4421
899.393	4447
899.513	4527
899.633	4516
899.753	4558
899.873	4459
899.993	4592
900.113	4519
900.232	4535
900.352	4542
900.472	4493
900.591	4409
900.711	4474
900.83	4409
900.95	4596
901.069	4672
901.189	4550
901.308	4356
901.427	4303
901.546	4375
901.665	4512
901.784	4519
901.904	4375
902.023	4333
902.141	4196
902.26	4162
902.379	4291
902.498	4253
902.617	4215
902.735	4390
902.854	4398
902.973	4341
903.091	4211
903.21	4196
903.328	4329
903.446	4276
903.565	4204
903.683	4314
903.801	4291
903.919	4352
904.038	4432
904.156	4249
904.274	4474
904.392	4371
904.51	4367
904.627	4481
904.745	4550
904.863	4615
904.981	4402
905.098	4272
905.216	4348
905.334	4398
905.451	4363
905.569	4402
905.686	4554
905.803	4577
905.921	4398
906.038	4512
906.155	4394
906.272	4402
906.389	4428
906.506	4344
906.623	4356
906.74	4356
906.857	4280
906.974	4356
907.091	4577
907.208	4706
907.324	4550
907.441	4500
907.557	4291
907.674	4322
907.79	4318
907.907	4360
908.023	4466
908.139	4497
908.256	4417
908.372	4470
908.488	4424
908.604	4341
908.72	4303
908.836	4337
908.952	4348
909.068	4443
909.184	4538
909.3	4424
909.415	4615
909.531	4538
909.647	4306
909.762	4371
909.878	4341
909.993	4394
910.108	4398
910.224	4383
910.339	4523
910.454	4402
910.57	4341
910.685	4287
910.8	4637
910.915	4607
911.03	4485
911.145	4265
911.259	4363
911.374	4383
911.489	4310
911.604	4242
911.718	4215
911.833	4211
911.947	4074
912.062	4013
912.176	4200
912.291	4219
912.405	4196
912.519	4455
912.633	4493
912.748	4360
912.862	4306
912.976	4196
913.09	4086
913.204	4177
913.318	4257
913.431	4344
913.545	4314
913.659	4371
913.772	4375
913.886	4253
914	4223
914.113	4363
914.226	4386
914.34	4386
914.453	4272
914.566	4428
914.68	4299
914.793	4341
914.906	4154
915.019	4147
915.132	4097
915.245	4181
915.358	4211
915.47	4211
915.583	4287
915.696	4257
915.809	4390
915.921	4405
916.034	4280
916.146	4177
916.259	4242
916.371	4379
916.483	4310
916.595	4276
916.708	4318
916.82	4337
916.932	4329
917.044	4325
917.156	4322
917.268	4227
917.38	4268
917.491	4314
917.603	4299
917.715	4371
917.826	4443
917.938	4314
918.049	4238
918.161	4417
918.272	4485
918.384	4554
918.495	4459
918.606	4303
918.717	4230
918.828	4348
918.939	4348
919.05	4230
919.161	4318
919.272	4116
919.383	4207
919.494	4417
919.604	4592
919.715	4478
919.826	4314
919.936	4409
920.047	4493
920.157	4485
920.267	4748
920.378	4478
920.488	4470
920.598	4717
920.708	4919
920.818	4721
920.928	4721
921.038	4915
921.148	4873
921.258	4634
921.368	4565
921.477	4516
921.587	4443
921.697	4409
921.806	4531
921.916	4443
922.025	4253
922.134	4265
922.244	4227
922.353	4341
922.462	4177
922.571	4109
922.68	3987
922.789	3983
922.898	4036
923.007	3968
923.116	4093
923.224	4078
923.333	4055
923.442	4029
923.55	3983
923.659	4048
923.767	4101
923.876	4002
923.984	4093
924.092	4006
924.201	4109
924.309	4074
924.417	4086
924.525	4074
924.633	4097
924.741	5098
924.849	3922
924.956	4128
925.064	3964
925.172	3888
925.279	3972
925.387	4040
925.494	4021
925.602	4238
925.709	4162
925.816	4040
925.924	4128
926.031	4230
926.138	4147
926.245	4169
926.352	4093
926.459	4253
926.566	4299
926.673	4166
926.779	4032
926.886	4051
926.993	3968
927.099	3964
927.206	3922
927.312	3888
927.419	4082
927.525	4013
927.631	4139
927.737	3937
927.843	3972
927.95	3774
928.056	3949
928.162	3949
928.267	4055
928.373	4683
928.479	4131
928.585	3873
928.69	3998
928.796	4082
928.901	3975
929.007	3816
929.112	4017
929.218	3953
929.323	3945
929.428	3964
929.533	4105
929.638	3926
929.743	3949
929.848	4051
929.953	3987
930.058	3896
930.163	3797
930.267	3770
930.372	3968
930.477	3766
930.581	4112
930.685	3934
930.79	3835
930.894	3861
930.998	3785
931.103	4002
931.207	3686
931.311	3690
931.415	3705
931.519	3496
931.623	3557
