Data from test_V78500241_2140.txt Node
Date: Fri Mar 25 17:03:52 CST 2022
User: usil
Spectrometer: V785-0024
Trigger mode: 0
Integration Time (sec): 4.000000E-1
Scans to average: 1
Nonlinearity correction enabled: false
Boxcar width: 0
Storing dark spectrum: false
XAxis mode: Wavelengths
Number of Pixels in Spectrum: 1024
>>>>>Begin Spectral Data<<<<<
801.071	7997
801.214	7940
801.356	7845
801.499	7852
801.641	7826
801.783	7856
801.926	7989
802.068	7932
802.211	8020
802.353	7997
802.496	7845
802.638	7879
802.78	7894
802.923	7921
803.065	7845
803.208	7860
803.35	8020
803.492	8073
803.635	8199
803.777	7978
803.919	8149
804.061	8507
804.204	8210
804.346	8031
804.488	8001
804.63	8134
804.773	8012
804.915	8107
805.057	8313
805.199	8187
805.341	8237
805.483	8313
805.626	8176
805.768	8157
805.91	8214
806.052	8202
806.194	8126
806.336	8336
806.478	8142
806.62	8096
806.762	8180
806.904	8339
807.046	8476
807.188	8332
807.33	8408
807.472	8328
807.614	8191
807.756	8187
807.898	8012
808.04	7936
808.182	7875
808.324	7795
808.465	7871
808.607	8100
808.749	8103
808.891	8317
809.033	8366
809.174	8237
809.316	8005
809.458	8088
809.6	8096
809.741	8092
809.883	8024
810.025	8008
810.166	8058
810.308	8016
810.45	8012
810.591	7902
810.733	7757
810.875	7719
811.016	7582
811.158	7464
811.299	7609
811.441	7693
811.582	7696
811.724	7651
811.865	7533
812.007	7590
812.148	7521
812.29	7662
812.431	7776
812.573	7856
812.714	8001
812.855	8123
812.997	8210
813.138	8309
813.279	8138
813.421	7982
813.562	7944
813.703	7780
813.845	7681
813.986	7453
814.127	7263
814.268	7190
814.41	7198
814.551	7149
814.692	7236
814.833	7126
814.974	7091
815.115	7084
815.256	6916
815.397	6943
815.539	6935
815.68	6814
815.821	6768
815.962	6882
816.103	6810
816.244	6730
816.385	6589
816.526	6578
816.666	6547
816.807	6285
816.948	6414
817.089	6551
817.23	6426
817.371	6353
817.512	6395
817.653	6422
817.793	6388
817.934	6388
818.075	6475
818.216	6380
818.356	6426
818.497	6251
818.638	6171
818.778	6201
818.919	6178
819.06	6178
819.2	6365
819.341	6323
819.481	6376
819.622	6525
819.762	6741
819.903	6684
820.043	6642
820.184	6574
820.324	6566
820.465	6711
820.605	6779
820.746	6639
820.886	6483
821.026	6612
821.167	6719
821.307	6757
821.447	6779
821.588	6650
821.728	6585
821.868	6528
822.008	6395
822.149	6388
822.289	6365
822.429	6155
822.569	6152
822.709	6129
822.849	5904
822.99	5920
823.13	5973
823.27	5904
823.41	5794
823.55	5832
823.69	5790
823.83	5764
823.97	5691
824.11	5592
824.25	5505
824.389	5535
824.529	5592
824.669	5596
824.809	5627
824.949	5707
825.089	5585
825.228	5532
825.368	5395
825.508	5368
825.648	5387
825.787	5349
825.927	5387
826.067	5326
826.206	5341
826.346	5406
826.485	5395
826.625	5406
826.765	5566
826.904	5417
827.044	5303
827.183	5216
827.323	5155
827.462	5265
827.601	5166
827.741	5246
827.88	5227
828.02	5105
828.159	5231
828.298	5345
828.437	5341
828.577	5322
828.716	5486
828.855	5345
828.994	5193
829.134	5181
829.273	5212
829.412	5178
829.551	5075
829.69	5162
829.829	5231
829.968	5379
830.107	5246
830.246	5261
830.385	5143
830.524	5124
830.663	5056
830.802	4930
830.941	4870
831.08	4915
831.219	4942
831.357	4980
831.496	5109
831.635	4919
831.774	4839
831.913	4858
832.051	4740
832.19	4752
832.329	4820
832.467	4683
832.606	4660
832.744	4702
832.883	4740
833.022	4714
833.16	4771
833.299	4858
833.437	4793
833.576	4847
833.714	4843
833.852	4858
833.991	4870
834.129	4984
834.267	4972
834.406	4923
834.544	5033
834.682	4953
834.821	4957
834.959	5193
835.097	5003
835.235	5178
835.373	5071
835.511	5124
835.65	5025
835.788	4984
835.926	4873
836.064	4862
836.202	4934
836.34	5189
836.478	5235
836.615	5155
836.753	5201
836.891	5277
837.029	5288
837.167	5178
837.305	5159
837.443	5155
837.58	5083
837.718	5242
837.856	5208
837.993	5185
838.131	5258
838.269	5239
838.406	5117
838.544	5136
838.681	5075
838.819	4999
838.956	4850
839.094	4896
839.231	5014
839.369	5025
839.506	5459
839.643	5239
839.781	5064
839.918	5010
840.055	5094
840.193	5102
840.33	5102
840.467	5159
840.604	5193
840.742	5421
840.879	5067
841.016	5041
841.153	5181
841.29	5395
841.427	5334
841.564	5334
841.701	5345
841.838	5265
841.975	5254
842.112	5254
842.249	5140
842.385	5102
842.522	5307
842.659	5151
842.796	5201
842.933	5197
843.069	5086
843.206	5136
843.343	5307
843.479	5208
843.616	5246
843.752	5025
843.889	5056
844.025	5162
844.162	5025
844.298	5197
844.435	5056
844.571	5067
844.708	5140
844.844	5360
844.98	5368
845.117	5227
845.253	5155
845.389	5105
845.525	5128
845.661	5105
845.798	5041
845.934	5147
846.07	5113
846.206	5216
846.342	5322
846.478	5151
846.614	5010
846.75	4949
846.886	4938
847.022	5121
847.158	5033
847.294	5064
847.429	5113
847.565	5071
847.701	5246
847.837	4858
847.972	4774
848.108	4927
848.244	4900
848.379	4812
848.515	4717
848.65	4744
848.786	4744
848.921	4729
849.057	4858
849.192	4900
849.328	4816
849.463	4854
849.598	4820
849.734	4740
849.869	4729
850.004	4626
850.14	4687
850.275	4603
850.41	4512
850.545	4527
850.68	4615
850.815	4645
850.95	4645
851.085	4828
851.22	4694
851.355	4694
851.49	4645
851.625	4630
851.76	4641
851.895	4558
852.03	4554
852.165	4615
852.299	4755
852.434	4801
852.569	4786
852.703	4744
852.838	4835
852.973	4915
853.107	4877
853.242	4778
853.376	4675
853.511	4554
853.645	4599
853.78	4767
853.914	4702
854.048	4672
854.183	4645
854.317	4714
854.451	4862
854.585	4691
854.72	4618
854.854	4790
854.988	4607
855.122	4630
855.256	4527
855.39	4679
855.524	4710
855.658	4687
855.792	4668
855.926	4774
856.06	4721
856.194	4733
856.327	4717
856.461	4622
856.595	4649
856.729	4592
856.862	4774
856.996	4691
857.13	4748
857.263	4782
857.397	4790
857.53	4645
857.664	4736
857.797	4752
857.931	4786
858.064	4660
858.197	4721
858.331	4660
858.464	4641
858.597	4546
858.731	4653
858.864	4668
858.997	4584
859.13	4599
859.263	4698
859.396	4729
859.529	4588
859.662	4607
859.795	4546
859.928	4611
860.061	4733
860.194	4736
860.327	4645
860.46	4588
860.592	4710
860.725	4714
860.858	4691
860.99	4569
861.123	4478
861.256	4523
861.388	4622
861.521	5417
861.653	4466
861.786	4424
861.918	4459
862.05	4531
862.183	4535
862.315	4630
862.447	4603
862.58	4538
862.712	4352
862.844	4310
862.976	4500
863.108	4466
863.24	4767
863.372	4318
863.504	4432
863.636	4432
863.768	4413
863.9	4455
864.032	4398
864.164	4428
864.296	4493
864.428	4519
864.559	4558
864.691	4500
864.823	4497
864.954	4500
865.086	4481
865.217	4451
865.349	4405
865.48	4451
865.612	4519
865.743	4637
865.875	4428
866.006	4424
866.137	4451
866.269	4455
866.4	4443
866.531	4363
866.662	4402
866.793	4363
866.924	4402
867.055	4519
867.186	4508
867.317	4398
867.448	4398
867.579	4371
867.71	4367
867.841	4356
867.972	4481
868.103	4462
868.233	4417
868.364	4386
868.495	4466
868.625	4675
868.756	4748
868.886	4611
869.017	4660
869.147	4763
869.278	4797
869.408	4675
869.539	4618
869.669	4679
869.799	4683
869.929	4767
870.06	4752
870.19	4930
870.32	4942
870.45	4980
870.58	5018
870.71	5083
870.84	5105
870.97	4938
871.1	4927
871.23	5121
871.36	5124
871.489	4995
871.619	5075
871.749	5071
871.879	5132
872.008	5170
872.138	5045
872.267	4976
872.397	4801
872.526	4824
872.656	4702
872.785	4816
872.915	4908
873.044	5014
873.173	4900
873.303	4919
873.432	4938
873.561	4923
873.69	4881
873.819	4816
873.948	4866
874.077	4812
874.206	4767
874.335	4778
874.464	4930
874.593	5010
874.722	5010
874.851	5094
874.979	5060
875.108	5067
875.237	4938
875.365	4847
875.494	4904
875.623	4949
875.751	4839
875.88	4896
876.008	5003
876.136	5079
876.265	5193
876.393	5326
876.521	5246
876.65	5178
876.778	5132
876.906	5090
877.034	5071
877.162	5041
877.29	5010
877.418	5045
877.546	5033
877.674	5037
877.802	5014
877.93	4995
878.058	4908
878.185	4870
878.313	4927
878.441	4946
878.568	4790
878.696	4881
878.824	4965
878.951	4999
879.079	5170
879.206	5246
879.333	5079
879.461	4987
879.588	5033
879.715	5098
879.842	5254
879.97	4984
880.097	4786
880.224	4710
880.351	4824
880.478	4828
880.605	4786
880.732	4763
880.859	5094
880.986	4866
881.112	4877
881.239	4805
881.366	4675
881.493	4630
881.619	4630
881.746	4577
881.872	4622
881.999	4679
882.125	4653
882.252	4759
882.378	4866
882.505	4965
882.631	4831
882.757	4641
882.883	4710
883.01	4710
883.136	4691
883.262	4592
883.388	4577
883.514	4831
883.64	4892
883.766	4805
883.892	4656
884.018	4714
884.143	4919
884.269	4972
884.395	4679
884.52	4607
884.646	4694
884.772	4588
884.897	4565
885.023	4645
885.148	4797
885.274	4824
885.399	4790
885.524	4740
885.65	4675
885.775	4786
885.9	4702
886.025	4904
886.15	4797
886.275	4733
886.4	4664
886.525	4694
886.65	4637
886.775	4675
886.9	4858
887.025	5052
887.149	4816
887.274	4668
887.399	4615
887.523	4584
887.648	4596
887.773	4607
887.897	4710
888.021	4755
888.146	4691
888.27	4828
888.395	4904
888.519	4831
888.643	4828
888.767	4805
888.891	4698
889.015	4622
889.139	4641
889.263	4603
889.387	4767
889.511	4847
889.635	4816
889.759	4664
889.883	4626
890.006	4691
890.13	4847
890.254	4649
890.377	4694
890.501	4558
890.624	4554
890.748	4645
890.871	4497
890.995	4432
891.118	4405
891.241	4459
891.364	4584
891.488	4622
891.611	4481
891.734	4531
891.857	4687
891.98	4611
892.103	4626
892.226	4618
892.349	4523
892.471	4409
892.594	4592
892.717	4531
892.839	4599
892.962	4603
893.085	4611
893.207	4577
893.33	4424
893.452	4561
893.575	4672
893.697	4538
893.819	4805
893.941	4820
894.064	4805
894.186	4573
894.308	4603
894.43	4714
894.552	4759
894.674	4771
894.796	4561
894.918	4611
895.04	4599
895.161	4672
895.283	4630
895.405	4569
895.526	4645
895.648	4664
895.769	4649
895.891	4702
896.012	4733
896.134	4721
896.255	4679
896.376	4618
896.498	4565
896.619	4645
896.74	4630
896.861	4691
896.982	4896
897.103	5098
897.224	4801
897.345	4790
897.466	4672
897.587	4725
897.708	4877
897.828	4763
897.949	4706
898.07	4542
898.19	4649
898.311	4828
898.431	4664
898.552	4717
898.672	4763
898.792	4828
898.913	4763
899.033	4634
899.153	4516
899.273	4398
899.393	4500
899.513	4561
899.633	4523
899.753	4542
899.873	4512
899.993	4584
900.113	4535
900.232	4577
900.352	4500
900.472	4455
900.591	4417
900.711	4466
900.83	4432
900.95	4599
901.069	4637
901.189	4512
901.308	4375
901.427	4360
901.546	4329
901.665	4504
901.784	4516
901.904	4329
902.023	4295
902.141	4215
902.26	4131
902.379	4318
902.498	4227
902.617	4227
902.735	4371
902.854	4424
902.973	4360
903.091	4215
903.21	4215
903.328	4261
903.446	4253
903.565	4261
903.683	4341
903.801	4337
903.919	4386
904.038	4398
904.156	4287
904.274	4428
904.392	4394
904.51	4413
904.627	4447
904.745	4592
904.863	4649
904.981	4413
905.098	4306
905.216	4348
905.334	4413
905.451	4402
905.569	4413
905.686	4538
905.803	4546
905.921	4383
906.038	4550
906.155	4474
906.272	4390
906.389	4489
906.506	4325
906.623	4360
906.74	4402
906.857	4333
906.974	4341
907.091	4569
907.208	4649
907.324	4580
907.441	4493
907.557	4348
907.674	4322
907.79	4318
907.907	4413
908.023	4466
908.139	4436
908.256	4402
908.372	4493
908.488	4436
908.604	4371
908.72	4405
908.836	4394
908.952	4375
909.068	4386
909.184	4569
909.3	4519
909.415	4538
909.531	4580
909.647	4322
909.762	4333
909.878	4322
909.993	4371
910.108	4447
910.224	4424
910.339	4497
910.454	4386
910.57	4352
910.685	4280
910.8	4626
910.915	4611
911.03	4436
911.145	4306
911.259	4272
911.374	4341
911.489	4325
911.604	4253
911.718	4185
911.833	4204
911.947	4063
912.062	4029
912.176	4215
912.291	4238
912.405	4268
912.519	4474
912.633	4470
912.748	4371
912.862	4306
912.976	4192
913.09	4086
913.204	4219
913.318	4249
913.431	4333
913.545	4383
913.659	4409
913.772	4367
913.886	4227
914	4185
914.113	4375
914.226	4466
914.34	4447
914.453	4211
914.566	4447
914.68	4348
914.793	4314
914.906	4154
915.019	4124
915.132	4097
915.245	4196
915.358	4204
915.47	4207
915.583	4257
915.696	4276
915.809	4447
915.921	4405
916.034	4265
916.146	4238
916.259	4204
916.371	4379
916.483	4356
916.595	4284
916.708	4265
916.82	4325
916.932	4303
917.044	4344
917.156	4318
917.268	4268
917.38	4234
917.491	4257
917.603	4367
917.715	4398
917.826	4500
917.938	4333
918.049	4268
918.161	4379
918.272	4527
918.384	4512
918.495	4413
918.606	4284
918.717	4227
918.828	4379
918.939	4360
919.05	4227
919.161	4272
919.272	4120
919.383	4215
919.494	4405
919.604	4622
919.715	4447
919.826	4318
919.936	4379
920.047	4599
920.157	4489
920.267	4649
920.378	4565
920.488	4455
920.598	4702
920.708	4892
920.818	4774
920.928	4744
921.038	4946
921.148	4930
921.258	4607
921.368	4516
921.477	4512
921.587	4459
921.697	4390
921.806	4527
921.916	4386
922.025	4242
922.134	4268
922.244	4192
922.353	4314
922.462	4173
922.571	4086
922.68	4017
922.789	3998
922.898	4048
923.007	3964
923.116	4135
923.224	4051
923.333	4063
923.442	3983
923.55	3926
923.659	3987
923.767	4051
923.876	4063
923.984	4135
924.092	3987
924.201	4074
924.309	4086
924.417	4112
924.525	4082
924.633	4048
924.741	5045
924.849	3941
924.956	4112
925.064	3945
925.172	3884
925.279	3949
925.387	4059
925.494	4048
925.602	4223
925.709	4207
925.816	4055
925.924	4120
926.031	4230
926.138	4147
926.245	4166
926.352	4105
926.459	4234
926.566	4280
926.673	4139
926.779	4101
926.886	4090
926.993	3968
927.099	3968
927.206	3968
927.312	3903
927.419	4055
927.525	4025
927.631	4097
927.737	3960
927.843	3922
927.95	3850
928.056	3964
928.162	3941
928.267	4078
928.373	4569
928.479	4147
928.585	3911
928.69	4067
928.796	4074
928.901	3941
929.007	3869
929.112	3998
929.218	3968
929.323	3911
929.428	3896
929.533	4105
929.638	3937
929.743	3926
929.848	4044
929.953	3987
930.058	3896
930.163	3759
930.267	3804
930.372	3934
930.477	3785
930.581	4074
930.685	3937
930.79	3827
930.894	3865
930.998	3827
931.103	4048
931.207	3701
931.311	3709
931.415	3622
931.519	3519
931.623	3557
