Data from test_V78500241_2575.txt Node
Date: Fri Mar 25 17:06:54 CST 2022
User: usil
Spectrometer: V785-0024
Trigger mode: 0
Integration Time (sec): 4.000000E-1
Scans to average: 1
Nonlinearity correction enabled: false
Boxcar width: 0
Storing dark spectrum: false
XAxis mode: Wavelengths
Number of Pixels in Spectrum: 1024
>>>>>Begin Spectral Data<<<<<
801.071	8039
801.214	7959
801.356	7894
801.499	7826
801.641	7750
801.783	7807
801.926	7993
802.068	7917
802.211	8020
802.353	7974
802.496	7909
802.638	7909
802.78	7921
802.923	7902
803.065	7830
803.208	7837
803.35	7928
803.492	8157
803.635	8202
803.777	7989
803.919	8077
804.061	8419
804.204	8062
804.346	8100
804.488	7967
804.63	8111
804.773	7970
804.915	8062
805.057	8256
805.199	8088
805.341	8176
805.483	8317
805.626	8214
805.768	8134
805.91	8168
806.052	8157
806.194	8031
806.336	8263
806.478	8126
806.62	8046
806.762	8123
806.904	8237
807.046	8415
807.188	8358
807.33	8343
807.472	8271
807.614	8058
807.756	8084
807.898	8031
808.04	7951
808.182	7868
808.324	7837
808.465	7887
808.607	8065
808.749	8027
808.891	8286
809.033	8244
809.174	8221
809.316	8058
809.458	8096
809.6	7947
809.741	7989
809.883	8088
810.025	8111
810.166	8020
810.308	7940
810.45	7936
810.591	7887
810.733	7719
810.875	7616
811.016	7529
811.158	7468
811.299	7620
811.441	7712
811.582	7715
811.724	7609
811.865	7521
812.007	7620
812.148	7594
812.29	7544
812.431	7677
812.573	7833
812.714	7955
812.855	8039
812.997	8157
813.138	8317
813.279	8202
813.421	8107
813.562	8024
813.703	7917
813.845	7738
813.986	7434
814.127	7278
814.268	7179
814.41	7209
814.551	7095
814.692	7240
814.833	7129
814.974	7031
815.115	7141
815.256	6954
815.397	6890
815.539	7004
815.68	6806
815.821	6688
815.962	6863
816.103	6806
816.244	6719
816.385	6589
816.526	6604
816.666	6475
816.807	6346
816.948	6448
817.089	6460
817.23	6414
817.371	6414
817.512	6399
817.653	6323
817.793	6407
817.934	6399
818.075	6452
818.216	6437
818.356	6410
818.497	6247
818.638	6129
818.778	6136
818.919	6175
819.06	6106
819.2	6296
819.341	6292
819.481	6369
819.622	6551
819.762	6711
819.903	6707
820.043	6593
820.184	6578
820.324	6540
820.465	6684
820.605	6692
820.746	6741
820.886	6509
821.026	6616
821.167	6722
821.307	6814
821.447	6779
821.588	6696
821.728	6612
821.868	6513
822.008	6311
822.149	6380
822.289	6414
822.429	6186
822.569	6076
822.709	6106
822.849	5935
822.99	5882
823.13	5961
823.27	5954
823.41	5802
823.55	5794
823.69	5722
823.83	5786
823.97	5680
824.11	5547
824.25	5520
824.389	5528
824.529	5592
824.669	5512
824.809	5638
824.949	5665
825.089	5566
825.228	5528
825.368	5455
825.508	5372
825.648	5292
825.787	5379
825.927	5334
826.067	5307
826.206	5292
826.346	5364
826.485	5387
826.625	5376
826.765	5528
826.904	5505
827.044	5231
827.183	5162
827.323	5128
827.462	5265
827.601	5155
827.741	5208
827.88	5265
828.02	5121
828.159	5250
828.298	5326
828.437	5360
828.577	5242
828.716	5493
828.855	5322
828.994	5193
829.134	5174
829.273	5212
829.412	5109
829.551	5105
829.69	5189
829.829	5223
829.968	5376
830.107	5227
830.246	5265
830.385	5140
830.524	5128
830.663	5121
830.802	4980
830.941	4885
831.08	4831
831.219	4995
831.357	4953
831.496	5151
831.635	4892
831.774	4866
831.913	4843
832.051	4679
832.19	4774
832.329	4866
832.467	4683
832.606	4664
832.744	4702
832.883	4767
833.022	4683
833.16	4755
833.299	4828
833.437	4809
833.576	4805
833.714	4824
833.852	4858
833.991	4892
834.129	4885
834.267	4877
834.406	4900
834.544	4987
834.682	4965
834.821	4949
834.959	5170
835.097	5033
835.235	5159
835.373	5090
835.511	5105
835.65	5064
835.788	5079
835.926	4885
836.064	4858
836.202	4911
836.34	5124
836.478	5159
836.615	5117
836.753	5242
836.891	5273
837.029	5220
837.167	5159
837.305	5181
837.443	5174
837.58	5102
837.718	5277
837.856	5174
837.993	5113
838.131	5231
838.269	5220
838.406	5178
838.544	5166
838.681	4972
838.819	5010
838.956	4881
839.094	4889
839.231	4995
839.369	5124
839.506	5474
839.643	5250
839.781	5094
839.918	5052
840.055	5094
840.193	5064
840.33	5128
840.467	5083
840.604	5140
840.742	5452
840.879	5010
841.016	5075
841.153	5185
841.29	5391
841.427	5269
841.564	5311
841.701	5368
841.838	5303
841.975	5223
842.112	5246
842.249	5128
842.385	5109
842.522	5360
842.659	5166
842.796	5155
842.933	5239
843.069	5121
843.206	5140
843.343	5379
843.479	5193
843.616	5277
843.752	4995
843.889	5037
844.025	5231
844.162	5010
844.298	5178
844.435	5045
844.571	5067
844.708	5159
844.844	5353
844.98	5334
845.117	5280
845.253	5094
845.389	5067
845.525	5128
845.661	5071
845.798	5018
845.934	5117
846.07	5079
846.206	5147
846.342	5258
846.478	5151
846.614	5006
846.75	4995
846.886	4892
847.022	5041
847.158	5003
847.294	5022
847.429	5086
847.565	5006
847.701	5311
847.837	4858
847.972	4782
848.108	4896
848.244	4889
848.379	4744
848.515	4755
848.65	4691
848.786	4733
848.921	4778
849.057	4858
849.192	4885
849.328	4797
849.463	4854
849.598	4759
849.734	4744
849.869	4714
850.004	4622
850.14	4653
850.275	4596
850.41	4493
850.545	4554
850.68	4611
850.815	4672
850.95	4653
851.085	4809
851.22	4714
851.355	4634
851.49	4603
851.625	4656
851.76	4599
851.895	4573
852.03	4538
852.165	4637
852.299	4752
852.434	4782
852.569	4721
852.703	4752
852.838	4862
852.973	4923
853.107	4919
853.242	4767
853.376	4698
853.511	4588
853.645	4679
853.78	4797
853.914	4736
854.048	4679
854.183	4653
854.317	4752
854.451	4839
854.585	4675
854.72	4683
854.854	4790
854.988	4584
855.122	4668
855.256	4622
855.39	4634
855.524	4885
855.658	4717
855.792	4645
855.926	4793
856.06	4793
856.194	4820
856.327	4729
856.461	4660
856.595	4672
856.729	4630
856.862	4797
856.996	4656
857.13	4782
857.263	4820
857.397	4816
857.53	4706
857.664	4778
857.797	4767
857.931	4839
858.064	4675
858.197	4748
858.331	4714
858.464	4630
858.597	4550
858.731	4660
858.864	4641
858.997	4618
859.13	4714
859.263	4706
859.396	4736
859.529	4645
859.662	4626
859.795	4599
859.928	4668
860.061	4812
860.194	4744
860.327	4649
860.46	4611
860.592	4782
860.725	4763
860.858	4759
860.99	4641
861.123	4569
861.256	4535
861.388	4577
861.521	5368
861.653	4558
861.786	4478
861.918	4485
862.05	4550
862.183	4588
862.315	4599
862.447	4706
862.58	4580
862.712	4394
862.844	4333
862.976	4535
863.108	4455
863.24	4843
863.372	4360
863.504	4462
863.636	4417
863.768	4542
863.9	4489
864.032	4413
864.164	4443
864.296	4500
864.428	4641
864.559	4596
864.691	4580
864.823	4565
864.954	4478
865.086	4535
865.217	4489
865.349	4424
865.48	4554
865.612	4516
865.743	4664
865.875	4542
866.006	4428
866.137	4500
866.269	4462
866.4	4500
866.531	4470
866.662	4440
866.793	4432
866.924	4481
867.055	4531
867.186	4485
867.317	4478
867.448	4478
867.579	4383
867.71	4432
867.841	4432
867.972	4481
868.103	4447
868.233	4485
868.364	4485
868.495	4500
868.625	4733
868.756	4801
868.886	4599
869.017	4645
869.147	4824
869.278	4850
869.408	4698
869.539	4607
869.669	4801
869.799	4687
869.929	4725
870.06	4782
870.19	5022
870.32	4923
870.45	4980
870.58	5037
870.71	5162
870.84	5079
870.97	4946
871.1	4942
871.23	5170
871.36	5162
871.489	5014
871.619	5109
871.749	5136
871.879	5201
872.008	5162
872.138	5045
872.267	4995
872.397	4904
872.526	4843
872.656	4740
872.785	4809
872.915	5010
873.044	5014
873.173	4984
873.303	4976
873.432	4980
873.561	4934
873.69	4904
873.819	4930
873.948	4946
874.077	4835
874.206	4816
874.335	4831
874.464	4938
874.593	5075
874.722	4999
874.851	5151
874.979	5048
875.108	5041
875.237	4965
875.365	4923
875.494	4930
875.623	4980
875.751	4870
875.88	4892
876.008	5052
876.136	5067
876.265	5185
876.393	5326
876.521	5292
876.65	5246
876.778	5223
876.906	5121
877.034	5064
877.162	5079
877.29	5018
877.418	5079
877.546	5064
877.674	5113
877.802	5086
877.93	5033
878.058	5010
878.185	4881
878.313	4965
878.441	4995
878.568	4812
878.696	4908
878.824	4957
878.951	5098
879.079	5181
879.206	5284
879.333	5121
879.461	5048
879.588	5010
879.715	5132
879.842	5254
879.97	5045
880.097	4801
880.224	4824
880.351	4816
880.478	4911
880.605	4854
880.732	4816
880.859	5121
880.986	4946
881.112	4911
881.239	4824
881.366	4702
881.493	4592
881.619	4611
881.746	4706
881.872	4706
881.999	4683
882.125	4736
882.252	4816
882.378	4858
882.505	4995
882.631	4839
882.757	4687
882.883	4778
883.01	4755
883.136	4687
883.262	4641
883.388	4653
883.514	4809
883.64	4873
883.766	4831
883.892	4687
884.018	4698
884.143	4896
884.269	5014
884.395	4740
884.52	4675
884.646	4702
884.772	4607
884.897	4596
885.023	4656
885.148	4809
885.274	4889
885.399	4831
885.524	4714
885.65	4740
885.775	4744
885.9	4736
886.025	4881
886.15	4805
886.275	4721
886.4	4641
886.525	4763
886.65	4679
886.775	4725
886.9	4976
887.025	5079
887.149	4873
887.274	4664
887.399	4622
887.523	4668
887.648	4615
887.773	4649
887.897	4790
888.021	4831
888.146	4702
888.27	4866
888.395	4942
888.519	4809
888.643	4824
888.767	4858
888.891	4714
889.015	4603
889.139	4687
889.263	4664
889.387	4752
889.511	4957
889.635	4809
889.759	4653
889.883	4672
890.006	4763
890.13	4809
890.254	4653
890.377	4714
890.501	4618
890.624	4558
890.748	4675
890.871	4542
890.995	4428
891.118	4443
891.241	4554
891.364	4523
891.488	4679
891.611	4474
891.734	4596
891.857	4634
891.98	4596
892.103	4698
892.226	4626
892.349	4573
892.471	4440
892.594	4577
892.717	4653
892.839	4630
892.962	4599
893.085	4736
893.207	4618
893.33	4497
893.452	4569
893.575	4694
893.697	4630
893.819	4862
893.941	4843
894.064	4797
894.186	4592
894.308	4596
894.43	4771
894.552	4828
894.674	4774
894.796	4577
894.918	4611
895.04	4603
895.161	4714
895.283	4668
895.405	4584
895.526	4634
895.648	4706
895.769	4729
895.891	4710
896.012	4752
896.134	4767
896.255	4668
896.376	4622
896.498	4660
896.619	4710
896.74	4645
896.861	4687
896.982	4942
897.103	5094
897.224	4847
897.345	4797
897.466	4717
897.587	4748
897.708	4850
897.828	4820
897.949	4698
898.07	4607
898.19	4660
898.311	4824
898.431	4683
898.552	4725
898.672	4812
898.792	4816
898.913	4752
899.033	4641
899.153	4512
899.273	4481
899.393	4519
899.513	4516
899.633	4546
899.753	4580
899.873	4527
899.993	4588
900.113	4569
900.232	4679
900.352	4580
900.472	4531
900.591	4440
900.711	4497
900.83	4462
900.95	4641
901.069	4721
901.189	4577
901.308	4443
901.427	4363
901.546	4363
901.665	4497
901.784	4580
901.904	4405
902.023	4348
902.141	4169
902.26	4181
902.379	4295
902.498	4314
902.617	4246
902.735	4371
902.854	4417
902.973	4390
903.091	4230
903.21	4246
903.328	4333
903.446	4287
903.565	4295
903.683	4375
903.801	4341
903.919	4398
904.038	4428
904.156	4337
904.274	4485
904.392	4443
904.51	4447
904.627	4432
904.745	4596
904.863	4645
904.981	4428
905.098	4329
905.216	4386
905.334	4485
905.451	4421
905.569	4455
905.686	4577
905.803	4603
905.921	4447
906.038	4584
906.155	4478
906.272	4428
906.389	4440
906.506	4363
906.623	4379
906.74	4409
906.857	4314
906.974	4432
907.091	4519
907.208	4664
907.324	4637
907.441	4504
907.557	4383
907.674	4344
907.79	4341
907.907	4383
908.023	4478
908.139	4504
908.256	4440
908.372	4459
908.488	4512
908.604	4352
908.72	4318
908.836	4440
908.952	4394
909.068	4455
909.184	4588
909.3	4478
909.415	4603
909.531	4611
909.647	4363
909.762	4386
909.878	4344
909.993	4436
910.108	4409
910.224	4428
910.339	4470
910.454	4474
910.57	4390
910.685	4314
910.8	4691
910.915	4599
911.03	4489
911.145	4379
911.259	4337
911.374	4383
911.489	4310
911.604	4306
911.718	4207
911.833	4196
911.947	4109
912.062	4036
912.176	4242
912.291	4246
912.405	4238
912.519	4519
912.633	4516
912.748	4379
912.862	4333
912.976	4238
913.09	4131
913.204	4192
913.318	4295
913.431	4383
913.545	4413
913.659	4474
913.772	4390
913.886	4265
914	4207
914.113	4409
914.226	4428
914.34	4375
914.453	4223
914.566	4417
914.68	4314
914.793	4329
914.906	4147
915.019	4147
915.132	4124
915.245	4207
915.358	4192
915.47	4230
915.583	4246
915.696	4310
915.809	4379
915.921	4447
916.034	4276
916.146	4253
916.259	4234
916.371	4398
916.483	4390
916.595	4249
916.708	4356
916.82	4322
916.932	4291
917.044	4325
917.156	4318
917.268	4230
917.38	4318
917.491	4246
917.603	4367
917.715	4466
917.826	4500
917.938	4375
918.049	4230
918.161	4348
918.272	4519
918.384	4516
918.495	4466
918.606	4318
918.717	4227
918.828	4337
918.939	4421
919.05	4253
919.161	4310
919.272	4131
919.383	4219
919.494	4478
919.604	4618
919.715	4421
919.826	4344
919.936	4447
920.047	4512
920.157	4519
920.267	4725
920.378	4531
920.488	4519
920.598	4755
920.708	4987
920.818	4786
920.928	4793
921.038	4934
921.148	4942
921.258	4599
921.368	4569
921.477	4516
921.587	4497
921.697	4436
921.806	4573
921.916	4466
922.025	4299
922.134	4306
922.244	4291
922.353	4379
922.462	4188
922.571	4147
922.68	4055
922.789	4044
922.898	4082
923.007	4055
923.116	4166
923.224	4116
923.333	4147
923.442	4051
923.55	4048
923.659	4086
923.767	4128
923.876	4013
923.984	4147
924.092	4025
924.201	4105
924.309	4120
924.417	4169
924.525	4097
924.633	4147
924.741	5105
924.849	3953
924.956	4147
925.064	4013
925.172	3918
925.279	4017
925.387	4063
925.494	4120
925.602	4238
925.709	4230
925.816	4067
925.924	4177
926.031	4272
926.138	4238
926.245	4257
926.352	4143
926.459	4291
926.566	4333
926.673	4158
926.779	4105
926.886	4131
926.993	4021
927.099	4002
927.206	3991
927.312	3979
927.419	4048
927.525	4055
927.631	4128
927.737	3994
927.843	3991
927.95	3918
928.056	3987
928.162	4071
928.267	4120
928.373	4637
928.479	4181
928.585	3930
928.69	4059
928.796	4093
928.901	3975
929.007	3911
929.112	4051
929.218	4002
929.323	3987
929.428	3960
929.533	4181
929.638	3941
929.743	4010
929.848	4082
929.953	4074
930.058	3998
930.163	3850
930.267	3865
930.372	4013
930.477	3861
930.581	4128
930.685	3964
930.79	3869
930.894	3899
930.998	3884
931.103	4078
931.207	3759
931.311	3728
931.415	3698
931.519	3534
931.623	3584
