Data from test_V78500241_883.txt Node
Date: Fri Mar 25 16:55:08 CST 2022
User: usil
Spectrometer: V785-0024
Trigger mode: 0
Integration Time (sec): 4.000000E-1
Scans to average: 1
Nonlinearity correction enabled: false
Boxcar width: 0
Storing dark spectrum: false
XAxis mode: Wavelengths
Number of Pixels in Spectrum: 1024
>>>>>Begin Spectral Data<<<<<
801.071	8050
801.214	8081
801.356	7890
801.499	7860
801.641	7879
801.783	7841
801.926	7955
802.068	7993
802.211	7944
802.353	7928
802.496	7769
802.638	7826
802.78	7925
802.923	7890
803.065	7826
803.208	7909
803.35	8016
803.492	8103
803.635	8096
803.777	8012
803.919	8130
804.061	8427
804.204	8164
804.346	7959
804.488	7986
804.63	8073
804.773	8077
804.915	8073
805.057	8229
805.199	8183
805.341	8176
805.483	8168
805.626	8214
805.768	8123
805.91	8210
806.052	8199
806.194	8096
806.336	8370
806.478	8191
806.62	8119
806.762	8100
806.904	8317
807.046	8461
807.188	8332
807.33	8305
807.472	8358
807.614	8176
807.756	8161
807.898	8031
808.04	7860
808.182	7883
808.324	7860
808.465	7925
808.607	8046
808.749	7997
808.891	8191
809.033	8309
809.174	8240
809.316	8088
809.458	8035
809.6	7967
809.741	8046
809.883	8020
810.025	8103
810.166	7959
810.308	8077
810.45	7978
810.591	7871
810.733	7723
810.875	7677
811.016	7537
811.158	7518
811.299	7613
811.441	7689
811.582	7708
811.724	7628
811.865	7510
812.007	7590
812.148	7582
812.29	7658
812.431	7826
812.573	7898
812.714	7989
812.855	8088
812.997	8176
813.138	8324
813.279	8195
813.421	8103
813.562	8062
813.703	7864
813.845	7750
813.986	7422
814.127	7289
814.268	7278
814.41	7190
814.551	7103
814.692	7126
814.833	6977
814.974	7145
815.115	7133
815.256	6935
815.397	6878
815.539	6989
815.68	6871
815.821	6829
815.962	6837
816.103	6856
816.244	6741
816.385	6646
816.526	6597
816.666	6509
816.807	6273
816.948	6437
817.089	6517
817.23	6418
817.371	6418
817.512	6448
817.653	6391
817.793	6327
817.934	6422
818.075	6475
818.216	6391
818.356	6399
818.497	6243
818.638	6087
818.778	6205
818.919	6098
819.06	6133
819.2	6346
819.341	6289
819.481	6388
819.622	6540
819.762	6662
819.903	6703
820.043	6620
820.184	6654
820.324	6612
820.465	6673
820.605	6692
820.746	6658
820.886	6483
821.026	6623
821.167	6700
821.307	6810
821.447	6734
821.588	6631
821.728	6544
821.868	6509
822.008	6376
822.149	6395
822.289	6357
822.429	6213
822.569	6117
822.709	6091
822.849	5965
822.99	5939
823.13	5958
823.27	5901
823.41	5863
823.55	5832
823.69	5783
823.83	5783
823.97	5729
824.11	5592
824.25	5554
824.389	5570
824.529	5611
824.669	5592
824.809	5668
824.949	5688
825.089	5634
825.228	5570
825.368	5391
825.508	5395
825.648	5372
825.787	5421
825.927	5376
826.067	5341
826.206	5372
826.346	5482
826.485	5478
826.625	5410
826.765	5577
826.904	5577
827.044	5292
827.183	5261
827.323	5181
827.462	5315
827.601	5254
827.741	5220
827.88	5216
828.02	5170
828.159	5235
828.298	5360
828.437	5402
828.577	5341
828.716	5516
828.855	5349
828.994	5166
829.134	5185
829.273	5231
829.412	5189
829.551	5178
829.69	5155
829.829	5322
829.968	5372
830.107	5357
830.246	5334
830.385	5227
830.524	5151
830.663	5102
830.802	5048
830.941	4881
831.08	4908
831.219	5025
831.357	4991
831.496	5212
831.635	4946
831.774	4881
831.913	4862
832.051	4740
832.19	4755
832.329	4892
832.467	4767
832.606	4656
832.744	4763
832.883	4729
833.022	4733
833.16	4831
833.299	4866
833.437	4892
833.576	4870
833.714	4911
833.852	4866
833.991	4930
834.129	4957
834.267	4976
834.406	4946
834.544	5075
834.682	5025
834.821	4999
834.959	5181
835.097	4972
835.235	5166
835.373	5136
835.511	5128
835.65	5064
835.788	5025
835.926	4938
836.064	4889
836.202	4915
836.34	5189
836.478	5269
836.615	5201
836.753	5223
836.891	5311
837.029	5269
837.167	5231
837.305	5231
837.443	5208
837.58	5098
837.718	5280
837.856	5193
837.993	5185
838.131	5296
838.269	5216
838.406	5246
838.544	5242
838.681	5022
838.819	5018
838.956	4911
839.094	4843
839.231	4984
839.369	5151
839.506	5471
839.643	5280
839.781	5094
839.918	5041
840.055	5136
840.193	5079
840.33	5151
840.467	5121
840.604	5193
840.742	5474
840.879	5124
841.016	5086
841.153	5151
841.29	5398
841.427	5379
841.564	5364
841.701	5406
841.838	5292
841.975	5269
842.112	5280
842.249	5151
842.385	5105
842.522	5337
842.659	5235
842.796	5193
842.933	5223
843.069	5185
843.206	5147
843.343	5307
843.479	5204
843.616	5341
843.752	5071
843.889	5033
844.025	5254
844.162	5029
844.298	5220
844.435	5170
844.571	5094
844.708	5235
844.844	5277
844.98	5345
845.117	5280
845.253	5162
845.389	5079
845.525	5185
845.661	5174
845.798	5029
845.934	5151
846.07	5037
846.206	5269
846.342	5330
846.478	5220
846.614	5086
846.75	4953
846.886	4976
847.022	5178
847.158	4995
847.294	5045
847.429	5060
847.565	5067
847.701	5345
847.837	4900
847.972	4790
848.108	5006
848.244	4927
848.379	4733
848.515	4786
848.65	4710
848.786	4767
848.921	4786
849.057	4885
849.192	4885
849.328	4816
849.463	4824
849.598	4862
849.734	4786
849.869	4759
850.004	4683
850.14	4717
850.275	4622
850.41	4584
850.545	4599
850.68	4603
850.815	4653
850.95	4653
851.085	4835
851.22	4736
851.355	4656
851.49	4634
851.625	4664
851.76	4634
851.895	4599
852.03	4599
852.165	4683
852.299	4733
852.434	4809
852.569	4778
852.703	4771
852.838	4854
852.973	4934
853.107	4911
853.242	4767
853.376	4679
853.511	4561
853.645	4675
853.78	4797
853.914	4729
854.048	4710
854.183	4668
854.317	4736
854.451	4885
854.585	4645
854.72	4672
854.854	4748
854.988	4683
855.122	4683
855.256	4527
855.39	4645
855.524	4809
855.658	4763
855.792	4717
855.926	4725
856.06	4755
856.194	4786
856.327	4733
856.461	4596
856.595	4618
856.729	4649
856.862	4774
856.996	4710
857.13	4679
857.263	4805
857.397	4797
857.53	4656
857.664	4717
857.797	4755
857.931	4771
858.064	4679
858.197	4710
858.331	4668
858.464	4596
858.597	4512
858.731	4679
858.864	4664
858.997	4580
859.13	4691
859.263	4683
859.396	4774
859.529	4637
859.662	4569
859.795	4554
859.928	4626
860.061	4831
860.194	4759
860.327	4649
860.46	4596
860.592	4687
860.725	4710
860.858	4729
860.99	4599
861.123	4512
861.256	4538
861.388	4592
861.521	5341
861.653	4447
861.786	4451
861.918	4481
862.05	4538
862.183	4554
862.315	4645
862.447	4714
862.58	4558
862.712	4394
862.844	4363
862.976	4519
863.108	4474
863.24	4767
863.372	4337
863.504	4470
863.636	4428
863.768	4447
863.9	4481
864.032	4341
864.164	4375
864.296	4493
864.428	4569
864.559	4603
864.691	4527
864.823	4542
864.954	4478
865.086	4531
865.217	4508
865.349	4459
865.48	4474
865.612	4478
865.743	4634
865.875	4485
866.006	4409
866.137	4466
866.269	4432
866.4	4500
866.531	4409
866.662	4451
866.793	4413
866.924	4413
867.055	4531
867.186	4497
867.317	4428
867.448	4398
867.579	4462
867.71	4432
867.841	4402
867.972	4470
868.103	4493
868.233	4485
868.364	4466
868.495	4459
868.625	4683
868.756	4778
868.886	4577
869.017	4615
869.147	4759
869.278	4755
869.408	4649
869.539	4687
869.669	4725
869.799	4736
869.929	4767
870.06	4733
870.19	4957
870.32	4961
870.45	4831
870.58	5022
870.71	5105
870.84	5105
870.97	4908
871.1	4911
871.23	5170
871.36	5143
871.489	5056
871.619	5022
871.749	5094
871.879	5102
872.008	5212
872.138	5109
872.267	4972
872.397	4843
872.526	4801
872.656	4748
872.785	4839
872.915	4949
873.044	5041
873.173	5014
873.303	4987
873.432	4972
873.561	4946
873.69	4900
873.819	4809
873.948	4946
874.077	4774
874.206	4752
874.335	4839
874.464	4946
874.593	5075
874.722	4965
874.851	5086
874.979	5086
875.108	5033
875.237	4911
875.365	4862
875.494	4877
875.623	4976
875.751	4850
875.88	4854
876.008	4965
876.136	5048
876.265	5212
876.393	5334
876.521	5265
876.65	5185
876.778	5151
876.906	5086
877.034	5060
877.162	5025
877.29	5018
877.418	5067
877.546	5086
877.674	5132
877.802	4991
877.93	5022
878.058	4915
878.185	4896
878.313	4976
878.441	4946
878.568	4812
878.696	4828
878.824	4946
878.951	5022
879.079	5132
879.206	5269
879.333	5094
879.461	4980
879.588	5022
879.715	5102
879.842	5231
879.97	5029
880.097	4843
880.224	4714
880.351	4854
880.478	4831
880.605	4790
880.732	4786
880.859	5105
880.986	4866
881.112	4949
881.239	4797
881.366	4641
881.493	4607
881.619	4569
881.746	4622
881.872	4664
881.999	4691
882.125	4733
882.252	4774
882.378	4801
882.505	4968
882.631	4854
882.757	4626
882.883	4755
883.01	4710
883.136	4694
883.262	4618
883.388	4607
883.514	4824
883.64	4816
883.766	4801
883.892	4717
884.018	4710
884.143	4877
884.269	4968
884.395	4668
884.52	4626
884.646	4679
884.772	4577
884.897	4584
885.023	4691
885.148	4748
885.274	4934
885.399	4828
885.524	4763
885.65	4725
885.775	4767
885.9	4714
886.025	4828
886.15	4801
886.275	4675
886.4	4694
886.525	4637
886.65	4717
886.775	4672
886.9	4965
887.025	5056
887.149	4809
887.274	4618
887.399	4618
887.523	4656
887.648	4596
887.773	4565
887.897	4782
888.021	4744
888.146	4702
888.27	4850
888.395	4911
888.519	4801
888.643	4873
888.767	4835
888.891	4687
889.015	4637
889.139	4641
889.263	4573
889.387	4816
889.511	4885
889.635	4801
889.759	4599
889.883	4637
890.006	4733
890.13	4816
890.254	4634
890.377	4660
890.501	4565
890.624	4531
890.748	4607
890.871	4542
890.995	4474
891.118	4390
891.241	4538
891.364	4538
891.488	4645
891.611	4504
891.734	4504
891.857	4637
891.98	4550
892.103	4694
892.226	4599
892.349	4558
892.471	4451
892.594	4523
892.717	4573
892.839	4550
892.962	4649
893.085	4691
893.207	4596
893.33	4466
893.452	4535
893.575	4687
893.697	4565
893.819	4752
893.941	4809
894.064	4763
894.186	4577
894.308	4588
894.43	4752
894.552	4854
894.674	4752
894.796	4603
894.918	4653
895.04	4546
895.161	4687
895.283	4645
895.405	4615
895.526	4656
895.648	4717
895.769	4668
895.891	4679
896.012	4721
896.134	4725
896.255	4702
896.376	4634
896.498	4630
896.619	4721
896.74	4626
896.861	4615
896.982	4889
897.103	5079
897.224	4831
897.345	4710
897.466	4672
897.587	4725
897.708	4885
897.828	4774
897.949	4694
898.07	4558
898.19	4649
898.311	4812
898.431	4653
898.552	4755
898.672	4797
898.792	4786
898.913	4721
899.033	4649
899.153	4527
899.273	4489
899.393	4546
899.513	4558
899.633	4519
899.753	4508
899.873	4542
899.993	4607
900.113	4497
900.232	4599
900.352	4558
900.472	4561
900.591	4405
900.711	4508
900.83	4398
900.95	4603
901.069	4637
901.189	4542
901.308	4325
901.427	4280
901.546	4405
901.665	4432
901.784	4485
901.904	4409
902.023	4318
902.141	4227
902.26	4169
902.379	4337
902.498	4223
902.617	4257
902.735	4367
902.854	4371
902.973	4341
903.091	4158
903.21	4215
903.328	4287
903.446	4276
903.565	4268
903.683	4363
903.801	4249
903.919	4405
904.038	4405
904.156	4318
904.274	4409
904.392	4424
904.51	4440
904.627	4470
904.745	4573
904.863	4626
904.981	4405
905.098	4314
905.216	4356
905.334	4447
905.451	4405
905.569	4474
905.686	4592
905.803	4550
905.921	4436
906.038	4519
906.155	4443
906.272	4379
906.389	4478
906.506	4348
906.623	4413
906.74	4356
906.857	4295
906.974	4398
907.091	4592
907.208	4694
907.324	4596
907.441	4527
907.557	4367
907.674	4325
907.79	4291
907.907	4402
908.023	4485
908.139	4481
908.256	4436
908.372	4424
908.488	4447
908.604	4363
908.72	4306
908.836	4390
908.952	4360
909.068	4375
909.184	4538
909.3	4489
909.415	4592
909.531	4573
909.647	4337
909.762	4329
909.878	4341
909.993	4470
910.108	4405
910.224	4417
910.339	4485
910.454	4409
910.57	4360
910.685	4310
910.8	4653
910.915	4668
911.03	4493
911.145	4333
911.259	4299
911.374	4405
911.489	4306
911.604	4253
911.718	4162
911.833	4162
911.947	4112
912.062	4048
912.176	4242
912.291	4276
912.405	4257
912.519	4523
912.633	4542
912.748	4383
912.862	4333
912.976	4177
913.09	4109
913.204	4162
913.318	4242
913.431	4383
913.545	4314
913.659	4421
913.772	4348
913.886	4246
914	4223
914.113	4383
914.226	4459
914.34	4344
914.453	4211
914.566	4424
914.68	4325
914.793	4306
914.906	4188
915.019	4120
915.132	4036
915.245	4166
915.358	4227
915.47	4265
915.583	4238
915.696	4276
915.809	4379
915.921	4386
916.034	4276
916.146	4272
916.259	4272
916.371	4375
916.483	4348
916.595	4268
916.708	4341
916.82	4303
916.932	4272
917.044	4344
917.156	4325
917.268	4268
917.38	4268
917.491	4257
917.603	4322
917.715	4386
917.826	4466
917.938	4383
918.049	4284
918.161	4371
918.272	4527
918.384	4508
918.495	4455
918.606	4291
918.717	4192
918.828	4322
918.939	4383
919.05	4253
919.161	4360
919.272	4093
919.383	4284
919.494	4440
919.604	4596
919.715	4402
919.826	4375
919.936	4341
920.047	4542
920.157	4546
920.267	4736
920.378	4554
920.488	4489
920.598	4691
920.708	4938
920.818	4767
920.928	4687
921.038	4968
921.148	4934
921.258	4615
921.368	4561
921.477	4478
921.587	4417
921.697	4432
921.806	4554
921.916	4455
922.025	4280
922.134	4238
922.244	4211
922.353	4299
922.462	4173
922.571	4090
922.68	4010
922.789	3979
922.898	4013
923.007	4010
923.116	4086
923.224	4055
923.333	4120
923.442	3945
923.55	3953
923.659	4029
923.767	4078
923.876	3998
923.984	4109
924.092	3975
924.201	4090
924.309	4154
924.417	4131
924.525	4063
924.633	4128
924.741	4904
924.849	3918
924.956	4124
925.064	3953
925.172	3880
925.279	3915
925.387	4044
925.494	4086
925.602	4188
925.709	4196
925.816	3994
925.924	4109
926.031	4242
926.138	4124
926.245	4185
926.352	4067
926.459	4265
926.566	4257
926.673	4120
926.779	4086
926.886	4074
926.993	3945
927.099	3979
927.206	3899
927.312	3937
927.419	4040
927.525	3991
927.631	4116
927.737	3960
927.843	3953
927.95	3831
928.056	3915
928.162	3998
928.267	4040
928.373	4588
928.479	4154
928.585	3903
928.69	3975
928.796	4112
928.901	3922
929.007	3827
929.112	4006
929.218	3956
929.323	3903
929.428	3956
929.533	4093
929.638	3907
929.743	3972
929.848	4055
929.953	4010
930.058	3941
930.163	3808
930.267	3846
930.372	3964
930.477	3804
930.581	4093
930.685	3930
930.79	3804
930.894	3857
930.998	3846
931.103	4021
931.207	3679
931.311	3667
931.415	3648
931.519	3511
931.623	3557
