Data from test_V78500241_1691.txt Node
Date: Fri Mar 25 17:00:45 CST 2022
User: usil
Spectrometer: V785-0024
Trigger mode: 0
Integration Time (sec): 4.000000E-1
Scans to average: 1
Nonlinearity correction enabled: false
Boxcar width: 0
Storing dark spectrum: false
XAxis mode: Wavelengths
Number of Pixels in Spectrum: 1024
>>>>>Begin Spectral Data<<<<<
801.071	7909
801.214	8054
801.356	7849
801.499	7814
801.641	7776
801.783	7845
801.926	7925
802.068	7944
802.211	8039
802.353	8020
802.496	7868
802.638	7852
802.78	7879
802.923	7921
803.065	7906
803.208	7788
803.35	7963
803.492	8123
803.635	8191
803.777	8001
803.919	8157
804.061	8377
804.204	8161
804.346	8081
804.488	8008
804.63	8035
804.773	7982
804.915	8088
805.057	8332
805.199	8218
805.341	8237
805.483	8237
805.626	8157
805.768	8126
805.91	8267
806.052	8206
806.194	8157
806.336	8294
806.478	8107
806.62	8084
806.762	8187
806.904	8298
807.046	8511
807.188	8400
807.33	8404
807.472	8347
807.614	8180
807.756	8100
807.898	8001
808.04	7940
808.182	7955
808.324	7951
808.465	7887
808.607	8092
808.749	8092
808.891	8206
809.033	8351
809.174	8206
809.316	8092
809.458	8077
809.6	8020
809.741	8050
809.883	8050
810.025	8142
810.166	8107
810.308	7993
810.45	8016
810.591	7898
810.733	7757
810.875	7727
811.016	7563
811.158	7518
811.299	7552
811.441	7731
811.582	7689
811.724	7578
811.865	7552
812.007	7624
812.148	7590
812.29	7605
812.431	7772
812.573	7936
812.714	7997
812.855	8164
812.997	8214
813.138	8339
813.279	8199
813.421	8168
813.562	7986
813.703	7875
813.845	7704
813.986	7415
814.127	7270
814.268	7190
814.41	7228
814.551	7213
814.692	7179
814.833	7107
814.974	7126
815.115	7149
815.256	6981
815.397	7004
815.539	6958
815.68	6787
815.821	6772
815.962	6894
816.103	6783
816.244	6700
816.385	6623
816.526	6654
816.666	6502
816.807	6365
816.948	6471
817.089	6506
817.23	6448
817.371	6311
817.512	6338
817.653	6372
817.793	6372
817.934	6433
818.075	6418
818.216	6467
818.356	6407
818.497	6270
818.638	6125
818.778	6152
818.919	6163
819.06	6110
819.2	6323
819.341	6334
819.481	6380
819.622	6452
819.762	6703
819.903	6711
820.043	6574
820.184	6608
820.324	6604
820.465	6734
820.605	6700
820.746	6635
820.886	6601
821.026	6677
821.167	6738
821.307	6783
821.447	6825
821.588	6696
821.728	6559
821.868	6433
822.008	6353
822.149	6384
822.289	6331
822.429	6178
822.569	6098
822.709	6152
822.849	5965
822.99	5988
823.13	5885
823.27	5889
823.41	5798
823.55	5767
823.69	5790
823.83	5786
823.97	5703
824.11	5532
824.25	5532
824.389	5532
824.529	5592
824.669	5562
824.809	5668
824.949	5672
825.089	5592
825.228	5562
825.368	5372
825.508	5353
825.648	5334
825.787	5433
825.927	5402
826.067	5296
826.206	5341
826.346	5433
826.485	5379
826.625	5406
826.765	5592
826.904	5497
827.044	5311
827.183	5258
827.323	5166
827.462	5250
827.601	5155
827.741	5220
827.88	5258
828.02	5132
828.159	5239
828.298	5334
828.437	5368
828.577	5269
828.716	5493
828.855	5395
828.994	5223
829.134	5174
829.273	5235
829.412	5178
829.551	5151
829.69	5170
829.829	5284
829.968	5364
830.107	5311
830.246	5299
830.385	5193
830.524	5151
830.663	5056
830.802	4953
830.941	4881
831.08	4866
831.219	5052
831.357	5003
831.496	5170
831.635	4949
831.774	4870
831.913	4831
832.051	4774
832.19	4740
832.329	4866
832.467	4672
832.606	4607
832.744	4771
832.883	4729
833.022	4778
833.16	4774
833.299	4831
833.437	4816
833.576	4828
833.714	4881
833.852	4847
833.991	4870
834.129	4987
834.267	4934
834.406	4934
834.544	4991
834.682	4923
834.821	4984
834.959	5124
835.097	4999
835.235	5189
835.373	5079
835.511	5166
835.65	5083
835.788	5018
835.926	4961
836.064	4908
836.202	4904
836.34	5147
836.478	5246
836.615	5166
836.753	5242
836.891	5216
837.029	5299
837.167	5155
837.305	5197
837.443	5140
837.58	5064
837.718	5212
837.856	5216
837.993	5113
838.131	5223
838.269	5235
838.406	5208
838.544	5193
838.681	4980
838.819	5052
838.956	4923
839.094	4915
839.231	4976
839.369	5045
839.506	5368
839.643	5277
839.781	5064
839.918	5025
840.055	5075
840.193	5124
840.33	5121
840.467	5124
840.604	5212
840.742	5425
840.879	5045
841.016	5086
841.153	5094
841.29	5318
841.427	5334
841.564	5326
841.701	5391
841.838	5296
841.975	5265
842.112	5265
842.249	5086
842.385	5090
842.522	5353
842.659	5181
842.796	5105
842.933	5242
843.069	5132
843.206	5136
843.343	5288
843.479	5201
843.616	5231
843.752	5033
843.889	4999
844.025	5189
844.162	4972
844.298	5250
844.435	5098
844.571	5052
844.708	5162
844.844	5330
844.98	5326
845.117	5269
845.253	5155
845.389	5064
845.525	5178
845.661	5113
845.798	4987
845.934	5185
846.07	5033
846.206	5227
846.342	5318
846.478	5174
846.614	4984
846.75	5003
846.886	4957
847.022	5166
847.158	5029
847.294	5056
847.429	5086
847.565	5033
847.701	5345
847.837	4790
847.972	4847
848.108	4953
848.244	4942
848.379	4774
848.515	4752
848.65	4744
848.786	4736
848.921	4782
849.057	4870
849.192	4946
849.328	4820
849.463	4835
849.598	4786
849.734	4721
849.869	4721
850.004	4641
850.14	4683
850.275	4622
850.41	4565
850.545	4573
850.68	4630
850.815	4580
850.95	4622
851.085	4839
851.22	4744
851.355	4645
851.49	4596
851.625	4630
851.76	4622
851.895	4561
852.03	4538
852.165	4649
852.299	4675
852.434	4744
852.569	4725
852.703	4759
852.838	4847
852.973	4927
853.107	4942
853.242	4771
853.376	4660
853.511	4512
853.645	4622
853.78	4812
853.914	4698
854.048	4668
854.183	4641
854.317	4649
854.451	4801
854.585	4637
854.72	4660
854.854	4771
854.988	4596
855.122	4645
855.256	4519
855.39	4694
855.524	4755
855.658	4748
855.792	4675
855.926	4786
856.06	4763
856.194	4797
856.327	4691
856.461	4630
856.595	4615
856.729	4615
856.862	4714
856.996	4733
857.13	4717
857.263	4797
857.397	4778
857.53	4649
857.664	4717
857.797	4759
857.931	4790
858.064	4660
858.197	4771
858.331	4672
858.464	4561
858.597	4550
858.731	4649
858.864	4615
858.997	4599
859.13	4721
859.263	4702
859.396	4721
859.529	4615
859.662	4565
859.795	4580
859.928	4630
860.061	4763
860.194	4740
860.327	4603
860.46	4569
860.592	4740
860.725	4763
860.858	4721
860.99	4573
861.123	4561
861.256	4523
861.388	4596
861.521	5197
861.653	4459
861.786	4447
861.918	4519
862.05	4512
862.183	4531
862.315	4626
862.447	4630
862.58	4569
862.712	4409
862.844	4344
862.976	4474
863.108	4485
863.24	4862
863.372	4367
863.504	4443
863.636	4398
863.768	4478
863.9	4428
864.032	4322
864.164	4405
864.296	4447
864.428	4504
864.559	4577
864.691	4531
864.823	4497
864.954	4493
865.086	4500
865.217	4451
865.349	4402
865.48	4424
865.612	4455
865.743	4618
865.875	4462
866.006	4466
866.137	4500
866.269	4447
866.4	4394
866.531	4459
866.662	4398
866.793	4390
866.924	4398
867.055	4440
867.186	4421
867.317	4417
867.448	4379
867.579	4383
867.71	4356
867.841	4375
867.972	4432
868.103	4455
868.233	4478
868.364	4466
868.495	4508
868.625	4664
868.756	4733
868.886	4573
869.017	4607
869.147	4733
869.278	4691
869.408	4641
869.539	4668
869.669	4679
869.799	4649
869.929	4740
870.06	4767
870.19	4919
870.32	4885
870.45	4972
870.58	4995
870.71	5121
870.84	5075
870.97	4934
871.1	4900
871.23	5166
871.36	5090
871.489	5003
871.619	5033
871.749	5098
871.879	5121
872.008	5181
872.138	5022
872.267	4987
872.397	4885
872.526	4812
872.656	4752
872.785	4835
872.915	4930
873.044	5060
873.173	4938
873.303	4927
873.432	4987
873.561	4919
873.69	4911
873.819	4850
873.948	4915
874.077	4820
874.206	4759
874.335	4793
874.464	4930
874.593	5083
874.722	4942
874.851	5090
874.979	5014
875.108	5033
875.237	4908
875.365	4839
875.494	4923
875.623	4919
875.751	4782
875.88	4828
876.008	4965
876.136	5025
876.265	5204
876.393	5261
876.521	5277
876.65	5227
876.778	5102
876.906	5060
877.034	5037
877.162	5079
877.29	5003
877.418	5086
877.546	5041
877.674	5010
877.802	4984
877.93	4999
878.058	4953
878.185	4892
878.313	4984
878.441	4965
878.568	4812
878.696	4862
878.824	4984
878.951	4930
879.079	5086
879.206	5254
879.333	5132
879.461	4949
879.588	4949
879.715	5105
879.842	5246
879.97	4984
880.097	4790
880.224	4778
880.351	4790
880.478	4809
880.605	4816
880.732	4790
880.859	5048
880.986	4934
881.112	4946
881.239	4782
881.366	4649
881.493	4634
881.619	4603
881.746	4637
881.872	4668
881.999	4641
882.125	4733
882.252	4744
882.378	4812
882.505	4968
882.631	4793
882.757	4694
882.883	4702
883.01	4675
883.136	4691
883.262	4561
883.388	4630
883.514	4801
883.64	4862
883.766	4771
883.892	4687
884.018	4679
884.143	4877
884.269	4980
884.395	4649
884.52	4584
884.646	4622
884.772	4577
884.897	4577
885.023	4641
885.148	4839
885.274	4889
885.399	4797
885.524	4683
885.65	4706
885.775	4721
885.9	4630
886.025	4854
886.15	4786
886.275	4687
886.4	4649
886.525	4790
886.65	4691
886.775	4675
886.9	4885
887.025	4968
887.149	4763
887.274	4664
887.399	4592
887.523	4588
887.648	4584
887.773	4577
887.897	4778
888.021	4790
888.146	4656
888.27	4812
888.395	4831
888.519	4767
888.643	4748
888.767	4816
888.891	4653
889.015	4645
889.139	4649
889.263	4569
889.387	4767
889.511	4843
889.635	4790
889.759	4679
889.883	4645
890.006	4736
890.13	4816
890.254	4622
890.377	4687
890.501	4542
890.624	4519
890.748	4618
890.871	4508
890.995	4447
891.118	4360
891.241	4538
891.364	4512
891.488	4645
891.611	4500
891.734	4516
891.857	4558
891.98	4592
892.103	4618
892.226	4535
892.349	4542
892.471	4447
892.594	4561
892.717	4535
892.839	4550
892.962	4626
893.085	4675
893.207	4626
893.33	4489
893.452	4596
893.575	4683
893.697	4573
893.819	4759
893.941	4809
894.064	4831
894.186	4565
894.308	4588
894.43	4733
894.552	4904
894.674	4763
894.796	4584
894.918	4637
895.04	4561
895.161	4729
895.283	4653
895.405	4596
895.526	4637
895.648	4698
895.769	4660
895.891	4714
896.012	4736
896.134	4706
896.255	4645
896.376	4626
896.498	4618
896.619	4634
896.74	4611
896.861	4641
896.982	4892
897.103	5090
897.224	4889
897.345	4748
897.466	4634
897.587	4774
897.708	4835
897.828	4767
897.949	4706
898.07	4561
898.19	4668
898.311	4790
898.431	4634
898.552	4729
898.672	4790
898.792	4767
898.913	4748
899.033	4615
899.153	4519
899.273	4440
899.393	4489
899.513	4481
899.633	4531
899.753	4519
899.873	4504
899.993	4599
900.113	4519
900.232	4588
900.352	4500
900.472	4478
900.591	4398
900.711	4447
900.83	4481
900.95	4599
901.069	4675
901.189	4504
901.308	4344
901.427	4314
901.546	4325
901.665	4497
901.784	4512
901.904	4371
902.023	4314
902.141	4154
902.26	4131
902.379	4284
902.498	4272
902.617	4215
902.735	4413
902.854	4352
902.973	4363
903.091	4204
903.21	4192
903.328	4337
903.446	4287
903.565	4238
903.683	4333
903.801	4234
903.919	4405
904.038	4440
904.156	4360
904.274	4424
904.392	4394
904.51	4371
904.627	4481
904.745	4580
904.863	4637
904.981	4352
905.098	4329
905.216	4341
905.334	4409
905.451	4432
905.569	4443
905.686	4542
905.803	4611
905.921	4417
906.038	4519
906.155	4474
906.272	4390
906.389	4455
906.506	4348
906.623	4371
906.74	4352
906.857	4310
906.974	4383
907.091	4531
907.208	4622
907.324	4622
907.441	4481
907.557	4295
907.674	4344
907.79	4318
907.907	4383
908.023	4508
908.139	4470
908.256	4379
908.372	4474
908.488	4470
908.604	4352
908.72	4390
908.836	4402
908.952	4371
909.068	4436
909.184	4531
909.3	4497
909.415	4599
909.531	4550
909.647	4390
909.762	4386
909.878	4360
909.993	4459
910.108	4421
910.224	4394
910.339	4527
910.454	4390
910.57	4379
910.685	4306
910.8	4634
910.915	4584
911.03	4470
911.145	4318
911.259	4341
911.374	4367
911.489	4299
911.604	4265
911.718	4162
911.833	4204
911.947	4143
912.062	3994
912.176	4227
912.291	4230
912.405	4261
912.519	4443
912.633	4493
912.748	4386
912.862	4318
912.976	4230
913.09	4074
913.204	4223
913.318	4246
913.431	4371
913.545	4386
913.659	4462
913.772	4356
913.886	4299
914	4242
914.113	4348
914.226	4375
914.34	4440
914.453	4238
914.566	4428
914.68	4329
914.793	4280
914.906	4150
915.019	4173
915.132	4044
915.245	4177
915.358	4238
915.47	4306
915.583	4238
915.696	4291
915.809	4428
915.921	4390
916.034	4242
916.146	4287
916.259	4223
916.371	4405
916.483	4344
916.595	4230
916.708	4306
916.82	4306
916.932	4280
917.044	4322
917.156	4341
917.268	4223
917.38	4268
917.491	4299
917.603	4333
917.715	4417
917.826	4383
917.938	4303
918.049	4261
918.161	4363
918.272	4527
918.384	4478
918.495	4493
918.606	4280
918.717	4215
918.828	4348
918.939	4352
919.05	4276
919.161	4344
919.272	4139
919.383	4246
919.494	4443
919.604	4626
919.715	4405
919.826	4322
919.936	4394
920.047	4512
920.157	4470
920.267	4679
920.378	4542
920.488	4508
920.598	4691
920.708	4900
920.818	4790
920.928	4767
921.038	4915
921.148	4915
921.258	4599
921.368	4538
921.477	4474
921.587	4523
921.697	4383
921.806	4535
921.916	4405
922.025	4287
922.134	4284
922.244	4249
922.353	4295
922.462	4169
922.571	4074
922.68	4040
922.789	3983
922.898	4040
923.007	3987
923.116	4067
923.224	4097
923.333	4074
923.442	3964
923.55	4010
923.659	4002
923.767	4109
923.876	4010
923.984	4143
924.092	3994
924.201	4063
924.309	4021
924.417	4139
924.525	4010
924.633	4135
924.741	4889
924.849	3926
924.956	4143
925.064	3972
925.172	3911
925.279	3960
925.387	4036
925.494	4071
925.602	4223
925.709	4192
925.816	4051
925.924	4143
926.031	4200
926.138	4211
926.245	4215
926.352	4071
926.459	4207
926.566	4314
926.673	4154
926.779	4082
926.886	4078
926.993	3968
927.099	3975
927.206	3956
927.312	3953
927.419	4021
927.525	4021
927.631	4013
927.737	3987
927.843	3941
927.95	3827
928.056	3994
928.162	3960
928.267	4067
928.373	4660
928.479	4116
928.585	3911
928.69	4002
928.796	4078
928.901	3956
929.007	3835
929.112	3983
929.218	3975
929.323	3956
929.428	3945
929.533	4044
929.638	3915
929.743	3945
929.848	4025
929.953	4032
930.058	3915
930.163	3770
930.267	3804
930.372	3937
930.477	3793
930.581	4063
930.685	3960
930.79	3838
930.894	3896
930.998	3865
931.103	4029
931.207	3679
931.311	3618
931.415	3667
931.519	3492
931.623	3530
