Data from test_V78500241_92.txt Node
Date: Fri Mar 25 16:49:38 CST 2022
User: usil
Spectrometer: V785-0024
Trigger mode: 0
Integration Time (sec): 4.000000E-1
Scans to average: 1
Nonlinearity correction enabled: false
Boxcar width: 0
Storing dark spectrum: false
XAxis mode: Wavelengths
Number of Pixels in Spectrum: 1024
>>>>>Begin Spectral Data<<<<<
801.071	7989
801.214	7997
801.356	7940
801.499	7879
801.641	7799
801.783	7898
801.926	8062
802.068	8012
802.211	7978
802.353	8024
802.496	7887
802.638	7928
802.78	7913
802.923	7967
803.065	7932
803.208	7830
803.35	7967
803.492	8054
803.635	8130
803.777	7947
803.919	8027
804.061	8423
804.204	8062
804.346	8027
804.488	7989
804.63	8092
804.773	7974
804.915	8157
805.057	8317
805.199	8088
805.341	8168
805.483	8263
805.626	8214
805.768	8088
805.91	8149
806.052	8206
806.194	8138
806.336	8317
806.478	8134
806.62	8092
806.762	8168
806.904	8244
807.046	8457
807.188	8377
807.33	8282
807.472	8347
807.614	8123
807.756	8229
807.898	8069
808.04	7890
808.182	7883
808.324	7909
808.465	7917
808.607	8081
808.749	8134
808.891	8244
809.033	8305
809.174	8221
809.316	8043
809.458	8069
809.6	7947
809.741	8088
809.883	8016
810.025	8081
810.166	8046
810.308	8069
810.45	8020
810.591	7902
810.733	7776
810.875	7666
811.016	7460
811.158	7590
811.299	7655
811.441	7822
811.582	7723
811.724	7636
811.865	7575
812.007	7647
812.148	7643
812.29	7594
812.431	7799
812.573	7963
812.714	8020
812.855	8221
812.997	8298
813.138	8286
813.279	8267
813.421	8157
813.562	8024
813.703	7830
813.845	7788
813.986	7460
814.127	7282
814.268	7228
814.41	7259
814.551	7206
814.692	7278
814.833	7122
814.974	7114
815.115	7171
815.256	7053
815.397	6939
815.539	6958
815.68	6882
815.821	6749
815.962	6859
816.103	6859
816.244	6681
816.385	6642
816.526	6604
816.666	6574
816.807	6361
816.948	6414
817.089	6490
817.23	6494
817.371	6410
817.512	6490
817.653	6456
817.793	6365
817.934	6456
818.075	6486
818.216	6502
818.356	6380
818.497	6262
818.638	6129
818.778	6190
818.919	6178
819.06	6216
819.2	6342
819.341	6300
819.481	6403
819.622	6570
819.762	6768
819.903	6783
820.043	6745
820.184	6582
820.324	6578
820.465	6692
820.605	6604
820.746	6703
820.886	6536
821.026	6635
821.167	6711
821.307	6829
821.447	6821
821.588	6700
821.728	6616
821.868	6521
822.008	6353
822.149	6361
822.289	6448
822.429	6190
822.569	6140
822.709	6178
822.849	5950
822.99	5851
823.13	5942
823.27	5942
823.41	5809
823.55	5813
823.69	5836
823.83	5859
823.97	5756
824.11	5554
824.25	5516
824.389	5608
824.529	5608
824.669	5558
824.809	5646
824.949	5676
825.089	5611
825.228	5566
825.368	5429
825.508	5383
825.648	5372
825.787	5383
825.927	5360
826.067	5315
826.206	5303
826.346	5383
826.485	5395
826.625	5467
826.765	5554
826.904	5497
827.044	5277
827.183	5223
827.323	5105
827.462	5277
827.601	5212
827.741	5174
827.88	5254
828.02	5189
828.159	5299
828.298	5303
828.437	5368
828.577	5261
828.716	5440
828.855	5353
828.994	5208
829.134	5162
829.273	5223
829.412	5155
829.551	5204
829.69	5220
829.829	5258
829.968	5368
830.107	5292
830.246	5288
830.385	5170
830.524	5174
830.663	5086
830.802	4991
830.941	4938
831.08	4900
831.219	5071
831.357	4972
831.496	5159
831.635	4942
831.774	4889
831.913	4919
832.051	4683
832.19	4790
832.329	4889
832.467	4717
832.606	4645
832.744	4717
832.883	4748
833.022	4752
833.16	4812
833.299	4847
833.437	4847
833.576	4793
833.714	4866
833.852	4858
833.991	4904
834.129	4991
834.267	4976
834.406	4873
834.544	4968
834.682	4999
834.821	5029
834.959	5155
835.097	5003
835.235	5162
835.373	5094
835.511	5113
835.65	5052
835.788	5060
835.926	4919
836.064	4900
836.202	4961
836.34	5181
836.478	5254
836.615	5147
836.753	5265
836.891	5353
837.029	5227
837.167	5223
837.305	5197
837.443	5189
837.58	5113
837.718	5258
837.856	5231
837.993	5181
838.131	5231
838.269	5220
838.406	5242
838.544	5231
838.681	5102
838.819	5033
838.956	4904
839.094	4942
839.231	5014
839.369	5094
839.506	5417
839.643	5254
839.781	5083
839.918	5083
840.055	5094
840.193	5162
840.33	5121
840.467	5181
840.604	5155
840.742	5440
840.879	5105
841.016	5128
841.153	5155
841.29	5334
841.427	5357
841.564	5315
841.701	5383
841.838	5299
841.975	5258
842.112	5318
842.249	5117
842.385	5090
842.522	5406
842.659	5159
842.796	5185
842.933	5242
843.069	5117
843.206	5189
843.343	5330
843.479	5288
843.616	5277
843.752	5086
843.889	4991
844.025	5216
844.162	5010
844.298	5246
844.435	5162
844.571	5048
844.708	5258
844.844	5383
844.98	5326
845.117	5273
845.253	5151
845.389	5056
845.525	5201
845.661	5140
845.798	5045
845.934	5140
846.07	5094
846.206	5197
846.342	5280
846.478	5220
846.614	5071
846.75	4942
846.886	4999
847.022	5185
847.158	5037
847.294	5132
847.429	5086
847.565	5113
847.701	5277
847.837	4896
847.972	4835
848.108	4965
848.244	4927
848.379	4778
848.515	4786
848.65	4767
848.786	4706
848.921	4752
849.057	4870
849.192	4949
849.328	4820
849.463	4847
849.598	4812
849.734	4801
849.869	4733
850.004	4653
850.14	4675
850.275	4694
850.41	4546
850.545	4565
850.68	4596
850.815	4637
850.95	4672
851.085	4854
851.22	4774
851.355	4668
851.49	4645
851.625	4664
851.76	4714
851.895	4596
852.03	4523
852.165	4687
852.299	4771
852.434	4790
852.569	4778
852.703	4809
852.838	4839
852.973	4980
853.107	4946
853.242	4824
853.376	4679
853.511	4577
853.645	4603
853.78	4805
853.914	4694
854.048	4694
854.183	4675
854.317	4740
854.451	4892
854.585	4634
854.72	4603
854.854	4790
854.988	4584
855.122	4683
855.256	4508
855.39	4683
855.524	4790
855.658	4752
855.792	4714
855.926	4736
856.06	4771
856.194	4797
856.327	4683
856.461	4641
856.595	4637
856.729	4622
856.862	4782
856.996	4721
857.13	4740
857.263	4759
857.397	4839
857.53	4656
857.664	4717
857.797	4782
857.931	4797
858.064	4710
858.197	4759
858.331	4645
858.464	4634
858.597	4569
858.731	4611
858.864	4679
858.997	4599
859.13	4660
859.263	4752
859.396	4717
859.529	4577
859.662	4535
859.795	4588
859.928	4679
860.061	4774
860.194	4767
860.327	4649
860.46	4607
860.592	4755
860.725	4698
860.858	4710
860.99	4611
861.123	4542
861.256	4558
861.388	4664
861.521	5315
861.653	4470
861.786	4424
861.918	4459
862.05	4588
862.183	4546
862.315	4637
862.447	4675
862.58	4615
862.712	4421
862.844	4348
862.976	4428
863.108	4527
863.24	4866
863.372	4352
863.504	4417
863.636	4432
863.768	4538
863.9	4428
864.032	4394
864.164	4386
864.296	4508
864.428	4561
864.559	4569
864.691	4542
864.823	4519
864.954	4519
865.086	4542
865.217	4478
865.349	4440
865.48	4447
865.612	4481
865.743	4664
865.875	4512
866.006	4447
866.137	4417
866.269	4443
866.4	4451
866.531	4443
866.662	4405
866.793	4424
866.924	4462
867.055	4497
867.186	4462
867.317	4451
867.448	4417
867.579	4398
867.71	4383
867.841	4432
867.972	4523
868.103	4470
868.233	4481
868.364	4459
868.495	4478
868.625	4679
868.756	4774
868.886	4550
869.017	4687
869.147	4812
869.278	4820
869.408	4698
869.539	4664
869.669	4748
869.799	4679
869.929	4778
870.06	4812
870.19	4991
870.32	4927
870.45	4987
870.58	5006
870.71	5121
870.84	5136
870.97	4953
871.1	5022
871.23	5197
871.36	5178
871.489	5060
871.619	5140
871.749	5162
871.879	5254
872.008	5239
872.138	5064
872.267	5003
872.397	4911
872.526	4866
872.656	4774
872.785	4854
872.915	4995
873.044	5090
873.173	5033
873.303	5041
873.432	5029
873.561	4999
873.69	4949
873.819	4915
873.948	5045
874.077	4957
874.206	4812
874.335	4835
874.464	5033
874.593	5090
874.722	5037
874.851	5113
874.979	5124
875.108	5105
875.237	5014
875.365	4915
875.494	4968
875.623	5018
875.751	4896
875.88	4908
876.008	5052
876.136	5105
876.265	5261
876.393	5436
876.521	5265
876.65	5326
876.778	5185
876.906	5086
877.034	5140
877.162	5105
877.29	5022
877.418	5170
877.546	5105
877.674	5105
877.802	5140
877.93	5136
878.058	5025
878.185	4904
878.313	5064
878.441	5048
878.568	4889
878.696	4927
878.824	5056
878.951	5083
879.079	5204
879.206	5345
879.333	5136
879.461	5060
879.588	5075
879.715	5197
879.842	5353
879.97	5048
880.097	4908
880.224	4812
880.351	4873
880.478	4854
880.605	4831
880.732	4862
880.859	5185
880.986	4984
881.112	4934
881.239	4847
881.366	4767
881.493	4637
881.619	4664
881.746	4687
881.872	4725
881.999	4687
882.125	4725
882.252	4812
882.378	4908
882.505	4999
882.631	4870
882.757	4706
882.883	4774
883.01	4752
883.136	4725
883.262	4641
883.388	4675
883.514	4866
883.64	4877
883.766	4870
883.892	4736
884.018	4744
884.143	4961
884.269	5075
884.395	4782
884.52	4698
884.646	4683
884.772	4649
884.897	4660
885.023	4683
885.148	4885
885.274	4915
885.399	4831
885.524	4771
885.65	4763
885.775	4828
885.9	4812
886.025	4923
886.15	4824
886.275	4820
886.4	4740
886.525	4782
886.65	4717
886.775	4683
886.9	4942
887.025	5052
887.149	4858
887.274	4706
887.399	4603
887.523	4607
887.648	4599
887.773	4630
887.897	4782
888.021	4858
888.146	4733
888.27	4866
888.395	4972
888.519	4915
888.643	4870
888.767	4847
888.891	4733
889.015	4637
889.139	4717
889.263	4634
889.387	4831
889.511	4915
889.635	4809
889.759	4656
889.883	4691
890.006	4786
890.13	4870
890.254	4679
890.377	4752
890.501	4645
890.624	4554
890.748	4691
890.871	4649
890.995	4455
891.118	4424
891.241	4542
891.364	4519
891.488	4706
891.611	4611
891.734	4615
891.857	4668
891.98	4569
892.103	4687
892.226	4645
892.349	4588
892.471	4504
892.594	4630
892.717	4660
892.839	4599
892.962	4672
893.085	4710
893.207	4668
893.33	4527
893.452	4599
893.575	4694
893.697	4706
893.819	4877
893.941	4896
894.064	4809
894.186	4611
894.308	4611
894.43	4744
894.552	4839
894.674	4809
894.796	4569
894.918	4710
895.04	4626
895.161	4736
895.283	4706
895.405	4634
895.526	4687
895.648	4714
895.769	4755
895.891	4774
896.012	4774
896.134	4786
896.255	4710
896.376	4656
896.498	4668
896.619	4752
896.74	4710
896.861	4664
896.982	4953
897.103	5140
897.224	4930
897.345	4824
897.466	4691
897.587	4793
897.708	4957
897.828	4835
897.949	4752
898.07	4660
898.19	4706
898.311	4885
898.431	4736
898.552	4786
898.672	4850
898.792	4835
898.913	4801
899.033	4656
899.153	4527
899.273	4443
899.393	4546
899.513	4577
899.633	4577
899.753	4580
899.873	4584
899.993	4645
900.113	4565
900.232	4653
900.352	4622
900.472	4535
900.591	4485
900.711	4542
900.83	4481
900.95	4683
901.069	4767
901.189	4580
901.308	4432
901.427	4367
901.546	4424
901.665	4592
901.784	4512
901.904	4428
902.023	4360
902.141	4272
902.26	4238
902.379	4325
902.498	4322
902.617	4310
902.735	4424
902.854	4443
902.973	4398
903.091	4291
903.21	4318
903.328	4344
903.446	4318
903.565	4322
903.683	4455
903.801	4383
903.919	4481
904.038	4455
904.156	4383
904.274	4493
904.392	4413
904.51	4516
904.627	4500
904.745	4637
904.863	4641
904.981	4421
905.098	4394
905.216	4455
905.334	4481
905.451	4481
905.569	4508
905.686	4592
905.803	4577
905.921	4436
906.038	4577
906.155	4542
906.272	4451
906.389	4489
906.506	4390
906.623	4417
906.74	4455
906.857	4360
906.974	4436
907.091	4584
907.208	4717
907.324	4656
907.441	4535
907.557	4379
907.674	4409
907.79	4360
907.907	4440
908.023	4508
908.139	4489
908.256	4481
908.372	4523
908.488	4470
908.604	4424
908.72	4363
908.836	4459
908.952	4443
909.068	4489
909.184	4668
909.3	4569
909.415	4565
909.531	4611
909.647	4379
909.762	4398
909.878	4371
909.993	4443
910.108	4455
910.224	4459
910.339	4531
910.454	4424
910.57	4390
910.685	4386
910.8	4694
910.915	4634
911.03	4542
911.145	4360
911.259	4363
911.374	4375
911.489	4363
911.604	4333
911.718	4177
911.833	4257
911.947	4135
912.062	4055
912.176	4242
912.291	4284
912.405	4291
912.519	4523
912.633	4531
912.748	4405
912.862	4363
912.976	4234
913.09	4112
913.204	4150
913.318	4299
913.431	4440
913.545	4337
913.659	4443
913.772	4356
913.886	4287
914	4310
914.113	4451
914.226	4500
914.34	4440
914.453	4310
914.566	4428
914.68	4318
914.793	4402
914.906	4200
915.019	4181
915.132	4158
915.245	4207
915.358	4261
915.47	4295
915.583	4371
915.696	4333
915.809	4474
915.921	4409
916.034	4295
916.146	4272
916.259	4246
916.371	4421
916.483	4375
916.595	4341
916.708	4379
916.82	4348
916.932	4344
917.044	4398
917.156	4371
917.268	4356
917.38	4352
917.491	4322
917.603	4398
917.715	4440
917.826	4500
917.938	4379
918.049	4291
918.161	4409
918.272	4618
918.384	4535
918.495	4481
918.606	4325
918.717	4276
918.828	4383
918.939	4421
919.05	4325
919.161	4379
919.272	4169
919.383	4287
919.494	4470
919.604	4645
919.715	4474
919.826	4360
919.936	4432
920.047	4558
920.157	4497
920.267	4717
920.378	4599
920.488	4554
920.598	4786
920.708	4938
920.818	4831
920.928	4847
921.038	5022
921.148	4949
921.258	4645
921.368	4615
921.477	4508
921.587	4523
921.697	4428
921.806	4569
921.916	4470
922.025	4325
922.134	4291
922.244	4276
922.353	4398
922.462	4196
922.571	4143
922.68	4051
922.789	3968
922.898	4120
923.007	4025
923.116	4139
923.224	4147
923.333	4116
923.442	4029
923.55	4010
923.659	4105
923.767	4162
923.876	4036
923.984	4166
924.092	4067
924.201	4112
924.309	4143
924.417	4173
924.525	4139
924.633	4139
924.741	4949
924.849	3903
924.956	4162
925.064	4036
925.172	3949
925.279	4002
925.387	4124
925.494	4074
925.602	4207
925.709	4253
925.816	4059
925.924	4181
926.031	4314
926.138	4192
926.245	4257
926.352	4105
926.459	4280
926.566	4341
926.673	4211
926.779	4120
926.886	4150
926.993	4010
927.099	4002
927.206	3960
927.312	4017
927.419	4097
927.525	4063
927.631	4147
927.737	4013
927.843	3987
927.95	3911
928.056	3975
928.162	4006
928.267	4086
928.373	4630
928.479	4162
928.585	3884
928.69	4010
928.796	4097
928.901	4029
929.007	3896
929.112	3991
929.218	4021
929.323	3972
929.428	4032
929.533	4120
929.638	3968
929.743	3979
929.848	4097
929.953	4048
930.058	3907
930.163	3823
930.267	3869
930.372	4021
930.477	3850
930.581	4116
930.685	3960
930.79	3838
930.894	3964
930.998	3934
931.103	4086
931.207	3724
931.311	3728
931.415	3686
931.519	3523
931.623	3603
