Data from test_V78500241_105.txt Node
Date: Fri Mar 25 16:49:43 CST 2022
User: usil
Spectrometer: V785-0024
Trigger mode: 0
Integration Time (sec): 4.000000E-1
Scans to average: 1
Nonlinearity correction enabled: false
Boxcar width: 0
Storing dark spectrum: false
XAxis mode: Wavelengths
Number of Pixels in Spectrum: 1024
>>>>>Begin Spectral Data<<<<<
801.071	8084
801.214	7993
801.356	7921
801.499	7921
801.641	7894
801.783	7875
801.926	8039
802.068	8020
802.211	8111
802.353	8100
802.496	7818
802.638	7947
802.78	7959
802.923	7944
803.065	7860
803.208	7830
803.35	7970
803.492	8119
803.635	8119
803.777	7997
803.919	8138
804.061	8336
804.204	8134
804.346	8069
804.488	7940
804.63	8119
804.773	8016
804.915	8100
805.057	8301
805.199	8149
805.341	8218
805.483	8294
805.626	8210
805.768	8134
805.91	8126
806.052	8172
806.194	8187
806.336	8259
806.478	8134
806.62	8168
806.762	8195
806.904	8305
807.046	8484
807.188	8351
807.33	8377
807.472	8366
807.614	8138
807.756	8210
807.898	8058
808.04	7928
808.182	7925
808.324	7947
808.465	7989
808.607	8046
808.749	8100
808.891	8206
809.033	8336
809.174	8168
809.316	8130
809.458	8012
809.6	8020
809.741	8054
809.883	8016
810.025	8134
810.166	8020
810.308	8103
810.45	8054
810.591	7978
810.733	7837
810.875	7727
811.016	7563
811.158	7499
811.299	7636
811.441	7765
811.582	7792
811.724	7693
811.865	7651
812.007	7700
812.148	7670
812.29	7742
812.431	7921
812.573	7940
812.714	8065
812.855	8225
812.997	8366
813.138	8412
813.279	8237
813.421	8233
813.562	8149
813.703	7959
813.845	7784
813.986	7464
814.127	7346
814.268	7289
814.41	7335
814.551	7247
814.692	7263
814.833	7179
814.974	7221
815.115	7209
815.256	7050
815.397	6905
815.539	7031
815.68	6901
815.821	6867
815.962	6886
816.103	6783
816.244	6760
816.385	6604
816.526	6616
816.666	6620
816.807	6380
816.948	6486
817.089	6525
817.23	6532
817.371	6437
817.512	6380
817.653	6456
817.793	6388
817.934	6437
818.075	6483
818.216	6502
818.356	6498
818.497	6258
818.638	6148
818.778	6220
818.919	6167
819.06	6197
819.2	6327
819.341	6407
819.481	6388
819.622	6540
819.762	6772
819.903	6715
820.043	6681
820.184	6646
820.324	6620
820.465	6772
820.605	6700
820.746	6741
820.886	6551
821.026	6719
821.167	6779
821.307	6878
821.447	6795
821.588	6741
821.728	6639
821.868	6570
822.008	6346
822.149	6418
822.289	6391
822.429	6277
822.569	6102
822.709	6175
822.849	5908
822.99	5927
823.13	5939
823.27	5901
823.41	5817
823.55	5821
823.69	5840
823.83	5836
823.97	5726
824.11	5551
824.25	5592
824.389	5608
824.529	5589
824.669	5520
824.809	5646
824.949	5729
825.089	5604
825.228	5596
825.368	5417
825.508	5395
825.648	5349
825.787	5440
825.927	5421
826.067	5334
826.206	5349
826.346	5387
826.485	5410
826.625	5433
826.765	5585
826.904	5486
827.044	5326
827.183	5227
827.323	5140
827.462	5242
827.601	5223
827.741	5216
827.88	5246
828.02	5159
828.159	5280
828.298	5349
828.437	5433
828.577	5334
828.716	5524
828.855	5391
828.994	5162
829.134	5170
829.273	5227
829.412	5254
829.551	5140
829.69	5216
829.829	5254
829.968	5372
830.107	5353
830.246	5280
830.385	5288
830.524	5143
830.663	5124
830.802	5018
830.941	4946
831.08	4873
831.219	5052
831.357	5052
831.496	5197
831.635	4980
831.774	4881
831.913	4904
832.051	4759
832.19	4816
832.329	4839
832.467	4683
832.606	4656
832.744	4759
832.883	4740
833.022	4763
833.16	4812
833.299	4862
833.437	4873
833.576	4866
833.714	4885
833.852	4934
833.991	4904
834.129	4968
834.267	5018
834.406	4892
834.544	5003
834.682	5041
834.821	4976
834.959	5220
835.097	5022
835.235	5170
835.373	5132
835.511	5136
835.65	5064
835.788	5022
835.926	4934
836.064	4923
836.202	4961
836.34	5227
836.478	5254
836.615	5105
836.753	5235
836.891	5311
837.029	5254
837.167	5235
837.305	5231
837.443	5166
837.58	5098
837.718	5330
837.856	5250
837.993	5181
838.131	5258
838.269	5193
838.406	5265
838.544	5239
838.681	5045
838.819	5052
838.956	4946
839.094	4908
839.231	4991
839.369	5140
839.506	5478
839.643	5311
839.781	5094
839.918	5029
840.055	5143
840.193	5178
840.33	5113
840.467	5201
840.604	5235
840.742	5406
840.879	5105
841.016	5132
841.153	5181
841.29	5395
841.427	5379
841.564	5376
841.701	5383
841.838	5315
841.975	5239
842.112	5318
842.249	5151
842.385	5143
842.522	5368
842.659	5220
842.796	5128
842.933	5193
843.069	5197
843.206	5193
843.343	5303
843.479	5269
843.616	5265
843.752	5128
843.889	5067
844.025	5189
844.162	5056
844.298	5299
844.435	5117
844.571	5105
844.708	5242
844.844	5334
844.98	5376
845.117	5330
845.253	5208
845.389	5048
845.525	5174
845.661	5227
845.798	5067
845.934	5181
846.07	5090
846.206	5242
846.342	5277
846.478	5220
846.614	5045
846.75	5010
846.886	4919
847.022	5117
847.158	5052
847.294	5121
847.429	5121
847.565	5094
847.701	5368
847.837	4870
847.972	4885
848.108	4972
848.244	4915
848.379	4771
848.515	4725
848.65	4771
848.786	4748
848.921	4812
849.057	4839
849.192	4900
849.328	4881
849.463	4881
849.598	4824
849.734	4805
849.869	4702
850.004	4615
850.14	4702
850.275	4660
850.41	4535
850.545	4580
850.68	4664
850.815	4653
850.95	4672
851.085	4797
851.22	4778
851.355	4759
851.49	4679
851.625	4702
851.76	4664
851.895	4580
852.03	4565
852.165	4687
852.299	4752
852.434	4824
852.569	4759
852.703	4782
852.838	4892
852.973	4953
853.107	4866
853.242	4767
853.376	4725
853.511	4573
853.645	4649
853.78	4850
853.914	4736
854.048	4668
854.183	4672
854.317	4729
854.451	4938
854.585	4721
854.72	4641
854.854	4752
854.988	4626
855.122	4637
855.256	4523
855.39	4714
855.524	4835
855.658	4774
855.792	4755
855.926	4752
856.06	4778
856.194	4816
856.327	4733
856.461	4645
856.595	4653
856.729	4660
856.862	4748
856.996	4721
857.13	4736
857.263	4797
857.397	4850
857.53	4706
857.664	4714
857.797	4733
857.931	4805
858.064	4725
858.197	4752
858.331	4630
858.464	4653
858.597	4561
858.731	4664
858.864	4653
858.997	4611
859.13	4653
859.263	4687
859.396	4736
859.529	4645
859.662	4618
859.795	4558
859.928	4653
860.061	4778
860.194	4831
860.327	4626
860.46	4634
860.592	4733
860.725	4748
860.858	4714
860.99	4626
861.123	4588
861.256	4538
861.388	4653
861.521	5288
861.653	4516
861.786	4489
861.918	4481
862.05	4569
862.183	4584
862.315	4622
862.447	4675
862.58	4653
862.712	4413
862.844	4325
862.976	4493
863.108	4459
863.24	4919
863.372	4356
863.504	4424
863.636	4447
863.768	4447
863.9	4466
864.032	4413
864.164	4436
864.296	4550
864.428	4592
864.559	4588
864.691	4527
864.823	4531
864.954	4519
865.086	4508
865.217	4493
865.349	4470
865.48	4466
865.612	4542
865.743	4622
865.875	4538
866.006	4470
866.137	4508
866.269	4440
866.4	4474
866.531	4451
866.662	4459
866.793	4459
866.924	4504
867.055	4527
867.186	4470
867.317	4405
867.448	4413
867.579	4428
867.71	4417
867.841	4390
867.972	4478
868.103	4508
868.233	4447
868.364	4462
868.495	4497
868.625	4675
868.756	4816
868.886	4584
869.017	4641
869.147	4790
869.278	4809
869.408	4672
869.539	4679
869.669	4748
869.799	4649
869.929	4866
870.06	4763
870.19	5003
870.32	4976
870.45	4972
870.58	5052
870.71	5140
870.84	5060
870.97	4957
871.1	4908
871.23	5189
871.36	5136
871.489	5079
871.619	5132
871.749	5117
871.879	5185
872.008	5151
872.138	5064
872.267	5056
872.397	4873
872.526	4885
872.656	4721
872.785	4828
872.915	4953
873.044	5064
873.173	4961
873.303	4957
873.432	4968
873.561	5025
873.69	4908
873.819	4915
873.948	4961
874.077	4877
874.206	4748
874.335	4835
874.464	4984
874.593	5109
874.722	4968
874.851	5086
874.979	5075
875.108	5033
875.237	4942
875.365	4946
875.494	4885
875.623	5025
875.751	4843
875.88	4911
876.008	4987
876.136	5079
876.265	5239
876.393	5372
876.521	5284
876.65	5216
876.778	5178
876.906	5102
877.034	5022
877.162	5064
877.29	5014
877.418	5037
877.546	5079
877.674	5067
877.802	5060
877.93	5022
878.058	4919
878.185	4900
878.313	4957
878.441	4965
878.568	4831
878.696	4839
878.824	4999
878.951	5033
879.079	5143
879.206	5326
879.333	5143
879.461	4987
879.588	5083
879.715	5128
879.842	5246
879.97	5022
880.097	4767
880.224	4782
880.351	4805
880.478	4847
880.605	4866
880.732	4805
880.859	5117
880.986	4953
881.112	4885
881.239	4793
881.366	4687
881.493	4618
881.619	4592
881.746	4637
881.872	4679
881.999	4717
882.125	4706
882.252	4809
882.378	4877
882.505	4980
882.631	4839
882.757	4714
882.883	4740
883.01	4755
883.136	4641
883.262	4580
883.388	4622
883.514	4850
883.64	4904
883.766	4820
883.892	4649
884.018	4793
884.143	4949
884.269	5041
884.395	4710
884.52	4630
884.646	4637
884.772	4607
884.897	4611
885.023	4664
885.148	4790
885.274	4892
885.399	4835
885.524	4744
885.65	4721
885.775	4778
885.9	4721
886.025	4915
886.15	4805
886.275	4793
886.4	4653
886.525	4782
886.65	4748
886.775	4744
886.9	4972
887.025	5041
887.149	4824
887.274	4729
887.399	4584
887.523	4599
887.648	4596
887.773	4630
887.897	4771
888.021	4801
888.146	4710
888.27	4850
888.395	4934
888.519	4843
888.643	4801
888.767	4854
888.891	4664
889.015	4664
889.139	4675
889.263	4622
889.387	4748
889.511	4892
889.635	4854
889.759	4664
889.883	4698
890.006	4748
890.13	4858
890.254	4664
890.377	4714
890.501	4569
890.624	4550
890.748	4653
890.871	4561
890.995	4421
891.118	4413
891.241	4508
891.364	4531
891.488	4637
891.611	4535
891.734	4580
891.857	4618
891.98	4599
892.103	4683
892.226	4641
892.349	4546
892.471	4432
892.594	4573
892.717	4622
892.839	4580
892.962	4611
893.085	4656
893.207	4634
893.33	4504
893.452	4558
893.575	4664
893.697	4573
893.819	4797
893.941	4835
894.064	4759
894.186	4588
894.308	4618
894.43	4790
894.552	4877
894.674	4748
894.796	4580
894.918	4596
895.04	4592
895.161	4717
895.283	4660
895.405	4561
895.526	4626
895.648	4736
895.769	4698
895.891	4694
896.012	4778
896.134	4759
896.255	4672
896.376	4694
896.498	4675
896.619	4710
896.74	4584
896.861	4653
896.982	4957
897.103	5094
897.224	4824
897.345	4809
897.466	4683
897.587	4752
897.708	4892
897.828	4786
897.949	4694
898.07	4588
898.19	4664
898.311	4873
898.431	4668
898.552	4752
898.672	4805
898.792	4862
898.913	4778
899.033	4607
899.153	4481
899.273	4451
899.393	4504
899.513	4588
899.633	4546
899.753	4550
899.873	4542
899.993	4630
900.113	4584
900.232	4588
900.352	4573
900.472	4504
900.591	4424
900.711	4573
900.83	4459
900.95	4660
901.069	4649
901.189	4561
901.308	4341
901.427	4352
901.546	4405
901.665	4455
901.784	4592
901.904	4432
902.023	4344
902.141	4234
902.26	4211
902.379	4257
902.498	4291
902.617	4246
902.735	4409
902.854	4424
902.973	4402
903.091	4234
903.21	4268
903.328	4310
903.446	4268
903.565	4295
903.683	4367
903.801	4280
903.919	4436
904.038	4462
904.156	4333
904.274	4443
904.392	4417
904.51	4443
904.627	4508
904.745	4592
904.863	4675
904.981	4440
905.098	4348
905.216	4344
905.334	4428
905.451	4489
905.569	4546
905.686	4550
905.803	4573
905.921	4436
906.038	4546
906.155	4535
906.272	4390
906.389	4470
906.506	4348
906.623	4421
906.74	4432
906.857	4356
906.974	4367
907.091	4611
907.208	4679
907.324	4577
907.441	4519
907.557	4367
907.674	4402
907.79	4371
907.907	4443
908.023	4535
908.139	4512
908.256	4470
908.372	4481
908.488	4504
908.604	4337
908.72	4352
908.836	4432
908.952	4367
909.068	4447
909.184	4615
909.3	4531
909.415	4592
909.531	4577
909.647	4379
909.762	4356
909.878	4375
909.993	4436
910.108	4474
910.224	4447
910.339	4474
910.454	4455
910.57	4390
910.685	4344
910.8	4641
910.915	4637
911.03	4500
911.145	4314
911.259	4337
911.374	4363
911.489	4341
911.604	4314
911.718	4120
911.833	4253
911.947	4101
912.062	4105
912.176	4246
912.291	4223
912.405	4257
912.519	4512
912.633	4519
912.748	4394
912.862	4306
912.976	4234
913.09	4090
913.204	4207
913.318	4265
913.431	4360
913.545	4386
913.659	4424
913.772	4405
913.886	4295
914	4200
914.113	4402
914.226	4519
914.34	4413
914.453	4246
914.566	4462
914.68	4306
914.793	4356
914.906	4200
915.019	4188
915.132	4105
915.245	4185
915.358	4204
915.47	4223
915.583	4318
915.696	4322
915.809	4402
915.921	4436
916.034	4276
916.146	4246
916.259	4257
916.371	4379
916.483	4371
916.595	4272
916.708	4341
916.82	4348
916.932	4356
917.044	4383
917.156	4348
917.268	4257
917.38	4291
917.491	4325
917.603	4390
917.715	4405
917.826	4443
917.938	4379
918.049	4246
918.161	4367
918.272	4588
918.384	4565
918.495	4470
918.606	4341
918.717	4268
918.828	4390
918.939	4402
919.05	4303
919.161	4325
919.272	4177
919.383	4268
919.494	4531
919.604	4607
919.715	4428
919.826	4360
919.936	4394
920.047	4584
920.157	4512
920.267	4702
920.378	4630
920.488	4516
920.598	4793
920.708	4896
920.818	4702
920.928	4767
921.038	5025
921.148	4930
921.258	4637
921.368	4634
921.477	4558
921.587	4462
921.697	4383
921.806	4569
921.916	4489
922.025	4306
922.134	4348
922.244	4280
922.353	4375
922.462	4188
922.571	4162
922.68	4017
922.789	4002
922.898	4025
923.007	4036
923.116	4074
923.224	4071
923.333	4097
923.442	4013
923.55	4021
923.659	4105
923.767	4135
923.876	4063
923.984	4131
924.092	4013
924.201	4097
924.309	4116
924.417	4143
924.525	4124
924.633	4074
924.741	4892
924.849	3945
924.956	4177
925.064	3968
925.172	3941
925.279	3956
925.387	4051
925.494	4036
925.602	4253
925.709	4223
925.816	4078
925.924	4101
926.031	4249
926.138	4234
926.245	4192
926.352	4128
926.459	4272
926.566	4356
926.673	4173
926.779	4124
926.886	4143
926.993	3994
927.099	3918
927.206	3941
927.312	3956
927.419	4013
927.525	4051
927.631	4131
927.737	3960
927.843	3994
927.95	3876
928.056	3937
928.162	4006
928.267	4124
928.373	4607
928.479	4204
928.585	3926
928.69	4036
928.796	4044
928.901	3983
929.007	3880
929.112	4055
929.218	4017
929.323	3975
929.428	3979
929.533	4086
929.638	3934
929.743	3987
929.848	4097
929.953	3994
930.058	3930
930.163	3785
930.267	3857
930.372	3998
930.477	3800
930.581	4120
930.685	3964
930.79	3812
930.894	3907
930.998	3842
931.103	4002
931.207	3736
931.311	3713
931.415	3717
931.519	3576
931.623	3542
