Data from test_V78500241_80.txt Node
Date: Fri Mar 25 16:49:33 CST 2022
User: usil
Spectrometer: V785-0024
Trigger mode: 0
Integration Time (sec): 4.000000E-1
Scans to average: 1
Nonlinearity correction enabled: false
Boxcar width: 0
Storing dark spectrum: false
XAxis mode: Wavelengths
Number of Pixels in Spectrum: 1024
>>>>>Begin Spectral Data<<<<<
801.071	8031
801.214	8088
801.356	7982
801.499	7856
801.641	7894
801.783	7902
801.926	8069
802.068	8016
802.211	7993
802.353	7989
802.496	7913
802.638	8005
802.78	8062
802.923	7925
803.065	7898
803.208	7944
803.35	8035
803.492	8043
803.635	8130
803.777	8008
803.919	8187
804.061	8476
804.204	8065
804.346	8119
804.488	8016
804.63	8130
804.773	8065
804.915	8153
805.057	8275
805.199	8195
805.341	8259
805.483	8286
805.626	8237
805.768	8103
805.91	8214
806.052	8153
806.194	8145
806.336	8317
806.478	8092
806.62	8145
806.762	8210
806.904	8355
807.046	8514
807.188	8355
807.33	8336
807.472	8381
807.614	8172
807.756	8183
807.898	8012
808.04	7925
808.182	7906
808.324	7849
808.465	7883
808.607	8088
808.749	8050
808.891	8214
809.033	8290
809.174	8206
809.316	8046
809.458	8126
809.6	7982
809.741	8115
809.883	8050
810.025	8138
810.166	8088
810.308	8092
810.45	8046
810.591	7925
810.733	7769
810.875	7655
811.016	7571
811.158	7556
811.299	7616
811.441	7784
811.582	7712
811.724	7616
811.865	7597
812.007	7742
812.148	7655
812.29	7677
812.431	7803
812.573	7883
812.714	8031
812.855	8180
812.997	8343
813.138	8351
813.279	8187
813.421	8210
813.562	8073
813.703	7894
813.845	7742
813.986	7438
814.127	7297
814.268	7232
814.41	7236
814.551	7160
814.692	7228
814.833	7095
814.974	7187
815.115	7202
815.256	7042
815.397	6916
815.539	6935
815.68	6802
815.821	6730
815.962	6901
816.103	6833
816.244	6760
816.385	6681
816.526	6730
816.666	6502
816.807	6334
816.948	6513
817.089	6509
817.23	6570
817.371	6433
817.512	6346
817.653	6418
817.793	6433
817.934	6426
818.075	6467
818.216	6506
818.356	6479
818.497	6304
818.638	6213
818.778	6190
818.919	6201
819.06	6194
819.2	6365
819.341	6308
819.481	6433
819.622	6635
819.762	6810
819.903	6757
820.043	6639
820.184	6627
820.324	6635
820.465	6749
820.605	6681
820.746	6684
820.886	6555
821.026	6734
821.167	6726
821.307	6852
821.447	6837
821.588	6703
821.728	6563
821.868	6479
822.008	6357
822.149	6471
822.289	6395
822.429	6186
822.569	6175
822.709	6136
822.849	5988
822.99	5920
823.13	5901
823.27	5923
823.41	5794
823.55	5828
823.69	5817
823.83	5824
823.97	5764
824.11	5566
824.25	5554
824.389	5585
824.529	5608
824.669	5585
824.809	5684
824.949	5668
825.089	5668
825.228	5592
825.368	5471
825.508	5395
825.648	5436
825.787	5440
825.927	5429
826.067	5284
826.206	5357
826.346	5398
826.485	5463
826.625	5417
826.765	5543
826.904	5539
827.044	5345
827.183	5212
827.323	5174
827.462	5242
827.601	5201
827.741	5269
827.88	5235
828.02	5155
828.159	5288
828.298	5345
828.437	5391
828.577	5307
828.716	5566
828.855	5410
828.994	5178
829.134	5197
829.273	5239
829.412	5185
829.551	5193
829.69	5220
829.829	5284
829.968	5406
830.107	5315
830.246	5330
830.385	5166
830.524	5178
830.663	5124
830.802	5014
830.941	4957
831.08	4904
831.219	5033
831.357	4987
831.496	5227
831.635	4942
831.774	4942
831.913	4915
832.051	4767
832.19	4771
832.329	4835
832.467	4736
832.606	4641
832.744	4740
832.883	4774
833.022	4782
833.16	4835
833.299	4828
833.437	4858
833.576	4820
833.714	4889
833.852	4938
833.991	4930
834.129	5037
834.267	4987
834.406	4942
834.544	5060
834.682	5022
834.821	5048
834.959	5201
835.097	5041
835.235	5231
835.373	5166
835.511	5185
835.65	5022
835.788	5052
835.926	4949
836.064	4908
836.202	4987
836.34	5178
836.478	5288
836.615	5204
836.753	5246
836.891	5345
837.029	5296
837.167	5258
837.305	5223
837.443	5193
837.58	5079
837.718	5277
837.856	5193
837.993	5185
838.131	5261
838.269	5242
838.406	5231
838.544	5216
838.681	5086
838.819	5105
838.956	4934
839.094	4934
839.231	4999
839.369	5147
839.506	5493
839.643	5360
839.781	5117
839.918	5067
840.055	5143
840.193	5109
840.33	5181
840.467	5155
840.604	5208
840.742	5429
840.879	5090
841.016	5086
841.153	5178
841.29	5402
841.427	5330
841.564	5372
841.701	5322
841.838	5337
841.975	5277
842.112	5303
842.249	5193
842.385	5121
842.522	5360
842.659	5170
842.796	5197
842.933	5216
843.069	5246
843.206	5185
843.343	5383
843.479	5284
843.616	5258
843.752	5124
843.889	5071
844.025	5258
844.162	5033
844.298	5254
844.435	5155
844.571	5086
844.708	5242
844.844	5311
844.98	5395
845.117	5284
845.253	5174
845.389	5124
845.525	5193
845.661	5204
845.798	5071
845.934	5223
846.07	5102
846.206	5201
846.342	5273
846.478	5197
846.614	5075
846.75	5010
846.886	5029
847.022	5178
847.158	5064
847.294	5121
847.429	5143
847.565	5128
847.701	5357
847.837	4870
847.972	4854
848.108	4949
848.244	4980
848.379	4763
848.515	4740
848.65	4759
848.786	4755
848.921	4820
849.057	4976
849.192	4908
849.328	4858
849.463	4881
849.598	4824
849.734	4801
849.869	4702
850.004	4645
850.14	4706
850.275	4634
850.41	4584
850.545	4630
850.68	4637
850.815	4660
850.95	4618
851.085	4881
851.22	4763
851.355	4698
851.49	4664
851.625	4607
851.76	4714
851.895	4554
852.03	4561
852.165	4717
852.299	4759
852.434	4812
852.569	4797
852.703	4809
852.838	4881
852.973	4946
853.107	4953
853.242	4771
853.376	4717
853.511	4573
853.645	4630
853.78	4881
853.914	4733
854.048	4740
854.183	4691
854.317	4679
854.451	4930
854.585	4740
854.72	4618
854.854	4786
854.988	4618
855.122	4706
855.256	4519
855.39	4691
855.524	4843
855.658	4774
855.792	4649
855.926	4790
856.06	4786
856.194	4881
856.327	4691
856.461	4660
856.595	4694
856.729	4653
856.862	4805
856.996	4710
857.13	4755
857.263	4740
857.397	4870
857.53	4645
857.664	4714
857.797	4812
857.931	4809
858.064	4710
858.197	4748
858.331	4687
858.464	4653
858.597	4523
858.731	4687
858.864	4668
858.997	4672
859.13	4672
859.263	4740
859.396	4744
859.529	4622
859.662	4592
859.795	4584
859.928	4679
860.061	4790
860.194	4793
860.327	4660
860.46	4599
860.592	4733
860.725	4721
860.858	4759
860.99	4641
861.123	4527
861.256	4512
861.388	4656
861.521	5242
861.653	4538
861.786	4504
861.918	4466
862.05	4569
862.183	4596
862.315	4630
862.447	4752
862.58	4596
862.712	4390
862.844	4352
862.976	4523
863.108	4470
863.24	4946
863.372	4367
863.504	4527
863.636	4432
863.768	4554
863.9	4489
864.032	4421
864.164	4474
864.296	4493
864.428	4577
864.559	4618
864.691	4569
864.823	4592
864.954	4504
865.086	4516
865.217	4466
865.349	4500
865.48	4466
865.612	4508
865.743	4672
865.875	4478
866.006	4462
866.137	4481
866.269	4462
866.4	4455
866.531	4516
866.662	4413
866.793	4428
866.924	4466
867.055	4516
867.186	4485
867.317	4474
867.448	4447
867.579	4424
867.71	4367
867.841	4405
867.972	4466
868.103	4462
868.233	4481
868.364	4455
868.495	4519
868.625	4694
868.756	4786
868.886	4626
869.017	4649
869.147	4816
869.278	4812
869.408	4656
869.539	4668
869.669	4748
869.799	4660
869.929	4771
870.06	4763
870.19	5022
870.32	4923
870.45	4953
870.58	4991
870.71	5094
870.84	5170
870.97	4972
871.1	4934
871.23	5147
871.36	5128
871.489	5098
871.619	5121
871.749	5162
871.879	5121
872.008	5204
872.138	5094
872.267	4991
872.397	4881
872.526	4828
872.656	4790
872.785	4797
872.915	4949
873.044	5029
873.173	4957
873.303	4961
873.432	4972
873.561	4957
873.69	4900
873.819	4885
873.948	4923
874.077	4824
874.206	4778
874.335	4797
874.464	4930
874.593	5056
874.722	4976
874.851	5128
874.979	5136
875.108	5056
875.237	4991
875.365	4870
875.494	4877
875.623	4999
875.751	4831
875.88	4915
876.008	5037
876.136	5090
876.265	5204
876.393	5360
876.521	5265
876.65	5261
876.778	5162
876.906	5075
877.034	4995
877.162	5124
877.29	5033
877.418	5086
877.546	5060
877.674	5105
877.802	5094
877.93	5037
878.058	4987
878.185	4938
878.313	4953
878.441	4980
878.568	4854
878.696	4889
878.824	4972
878.951	5056
879.079	5174
879.206	5258
879.333	5193
879.461	4976
879.588	5083
879.715	5159
879.842	5254
879.97	5060
880.097	4839
880.224	4786
880.351	4774
880.478	4870
880.605	4824
880.732	4835
880.859	5090
880.986	4949
881.112	4984
881.239	4793
881.366	4687
881.493	4596
881.619	4618
881.746	4611
881.872	4672
881.999	4706
882.125	4672
882.252	4782
882.378	4889
882.505	4987
882.631	4843
882.757	4683
882.883	4782
883.01	4782
883.136	4691
883.262	4634
883.388	4634
883.514	4870
883.64	4927
883.766	4809
883.892	4778
884.018	4736
884.143	4927
884.269	5037
884.395	4725
884.52	4630
884.646	4660
884.772	4618
884.897	4535
885.023	4710
885.148	4778
885.274	4870
885.399	4866
885.524	4702
885.65	4698
885.775	4782
885.9	4782
886.025	4892
886.15	4847
886.275	4752
886.4	4694
886.525	4771
886.65	4755
886.775	4767
886.9	4938
887.025	5048
887.149	4835
887.274	4679
887.399	4577
887.523	4611
887.648	4592
887.773	4626
887.897	4805
888.021	4786
888.146	4687
888.27	4835
888.395	4904
888.519	4816
888.643	4820
888.767	4858
888.891	4679
889.015	4626
889.139	4622
889.263	4584
889.387	4774
889.511	4835
889.635	4824
889.759	4683
889.883	4687
890.006	4725
890.13	4877
890.254	4660
890.377	4725
890.501	4645
890.624	4523
890.748	4645
890.871	4512
890.995	4428
891.118	4417
891.241	4565
891.364	4580
891.488	4698
891.611	4470
891.734	4523
891.857	4596
891.98	4580
892.103	4683
892.226	4637
892.349	4527
892.471	4432
892.594	4599
892.717	4584
892.839	4588
892.962	4618
893.085	4649
893.207	4611
893.33	4481
893.452	4542
893.575	4721
893.697	4573
893.819	4778
893.941	4824
894.064	4805
894.186	4637
894.308	4588
894.43	4748
894.552	4885
894.674	4740
894.796	4599
894.918	4596
895.04	4554
895.161	4744
895.283	4706
895.405	4634
895.526	4675
895.648	4714
895.769	4729
895.891	4736
896.012	4725
896.134	4778
896.255	4725
896.376	4634
896.498	4637
896.619	4702
896.74	4641
896.861	4675
896.982	4930
897.103	5067
897.224	4900
897.345	4782
897.466	4721
897.587	4733
897.708	4885
897.828	4824
897.949	4706
898.07	4596
898.19	4660
898.311	4896
898.431	4672
898.552	4767
898.672	4824
898.792	4809
898.913	4763
899.033	4664
899.153	4546
899.273	4474
899.393	4538
899.513	4550
899.633	4607
899.753	4569
899.873	4561
899.993	4550
900.113	4577
900.232	4641
900.352	4500
900.472	4542
900.591	4409
900.711	4516
900.83	4459
900.95	4615
901.069	4752
901.189	4535
901.308	4390
901.427	4344
901.546	4440
901.665	4489
901.784	4546
901.904	4470
902.023	4303
902.141	4234
902.26	4204
902.379	4352
902.498	4295
902.617	4215
902.735	4386
902.854	4417
902.973	4363
903.091	4227
903.21	4253
903.328	4295
903.446	4337
903.565	4287
903.683	4367
903.801	4287
903.919	4417
904.038	4466
904.156	4348
904.274	4459
904.392	4447
904.51	4440
904.627	4523
904.745	4675
904.863	4660
904.981	4481
905.098	4341
905.216	4379
905.334	4424
905.451	4493
905.569	4443
905.686	4546
905.803	4592
905.921	4447
906.038	4573
906.155	4462
906.272	4451
906.389	4508
906.506	4394
906.623	4405
906.74	4375
906.857	4337
906.974	4371
907.091	4615
907.208	4744
907.324	4603
907.441	4504
907.557	4379
907.674	4375
907.79	4306
907.907	4440
908.023	4512
908.139	4516
908.256	4481
908.372	4470
908.488	4459
908.604	4341
908.72	4386
908.836	4409
908.952	4398
909.068	4481
909.184	4584
909.3	4516
909.415	4596
909.531	4580
909.647	4363
909.762	4379
909.878	4329
909.993	4462
910.108	4451
910.224	4493
910.339	4504
910.454	4485
910.57	4379
910.685	4409
910.8	4656
910.915	4630
911.03	4519
911.145	4352
911.259	4390
911.374	4447
911.489	4318
911.604	4375
911.718	4196
911.833	4223
911.947	4112
912.062	4051
912.176	4223
912.291	4276
912.405	4268
912.519	4470
912.633	4531
912.748	4386
912.862	4314
912.976	4227
913.09	4135
913.204	4219
913.318	4261
913.431	4428
913.545	4367
913.659	4500
913.772	4390
913.886	4230
914	4242
914.113	4367
914.226	4481
914.34	4398
914.453	4200
914.566	4413
914.68	4379
914.793	4352
914.906	4166
915.019	4128
915.132	4150
915.245	4147
915.358	4261
915.47	4246
915.583	4268
915.696	4341
915.809	4428
915.921	4424
916.034	4295
916.146	4314
916.259	4276
916.371	4402
916.483	4421
916.595	4303
916.708	4329
916.82	4337
916.932	4375
917.044	4356
917.156	4344
917.268	4234
917.38	4314
917.491	4306
917.603	4371
917.715	4485
917.826	4466
917.938	4383
918.049	4287
918.161	4405
918.272	4596
918.384	4558
918.495	4497
918.606	4383
918.717	4276
918.828	4356
918.939	4409
919.05	4287
919.161	4386
919.272	4154
919.383	4253
919.494	4481
919.604	4630
919.715	4447
919.826	4371
919.936	4405
920.047	4508
920.157	4546
920.267	4675
920.378	4596
920.488	4550
920.598	4721
920.708	4885
920.818	4767
920.928	4774
921.038	4976
921.148	4923
921.258	4649
921.368	4542
921.477	4569
921.587	4443
921.697	4394
921.806	4573
921.916	4500
922.025	4246
922.134	4299
922.244	4284
922.353	4363
922.462	4238
922.571	4139
922.68	4029
922.789	4013
922.898	4055
923.007	3975
923.116	4143
923.224	4093
923.333	4101
923.442	4010
923.55	4021
923.659	4029
923.767	4124
923.876	4032
923.984	4188
924.092	3979
924.201	4105
924.309	4169
924.417	4150
924.525	4078
924.633	4173
924.741	4930
924.849	3972
924.956	4181
925.064	3968
925.172	3896
925.279	3994
925.387	4029
925.494	4051
925.602	4234
925.709	4223
925.816	4071
925.924	4139
926.031	4276
926.138	4207
926.245	4234
926.352	4128
926.459	4268
926.566	4344
926.673	4204
926.779	4128
926.886	4128
926.993	4029
927.099	3968
927.206	3972
927.312	3983
927.419	4082
927.525	4059
927.631	4166
927.737	4032
927.843	3979
927.95	3884
928.056	4002
928.162	4040
928.267	4112
928.373	4702
928.479	4139
928.585	3899
928.69	4074
928.796	4051
928.901	3987
929.007	3892
929.112	4029
929.218	4002
929.323	3960
929.428	3968
929.533	4128
929.638	3964
929.743	3991
929.848	4082
929.953	4021
930.058	3949
930.163	3812
930.267	3876
930.372	3956
930.477	3835
930.581	4150
930.685	3983
930.79	3861
930.894	3918
930.998	3899
931.103	4120
931.207	3720
931.311	3751
931.415	3709
931.519	3542
931.623	3587
