Data from test_V78500241_776.txt Node
Date: Fri Mar 25 16:54:23 CST 2022
User: usil
Spectrometer: V785-0024
Trigger mode: 0
Integration Time (sec): 4.000000E-1
Scans to average: 1
Nonlinearity correction enabled: false
Boxcar width: 0
Storing dark spectrum: false
XAxis mode: Wavelengths
Number of Pixels in Spectrum: 1024
>>>>>Begin Spectral Data<<<<<
801.071	7989
801.214	8001
801.356	7852
801.499	7917
801.641	7761
801.783	7765
801.926	8046
802.068	7959
802.211	7974
802.353	7986
802.496	7795
802.638	7890
802.78	7928
802.923	7944
803.065	7852
803.208	7871
803.35	7978
803.492	8130
803.635	8221
803.777	7940
803.919	8012
804.061	8374
804.204	8126
804.346	7993
804.488	7909
804.63	8142
804.773	8016
804.915	8103
805.057	8286
805.199	8134
805.341	8138
805.483	8210
805.626	8252
805.768	8103
805.91	8206
806.052	8202
806.194	8065
806.336	8275
806.478	8107
806.62	8062
806.762	8142
806.904	8275
807.046	8484
807.188	8324
807.33	8301
807.472	8385
807.614	8126
807.756	8035
807.898	8039
808.04	7841
808.182	7921
808.324	7871
808.465	7963
808.607	8039
808.749	8077
808.891	8161
809.033	8301
809.174	8180
809.316	8077
809.458	7997
809.6	8008
809.741	8046
809.883	8031
810.025	8069
810.166	8073
810.308	8050
810.45	7993
810.591	7883
810.733	7784
810.875	7719
811.016	7476
811.158	7438
811.299	7575
811.441	7738
811.582	7677
811.724	7518
811.865	7518
812.007	7582
812.148	7525
812.29	7597
812.431	7704
812.573	7799
812.714	7913
812.855	8031
812.997	8187
813.138	8328
813.279	8180
813.421	8103
813.562	7959
813.703	7814
813.845	7734
813.986	7411
814.127	7236
814.268	7255
814.41	7152
814.551	7126
814.692	7050
814.833	7012
814.974	7042
815.115	7084
815.256	6894
815.397	6901
815.539	6973
815.68	6821
815.821	6787
815.962	6837
816.103	6760
816.244	6711
816.385	6681
816.526	6604
816.666	6445
816.807	6285
816.948	6422
817.089	6456
817.23	6448
817.371	6315
817.512	6391
817.653	6403
817.793	6414
817.934	6445
818.075	6414
818.216	6456
818.356	6342
818.497	6182
818.638	6106
818.778	6095
818.919	6163
819.06	6125
819.2	6308
819.341	6296
819.481	6331
819.622	6445
819.762	6711
819.903	6684
820.043	6589
820.184	6509
820.324	6570
820.465	6688
820.605	6665
820.746	6593
820.886	6479
821.026	6677
821.167	6696
821.307	6795
821.447	6795
821.588	6616
821.728	6555
821.868	6547
822.008	6254
822.149	6380
822.289	6346
822.429	6133
822.569	6041
822.709	6106
822.849	5939
822.99	5923
823.13	5882
823.27	5912
823.41	5802
823.55	5745
823.69	5752
823.83	5752
823.97	5642
824.11	5554
824.25	5467
824.389	5520
824.529	5619
824.669	5512
824.809	5600
824.949	5630
825.089	5566
825.228	5543
825.368	5372
825.508	5315
825.648	5349
825.787	5322
825.927	5353
826.067	5318
826.206	5296
826.346	5357
826.485	5387
826.625	5368
826.765	5535
826.904	5448
827.044	5258
827.183	5178
827.323	5155
827.462	5204
827.601	5181
827.741	5162
827.88	5231
828.02	5094
828.159	5208
828.298	5303
828.437	5307
828.577	5265
828.716	5505
828.855	5303
828.994	5185
829.134	5109
829.273	5166
829.412	5143
829.551	5109
829.69	5128
829.829	5254
829.968	5326
830.107	5220
830.246	5254
830.385	5159
830.524	5094
830.663	5060
830.802	4919
830.941	4850
831.08	4866
831.219	4976
831.357	4923
831.496	5105
831.635	4873
831.774	4881
831.913	4866
832.051	4755
832.19	4736
832.329	4809
832.467	4691
832.606	4592
832.744	4706
832.883	4702
833.022	4725
833.16	4759
833.299	4835
833.437	4805
833.576	4854
833.714	4824
833.852	4862
833.991	4831
834.129	4946
834.267	4927
834.406	4866
834.544	5033
834.682	4942
834.821	4961
834.959	5178
835.097	4938
835.235	5117
835.373	5033
835.511	5086
835.65	4976
835.788	4984
835.926	4847
836.064	4854
836.202	4892
836.34	5147
836.478	5181
836.615	5079
836.753	5216
836.891	5204
837.029	5273
837.167	5174
837.305	5170
837.443	5113
837.58	5083
837.718	5258
837.856	5166
837.993	5147
838.131	5208
838.269	5181
838.406	5204
838.544	5208
838.681	5052
838.819	5045
838.956	4889
839.094	4900
839.231	4984
839.369	5102
839.506	5353
839.643	5254
839.781	5090
839.918	5006
840.055	5060
840.193	5113
840.33	5052
840.467	5113
840.604	5109
840.742	5433
840.879	5067
841.016	5060
841.153	5178
841.29	5341
841.427	5391
841.564	5311
841.701	5322
841.838	5296
841.975	5201
842.112	5208
842.249	5090
842.385	5098
842.522	5341
842.659	5185
842.796	5159
842.933	5174
843.069	5128
843.206	5128
843.343	5303
843.479	5246
843.616	5197
843.752	5052
843.889	5014
844.025	5201
844.162	5025
844.298	5197
844.435	5098
844.571	5037
844.708	5159
844.844	5303
844.98	5307
845.117	5254
845.253	5113
845.389	5037
845.525	5113
845.661	5117
845.798	5071
845.934	5105
846.07	5014
846.206	5181
846.342	5246
846.478	5178
846.614	4976
846.75	4987
846.886	4919
847.022	5121
847.158	5014
847.294	5037
847.429	5086
847.565	5025
847.701	5334
847.837	4862
847.972	4812
848.108	4873
848.244	4949
848.379	4801
848.515	4748
848.65	4691
848.786	4782
848.921	4714
849.057	4862
849.192	4911
849.328	4790
849.463	4870
849.598	4805
849.734	4736
849.869	4637
850.004	4584
850.14	4656
850.275	4649
850.41	4470
850.545	4561
850.68	4565
850.815	4603
850.95	4618
851.085	4850
851.22	4767
851.355	4626
851.49	4592
851.625	4645
851.76	4615
851.895	4535
852.03	4519
852.165	4611
852.299	4668
852.434	4778
852.569	4736
852.703	4752
852.838	4839
852.973	4942
853.107	4896
853.242	4714
853.376	4710
853.511	4500
853.645	4588
853.78	4797
853.914	4672
854.048	4653
854.183	4634
854.317	4683
854.451	4782
854.585	4592
854.72	4615
854.854	4755
854.988	4565
855.122	4618
855.256	4523
855.39	4660
855.524	4774
855.658	4752
855.792	4592
855.926	4694
856.06	4691
856.194	4714
856.327	4710
856.461	4569
856.595	4588
856.729	4596
856.862	4740
856.996	4714
857.13	4729
857.263	4748
857.397	4771
857.53	4656
857.664	4668
857.797	4725
857.931	4763
858.064	4664
858.197	4725
858.331	4645
858.464	4592
858.597	4535
858.731	4603
858.864	4630
858.997	4611
859.13	4641
859.263	4630
859.396	4679
859.529	4580
859.662	4554
859.795	4542
859.928	4599
860.061	4725
860.194	4733
860.327	4653
860.46	4504
860.592	4702
860.725	4675
860.858	4717
860.99	4615
861.123	4512
861.256	4516
861.388	4603
861.521	5273
861.653	4455
861.786	4508
861.918	4466
862.05	4500
862.183	4577
862.315	4588
862.447	4622
862.58	4542
862.712	4428
862.844	4295
862.976	4504
863.108	4462
863.24	4915
863.372	4341
863.504	4424
863.636	4409
863.768	4474
863.9	4447
864.032	4367
864.164	4398
864.296	4512
864.428	4558
864.559	4603
864.691	4569
864.823	4523
864.954	4516
865.086	4538
865.217	4481
865.349	4417
865.48	4512
865.612	4554
865.743	4736
865.875	4462
866.006	4455
866.137	4497
866.269	4436
866.4	4474
866.531	4459
866.662	4440
866.793	4459
866.924	4470
867.055	4504
867.186	4527
867.317	4474
867.448	4390
867.579	4428
867.71	4462
867.841	4402
867.972	4531
868.103	4527
868.233	4500
868.364	4470
868.495	4542
868.625	4717
868.756	4778
868.886	4592
869.017	4653
869.147	4793
869.278	4797
869.408	4679
869.539	4641
869.669	4748
869.799	4672
869.929	4725
870.06	4786
870.19	4999
870.32	4980
870.45	4991
870.58	5098
870.71	5098
870.84	5102
870.97	4980
871.1	4946
871.23	5166
871.36	5174
871.489	5025
871.619	5098
871.749	5143
871.879	5143
872.008	5147
872.138	5071
872.267	5014
872.397	4870
872.526	4831
872.656	4790
872.785	4831
872.915	4976
873.044	5033
873.173	4927
873.303	4972
873.432	4965
873.561	4946
873.69	4968
873.819	4877
873.948	4915
874.077	4854
874.206	4797
874.335	4847
874.464	4904
874.593	5067
874.722	4976
874.851	5128
874.979	5109
875.108	5083
875.237	4953
875.365	4908
875.494	4881
875.623	4968
875.751	4854
875.88	4930
876.008	4980
876.136	5048
876.265	5277
876.393	5330
876.521	5303
876.65	5239
876.778	5147
876.906	5022
877.034	5048
877.162	5060
877.29	5090
877.418	5048
877.546	5071
877.674	5071
877.802	5003
877.93	5102
878.058	4987
878.185	4965
878.313	5022
878.441	5006
878.568	4790
878.696	4911
878.824	4991
878.951	5029
879.079	5098
879.206	5292
879.333	5090
879.461	4999
879.588	5048
879.715	5136
879.842	5280
879.97	5022
880.097	4828
880.224	4771
880.351	4866
880.478	4877
880.605	4797
880.732	4771
880.859	5086
880.986	4961
881.112	4934
881.239	4812
881.366	4691
881.493	4702
881.619	4588
881.746	4691
881.872	4683
881.999	4672
882.125	4721
882.252	4854
882.378	4847
882.505	5033
882.631	4854
882.757	4721
882.883	4774
883.01	4771
883.136	4725
883.262	4615
883.388	4622
883.514	4824
883.64	4892
883.766	4828
883.892	4687
884.018	4786
884.143	4908
884.269	5060
884.395	4725
884.52	4687
884.646	4683
884.772	4634
884.897	4546
885.023	4710
885.148	4812
885.274	4915
885.399	4847
885.524	4782
885.65	4763
885.775	4755
885.9	4797
886.025	4900
886.15	4805
886.275	4733
886.4	4683
886.525	4710
886.65	4736
886.775	4744
886.9	4980
887.025	5075
887.149	4873
887.274	4656
887.399	4588
887.523	4584
887.648	4626
887.773	4645
887.897	4835
888.021	4801
888.146	4740
888.27	4805
888.395	4915
888.519	4793
888.643	4820
888.767	4850
888.891	4733
889.015	4626
889.139	4725
889.263	4603
889.387	4786
889.511	4847
889.635	4839
889.759	4637
889.883	4679
890.006	4767
890.13	4847
890.254	4641
890.377	4706
890.501	4592
890.624	4569
890.748	4649
890.871	4550
890.995	4451
891.118	4493
891.241	4523
891.364	4554
891.488	4645
891.611	4580
891.734	4607
891.857	4622
891.98	4550
892.103	4687
892.226	4611
892.349	4561
892.471	4485
892.594	4630
892.717	4588
892.839	4607
892.962	4622
893.085	4710
893.207	4573
893.33	4497
893.452	4558
893.575	4664
893.697	4641
893.819	4812
893.941	4850
894.064	4790
894.186	4580
894.308	4607
894.43	4797
894.552	4889
894.674	4805
894.796	4596
894.918	4622
895.04	4656
895.161	4729
895.283	4733
895.405	4588
895.526	4668
895.648	4698
895.769	4706
895.891	4721
896.012	4786
896.134	4786
896.255	4691
896.376	4698
896.498	4611
896.619	4687
896.74	4653
896.861	4626
896.982	4968
897.103	5121
897.224	4881
897.345	4790
897.466	4725
897.587	4797
897.708	4843
897.828	4793
897.949	4626
898.07	4569
898.19	4656
898.311	4854
898.431	4717
898.552	4706
898.672	4870
898.792	4816
898.913	4748
899.033	4656
899.153	4542
899.273	4440
899.393	4516
899.513	4565
899.633	4569
899.753	4580
899.873	4500
899.993	4611
900.113	4500
900.232	4588
900.352	4546
900.472	4523
900.591	4379
900.711	4485
900.83	4451
900.95	4656
901.069	4687
901.189	4592
901.308	4344
901.427	4337
901.546	4417
901.665	4455
901.784	4531
901.904	4394
902.023	4356
902.141	4207
902.26	4169
902.379	4306
902.498	4234
902.617	4238
902.735	4417
902.854	4379
902.973	4371
903.091	4196
903.21	4242
903.328	4348
903.446	4253
903.565	4272
903.683	4322
903.801	4291
903.919	4500
904.038	4481
904.156	4371
904.274	4421
904.392	4409
904.51	4383
904.627	4478
904.745	4599
904.863	4618
904.981	4417
905.098	4390
905.216	4375
905.334	4466
905.451	4436
905.569	4481
905.686	4615
905.803	4554
905.921	4447
906.038	4561
906.155	4459
906.272	4436
906.389	4485
906.506	4344
906.623	4379
906.74	4383
906.857	4341
906.974	4405
907.091	4599
907.208	4687
907.324	4603
907.441	4500
907.557	4352
907.674	4367
907.79	4333
907.907	4371
908.023	4470
908.139	4443
908.256	4455
908.372	4478
908.488	4478
908.604	4394
908.72	4295
908.836	4379
908.952	4405
909.068	4436
909.184	4588
909.3	4538
909.415	4573
909.531	4607
909.647	4337
909.762	4398
909.878	4390
909.993	4455
910.108	4455
910.224	4428
910.339	4516
910.454	4390
910.57	4360
910.685	4322
910.8	4675
910.915	4588
911.03	4497
911.145	4363
911.259	4322
911.374	4402
911.489	4322
911.604	4234
911.718	4154
911.833	4204
911.947	4124
912.062	4074
912.176	4230
912.291	4272
912.405	4223
912.519	4508
912.633	4527
912.748	4379
912.862	4325
912.976	4219
913.09	4112
913.204	4234
913.318	4303
913.431	4383
913.545	4310
913.659	4436
913.772	4394
913.886	4246
914	4204
914.113	4363
914.226	4459
914.34	4409
914.453	4204
914.566	4443
914.68	4322
914.793	4318
914.906	4139
915.019	4173
915.132	4059
915.245	4181
915.358	4188
915.47	4249
915.583	4318
915.696	4303
915.809	4428
915.921	4440
916.034	4276
916.146	4238
916.259	4284
916.371	4394
916.483	4390
916.595	4295
916.708	4306
916.82	4356
916.932	4295
917.044	4333
917.156	4322
917.268	4265
917.38	4276
917.491	4284
917.603	4341
917.715	4440
917.826	4432
917.938	4417
918.049	4192
918.161	4447
918.272	4527
918.384	4554
918.495	4440
918.606	4337
918.717	4234
918.828	4314
918.939	4360
919.05	4268
919.161	4337
919.272	4101
919.383	4230
919.494	4512
919.604	4615
919.715	4413
919.826	4386
919.936	4383
920.047	4577
920.157	4462
920.267	4771
920.378	4535
920.488	4535
920.598	4744
920.708	4881
920.818	4786
920.928	4767
921.038	4976
921.148	4968
921.258	4656
921.368	4569
921.477	4508
921.587	4466
921.697	4386
921.806	4546
921.916	4436
922.025	4280
922.134	4265
922.244	4257
922.353	4310
922.462	4177
922.571	4196
922.68	4032
922.789	3979
922.898	4078
923.007	4017
923.116	4139
923.224	4074
923.333	4044
923.442	4002
923.55	3968
923.659	4048
923.767	4090
923.876	4029
923.984	4150
924.092	3983
924.201	4071
924.309	4101
924.417	4131
924.525	4120
924.633	4116
924.741	4858
924.849	3926
924.956	4166
925.064	3937
925.172	3911
925.279	3915
925.387	4010
925.494	4051
925.602	4230
925.709	4230
925.816	4059
925.924	4090
926.031	4238
926.138	4158
926.245	4230
926.352	4112
926.459	4246
926.566	4272
926.673	4173
926.779	4071
926.886	4097
926.993	4002
927.099	3968
927.206	3975
927.312	3953
927.419	4032
927.525	4067
927.631	4124
927.737	3987
927.843	3960
927.95	3850
928.056	3960
928.162	3979
928.267	4071
928.373	4668
928.479	4112
928.585	3869
928.69	3983
928.796	4082
928.901	3956
929.007	3892
929.112	4013
929.218	4040
929.323	3949
929.428	3964
929.533	4162
929.638	3899
929.743	4021
929.848	4116
929.953	3983
930.058	3956
930.163	3842
930.267	3865
930.372	4029
930.477	3842
930.581	4112
930.685	3956
930.79	3861
930.894	3907
930.998	3880
931.103	4086
931.207	3747
931.311	3732
931.415	3705
931.519	3568
931.623	3572
