Data from test_V78500241_2782.txt Node
Date: Fri Mar 25 17:08:20 CST 2022
User: usil
Spectrometer: V785-0024
Trigger mode: 0
Integration Time (sec): 4.000000E-1
Scans to average: 1
Nonlinearity correction enabled: false
Boxcar width: 0
Storing dark spectrum: false
XAxis mode: Wavelengths
Number of Pixels in Spectrum: 1024
>>>>>Begin Spectral Data<<<<<
801.071	8073
801.214	7967
801.356	7883
801.499	7830
801.641	7803
801.783	7845
801.926	8005
802.068	7989
802.211	7978
802.353	7993
802.496	7849
802.638	7875
802.78	7887
802.923	7963
803.065	7849
803.208	7860
803.35	7928
803.492	8058
803.635	8157
803.777	7997
803.919	8142
804.061	8461
804.204	8229
804.346	8069
804.488	7959
804.63	8092
804.773	7978
804.915	8107
805.057	8279
805.199	8119
805.341	8218
805.483	8267
805.626	8275
805.768	8077
805.91	8259
806.052	8202
806.194	8065
806.336	8305
806.478	8077
806.62	8107
806.762	8161
806.904	8286
807.046	8415
807.188	8343
807.33	8286
807.472	8309
807.614	8164
807.756	8252
807.898	7978
808.04	7902
808.182	7871
808.324	7894
808.465	7940
808.607	8103
808.749	8115
808.891	8313
809.033	8317
809.174	8240
809.316	8077
809.458	8096
809.6	7932
809.741	8001
809.883	8046
810.025	8115
810.166	8016
810.308	8073
810.45	8050
810.591	7898
810.733	7761
810.875	7677
811.016	7521
811.158	7457
811.299	7590
811.441	7780
811.582	7693
811.724	7590
811.865	7544
812.007	7613
812.148	7594
812.29	7689
812.431	7723
812.573	7940
812.714	8050
812.855	8123
812.997	8149
813.138	8259
813.279	8248
813.421	8115
813.562	8050
813.703	7803
813.845	7784
813.986	7441
814.127	7274
814.268	7236
814.41	7190
814.551	7236
814.692	7202
814.833	7129
814.974	7095
815.115	7133
815.256	6909
815.397	6966
815.539	6954
815.68	6829
815.821	6859
815.962	6818
816.103	6867
816.244	6745
816.385	6631
816.526	6597
816.666	6490
816.807	6292
816.948	6395
817.089	6494
817.23	6433
817.371	6353
817.512	6353
817.653	6399
817.793	6342
817.934	6441
818.075	6452
818.216	6479
818.356	6403
818.497	6300
818.638	6133
818.778	6194
818.919	6136
819.06	6159
819.2	6308
819.341	6327
819.481	6372
819.622	6483
819.762	6776
819.903	6719
820.043	6601
820.184	6559
820.324	6620
820.465	6696
820.605	6722
820.746	6654
820.886	6509
821.026	6616
821.167	6681
821.307	6825
821.447	6829
821.588	6642
821.728	6547
821.868	6544
822.008	6273
822.149	6486
822.289	6357
822.429	6144
822.569	6026
822.709	6159
822.849	5958
822.99	5912
823.13	5950
823.27	5942
823.41	5767
823.55	5805
823.69	5786
823.83	5847
823.97	5699
824.11	5501
824.25	5509
824.389	5558
824.529	5608
824.669	5547
824.809	5600
824.949	5630
825.089	5611
825.228	5547
825.368	5360
825.508	5360
825.648	5303
825.787	5406
825.927	5376
826.067	5315
826.206	5303
826.346	5349
826.485	5368
826.625	5398
826.765	5562
826.904	5493
827.044	5254
827.183	5204
827.323	5151
827.462	5250
827.601	5155
827.741	5216
827.88	5231
828.02	5056
828.159	5170
828.298	5269
828.437	5357
828.577	5349
828.716	5463
828.855	5322
828.994	5201
829.134	5174
829.273	5178
829.412	5113
829.551	5151
829.69	5174
829.829	5246
829.968	5376
830.107	5239
830.246	5216
830.385	5197
830.524	5090
830.663	5045
830.802	4995
830.941	4885
831.08	4862
831.219	4972
831.357	5006
831.496	5128
831.635	4911
831.774	4839
831.913	4854
832.051	4714
832.19	4717
832.329	4759
832.467	4683
832.606	4641
832.744	4683
832.883	4733
833.022	4725
833.16	4755
833.299	4828
833.437	4831
833.576	4831
833.714	4873
833.852	4828
833.991	4900
834.129	4980
834.267	4995
834.406	4915
834.544	4961
834.682	4919
834.821	4938
834.959	5113
835.097	5014
835.235	5193
835.373	5022
835.511	5121
835.65	5037
835.788	4938
835.926	4896
836.064	4831
836.202	4911
836.34	5162
836.478	5231
836.615	5102
836.753	5242
836.891	5242
837.029	5250
837.167	5178
837.305	5178
837.443	5121
837.58	5086
837.718	5258
837.856	5216
837.993	5147
838.131	5193
838.269	5220
838.406	5166
838.544	5170
838.681	5060
838.819	5006
838.956	4877
839.094	4900
839.231	4923
839.369	5052
839.506	5349
839.643	5250
839.781	5029
839.918	5056
840.055	5102
840.193	5136
840.33	5151
840.467	5124
840.604	5174
840.742	5433
840.879	5166
841.016	5052
841.153	5109
841.29	5391
841.427	5299
841.564	5265
841.701	5337
841.838	5303
841.975	5235
842.112	5258
842.249	5136
842.385	5132
842.522	5341
842.659	5143
842.796	5094
842.933	5170
843.069	5159
843.206	5136
843.343	5299
843.479	5197
843.616	5311
843.752	4953
843.889	4999
844.025	5208
844.162	5006
844.298	5174
844.435	5056
844.571	5090
844.708	5181
844.844	5296
844.98	5330
845.117	5318
845.253	5151
845.389	5022
845.525	5132
845.661	5136
845.798	5060
845.934	5124
846.07	5048
846.206	5178
846.342	5299
846.478	5178
846.614	4999
846.75	4915
846.886	4904
847.022	5094
847.158	5006
847.294	5067
847.429	5094
847.565	5037
847.701	5322
847.837	4858
847.972	4805
848.108	4965
848.244	4889
848.379	4736
848.515	4729
848.65	4733
848.786	4755
848.921	4759
849.057	4896
849.192	4850
849.328	4839
849.463	4831
849.598	4801
849.734	4778
849.869	4733
850.004	4569
850.14	4618
850.275	4618
850.41	4523
850.545	4550
850.68	4569
850.815	4721
850.95	4588
851.085	4812
851.22	4729
851.355	4710
851.49	4641
851.625	4634
851.76	4596
851.895	4538
852.03	4527
852.165	4637
852.299	4755
852.434	4778
852.569	4752
852.703	4759
852.838	4843
852.973	4942
853.107	4881
853.242	4702
853.376	4675
853.511	4569
853.645	4645
853.78	4801
853.914	4664
854.048	4618
854.183	4687
854.317	4634
854.451	4854
854.585	4710
854.72	4649
854.854	4759
854.988	4561
855.122	4615
855.256	4550
855.39	4694
855.524	4759
855.658	4698
855.792	4683
855.926	4736
856.06	4744
856.194	4755
856.327	4729
856.461	4630
856.595	4611
856.729	4630
856.862	4771
856.996	4748
857.13	4714
857.263	4755
857.397	4793
857.53	4656
857.664	4694
857.797	4736
857.931	4790
858.064	4649
858.197	4714
858.331	4660
858.464	4618
858.597	4546
858.731	4637
858.864	4641
858.997	4550
859.13	4637
859.263	4675
859.396	4683
859.529	4611
859.662	4542
859.795	4519
859.928	4664
860.061	4752
860.194	4752
860.327	4535
860.46	4607
860.592	4714
860.725	4672
860.858	4706
860.99	4538
861.123	4550
861.256	4546
861.388	4599
861.521	5307
861.653	4455
861.786	4451
861.918	4478
862.05	4512
862.183	4565
862.315	4603
862.447	4675
862.58	4470
862.712	4421
862.844	4310
862.976	4451
863.108	4470
863.24	4790
863.372	4314
863.504	4405
863.636	4421
863.768	4459
863.9	4440
864.032	4337
864.164	4383
864.296	4455
864.428	4512
864.559	4569
864.691	4500
864.823	4550
864.954	4538
865.086	4523
865.217	4428
865.349	4352
865.48	4478
865.612	4485
865.743	4630
865.875	4470
866.006	4409
866.137	4390
866.269	4451
866.4	4428
866.531	4424
866.662	4371
866.793	4375
866.924	4428
867.055	4440
867.186	4462
867.317	4432
867.448	4337
867.579	4356
867.71	4424
867.841	4333
867.972	4443
868.103	4424
868.233	4413
868.364	4474
868.495	4493
868.625	4668
868.756	4755
868.886	4542
869.017	4599
869.147	4774
869.278	4786
869.408	4641
869.539	4603
869.669	4702
869.799	4615
869.929	4725
870.06	4744
870.19	4949
870.32	4965
870.45	4961
870.58	4987
870.71	5105
870.84	5102
870.97	4877
871.1	4904
871.23	5124
871.36	5045
871.489	5018
871.619	5048
871.749	5094
871.879	5094
872.008	5151
872.138	5010
872.267	4965
872.397	4839
872.526	4763
872.656	4744
872.785	4816
872.915	4908
873.044	4968
873.173	4911
873.303	4949
873.432	4927
873.561	4972
873.69	4843
873.819	4843
873.948	4900
874.077	4820
874.206	4744
874.335	4793
874.464	4889
874.593	5045
874.722	4999
874.851	5109
874.979	5071
875.108	5094
875.237	4911
875.365	4877
875.494	4911
875.623	4953
875.751	4828
875.88	4847
876.008	4946
876.136	5060
876.265	5193
876.393	5391
876.521	5288
876.65	5265
876.778	5220
876.906	5067
877.034	5052
877.162	5033
877.29	5041
877.418	5113
877.546	5083
877.674	5079
877.802	5056
877.93	5083
878.058	5010
878.185	4904
878.313	4984
878.441	4999
878.568	4828
878.696	4908
878.824	4965
878.951	5067
879.079	5189
879.206	5307
879.333	5124
879.461	5033
879.588	5056
879.715	5155
879.842	5261
879.97	5014
880.097	4843
880.224	4805
880.351	4850
880.478	4873
880.605	4820
880.732	4831
880.859	5143
880.986	4908
881.112	4923
881.239	4797
881.366	4752
881.493	4668
881.619	4618
881.746	4698
881.872	4687
881.999	4736
882.125	4755
882.252	4873
882.378	4843
882.505	5041
882.631	4816
882.757	4721
882.883	4801
883.01	4786
883.136	4702
883.262	4592
883.388	4691
883.514	4831
883.64	4911
883.766	4824
883.892	4740
884.018	4793
884.143	4953
884.269	5041
884.395	4755
884.52	4710
884.646	4675
884.772	4675
884.897	4596
885.023	4736
885.148	4850
885.274	4889
885.399	4900
885.524	4763
885.65	4771
885.775	4801
885.9	4812
886.025	4866
886.15	4774
886.275	4755
886.4	4664
886.525	4744
886.65	4759
886.775	4717
886.9	4976
887.025	5067
887.149	4843
887.274	4679
887.399	4565
887.523	4641
887.648	4626
887.773	4615
887.897	4752
888.021	4801
888.146	4706
888.27	4900
888.395	4961
888.519	4812
888.643	4839
888.767	4854
888.891	4698
889.015	4687
889.139	4672
889.263	4611
889.387	4740
889.511	4915
889.635	4809
889.759	4679
889.883	4660
890.006	4744
890.13	4866
890.254	4672
890.377	4736
890.501	4546
890.624	4577
890.748	4637
890.871	4546
890.995	4470
891.118	4489
891.241	4519
891.364	4569
891.488	4656
891.611	4497
891.734	4573
891.857	4664
891.98	4550
892.103	4645
892.226	4588
892.349	4592
892.471	4398
892.594	4554
892.717	4611
892.839	4649
892.962	4660
893.085	4683
893.207	4653
893.33	4455
893.452	4596
893.575	4691
893.697	4580
893.819	4862
893.941	4847
894.064	4824
894.186	4588
894.308	4622
894.43	4744
894.552	4828
894.674	4733
894.796	4573
894.918	4634
895.04	4645
895.161	4740
895.283	4691
895.405	4615
895.526	4641
895.648	4702
895.769	4748
895.891	4771
896.012	4778
896.134	4812
896.255	4672
896.376	4584
896.498	4656
896.619	4702
896.74	4653
896.861	4687
896.982	4984
897.103	5052
897.224	4915
897.345	4763
897.466	4729
897.587	4771
897.708	4873
897.828	4786
897.949	4653
898.07	4584
898.19	4664
898.311	4873
898.431	4714
898.552	4736
898.672	4843
898.792	4831
898.913	4759
899.033	4660
899.153	4546
899.273	4485
899.393	4546
899.513	4584
899.633	4558
899.753	4588
899.873	4481
899.993	4603
900.113	4577
900.232	4618
900.352	4599
900.472	4474
900.591	4413
900.711	4538
900.83	4432
900.95	4679
901.069	4706
901.189	4588
901.308	4348
901.427	4329
901.546	4390
901.665	4504
901.784	4561
901.904	4447
902.023	4360
902.141	4223
902.26	4249
902.379	4333
902.498	4303
902.617	4318
902.735	4428
902.854	4478
902.973	4371
903.091	4257
903.21	4257
903.328	4375
903.446	4284
903.565	4303
903.683	4379
903.801	4295
903.919	4466
904.038	4447
904.156	4367
904.274	4455
904.392	4405
904.51	4485
904.627	4508
904.745	4607
904.863	4672
904.981	4455
905.098	4318
905.216	4440
905.334	4485
905.451	4478
905.569	4481
905.686	4565
905.803	4596
905.921	4424
906.038	4607
906.155	4538
906.272	4356
906.389	4497
906.506	4398
906.623	4363
906.74	4409
906.857	4341
906.974	4402
907.091	4622
907.208	4721
907.324	4577
907.441	4493
907.557	4409
907.674	4379
907.79	4329
907.907	4428
908.023	4519
908.139	4516
908.256	4462
908.372	4512
908.488	4436
908.604	4383
908.72	4367
908.836	4451
908.952	4402
909.068	4481
909.184	4607
909.3	4538
909.415	4611
909.531	4561
909.647	4363
909.762	4398
909.878	4394
909.993	4481
910.108	4462
910.224	4447
910.339	4500
910.454	4371
910.57	4421
910.685	4371
910.8	4645
910.915	4645
911.03	4516
911.145	4352
911.259	4356
911.374	4386
911.489	4322
911.604	4310
911.718	4223
911.833	4234
911.947	4082
912.062	4032
912.176	4227
912.291	4257
912.405	4291
912.519	4466
912.633	4519
912.748	4383
912.862	4352
912.976	4238
913.09	4177
913.204	4166
913.318	4261
913.431	4379
913.545	4363
913.659	4470
913.772	4421
913.886	4268
914	4223
914.113	4383
914.226	4470
914.34	4440
914.453	4257
914.566	4432
914.68	4318
914.793	4318
914.906	4162
915.019	4154
915.132	4124
915.245	4219
915.358	4219
915.47	4249
915.583	4261
915.696	4344
915.809	4402
915.921	4436
916.034	4272
916.146	4276
916.259	4280
916.371	4394
916.483	4352
916.595	4291
916.708	4356
916.82	4325
916.932	4360
917.044	4325
917.156	4405
917.268	4219
917.38	4284
917.491	4280
917.603	4356
917.715	4451
917.826	4459
917.938	4352
918.049	4265
918.161	4409
918.272	4561
918.384	4565
918.495	4462
918.606	4318
918.717	4242
918.828	4329
918.939	4379
919.05	4272
919.161	4329
919.272	4147
919.383	4265
919.494	4470
919.604	4607
919.715	4413
919.826	4371
919.936	4451
920.047	4565
920.157	4481
920.267	4729
920.378	4569
920.488	4569
920.598	4714
920.708	4923
920.818	4744
920.928	4778
921.038	4938
921.148	4938
921.258	4618
921.368	4599
921.477	4500
921.587	4455
921.697	4383
921.806	4542
921.916	4474
922.025	4291
922.134	4242
922.244	4253
922.353	4371
922.462	4207
922.571	4173
922.68	4090
922.789	3964
922.898	4090
923.007	4025
923.116	4124
923.224	4097
923.333	4131
923.442	3994
923.55	4013
923.659	4055
923.767	4135
923.876	3968
923.984	4158
924.092	4048
924.201	4086
924.309	4101
924.417	4158
924.525	4051
924.633	4093
924.741	4911
924.849	3941
924.956	4166
925.064	3953
925.172	3892
925.279	3960
925.387	4090
925.494	4071
925.602	4284
925.709	4230
925.816	4002
925.924	4192
926.031	4341
926.138	4192
926.245	4188
926.352	4135
926.459	4242
926.566	4337
926.673	4185
926.779	4109
926.886	4112
926.993	3991
927.099	3972
927.206	3937
927.312	3960
927.419	4128
927.525	4044
927.631	4120
927.737	3964
927.843	3972
927.95	3850
928.056	3991
928.162	3991
928.267	4071
928.373	4717
928.479	4181
928.585	3930
928.69	4025
928.796	4139
928.901	3975
929.007	3880
929.112	4025
929.218	3968
929.323	3960
929.428	3953
929.533	4147
929.638	3899
929.743	4013
929.848	4036
929.953	4029
930.058	3953
930.163	3827
930.267	3819
930.372	3975
930.477	3831
930.581	4074
930.685	3941
930.79	3850
930.894	3884
930.998	3873
931.103	4105
931.207	3743
931.311	3736
931.415	3690
931.519	3530
931.623	3561
