Data from test_V78500241_1977.txt Node
Date: Fri Mar 25 17:02:44 CST 2022
User: usil
Spectrometer: V785-0024
Trigger mode: 0
Integration Time (sec): 4.000000E-1
Scans to average: 1
Nonlinearity correction enabled: false
Boxcar width: 0
Storing dark spectrum: false
XAxis mode: Wavelengths
Number of Pixels in Spectrum: 1024
>>>>>Begin Spectral Data<<<<<
801.071	8062
801.214	8065
801.356	7856
801.499	7875
801.641	7849
801.783	7837
801.926	7909
802.068	7963
802.211	7997
802.353	8039
802.496	7868
802.638	7837
802.78	7887
802.923	7978
803.065	7818
803.208	7849
803.35	7944
803.492	8096
803.635	8103
803.777	8062
803.919	8123
804.061	8412
804.204	8157
804.346	8031
804.488	7955
804.63	8096
804.773	8027
804.915	8149
805.057	8263
805.199	8176
805.341	8210
805.483	8248
805.626	8153
805.768	8130
805.91	8248
806.052	8157
806.194	8077
806.336	8320
806.478	8077
806.62	8115
806.762	8145
806.904	8301
807.046	8454
807.188	8400
807.33	8351
807.472	8237
807.614	8126
807.756	8149
807.898	7978
808.04	7864
808.182	7875
808.324	7826
808.465	7974
808.607	8001
808.749	8134
808.891	8176
809.033	8324
809.174	8267
809.316	8111
809.458	8103
809.6	8043
809.741	8058
809.883	8123
810.025	8123
810.166	8027
810.308	7955
810.45	7959
810.591	7883
810.733	7723
810.875	7658
811.016	7495
811.158	7453
811.299	7518
811.441	7723
811.582	7651
811.724	7590
811.865	7491
812.007	7609
812.148	7624
812.29	7670
812.431	7700
812.573	7917
812.714	7970
812.855	8043
812.997	8229
813.138	8317
813.279	8130
813.421	8092
813.562	7978
813.703	7841
813.845	7731
813.986	7422
814.127	7301
814.268	7255
814.41	7118
814.551	7110
814.692	7175
814.833	7107
814.974	7099
815.115	7133
815.256	7031
815.397	7019
815.539	6897
815.68	6829
815.821	6783
815.962	6848
816.103	6779
816.244	6730
816.385	6604
816.526	6620
816.666	6498
816.807	6292
816.948	6426
817.089	6525
817.23	6418
817.371	6361
817.512	6361
817.653	6399
817.793	6357
817.934	6372
818.075	6426
818.216	6414
818.356	6448
818.497	6258
818.638	6114
818.778	6129
818.919	6182
819.06	6171
819.2	6365
819.341	6304
819.481	6372
819.622	6525
819.762	6760
819.903	6726
820.043	6574
820.184	6585
820.324	6551
820.465	6696
820.605	6722
820.746	6681
820.886	6525
821.026	6711
821.167	6700
821.307	6787
821.447	6802
821.588	6620
821.728	6578
821.868	6445
822.008	6323
822.149	6433
822.289	6331
822.429	6091
822.569	6064
822.709	6140
822.849	5855
822.99	5897
823.13	5931
823.27	5897
823.41	5790
823.55	5764
823.69	5775
823.83	5767
823.97	5661
824.11	5585
824.25	5558
824.389	5520
824.529	5592
824.669	5509
824.809	5642
824.949	5699
825.089	5646
825.228	5558
825.368	5360
825.508	5406
825.648	5360
825.787	5414
825.927	5372
826.067	5280
826.206	5239
826.346	5330
826.485	5364
826.625	5387
826.765	5596
826.904	5471
827.044	5201
827.183	5189
827.323	5113
827.462	5269
827.601	5174
827.741	5220
827.88	5246
828.02	5056
828.159	5265
828.298	5311
828.437	5360
828.577	5292
828.716	5410
828.855	5376
828.994	5212
829.134	5136
829.273	5212
829.412	5143
829.551	5174
829.69	5208
829.829	5280
829.968	5337
830.107	5296
830.246	5277
830.385	5189
830.524	5170
830.663	5075
830.802	4957
830.941	4915
831.08	4896
831.219	4957
831.357	4987
831.496	5151
831.635	4927
831.774	4862
831.913	4835
832.051	4759
832.19	4710
832.329	4824
832.467	4710
832.606	4611
832.744	4759
832.883	4706
833.022	4771
833.16	4828
833.299	4858
833.437	4805
833.576	4839
833.714	4835
833.852	4870
833.991	4881
834.129	4957
834.267	4961
834.406	4911
834.544	4991
834.682	4976
834.821	4995
834.959	5193
835.097	5014
835.235	5223
835.373	5056
835.511	5109
835.65	5025
835.788	5022
835.926	4862
836.064	4900
836.202	4927
836.34	5170
836.478	5258
836.615	5147
836.753	5193
836.891	5288
837.029	5258
837.167	5136
837.305	5189
837.443	5132
837.58	5121
837.718	5261
837.856	5124
837.993	5155
838.131	5235
838.269	5159
838.406	5181
838.544	5235
838.681	5067
838.819	5025
838.956	4911
839.094	4885
839.231	5060
839.369	5060
839.506	5425
839.643	5269
839.781	5071
839.918	5018
840.055	5094
840.193	5075
840.33	5128
840.467	5151
840.604	5193
840.742	5433
840.879	5086
841.016	5060
841.153	5143
841.29	5353
841.427	5368
841.564	5368
841.701	5318
841.838	5315
841.975	5258
842.112	5269
842.249	5128
842.385	5113
842.522	5326
842.659	5181
842.796	5140
842.933	5201
843.069	5147
843.206	5174
843.343	5239
843.479	5239
843.616	5273
843.752	5041
843.889	5064
844.025	5231
844.162	5090
844.298	5208
844.435	5090
844.571	5037
844.708	5193
844.844	5303
844.98	5345
845.117	5273
845.253	5193
845.389	5060
845.525	5132
845.661	5098
845.798	5033
845.934	5117
846.07	5086
846.206	5166
846.342	5288
846.478	5197
846.614	5071
846.75	4991
846.886	4927
847.022	5151
847.158	5037
847.294	5025
847.429	5071
847.565	5052
847.701	5311
847.837	4854
847.972	4790
848.108	4987
848.244	4972
848.379	4774
848.515	4733
848.65	4702
848.786	4771
848.921	4763
849.057	4877
849.192	4870
849.328	4755
849.463	4831
849.598	4805
849.734	4774
849.869	4691
850.004	4660
850.14	4630
850.275	4664
850.41	4538
850.545	4615
850.68	4611
850.815	4668
850.95	4630
851.085	4854
851.22	4759
851.355	4721
851.49	4626
851.625	4615
851.76	4664
851.895	4554
852.03	4554
852.165	4702
852.299	4736
852.434	4778
852.569	4725
852.703	4767
852.838	4831
852.973	4892
853.107	4889
853.242	4706
853.376	4641
853.511	4584
853.645	4565
853.78	4850
853.914	4683
854.048	4717
854.183	4634
854.317	4664
854.451	4816
854.585	4664
854.72	4618
854.854	4740
854.988	4668
855.122	4622
855.256	4474
855.39	4691
855.524	4790
855.658	4763
855.792	4691
855.926	4752
856.06	4778
856.194	4820
856.327	4694
856.461	4580
856.595	4558
856.729	4607
856.862	4729
856.996	4740
857.13	4729
857.263	4763
857.397	4797
857.53	4634
857.664	4759
857.797	4759
857.931	4793
858.064	4702
858.197	4725
858.331	4653
858.464	4607
858.597	4535
858.731	4626
858.864	4618
858.997	4596
859.13	4630
859.263	4698
859.396	4675
859.529	4584
859.662	4565
859.795	4569
859.928	4622
860.061	4725
860.194	4778
860.327	4622
860.46	4592
860.592	4698
860.725	4691
860.858	4660
860.99	4603
861.123	4542
861.256	4538
861.388	4668
861.521	5159
861.653	4508
861.786	4436
861.918	4451
862.05	4546
862.183	4523
862.315	4558
862.447	4656
862.58	4550
862.712	4398
862.844	4303
862.976	4451
863.108	4500
863.24	4778
863.372	4352
863.504	4428
863.636	4375
863.768	4478
863.9	4455
864.032	4341
864.164	4409
864.296	4485
864.428	4558
864.559	4565
864.691	4493
864.823	4512
864.954	4455
865.086	4527
865.217	4459
865.349	4421
865.48	4447
865.612	4478
865.743	4611
865.875	4516
866.006	4459
866.137	4474
866.269	4436
866.4	4409
866.531	4432
866.662	4440
866.793	4390
866.924	4443
867.055	4493
867.186	4436
867.317	4402
867.448	4413
867.579	4417
867.71	4402
867.841	4356
867.972	4466
868.103	4500
868.233	4459
868.364	4383
868.495	4497
868.625	4725
868.756	4744
868.886	4558
869.017	4649
869.147	4801
869.278	4744
869.408	4653
869.539	4653
869.669	4717
869.799	4630
869.929	4774
870.06	4733
870.19	4965
870.32	4904
870.45	4919
870.58	5041
870.71	5147
870.84	5071
870.97	4961
871.1	4889
871.23	5121
871.36	5113
871.489	4984
871.619	5094
871.749	5102
871.879	5128
872.008	5201
872.138	5094
872.267	5022
872.397	4824
872.526	4771
872.656	4752
872.785	4801
872.915	4957
873.044	5025
873.173	4938
873.303	4934
873.432	4946
873.561	4942
873.69	4873
873.819	4820
873.948	4911
874.077	4816
874.206	4809
874.335	4778
874.464	4896
874.593	5033
874.722	5018
874.851	5083
874.979	5041
875.108	5071
875.237	4919
875.365	4896
875.494	4911
875.623	4961
875.751	4767
875.88	4889
876.008	4972
876.136	5003
876.265	5162
876.393	5315
876.521	5242
876.65	5197
876.778	5155
876.906	5140
877.034	4972
877.162	5014
877.29	4965
877.418	5025
877.546	5056
877.674	5090
877.802	5041
877.93	4976
878.058	4927
878.185	4877
878.313	4968
878.441	4968
878.568	4812
878.696	4854
878.824	4976
878.951	4968
879.079	5155
879.206	5318
879.333	5102
879.461	4987
879.588	5014
879.715	5128
879.842	5227
879.97	5037
880.097	4809
880.224	4733
880.351	4793
880.478	4828
880.605	4774
880.732	4812
880.859	5064
880.986	4873
881.112	4896
881.239	4774
881.366	4694
881.493	4641
881.619	4618
881.746	4634
881.872	4668
881.999	4622
882.125	4672
882.252	4793
882.378	4805
882.505	4953
882.631	4828
882.757	4653
882.883	4725
883.01	4736
883.136	4706
883.262	4607
883.388	4584
883.514	4824
883.64	4858
883.766	4797
883.892	4656
884.018	4691
884.143	4911
884.269	5010
884.395	4637
884.52	4618
884.646	4630
884.772	4618
884.897	4569
885.023	4660
885.148	4767
885.274	4824
885.399	4828
885.524	4714
885.65	4733
885.775	4725
885.9	4717
886.025	4858
886.15	4774
886.275	4763
886.4	4679
886.525	4740
886.65	4683
886.775	4641
886.9	4885
887.025	4999
887.149	4862
887.274	4641
887.399	4546
887.523	4588
887.648	4569
887.773	4569
887.897	4733
888.021	4767
888.146	4698
888.27	4771
888.395	4976
888.519	4782
888.643	4793
888.767	4835
888.891	4691
889.015	4615
889.139	4653
889.263	4630
889.387	4729
889.511	4862
889.635	4748
889.759	4653
889.883	4675
890.006	4733
890.13	4790
890.254	4561
890.377	4706
890.501	4508
890.624	4527
890.748	4618
890.871	4500
890.995	4432
891.118	4394
891.241	4489
891.364	4523
891.488	4630
891.611	4466
891.734	4542
891.857	4615
891.98	4596
892.103	4634
892.226	4569
892.349	4519
892.471	4459
892.594	4538
892.717	4622
892.839	4531
892.962	4626
893.085	4660
893.207	4603
893.33	4497
893.452	4558
893.575	4675
893.697	4558
893.819	4744
893.941	4801
894.064	4793
894.186	4577
894.308	4603
894.43	4721
894.552	4850
894.674	4812
894.796	4538
894.918	4615
895.04	4588
895.161	4672
895.283	4649
895.405	4569
895.526	4611
895.648	4618
895.769	4687
895.891	4740
896.012	4717
896.134	4736
896.255	4698
896.376	4603
896.498	4565
896.619	4656
896.74	4588
896.861	4626
896.982	4877
897.103	5083
897.224	4801
897.345	4744
897.466	4649
897.587	4786
897.708	4831
897.828	4755
897.949	4637
898.07	4554
898.19	4653
898.311	4828
898.431	4675
898.552	4729
898.672	4801
898.792	4771
898.913	4782
899.033	4592
899.153	4504
899.273	4398
899.393	4481
899.513	4523
899.633	4489
899.753	4508
899.873	4474
899.993	4580
900.113	4504
900.232	4603
900.352	4516
900.472	4493
900.591	4424
900.711	4550
900.83	4421
900.95	4675
901.069	4710
901.189	4592
901.308	4379
901.427	4333
901.546	4344
901.665	4497
901.784	4504
901.904	4348
902.023	4280
902.141	4196
902.26	4131
902.379	4265
902.498	4223
902.617	4200
902.735	4360
902.854	4402
902.973	4344
903.091	4192
903.21	4253
903.328	4284
903.446	4287
903.565	4223
903.683	4322
903.801	4227
903.919	4383
904.038	4405
904.156	4310
904.274	4424
904.392	4390
904.51	4379
904.627	4455
904.745	4519
904.863	4649
904.981	4428
905.098	4306
905.216	4341
905.334	4405
905.451	4432
905.569	4424
905.686	4535
905.803	4546
905.921	4417
906.038	4565
906.155	4504
906.272	4390
906.389	4443
906.506	4367
906.623	4356
906.74	4306
906.857	4306
906.974	4390
907.091	4535
907.208	4683
907.324	4535
907.441	4504
907.557	4306
907.674	4325
907.79	4348
907.907	4375
908.023	4493
908.139	4481
908.256	4459
908.372	4455
908.488	4459
908.604	4371
908.72	4333
908.836	4356
908.952	4341
909.068	4459
909.184	4527
909.3	4470
909.415	4565
909.531	4554
909.647	4390
909.762	4402
909.878	4352
909.993	4440
910.108	4383
910.224	4398
910.339	4459
910.454	4360
910.57	4333
910.685	4341
910.8	4668
910.915	4603
911.03	4466
911.145	4337
911.259	4352
911.374	4360
911.489	4287
911.604	4310
911.718	4139
911.833	4185
911.947	4097
912.062	4013
912.176	4272
912.291	4284
912.405	4242
912.519	4485
912.633	4459
912.748	4371
912.862	4306
912.976	4185
913.09	4124
913.204	4154
913.318	4268
913.431	4405
913.545	4386
913.659	4398
913.772	4341
913.886	4200
914	4181
914.113	4363
914.226	4440
914.34	4398
914.453	4249
914.566	4436
914.68	4276
914.793	4329
914.906	4131
915.019	4147
915.132	4067
915.245	4177
915.358	4284
915.47	4223
915.583	4295
915.696	4314
915.809	4436
915.921	4421
916.034	4295
916.146	4291
916.259	4246
916.371	4348
916.483	4310
916.595	4261
916.708	4325
916.82	4280
916.932	4341
917.044	4356
917.156	4333
917.268	4230
917.38	4280
917.491	4257
917.603	4310
917.715	4383
917.826	4474
917.938	4325
918.049	4268
918.161	4367
918.272	4531
918.384	4497
918.495	4459
918.606	4253
918.717	4265
918.828	4325
918.939	4341
919.05	4306
919.161	4306
919.272	4128
919.383	4249
919.494	4413
919.604	4596
919.715	4459
919.826	4375
919.936	4402
920.047	4535
920.157	4565
920.267	4687
920.378	4531
920.488	4497
920.598	4706
920.708	4908
920.818	4725
920.928	4740
921.038	4976
921.148	4873
921.258	4634
921.368	4519
921.477	4462
921.587	4428
921.697	4390
921.806	4527
921.916	4398
922.025	4242
922.134	4287
922.244	4246
922.353	4329
922.462	4215
922.571	4135
922.68	3987
922.789	3998
922.898	4040
923.007	3964
923.116	4112
923.224	4082
923.333	4040
923.442	3994
923.55	3975
923.659	4010
923.767	4082
923.876	4017
923.984	4109
924.092	3979
924.201	4055
924.309	4078
924.417	4192
924.525	4048
924.633	4143
924.741	5025
924.849	3911
924.956	4124
925.064	3926
925.172	3934
925.279	3964
925.387	4051
925.494	4082
925.602	4249
925.709	4158
925.816	4025
925.924	4131
926.031	4211
926.138	4173
926.245	4188
926.352	4128
926.459	4253
926.566	4272
926.673	4154
926.779	4078
926.886	4071
926.993	4002
927.099	3903
927.206	3956
927.312	3945
927.419	4044
927.525	4063
927.631	4093
927.737	3960
927.843	3907
927.95	3835
928.056	3983
928.162	3975
928.267	4055
928.373	4603
928.479	4135
928.585	3850
928.69	4055
928.796	4078
928.901	3972
929.007	3854
929.112	4025
929.218	3968
929.323	3983
929.428	3987
929.533	4086
929.638	3941
929.743	3941
929.848	4067
929.953	3991
930.058	3903
930.163	3800
930.267	3850
930.372	3991
930.477	3835
930.581	4067
930.685	3930
930.79	3816
930.894	3869
930.998	3899
931.103	4048
931.207	3720
931.311	3690
931.415	3686
931.519	3526
931.623	3526
