Data from test_V78500241_1188.txt Node
Date: Fri Mar 25 16:57:15 CST 2022
User: usil
Spectrometer: V785-0024
Trigger mode: 0
Integration Time (sec): 4.000000E-1
Scans to average: 1
Nonlinearity correction enabled: false
Boxcar width: 0
Storing dark spectrum: false
XAxis mode: Wavelengths
Number of Pixels in Spectrum: 1024
>>>>>Begin Spectral Data<<<<<
801.071	7978
801.214	8005
801.356	7928
801.499	7822
801.641	7799
801.783	7830
801.926	7936
802.068	7921
802.211	7932
802.353	8005
802.496	7875
802.638	7826
802.78	7932
802.923	7940
803.065	7856
803.208	7860
803.35	7982
803.492	8058
803.635	8157
803.777	7993
803.919	8111
804.061	8393
804.204	8145
804.346	8027
804.488	7967
804.63	8062
804.773	8081
804.915	8126
805.057	8290
805.199	8142
805.341	8161
805.483	8294
805.626	8252
805.768	8115
805.91	8176
806.052	8168
806.194	8081
806.336	8218
806.478	8088
806.62	8012
806.762	8199
806.904	8358
807.046	8396
807.188	8271
807.33	8305
807.472	8309
807.614	8172
807.756	8214
807.898	7986
808.04	7852
808.182	7883
808.324	7849
808.465	7913
808.607	8142
808.749	8145
808.891	8240
809.033	8271
809.174	8210
809.316	8039
809.458	8039
809.6	7993
809.741	8081
809.883	7963
810.025	8016
810.166	8073
810.308	7997
810.45	7989
810.591	7852
810.733	7746
810.875	7613
811.016	7525
811.158	7480
811.299	7616
811.441	7731
811.582	7643
811.724	7605
811.865	7449
812.007	7556
812.148	7582
812.29	7674
812.431	7738
812.573	7852
812.714	7944
812.855	8149
812.997	8229
813.138	8313
813.279	8145
813.421	8084
813.562	7997
813.703	7871
813.845	7742
813.986	7510
814.127	7206
814.268	7259
814.41	7114
814.551	7187
814.692	7175
814.833	7084
814.974	7076
815.115	7095
815.256	6932
815.397	6856
815.539	6970
815.68	6787
815.821	6760
815.962	6871
816.103	6821
816.244	6707
816.385	6673
816.526	6547
816.666	6452
816.807	6247
816.948	6403
817.089	6486
817.23	6445
817.371	6369
817.512	6410
817.653	6448
817.793	6350
817.934	6426
818.075	6403
818.216	6403
818.356	6372
818.497	6194
818.638	6076
818.778	6129
818.919	6155
819.06	6186
819.2	6365
819.341	6258
819.481	6338
819.622	6517
819.762	6757
819.903	6719
820.043	6604
820.184	6551
820.324	6612
820.465	6677
820.605	6703
820.746	6639
820.886	6426
821.026	6639
821.167	6673
821.307	6787
821.447	6726
821.588	6639
821.728	6525
821.868	6525
822.008	6311
822.149	6380
822.289	6388
822.429	6117
822.569	6053
822.709	6076
822.849	5912
822.99	5897
823.13	5961
823.27	5901
823.41	5805
823.55	5779
823.69	5752
823.83	5745
823.97	5707
824.11	5490
824.25	5505
824.389	5543
824.529	5562
824.669	5535
824.809	5638
824.949	5672
825.089	5562
825.228	5589
825.368	5383
825.508	5322
825.648	5360
825.787	5330
825.927	5296
826.067	5341
826.206	5261
826.346	5368
826.485	5387
826.625	5410
826.765	5493
826.904	5501
827.044	5265
827.183	5159
827.323	5162
827.462	5254
827.601	5185
827.741	5170
827.88	5204
828.02	5151
828.159	5239
828.298	5280
828.437	5296
828.577	5269
828.716	5497
828.855	5307
828.994	5128
829.134	5124
829.273	5193
829.412	5109
829.551	5090
829.69	5151
829.829	5242
829.968	5334
830.107	5223
830.246	5265
830.385	5132
830.524	5147
830.663	5052
830.802	4942
830.941	4877
831.08	4862
831.219	4995
831.357	4949
831.496	5105
831.635	4896
831.774	4847
831.913	4812
832.051	4744
832.19	4759
832.329	4850
832.467	4645
832.606	4637
832.744	4736
832.883	4702
833.022	4702
833.16	4759
833.299	4820
833.437	4850
833.576	4828
833.714	4873
833.852	4862
833.991	4870
834.129	4927
834.267	4927
834.406	4854
834.544	4934
834.682	4942
834.821	4930
834.959	5105
835.097	4999
835.235	5124
835.373	5079
835.511	5075
835.65	4999
835.788	5056
835.926	4911
836.064	4854
836.202	4873
836.34	5143
836.478	5208
836.615	5075
836.753	5204
836.891	5261
837.029	5197
837.167	5204
837.305	5181
837.443	5113
837.58	5045
837.718	5216
837.856	5162
837.993	5121
838.131	5220
838.269	5140
838.406	5201
838.544	5181
838.681	5052
838.819	4995
838.956	4881
839.094	4961
839.231	5003
839.369	5045
839.506	5410
839.643	5254
839.781	5037
839.918	5029
840.055	5121
840.193	5064
840.33	5075
840.467	5140
840.604	5204
840.742	5402
840.879	5067
841.016	5041
841.153	5143
841.29	5349
841.427	5315
841.564	5265
841.701	5337
841.838	5315
841.975	5189
842.112	5250
842.249	5105
842.385	5064
842.522	5288
842.659	5193
842.796	5143
842.933	5143
843.069	5128
843.206	5128
843.343	5265
843.479	5227
843.616	5254
843.752	5003
843.889	5006
844.025	5242
844.162	5003
844.298	5094
844.435	5025
844.571	4995
844.708	5132
844.844	5288
844.98	5345
845.117	5303
845.253	5166
845.389	5060
845.525	5166
845.661	5159
845.798	5006
845.934	5128
846.07	5056
846.206	5151
846.342	5280
846.478	5124
846.614	5006
846.75	4938
846.886	4877
847.022	5056
847.158	4991
847.294	5018
847.429	5067
847.565	5041
847.701	5322
847.837	4862
847.972	4809
848.108	4972
848.244	4946
848.379	4790
848.515	4733
848.65	4656
848.786	4714
848.921	4767
849.057	4877
849.192	4881
849.328	4771
849.463	4839
849.598	4759
849.734	4729
849.869	4656
850.004	4634
850.14	4649
850.275	4630
850.41	4531
850.545	4519
850.68	4558
850.815	4592
850.95	4664
851.085	4763
851.22	4733
851.355	4679
851.49	4637
851.625	4558
851.76	4622
851.895	4550
852.03	4508
852.165	4630
852.299	4714
852.434	4733
852.569	4729
852.703	4740
852.838	4812
852.973	4870
853.107	4873
853.242	4717
853.376	4615
853.511	4550
853.645	4550
853.78	4748
853.914	4660
854.048	4649
854.183	4577
854.317	4721
854.451	4793
854.585	4626
854.72	4634
854.854	4736
854.988	4596
855.122	4584
855.256	4493
855.39	4691
855.524	4767
855.658	4725
855.792	4698
855.926	4717
856.06	4748
856.194	4771
856.327	4672
856.461	4527
856.595	4603
856.729	4588
856.862	4721
856.996	4679
857.13	4698
857.263	4748
857.397	4752
857.53	4615
857.664	4675
857.797	4752
857.931	4702
858.064	4687
858.197	4733
858.331	4603
858.464	4618
858.597	4474
858.731	4656
858.864	4584
858.997	4592
859.13	4649
859.263	4664
859.396	4714
859.529	4558
859.662	4523
859.795	4527
859.928	4599
860.061	4759
860.194	4748
860.327	4622
860.46	4569
860.592	4702
860.725	4748
860.858	4717
860.99	4538
861.123	4485
861.256	4470
861.388	4622
861.521	5280
861.653	4409
861.786	4440
861.918	4455
862.05	4497
862.183	4504
862.315	4535
862.447	4603
862.58	4558
862.712	4398
862.844	4398
862.976	4440
863.108	4455
863.24	4866
863.372	4306
863.504	4440
863.636	4390
863.768	4474
863.9	4386
864.032	4344
864.164	4398
864.296	4462
864.428	4504
864.559	4500
864.691	4542
864.823	4523
864.954	4493
865.086	4497
865.217	4428
865.349	4409
865.48	4440
865.612	4455
865.743	4561
865.875	4462
866.006	4363
866.137	4402
866.269	4413
866.4	4424
866.531	4424
866.662	4352
866.793	4413
866.924	4413
867.055	4470
867.186	4455
867.317	4421
867.448	4367
867.579	4325
867.71	4371
867.841	4367
867.972	4440
868.103	4466
868.233	4436
868.364	4428
868.495	4462
868.625	4641
868.756	4721
868.886	4504
869.017	4653
869.147	4752
869.278	4771
869.408	4599
869.539	4561
869.669	4694
869.799	4588
869.929	4729
870.06	4710
870.19	4911
870.32	4896
870.45	4919
870.58	4980
870.71	5045
870.84	5079
870.97	4923
871.1	4885
871.23	5117
871.36	5086
871.489	4995
871.619	5045
871.749	5064
871.879	5132
872.008	5166
872.138	5014
872.267	4961
872.397	4805
872.526	4786
872.656	4759
872.785	4790
872.915	4885
873.044	5018
873.173	4900
873.303	4881
873.432	4946
873.561	4968
873.69	4850
873.819	4831
873.948	4900
874.077	4797
874.206	4744
874.335	4793
874.464	4911
874.593	5018
874.722	4949
874.851	5090
874.979	5033
875.108	4984
875.237	4919
875.365	4877
875.494	4850
875.623	4999
875.751	4809
875.88	4873
876.008	4938
876.136	4991
876.265	5162
876.393	5307
876.521	5269
876.65	5239
876.778	5155
876.906	5079
877.034	5064
877.162	5056
877.29	5025
877.418	5060
877.546	5067
877.674	5041
877.802	5033
877.93	5006
878.058	4961
878.185	4934
878.313	4934
878.441	4987
878.568	4835
878.696	4900
878.824	4934
878.951	5029
879.079	5140
879.206	5349
879.333	5155
879.461	4942
879.588	5003
879.715	5155
879.842	5261
879.97	5014
880.097	4850
880.224	4778
880.351	4774
880.478	4870
880.605	4843
880.732	4847
880.859	5147
880.986	4904
881.112	4946
881.239	4763
881.366	4691
881.493	4649
881.619	4622
881.746	4683
881.872	4687
881.999	4691
882.125	4710
882.252	4824
882.378	4839
882.505	4991
882.631	4835
882.757	4706
882.883	4778
883.01	4717
883.136	4710
883.262	4611
883.388	4660
883.514	4839
883.64	4885
883.766	4862
883.892	4694
884.018	4717
884.143	4949
884.269	5022
884.395	4767
884.52	4664
884.646	4630
884.772	4656
884.897	4588
885.023	4706
885.148	4870
885.274	4904
885.399	4812
885.524	4744
885.65	4725
885.775	4809
885.9	4710
886.025	4908
886.15	4866
886.275	4771
886.4	4672
886.525	4816
886.65	4691
886.775	4706
886.9	4915
887.025	5052
887.149	4835
887.274	4660
887.399	4649
887.523	4577
887.648	4622
887.773	4565
887.897	4847
888.021	4809
888.146	4702
888.27	4809
888.395	4911
888.519	4809
888.643	4812
888.767	4870
888.891	4706
889.015	4691
889.139	4714
889.263	4656
889.387	4774
889.511	4900
889.635	4820
889.759	4656
889.883	4672
890.006	4752
890.13	4843
890.254	4630
890.377	4683
890.501	4569
890.624	4569
890.748	4675
890.871	4546
890.995	4459
891.118	4352
891.241	4538
891.364	4485
891.488	4634
891.611	4516
891.734	4573
891.857	4653
891.98	4554
892.103	4679
892.226	4634
892.349	4519
892.471	4428
892.594	4577
892.717	4611
892.839	4596
892.962	4641
893.085	4702
893.207	4607
893.33	4516
893.452	4554
893.575	4675
893.697	4596
893.819	4805
893.941	4862
894.064	4774
894.186	4607
894.308	4588
894.43	4687
894.552	4892
894.674	4771
894.796	4565
894.918	4607
895.04	4584
895.161	4759
895.283	4630
895.405	4580
895.526	4634
895.648	4710
895.769	4729
895.891	4752
896.012	4763
896.134	4763
896.255	4630
896.376	4710
896.498	4603
896.619	4717
896.74	4603
896.861	4668
896.982	4934
897.103	5132
897.224	4847
897.345	4748
897.466	4645
897.587	4782
897.708	4892
897.828	4816
897.949	4706
898.07	4599
898.19	4641
898.311	4843
898.431	4698
898.552	4763
898.672	4854
898.792	4850
898.913	4729
899.033	4630
899.153	4512
899.273	4405
899.393	4493
899.513	4527
899.633	4493
899.753	4603
899.873	4500
899.993	4588
900.113	4558
900.232	4588
900.352	4580
900.472	4478
900.591	4436
900.711	4535
900.83	4440
900.95	4641
901.069	4675
901.189	4558
901.308	4402
901.427	4341
901.546	4398
901.665	4481
901.784	4531
901.904	4394
902.023	4356
902.141	4246
902.26	4150
902.379	4329
902.498	4272
902.617	4261
902.735	4375
902.854	4474
902.973	4375
903.091	4169
903.21	4257
903.328	4352
903.446	4322
903.565	4314
903.683	4386
903.801	4318
903.919	4424
904.038	4466
904.156	4352
904.274	4447
904.392	4440
904.51	4413
904.627	4424
904.745	4626
904.863	4668
904.981	4402
905.098	4344
905.216	4375
905.334	4462
905.451	4440
905.569	4485
905.686	4596
905.803	4588
905.921	4455
906.038	4573
906.155	4493
906.272	4398
906.389	4485
906.506	4352
906.623	4379
906.74	4402
906.857	4295
906.974	4409
907.091	4592
907.208	4675
907.324	4580
907.441	4535
907.557	4375
907.674	4341
907.79	4348
907.907	4371
908.023	4455
908.139	4523
908.256	4432
908.372	4500
908.488	4474
908.604	4390
908.72	4261
908.836	4386
908.952	4386
909.068	4451
909.184	4634
909.3	4519
909.415	4615
909.531	4558
909.647	4390
909.762	4379
909.878	4367
909.993	4481
910.108	4443
910.224	4424
910.339	4493
910.454	4402
910.57	4383
910.685	4367
910.8	4702
910.915	4645
911.03	4497
911.145	4333
911.259	4310
911.374	4352
911.489	4341
911.604	4268
911.718	4169
911.833	4249
911.947	4109
912.062	4036
912.176	4223
912.291	4272
912.405	4291
912.519	4527
912.633	4497
912.748	4398
912.862	4322
912.976	4207
913.09	4105
913.204	4169
913.318	4284
913.431	4371
913.545	4383
913.659	4478
913.772	4375
913.886	4295
914	4246
914.113	4405
914.226	4474
914.34	4367
914.453	4303
914.566	4413
914.68	4329
914.793	4322
914.906	4188
915.019	4109
915.132	4078
915.245	4185
915.358	4238
915.47	4177
915.583	4227
915.696	4329
915.809	4409
915.921	4485
916.034	4306
916.146	4230
916.259	4219
916.371	4394
916.483	4421
916.595	4303
916.708	4341
916.82	4337
916.932	4371
917.044	4284
917.156	4341
917.268	4261
917.38	4257
917.491	4303
917.603	4371
917.715	4440
917.826	4493
917.938	4379
918.049	4287
918.161	4402
918.272	4565
918.384	4569
918.495	4462
918.606	4310
918.717	4215
918.828	4322
918.939	4394
919.05	4287
919.161	4329
919.272	4131
919.383	4238
919.494	4478
919.604	4645
919.715	4428
919.826	4367
919.936	4417
920.047	4504
920.157	4523
920.267	4714
920.378	4527
920.488	4550
920.598	4672
920.708	4870
920.818	4702
920.928	4763
921.038	4965
921.148	4942
921.258	4672
921.368	4573
921.477	4535
921.587	4504
921.697	4394
921.806	4550
921.916	4413
922.025	4272
922.134	4280
922.244	4306
922.353	4337
922.462	4177
922.571	4154
922.68	4082
922.789	3956
922.898	4029
923.007	4017
923.116	4124
923.224	4082
923.333	4124
923.442	3979
923.55	4021
923.659	4010
923.767	4120
923.876	4029
923.984	4112
924.092	3979
924.201	4112
924.309	4131
924.417	4154
924.525	4120
924.633	4093
924.741	5045
924.849	3907
924.956	4124
925.064	3983
925.172	3964
925.279	4006
925.387	4051
925.494	4063
925.602	4215
925.709	4200
925.816	4048
925.924	4124
926.031	4204
926.138	4196
926.245	4177
926.352	4169
926.459	4238
926.566	4341
926.673	4169
926.779	4131
926.886	4086
926.993	4002
927.099	3945
927.206	3960
927.312	3964
927.419	4093
927.525	4048
927.631	4128
927.737	3934
927.843	3956
927.95	3854
928.056	3953
928.162	3953
928.267	4093
928.373	4656
928.479	4105
928.585	3842
928.69	4074
928.796	4044
928.901	3991
929.007	3884
929.112	3949
929.218	4002
929.323	3964
929.428	3892
929.533	4105
929.638	3922
929.743	3937
929.848	4074
929.953	3979
930.058	3941
930.163	3759
930.267	3823
930.372	3983
930.477	3819
930.581	4093
930.685	3934
930.79	3861
930.894	3926
930.998	3880
931.103	4067
931.207	3747
931.311	3660
931.415	3663
931.519	3530
931.623	3542
