Data from test_V78500241_1438.txt Node
Date: Fri Mar 25 16:58:59 CST 2022
User: usil
Spectrometer: V785-0024
Trigger mode: 0
Integration Time (sec): 4.000000E-1
Scans to average: 1
Nonlinearity correction enabled: false
Boxcar width: 0
Storing dark spectrum: false
XAxis mode: Wavelengths
Number of Pixels in Spectrum: 1024
>>>>>Begin Spectral Data<<<<<
801.071	7974
801.214	7974
801.356	7883
801.499	7845
801.641	7677
801.783	7818
801.926	7970
802.068	7883
802.211	7906
802.353	8005
802.496	7795
802.638	7868
802.78	7932
802.923	7921
803.065	7970
803.208	7830
803.35	7909
803.492	8107
803.635	8100
803.777	8012
803.919	8100
804.061	8351
804.204	8107
804.346	8031
804.488	7974
804.63	8088
804.773	8012
804.915	8069
805.057	8229
805.199	8123
805.341	8259
805.483	8214
805.626	8161
805.768	8225
805.91	8218
806.052	8199
806.194	8119
806.336	8252
806.478	8134
806.62	8081
806.762	8119
806.904	8286
807.046	8495
807.188	8423
807.33	8248
807.472	8275
807.614	8195
807.756	8065
807.898	8001
808.04	7917
808.182	7936
808.324	7883
808.465	7887
808.607	8050
808.749	8107
808.891	8214
809.033	8313
809.174	8206
809.316	8039
809.458	8058
809.6	7947
809.741	8065
809.883	8058
810.025	8092
810.166	8107
810.308	8020
810.45	7997
810.591	7833
810.733	7780
810.875	7689
811.016	7529
811.158	7586
811.299	7613
811.441	7708
811.582	7662
811.724	7563
811.865	7514
812.007	7597
812.148	7571
812.29	7628
812.431	7700
812.573	7814
812.714	7967
812.855	8092
812.997	8218
813.138	8275
813.279	8229
813.421	8134
813.562	8016
813.703	7883
813.845	7693
813.986	7415
814.127	7232
814.268	7221
814.41	7198
814.551	7133
814.692	7255
814.833	7038
814.974	7076
815.115	7091
815.256	6939
815.397	6958
815.539	6924
815.68	6848
815.821	6734
815.962	6848
816.103	6833
816.244	6707
816.385	6601
816.526	6620
816.666	6490
816.807	6304
816.948	6395
817.089	6464
817.23	6429
817.371	6342
817.512	6403
817.653	6384
817.793	6304
817.934	6376
818.075	6418
818.216	6388
818.356	6342
818.497	6224
818.638	6095
818.778	6095
818.919	6041
819.06	6190
819.2	6319
819.341	6254
819.481	6365
819.622	6407
819.762	6673
819.903	6722
820.043	6551
820.184	6513
820.324	6639
820.465	6681
820.605	6703
820.746	6612
820.886	6551
821.026	6635
821.167	6642
821.307	6783
821.447	6730
821.588	6696
821.728	6563
821.868	6456
822.008	6319
822.149	6327
822.289	6334
822.429	6140
822.569	6121
822.709	6167
822.849	5931
822.99	5847
823.13	5866
823.27	5897
823.41	5790
823.55	5783
823.69	5783
823.83	5764
823.97	5665
824.11	5516
824.25	5501
824.389	5596
824.529	5562
824.669	5497
824.809	5608
824.949	5642
825.089	5581
825.228	5520
825.368	5341
825.508	5315
825.648	5357
825.787	5372
825.927	5326
826.067	5284
826.206	5284
826.346	5376
826.485	5436
826.625	5364
826.765	5535
826.904	5414
827.044	5216
827.183	5170
827.323	5193
827.462	5242
827.601	5201
827.741	5181
827.88	5235
828.02	5117
828.159	5223
828.298	5315
828.437	5311
828.577	5261
828.716	5463
828.855	5299
828.994	5143
829.134	5132
829.273	5178
829.412	5094
829.551	5121
829.69	5147
829.829	5185
829.968	5376
830.107	5231
830.246	5223
830.385	5166
830.524	5098
830.663	5086
830.802	4949
830.941	4866
831.08	4847
831.219	5003
831.357	4934
831.496	5113
831.635	4919
831.774	4847
831.913	4854
832.051	4702
832.19	4706
832.329	4782
832.467	4656
832.606	4645
832.744	4729
832.883	4683
833.022	4706
833.16	4767
833.299	4786
833.437	4820
833.576	4763
833.714	4816
833.852	4839
833.991	4889
834.129	4991
834.267	4877
834.406	4877
834.544	4984
834.682	4991
834.821	4957
834.959	5105
835.097	4946
835.235	5147
835.373	5064
835.511	5048
835.65	5029
835.788	4991
835.926	4862
836.064	4824
836.202	4934
836.34	5124
836.478	5193
836.615	5140
836.753	5227
836.891	5322
837.029	5254
837.167	5181
837.305	5162
837.443	5132
837.58	5048
837.718	5231
837.856	5136
837.993	5151
838.131	5178
838.269	5235
838.406	5162
838.544	5170
838.681	5060
838.819	4995
838.956	4877
839.094	4889
839.231	4972
839.369	5079
839.506	5398
839.643	5242
839.781	5037
839.918	4972
840.055	5132
840.193	5052
840.33	5079
840.467	5159
840.604	5204
840.742	5417
840.879	5048
841.016	5071
841.153	5181
841.29	5391
841.427	5326
841.564	5349
841.701	5330
841.838	5277
841.975	5151
842.112	5242
842.249	5143
842.385	5041
842.522	5296
842.659	5128
842.796	5094
842.933	5216
843.069	5124
843.206	5124
843.343	5246
843.479	5208
843.616	5246
843.752	5018
843.889	4919
844.025	5197
844.162	5033
844.298	5197
844.435	5056
844.571	5048
844.708	5242
844.844	5280
844.98	5345
845.117	5299
845.253	5086
845.389	5060
845.525	5136
845.661	5109
845.798	5014
845.934	5117
846.07	4999
846.206	5143
846.342	5208
846.478	5147
846.614	5064
846.75	4968
846.886	4968
847.022	5132
847.158	5041
847.294	5052
847.429	5117
847.565	5029
847.701	5288
847.837	4854
847.972	4831
848.108	4934
848.244	4942
848.379	4782
848.515	4736
848.65	4691
848.786	4691
848.921	4755
849.057	4831
849.192	4850
849.328	4816
849.463	4805
849.598	4744
849.734	4782
849.869	4649
850.004	4603
850.14	4615
850.275	4584
850.41	4523
850.545	4577
850.68	4596
850.815	4634
850.95	4580
851.085	4801
851.22	4733
851.355	4698
851.49	4618
851.625	4641
851.76	4630
851.895	4550
852.03	4497
852.165	4653
852.299	4702
852.434	4767
852.569	4748
852.703	4782
852.838	4816
852.973	4968
853.107	4934
853.242	4736
853.376	4630
853.511	4531
853.645	4546
853.78	4847
853.914	4672
854.048	4656
854.183	4622
854.317	4691
854.451	4786
854.585	4702
854.72	4637
854.854	4767
854.988	4622
855.122	4603
855.256	4527
855.39	4645
855.524	4748
855.658	4733
855.792	4660
855.926	4729
856.06	4759
856.194	4767
856.327	4645
856.461	4607
856.595	4622
856.729	4599
856.862	4714
856.996	4694
857.13	4668
857.263	4767
857.397	4820
857.53	4634
857.664	4672
857.797	4729
857.931	4797
858.064	4691
858.197	4725
858.331	4641
858.464	4630
858.597	4478
858.731	4622
858.864	4660
858.997	4611
859.13	4630
859.263	4664
859.396	4740
859.529	4565
859.662	4584
859.795	4470
859.928	4637
860.061	4752
860.194	4778
860.327	4558
860.46	4569
860.592	4740
860.725	4653
860.858	4691
860.99	4630
861.123	4485
861.256	4493
861.388	4607
861.521	5421
861.653	4451
861.786	4455
861.918	4398
862.05	4462
862.183	4580
862.315	4577
862.447	4618
862.58	4531
862.712	4402
862.844	4306
862.976	4451
863.108	4428
863.24	4835
863.372	4318
863.504	4417
863.636	4394
863.768	4436
863.9	4417
864.032	4318
864.164	4421
864.296	4443
864.428	4554
864.559	4561
864.691	4504
864.823	4493
864.954	4523
865.086	4462
865.217	4474
865.349	4417
865.48	4440
865.612	4451
865.743	4599
865.875	4462
866.006	4383
866.137	4443
866.269	4451
866.4	4432
866.531	4383
866.662	4371
866.793	4413
866.924	4398
867.055	4466
867.186	4470
867.317	4440
867.448	4394
867.579	4348
867.71	4356
867.841	4390
867.972	4417
868.103	4440
868.233	4459
868.364	4390
868.495	4508
868.625	4634
868.756	4717
868.886	4626
869.017	4645
869.147	4755
869.278	4782
869.408	4653
869.539	4622
869.669	4767
869.799	4649
869.929	4782
870.06	4786
870.19	4953
870.32	4949
870.45	4946
870.58	4984
870.71	5128
870.84	5041
870.97	4980
871.1	4896
871.23	5151
871.36	5102
871.489	5025
871.619	5052
871.749	5155
871.879	5140
872.008	5189
872.138	5052
872.267	5022
872.397	4820
872.526	4847
872.656	4778
872.785	4816
872.915	4976
873.044	5056
873.173	4987
873.303	5033
873.432	4995
873.561	5010
873.69	4908
873.819	4896
873.948	4915
874.077	4911
874.206	4790
874.335	4911
874.464	4930
874.593	5071
874.722	5010
874.851	5147
874.979	5075
875.108	5083
875.237	4938
875.365	4942
875.494	4900
875.623	5003
875.751	4877
875.88	4870
876.008	4999
876.136	5064
876.265	5242
876.393	5387
876.521	5322
876.65	5220
876.778	5231
876.906	5132
877.034	5083
877.162	5037
877.29	5037
877.418	5094
877.546	5113
877.674	5083
877.802	5086
877.93	5083
878.058	4965
878.185	4900
878.313	4984
878.441	4957
878.568	4854
878.696	4904
878.824	5014
878.951	5003
879.079	5162
879.206	5364
879.333	5155
879.461	5010
879.588	5048
879.715	5113
879.842	5273
879.97	5041
880.097	4824
880.224	4778
880.351	4820
880.478	4873
880.605	4816
880.732	4812
880.859	5109
880.986	4911
881.112	4896
881.239	4812
881.366	4694
881.493	4668
881.619	4546
881.746	4706
881.872	4694
881.999	4698
882.125	4691
882.252	4805
882.378	4866
882.505	4995
882.631	4816
882.757	4733
882.883	4793
883.01	4729
883.136	4729
883.262	4641
883.388	4622
883.514	4839
883.64	4919
883.766	4850
883.892	4664
884.018	4725
884.143	4896
884.269	5105
884.395	4717
884.52	4675
884.646	4660
884.772	4645
884.897	4561
885.023	4668
885.148	4820
885.274	4889
885.399	4793
885.524	4774
885.65	4763
885.775	4797
885.9	4733
886.025	4900
886.15	4828
886.275	4733
886.4	4702
886.525	4782
886.65	4656
886.775	4748
886.9	4911
887.025	5014
887.149	4805
887.274	4679
887.399	4599
887.523	4618
887.648	4580
887.773	4599
887.897	4748
888.021	4759
888.146	4744
888.27	4843
888.395	4923
888.519	4835
888.643	4866
888.767	4828
888.891	4771
889.015	4611
889.139	4649
889.263	4675
889.387	4782
889.511	4873
889.635	4793
889.759	4679
889.883	4615
890.006	4774
890.13	4858
890.254	4660
890.377	4717
890.501	4580
890.624	4538
890.748	4634
890.871	4531
890.995	4481
891.118	4386
891.241	4546
891.364	4596
891.488	4691
891.611	4523
891.734	4580
891.857	4634
891.98	4615
892.103	4603
892.226	4611
892.349	4588
892.471	4462
892.594	4569
892.717	4584
892.839	4607
892.962	4630
893.085	4687
893.207	4641
893.33	4459
893.452	4497
893.575	4653
893.697	4607
893.819	4793
893.941	4892
894.064	4767
894.186	4607
894.308	4603
894.43	4763
894.552	4820
894.674	4748
894.796	4569
894.918	4603
895.04	4630
895.161	4729
895.283	4637
895.405	4618
895.526	4645
895.648	4752
895.769	4714
895.891	4740
896.012	4694
896.134	4733
896.255	4694
896.376	4656
896.498	4584
896.619	4706
896.74	4626
896.861	4675
896.982	4934
897.103	5094
897.224	4820
897.345	4771
897.466	4675
897.587	4748
897.708	4927
897.828	4793
897.949	4729
898.07	4611
898.19	4672
898.311	4831
898.431	4710
898.552	4725
898.672	4824
898.792	4839
898.913	4797
899.033	4637
899.153	4550
899.273	4493
899.393	4500
899.513	4519
899.633	4561
899.753	4550
899.873	4500
899.993	4637
900.113	4565
900.232	4615
900.352	4588
900.472	4462
900.591	4428
900.711	4573
900.83	4440
900.95	4637
901.069	4691
901.189	4573
901.308	4383
901.427	4291
901.546	4421
901.665	4489
901.784	4512
901.904	4363
902.023	4375
902.141	4230
902.26	4154
902.379	4314
902.498	4246
902.617	4223
902.735	4371
902.854	4432
902.973	4398
903.091	4238
903.21	4234
903.328	4318
903.446	4265
903.565	4253
903.683	4379
903.801	4287
903.919	4455
904.038	4474
904.156	4303
904.274	4440
904.392	4413
904.51	4474
904.627	4504
904.745	4558
904.863	4694
904.981	4417
905.098	4310
905.216	4417
905.334	4398
905.451	4440
905.569	4466
905.686	4546
905.803	4569
905.921	4451
906.038	4554
906.155	4508
906.272	4409
906.389	4508
906.506	4394
906.623	4417
906.74	4405
906.857	4356
906.974	4371
907.091	4592
907.208	4702
907.324	4622
907.441	4481
907.557	4356
907.674	4310
907.79	4344
907.907	4455
908.023	4546
908.139	4493
908.256	4421
908.372	4474
908.488	4447
908.604	4398
908.72	4436
908.836	4386
908.952	4428
909.068	4440
909.184	4611
909.3	4489
909.415	4561
909.531	4569
909.647	4367
909.762	4375
909.878	4363
909.993	4402
910.108	4432
910.224	4424
910.339	4497
910.454	4466
910.57	4443
910.685	4322
910.8	4656
910.915	4588
911.03	4577
911.145	4405
911.259	4367
911.374	4367
911.489	4322
911.604	4265
911.718	4173
911.833	4207
911.947	4128
912.062	4048
912.176	4211
912.291	4306
912.405	4310
912.519	4428
912.633	4485
912.748	4402
912.862	4272
912.976	4238
913.09	4120
913.204	4215
913.318	4238
913.431	4409
913.545	4409
913.659	4451
913.772	4398
913.886	4219
914	4276
914.113	4424
914.226	4462
914.34	4367
914.453	4257
914.566	4383
914.68	4341
914.793	4367
914.906	4181
915.019	4147
915.132	4109
915.245	4238
915.358	4223
915.47	4291
915.583	4280
915.696	4360
915.809	4417
915.921	4447
916.034	4272
916.146	4242
916.259	4227
916.371	4428
916.483	4390
916.595	4314
916.708	4303
916.82	4356
916.932	4371
917.044	4356
917.156	4371
917.268	4253
917.38	4299
917.491	4246
917.603	4352
917.715	4459
917.826	4443
917.938	4386
918.049	4234
918.161	4379
918.272	4542
918.384	4538
918.495	4508
918.606	4325
918.717	4261
918.828	4352
918.939	4405
919.05	4325
919.161	4356
919.272	4150
919.383	4253
919.494	4497
919.604	4622
919.715	4466
919.826	4341
919.936	4390
920.047	4546
920.157	4489
920.267	4706
920.378	4577
920.488	4508
920.598	4702
920.708	4889
920.818	4797
920.928	4767
921.038	4957
921.148	4904
921.258	4649
921.368	4573
921.477	4516
921.587	4462
921.697	4337
921.806	4550
921.916	4432
922.025	4246
922.134	4268
922.244	4268
922.353	4394
922.462	4169
922.571	4158
922.68	4044
922.789	3972
922.898	4078
923.007	4010
923.116	4120
923.224	4071
923.333	4044
923.442	3994
923.55	4048
923.659	4036
923.767	4101
923.876	3998
923.984	4154
924.092	3994
924.201	4078
924.309	4078
924.417	4105
924.525	4044
924.633	4139
924.741	5052
924.849	3956
924.956	4173
925.064	3998
925.172	3922
925.279	3979
925.387	4044
925.494	4082
925.602	4173
925.709	4166
925.816	4036
925.924	4135
926.031	4196
926.138	4169
926.245	4253
926.352	4131
926.459	4219
926.566	4272
926.673	4200
926.779	4086
926.886	4086
926.993	4032
927.099	3968
927.206	3937
927.312	3930
927.419	4071
927.525	4040
927.631	4097
927.737	3937
927.843	3964
927.95	3892
928.056	3956
928.162	4029
928.267	4074
928.373	4584
928.479	4158
928.585	3918
928.69	4021
928.796	4093
928.901	4032
929.007	3876
929.112	4032
929.218	3998
929.323	3975
929.428	3953
929.533	4109
929.638	3918
929.743	4010
929.848	4090
929.953	3983
930.058	3945
930.163	3789
930.267	3838
930.372	4002
930.477	3854
930.581	4074
930.685	3956
930.79	3800
930.894	3857
930.998	3850
931.103	4036
931.207	3743
931.311	3717
931.415	3682
931.519	3504
931.623	3584
