Data from test_V78500241_1775.txt Node
Date: Fri Mar 25 17:01:20 CST 2022
User: usil
Spectrometer: V785-0024
Trigger mode: 0
Integration Time (sec): 4.000000E-1
Scans to average: 1
Nonlinearity correction enabled: false
Boxcar width: 0
Storing dark spectrum: false
XAxis mode: Wavelengths
Number of Pixels in Spectrum: 1024
>>>>>Begin Spectral Data<<<<<
801.071	7959
801.214	8058
801.356	7871
801.499	7868
801.641	7803
801.783	7860
801.926	8005
802.068	7925
802.211	7978
802.353	7978
802.496	7871
802.638	7822
802.78	7875
802.923	7940
803.065	7932
803.208	7852
803.35	7970
803.492	8145
803.635	8164
803.777	8031
803.919	8096
804.061	8488
804.204	8210
804.346	8069
804.488	7982
804.63	8134
804.773	8065
804.915	8096
805.057	8279
805.199	8210
805.341	8259
805.483	8240
805.626	8214
805.768	8100
805.91	8267
806.052	8282
806.194	8172
806.336	8282
806.478	8107
806.62	8046
806.762	8145
806.904	8305
807.046	8495
807.188	8400
807.33	8343
807.472	8358
807.614	8153
807.756	8157
807.898	8050
808.04	7944
808.182	7890
808.324	7906
808.465	7970
808.607	8050
808.749	8134
808.891	8221
809.033	8267
809.174	8267
809.316	8100
809.458	8046
809.6	8077
809.741	7997
809.883	8050
810.025	8126
810.166	8149
810.308	7989
810.45	8008
810.591	7890
810.733	7757
810.875	7670
811.016	7552
811.158	7487
811.299	7594
811.441	7708
811.582	7639
811.724	7639
811.865	7506
812.007	7540
812.148	7624
812.29	7658
812.431	7769
812.573	7936
812.714	8016
812.855	8111
812.997	8237
813.138	8267
813.279	8202
813.421	8126
813.562	7955
813.703	7814
813.845	7757
813.986	7518
814.127	7236
814.268	7225
814.41	7217
814.551	7232
814.692	7209
814.833	7149
814.974	7122
815.115	7171
815.256	7012
815.397	6966
815.539	7000
815.68	6852
815.821	6757
815.962	6863
816.103	6859
816.244	6745
816.385	6612
816.526	6669
816.666	6498
816.807	6296
816.948	6464
817.089	6422
817.23	6429
817.371	6357
817.512	6346
817.653	6350
817.793	6308
817.934	6384
818.075	6448
818.216	6483
818.356	6460
818.497	6251
818.638	6148
818.778	6148
818.919	6125
819.06	6213
819.2	6331
819.341	6380
819.481	6391
819.622	6502
819.762	6749
819.903	6677
820.043	6593
820.184	6597
820.324	6597
820.465	6798
820.605	6665
820.746	6711
820.886	6532
821.026	6669
821.167	6684
821.307	6844
821.447	6806
821.588	6623
821.728	6597
821.868	6502
822.008	6342
822.149	6357
822.289	6353
822.429	6163
822.569	6083
822.709	6163
822.849	5927
822.99	5897
823.13	5920
823.27	5901
823.41	5824
823.55	5745
823.69	5786
823.83	5813
823.97	5657
824.11	5493
824.25	5463
824.389	5585
824.529	5551
824.669	5532
824.809	5653
824.949	5718
825.089	5596
825.228	5532
825.368	5372
825.508	5360
825.648	5337
825.787	5421
825.927	5376
826.067	5284
826.206	5288
826.346	5429
826.485	5452
826.625	5421
826.765	5505
826.904	5490
827.044	5284
827.183	5227
827.323	5181
827.462	5231
827.601	5170
827.741	5174
827.88	5284
828.02	5143
828.159	5212
828.298	5299
828.437	5349
828.577	5296
828.716	5493
828.855	5337
828.994	5242
829.134	5174
829.273	5185
829.412	5140
829.551	5204
829.69	5181
829.829	5227
829.968	5391
830.107	5296
830.246	5280
830.385	5159
830.524	5178
830.663	5064
830.802	4980
830.941	4923
831.08	4885
831.219	4999
831.357	4991
831.496	5151
831.635	4949
831.774	4847
831.913	4915
832.051	4725
832.19	4733
832.329	4816
832.467	4687
832.606	4664
832.744	4717
832.883	4740
833.022	4721
833.16	4778
833.299	4793
833.437	4866
833.576	4790
833.714	4850
833.852	4858
833.991	4953
834.129	4984
834.267	4984
834.406	4953
834.544	5037
834.682	4976
834.821	4961
834.959	5181
835.097	4972
835.235	5098
835.373	5155
835.511	5109
835.65	5022
835.788	5003
835.926	4908
836.064	4850
836.202	4892
836.34	5166
836.478	5246
836.615	5105
836.753	5193
836.891	5261
837.029	5254
837.167	5235
837.305	5136
837.443	5132
837.58	5064
837.718	5284
837.856	5174
837.993	5102
838.131	5265
838.269	5181
838.406	5208
838.544	5208
838.681	5079
838.819	5014
838.956	4927
839.094	4881
839.231	4991
839.369	5056
839.506	5376
839.643	5242
839.781	5124
839.918	4965
840.055	5121
840.193	5086
840.33	5113
840.467	5170
840.604	5227
840.742	5474
840.879	5056
841.016	5075
841.153	5162
841.29	5364
841.427	5311
841.564	5296
841.701	5345
841.838	5261
841.975	5227
842.112	5296
842.249	5227
842.385	5071
842.522	5307
842.659	5258
842.796	5178
842.933	5212
843.069	5128
843.206	5189
843.343	5265
843.479	5292
843.616	5261
843.752	5006
843.889	4949
844.025	5250
844.162	5041
844.298	5197
844.435	5113
844.571	5041
844.708	5284
844.844	5284
844.98	5353
845.117	5296
845.253	5185
845.389	5128
845.525	5121
845.661	5124
845.798	5041
845.934	5128
846.07	5037
846.206	5166
846.342	5315
846.478	5185
846.614	5003
846.75	4991
846.886	4961
847.022	5159
847.158	5025
847.294	5071
847.429	5086
847.565	5045
847.701	5330
847.837	4866
847.972	4820
848.108	4949
848.244	4946
848.379	4767
848.515	4698
848.65	4744
848.786	4797
848.921	4831
849.057	4858
849.192	4892
849.328	4824
849.463	4850
849.598	4774
849.734	4767
849.869	4675
850.004	4580
850.14	4668
850.275	4611
850.41	4558
850.545	4550
850.68	4588
850.815	4618
850.95	4660
851.085	4793
851.22	4717
851.355	4698
851.49	4641
851.625	4630
851.76	4637
851.895	4569
852.03	4519
852.165	4626
852.299	4698
852.434	4771
852.569	4710
852.703	4786
852.838	4850
852.973	4881
853.107	4930
853.242	4744
853.376	4664
853.511	4561
853.645	4611
853.78	4812
853.914	4679
854.048	4675
854.183	4672
854.317	4714
854.451	4797
854.585	4698
854.72	4603
854.854	4786
854.988	4607
855.122	4634
855.256	4523
855.39	4675
855.524	4786
855.658	4752
855.792	4706
855.926	4744
856.06	4755
856.194	4786
856.327	4698
856.461	4645
856.595	4649
856.729	4626
856.862	4771
856.996	4748
857.13	4744
857.263	4767
857.397	4786
857.53	4656
857.664	4691
857.797	4767
857.931	4782
858.064	4649
858.197	4694
858.331	4634
858.464	4618
858.597	4535
858.731	4653
858.864	4622
858.997	4596
859.13	4607
859.263	4687
859.396	4740
859.529	4596
859.662	4584
859.795	4546
859.928	4656
860.061	4759
860.194	4740
860.327	4573
860.46	4538
860.592	4702
860.725	4702
860.858	4706
860.99	4569
861.123	4523
861.256	4577
861.388	4596
861.521	5349
861.653	4489
861.786	4409
861.918	4451
862.05	4500
862.183	4531
862.315	4558
862.447	4634
862.58	4565
862.712	4409
862.844	4344
862.976	4500
863.108	4474
863.24	4862
863.372	4360
863.504	4409
863.636	4375
863.768	4485
863.9	4417
864.032	4341
864.164	4371
864.296	4493
864.428	4535
864.559	4504
864.691	4523
864.823	4519
864.954	4493
865.086	4519
865.217	4485
865.349	4356
865.48	4466
865.612	4470
865.743	4611
865.875	4485
866.006	4390
866.137	4421
866.269	4447
866.4	4402
866.531	4405
866.662	4379
866.793	4394
866.924	4363
867.055	4481
867.186	4455
867.317	4462
867.448	4375
867.579	4413
867.71	4390
867.841	4379
867.972	4443
868.103	4436
868.233	4440
868.364	4478
868.495	4462
868.625	4675
868.756	4767
868.886	4523
869.017	4603
869.147	4767
869.278	4786
869.408	4615
869.539	4679
869.669	4706
869.799	4717
869.929	4786
870.06	4717
870.19	4953
870.32	4908
870.45	4911
870.58	5045
870.71	5067
870.84	5140
870.97	4942
871.1	4908
871.23	5121
871.36	5140
871.489	5048
871.619	5094
871.749	5117
871.879	5124
872.008	5178
872.138	5098
872.267	4968
872.397	4843
872.526	4778
872.656	4710
872.785	4771
872.915	4953
873.044	5045
873.173	4927
873.303	4987
873.432	4915
873.561	4934
873.69	4854
873.819	4854
873.948	4900
874.077	4812
874.206	4778
874.335	4801
874.464	4938
874.593	5033
874.722	4957
874.851	5056
874.979	5075
875.108	5006
875.237	4908
875.365	4881
875.494	4889
875.623	5003
875.751	4835
875.88	4877
876.008	4984
876.136	5014
876.265	5185
876.393	5311
876.521	5246
876.65	5189
876.778	5121
876.906	5090
877.034	5003
877.162	4987
877.29	4957
877.418	5037
877.546	5018
877.674	4991
877.802	5033
877.93	5041
878.058	4934
878.185	4839
878.313	4934
878.441	4999
878.568	4847
878.696	4847
878.824	4915
878.951	4995
879.079	5086
879.206	5284
879.333	5105
879.461	5033
879.588	5014
879.715	5079
879.842	5227
879.97	5045
880.097	4812
880.224	4752
880.351	4870
880.478	4771
880.605	4812
880.732	4790
880.859	5067
880.986	4889
881.112	4934
881.239	4778
881.366	4679
881.493	4653
881.619	4622
881.746	4618
881.872	4660
881.999	4653
882.125	4672
882.252	4816
882.378	4801
882.505	4980
882.631	4793
882.757	4694
882.883	4733
883.01	4691
883.136	4691
883.262	4554
883.388	4588
883.514	4839
883.64	4828
883.766	4774
883.892	4656
884.018	4694
884.143	4847
884.269	4968
884.395	4679
884.52	4592
884.646	4634
884.772	4542
884.897	4588
885.023	4694
885.148	4748
885.274	4892
885.399	4767
885.524	4721
885.65	4664
885.775	4733
885.9	4733
886.025	4850
886.15	4809
886.275	4717
886.4	4630
886.525	4717
886.65	4702
886.775	4668
886.9	4908
887.025	4984
887.149	4797
887.274	4706
887.399	4550
887.523	4599
887.648	4577
887.773	4626
887.897	4744
888.021	4782
888.146	4649
888.27	4835
888.395	4900
888.519	4824
888.643	4793
888.767	4809
888.891	4710
889.015	4573
889.139	4611
889.263	4615
889.387	4752
889.511	4843
889.635	4820
889.759	4615
889.883	4611
890.006	4679
890.13	4786
890.254	4637
890.377	4641
890.501	4592
890.624	4516
890.748	4675
890.871	4516
890.995	4474
891.118	4363
891.241	4523
891.364	4546
891.488	4656
891.611	4481
891.734	4531
891.857	4588
891.98	4550
892.103	4660
892.226	4550
892.349	4512
892.471	4405
892.594	4542
892.717	4592
892.839	4569
892.962	4607
893.085	4702
893.207	4603
893.33	4485
893.452	4519
893.575	4637
893.697	4580
893.819	4782
893.941	4847
894.064	4706
894.186	4630
894.308	4527
894.43	4729
894.552	4816
894.674	4748
894.796	4538
894.918	4584
895.04	4558
895.161	4740
895.283	4691
895.405	4580
895.526	4603
895.648	4660
895.769	4645
895.891	4714
896.012	4759
896.134	4710
896.255	4683
896.376	4641
896.498	4580
896.619	4679
896.74	4622
896.861	4675
896.982	4953
897.103	5060
897.224	4850
897.345	4729
897.466	4645
897.587	4725
897.708	4801
897.828	4748
897.949	4675
898.07	4554
898.19	4630
898.311	4786
898.431	4653
898.552	4725
898.672	4805
898.792	4797
898.913	4748
899.033	4622
899.153	4504
899.273	4390
899.393	4497
899.513	4527
899.633	4523
899.753	4577
899.873	4500
899.993	4630
900.113	4508
900.232	4550
900.352	4561
900.472	4451
900.591	4436
900.711	4489
900.83	4443
900.95	4641
901.069	4675
901.189	4523
901.308	4394
901.427	4234
901.546	4383
901.665	4466
901.784	4485
901.904	4394
902.023	4329
902.141	4188
902.26	4158
902.379	4291
902.498	4234
902.617	4192
902.735	4394
902.854	4398
902.973	4360
903.091	4200
903.21	4215
903.328	4303
903.446	4314
903.565	4257
903.683	4337
903.801	4318
903.919	4375
904.038	4459
904.156	4333
904.274	4443
904.392	4432
904.51	4428
904.627	4447
904.745	4573
904.863	4588
904.981	4440
905.098	4261
905.216	4367
905.334	4379
905.451	4424
905.569	4443
905.686	4531
905.803	4531
905.921	4447
906.038	4527
906.155	4447
906.272	4398
906.389	4455
906.506	4386
906.623	4405
906.74	4379
906.857	4322
906.974	4310
907.091	4626
907.208	4717
907.324	4607
907.441	4523
907.557	4337
907.674	4337
907.79	4272
907.907	4386
908.023	4470
908.139	4432
908.256	4451
908.372	4474
908.488	4436
908.604	4360
908.72	4276
908.836	4379
908.952	4383
909.068	4447
909.184	4615
909.3	4455
909.415	4596
909.531	4603
909.647	4344
909.762	4375
909.878	4314
909.993	4390
910.108	4360
910.224	4428
910.339	4478
910.454	4443
910.57	4360
910.685	4291
910.8	4656
910.915	4565
911.03	4523
911.145	4341
911.259	4303
911.374	4417
911.489	4299
911.604	4276
911.718	4143
911.833	4246
911.947	4078
912.062	4029
912.176	4188
912.291	4246
912.405	4246
912.519	4455
912.633	4508
912.748	4363
912.862	4303
912.976	4249
913.09	4124
913.204	4169
913.318	4268
913.431	4348
913.545	4398
913.659	4440
913.772	4318
913.886	4249
914	4192
914.113	4356
914.226	4405
914.34	4356
914.453	4207
914.566	4478
914.68	4249
914.793	4337
914.906	4181
915.019	4143
915.132	4105
915.245	4177
915.358	4192
915.47	4230
915.583	4246
915.696	4310
915.809	4421
915.921	4428
916.034	4234
916.146	4268
916.259	4177
916.371	4386
916.483	4325
916.595	4310
916.708	4280
916.82	4337
916.932	4352
917.044	4310
917.156	4356
917.268	4272
917.38	4284
917.491	4268
917.603	4344
917.715	4447
917.826	4424
917.938	4402
918.049	4287
918.161	4322
918.272	4558
918.384	4607
918.495	4470
918.606	4303
918.717	4200
918.828	4367
918.939	4371
919.05	4272
919.161	4276
919.272	4101
919.383	4253
919.494	4466
919.604	4622
919.715	4402
919.826	4337
919.936	4379
920.047	4508
920.157	4474
920.267	4702
920.378	4523
920.488	4508
920.598	4740
920.708	4885
920.818	4755
920.928	4725
921.038	4961
921.148	4923
921.258	4675
921.368	4565
921.477	4474
921.587	4478
921.697	4417
921.806	4569
921.916	4466
922.025	4261
922.134	4303
922.244	4246
922.353	4344
922.462	4181
922.571	4124
922.68	3968
922.789	3937
922.898	4048
923.007	4013
923.116	4139
923.224	4063
923.333	4055
923.442	3987
923.55	3994
923.659	4021
923.767	4090
923.876	4055
923.984	4101
924.092	3968
924.201	4097
924.309	4101
924.417	4173
924.525	4044
924.633	4086
924.741	4987
924.849	3899
924.956	4093
925.064	3983
925.172	3911
925.279	3941
925.387	4040
925.494	4006
925.602	4169
925.709	4230
925.816	4025
925.924	4177
926.031	4268
926.138	4147
926.245	4219
926.352	4090
926.459	4318
926.566	4295
926.673	4173
926.779	4109
926.886	4105
926.993	3964
927.099	3956
927.206	3945
927.312	3956
927.419	4101
927.525	4021
927.631	4124
927.737	3911
927.843	3960
927.95	3857
928.056	3926
928.162	3991
928.267	4097
928.373	4630
928.479	4131
928.585	3892
928.69	4006
928.796	4105
928.901	3964
929.007	3865
929.112	4006
929.218	3960
929.323	3907
929.428	3941
929.533	4055
929.638	3899
929.743	3918
929.848	4010
929.953	3964
930.058	3956
930.163	3743
930.267	3835
930.372	3983
930.477	3789
930.581	4093
930.685	3968
930.79	3823
930.894	3846
930.998	3835
931.103	4021
931.207	3705
931.311	3667
931.415	3656
931.519	3526
931.623	3542
