Data from test_V78500241_1343.txt Node
Date: Fri Mar 25 16:58:20 CST 2022
User: usil
Spectrometer: V785-0024
Trigger mode: 0
Integration Time (sec): 4.000000E-1
Scans to average: 1
Nonlinearity correction enabled: false
Boxcar width: 0
Storing dark spectrum: false
XAxis mode: Wavelengths
Number of Pixels in Spectrum: 1024
>>>>>Begin Spectral Data<<<<<
801.071	8031
801.214	7986
801.356	7879
801.499	7818
801.641	7784
801.783	7757
801.926	7883
802.068	7909
802.211	7959
802.353	8050
802.496	7799
802.638	7898
802.78	7852
802.923	7932
803.065	7906
803.208	7902
803.35	7986
803.492	8088
803.635	8142
803.777	8024
803.919	8161
804.061	8446
804.204	8100
804.346	8065
804.488	8012
804.63	8157
804.773	7978
804.915	8153
805.057	8324
805.199	8172
805.341	8187
805.483	8233
805.626	8134
805.768	8024
805.91	8240
806.052	8244
806.194	8142
806.336	8214
806.478	8149
806.62	8084
806.762	8115
806.904	8282
807.046	8431
807.188	8339
807.33	8229
807.472	8336
807.614	8164
807.756	8119
807.898	7947
808.04	7841
808.182	7909
808.324	7883
808.465	7928
808.607	8123
808.749	8123
808.891	8176
809.033	8233
809.174	8263
809.316	8088
809.458	8008
809.6	7982
809.741	8073
809.883	7997
810.025	8088
810.166	8058
810.308	8054
810.45	7959
810.591	7879
810.733	7776
810.875	7704
811.016	7460
811.158	7540
811.299	7540
811.441	7750
811.582	7655
811.724	7571
811.865	7567
812.007	7601
812.148	7533
812.29	7590
812.431	7727
812.573	7871
812.714	7955
812.855	8115
812.997	8142
813.138	8237
813.279	8161
813.421	8164
813.562	8050
813.703	7890
813.845	7784
813.986	7377
814.127	7228
814.268	7232
814.41	7129
814.551	7137
814.692	7206
814.833	7103
814.974	7057
815.115	7065
815.256	6928
815.397	6890
815.539	6977
815.68	6833
815.821	6749
815.962	6867
816.103	6810
816.244	6642
816.385	6574
816.526	6574
816.666	6460
816.807	6270
816.948	6395
817.089	6407
817.23	6380
817.371	6323
817.512	6350
817.653	6376
817.793	6357
817.934	6372
818.075	6437
818.216	6448
818.356	6292
818.497	6216
818.638	6171
818.778	6091
818.919	6129
819.06	6125
819.2	6323
819.341	6258
819.481	6266
819.622	6563
819.762	6711
819.903	6703
820.043	6540
820.184	6585
820.324	6559
820.465	6631
820.605	6696
820.746	6654
820.886	6517
821.026	6639
821.167	6722
821.307	6768
821.447	6734
821.588	6662
821.728	6525
821.868	6494
822.008	6327
822.149	6361
822.289	6353
822.429	6133
822.569	6049
822.709	6057
822.849	5923
822.99	5878
823.13	5916
823.27	5920
823.41	5771
823.55	5764
823.69	5726
823.83	5771
823.97	5653
824.11	5581
824.25	5486
824.389	5573
824.529	5585
824.669	5509
824.809	5570
824.949	5619
825.089	5558
825.228	5478
825.368	5379
825.508	5273
825.648	5379
825.787	5349
825.927	5337
826.067	5265
826.206	5273
826.346	5345
826.485	5360
826.625	5322
826.765	5516
826.904	5501
827.044	5246
827.183	5223
827.323	5124
827.462	5239
827.601	5162
827.741	5155
827.88	5204
828.02	5102
828.159	5242
828.298	5284
828.437	5303
828.577	5258
828.716	5512
828.855	5341
828.994	5143
829.134	5128
829.273	5147
829.412	5086
829.551	5102
829.69	5151
829.829	5227
829.968	5357
830.107	5185
830.246	5288
830.385	5151
830.524	5113
830.663	5075
830.802	4930
830.941	4877
831.08	4889
831.219	4904
831.357	4953
831.496	5174
831.635	4911
831.774	4824
831.913	4820
832.051	4714
832.19	4694
832.329	4828
832.467	4656
832.606	4630
832.744	4706
832.883	4706
833.022	4721
833.16	4809
833.299	4805
833.437	4809
833.576	4790
833.714	4850
833.852	4850
833.991	4839
834.129	4938
834.267	4923
834.406	4930
834.544	4949
834.682	4968
834.821	4930
834.959	5124
835.097	4984
835.235	5147
835.373	5018
835.511	5102
835.65	5006
835.788	5025
835.926	4858
836.064	4873
836.202	4854
836.34	5170
836.478	5189
836.615	5132
836.753	5246
836.891	5231
837.029	5265
837.167	5185
837.305	5128
837.443	5159
837.58	5086
837.718	5231
837.856	5159
837.993	5132
838.131	5254
838.269	5185
838.406	5166
838.544	5162
838.681	4999
838.819	4991
838.956	4862
839.094	4889
839.231	4968
839.369	5060
839.506	5364
839.643	5273
839.781	5075
839.918	5018
840.055	5094
840.193	5071
840.33	5052
840.467	5102
840.604	5159
840.742	5414
840.879	5086
841.016	5067
841.153	5121
841.29	5360
841.427	5345
841.564	5284
841.701	5334
841.838	5322
841.975	5261
842.112	5284
842.249	5083
842.385	5052
842.522	5349
842.659	5151
842.796	5124
842.933	5174
843.069	5140
843.206	5105
843.343	5250
843.479	5162
843.616	5216
843.752	4999
843.889	5010
844.025	5193
844.162	5045
844.298	5181
844.435	5025
844.571	5045
844.708	5181
844.844	5311
844.98	5292
845.117	5280
845.253	5098
845.389	5037
845.525	5155
845.661	5121
845.798	4995
845.934	5064
846.07	5018
846.206	5136
846.342	5212
846.478	5117
846.614	5022
846.75	4942
846.886	4991
847.022	5170
847.158	5006
847.294	5025
847.429	5083
847.565	5033
847.701	5337
847.837	4847
847.972	4820
848.108	4908
848.244	4904
848.379	4828
848.515	4706
848.65	4736
848.786	4736
848.921	4767
849.057	4870
849.192	4858
849.328	4782
849.463	4797
849.598	4786
849.734	4710
849.869	4645
850.004	4599
850.14	4626
850.275	4592
850.41	4504
850.545	4565
850.68	4596
850.815	4611
850.95	4645
851.085	4805
851.22	4767
851.355	4634
851.49	4618
851.625	4615
851.76	4622
851.895	4535
852.03	4523
852.165	4626
852.299	4717
852.434	4740
852.569	4725
852.703	4793
852.838	4831
852.973	4889
853.107	4858
853.242	4736
853.376	4702
853.511	4516
853.645	4622
853.78	4740
853.914	4641
854.048	4653
854.183	4664
854.317	4748
854.451	4858
854.585	4668
854.72	4599
854.854	4755
854.988	4592
855.122	4599
855.256	4512
855.39	4664
855.524	4763
855.658	4717
855.792	4653
855.926	4752
856.06	4763
856.194	4771
856.327	4675
856.461	4615
856.595	4599
856.729	4611
856.862	4717
856.996	4714
857.13	4706
857.263	4771
857.397	4725
857.53	4592
857.664	4710
857.797	4714
857.931	4729
858.064	4641
858.197	4706
858.331	4561
858.464	4580
858.597	4512
858.731	4569
858.864	4637
858.997	4580
859.13	4668
859.263	4641
859.396	4679
859.529	4584
859.662	4558
859.795	4474
859.928	4607
860.061	4755
860.194	4717
860.327	4554
860.46	4569
860.592	4634
860.725	4683
860.858	4675
860.99	4599
861.123	4481
861.256	4523
861.388	4596
861.521	5307
861.653	4512
861.786	4478
861.918	4455
862.05	4508
862.183	4550
862.315	4603
862.447	4588
862.58	4554
862.712	4371
862.844	4337
862.976	4470
863.108	4519
863.24	4915
863.372	4348
863.504	4421
863.636	4375
863.768	4493
863.9	4428
864.032	4421
864.164	4398
864.296	4519
864.428	4550
864.559	4580
864.691	4554
864.823	4512
864.954	4519
865.086	4512
865.217	4512
865.349	4455
865.48	4497
865.612	4500
865.743	4626
865.875	4466
866.006	4462
866.137	4523
866.269	4481
866.4	4455
866.531	4424
866.662	4375
866.793	4436
866.924	4481
867.055	4466
867.186	4504
867.317	4447
867.448	4409
867.579	4428
867.71	4497
867.841	4383
867.972	4493
868.103	4504
868.233	4489
868.364	4485
868.495	4519
868.625	4694
868.756	4774
868.886	4603
869.017	4615
869.147	4820
869.278	4812
869.408	4710
869.539	4656
869.669	4790
869.799	4698
869.929	4771
870.06	4759
870.19	4949
870.32	4984
870.45	4957
870.58	5037
870.71	5132
870.84	5151
870.97	4972
871.1	4934
871.23	5166
871.36	5155
871.489	5010
871.619	5064
871.749	5124
871.879	5189
872.008	5181
872.138	5052
872.267	4987
872.397	4900
872.526	4839
872.656	4725
872.785	4828
872.915	4949
873.044	5048
873.173	4968
873.303	4957
873.432	4949
873.561	4949
873.69	4885
873.819	4885
873.948	4957
874.077	4843
874.206	4816
874.335	4847
874.464	4949
874.593	5090
874.722	4968
874.851	5102
874.979	5132
875.108	5079
875.237	4953
875.365	4889
875.494	4938
875.623	5025
875.751	4885
875.88	4889
876.008	4968
876.136	5022
876.265	5269
876.393	5376
876.521	5307
876.65	5284
876.778	5231
876.906	5060
877.034	5025
877.162	5094
877.29	4995
877.418	5079
877.546	5064
877.674	5071
877.802	5029
877.93	4999
878.058	4995
878.185	4919
878.313	4968
878.441	4976
878.568	4843
878.696	4900
878.824	4930
878.951	4976
879.079	5147
879.206	5296
879.333	5140
879.461	4987
879.588	5014
879.715	5216
879.842	5288
879.97	5010
880.097	4820
880.224	4771
880.351	4835
880.478	4854
880.605	4790
880.732	4767
880.859	5136
880.986	4942
881.112	4942
881.239	4759
881.366	4694
881.493	4649
881.619	4607
881.746	4645
881.872	4641
881.999	4668
882.125	4721
882.252	4831
882.378	4866
882.505	4999
882.631	4828
882.757	4679
882.883	4725
883.01	4706
883.136	4717
883.262	4607
883.388	4637
883.514	4831
883.64	4843
883.766	4820
883.892	4733
884.018	4778
884.143	4896
884.269	5006
884.395	4706
884.52	4630
884.646	4656
884.772	4573
884.897	4588
885.023	4641
885.148	4809
885.274	4873
885.399	4820
885.524	4714
885.65	4706
885.775	4714
885.9	4714
886.025	4911
886.15	4797
886.275	4744
886.4	4683
886.525	4748
886.65	4683
886.775	4706
886.9	4904
887.025	5037
887.149	4793
887.274	4656
887.399	4611
887.523	4668
887.648	4645
887.773	4580
887.897	4786
888.021	4812
888.146	4679
888.27	4828
888.395	4889
888.519	4801
888.643	4824
888.767	4850
888.891	4717
889.015	4618
889.139	4698
889.263	4615
889.387	4786
889.511	4885
889.635	4900
889.759	4683
889.883	4660
890.006	4759
890.13	4847
890.254	4592
890.377	4698
890.501	4550
890.624	4580
890.748	4653
890.871	4558
890.995	4474
891.118	4428
891.241	4508
891.364	4588
891.488	4656
891.611	4512
891.734	4561
891.857	4565
891.98	4573
892.103	4626
892.226	4645
892.349	4531
892.471	4459
892.594	4531
892.717	4607
892.839	4630
892.962	4607
893.085	4744
893.207	4584
893.33	4489
893.452	4603
893.575	4645
893.697	4611
893.819	4790
893.941	4889
894.064	4809
894.186	4584
894.308	4603
894.43	4774
894.552	4759
894.674	4862
894.796	4626
894.918	4668
895.04	4577
895.161	4767
895.283	4683
895.405	4603
895.526	4664
895.648	4740
895.769	4687
895.891	4752
896.012	4721
896.134	4759
896.255	4687
896.376	4660
896.498	4672
896.619	4687
896.74	4622
896.861	4687
896.982	4934
897.103	5136
897.224	4870
897.345	4797
897.466	4710
897.587	4782
897.708	4873
897.828	4790
897.949	4706
898.07	4584
898.19	4687
898.311	4809
898.431	4698
898.552	4774
898.672	4831
898.792	4790
898.913	4782
899.033	4607
899.153	4588
899.273	4436
899.393	4455
899.513	4546
899.633	4542
899.753	4527
899.873	4455
899.993	4618
900.113	4546
900.232	4569
900.352	4599
900.472	4500
900.591	4443
900.711	4478
900.83	4462
900.95	4641
901.069	4736
901.189	4584
901.308	4386
901.427	4383
901.546	4440
901.665	4489
901.784	4523
901.904	4379
902.023	4333
902.141	4234
902.26	4169
902.379	4322
902.498	4230
902.617	4284
902.735	4394
902.854	4379
902.973	4341
903.091	4211
903.21	4268
903.328	4314
903.446	4268
903.565	4268
903.683	4367
903.801	4299
903.919	4447
904.038	4466
904.156	4383
904.274	4405
904.392	4432
904.51	4466
904.627	4485
904.745	4603
904.863	4641
904.981	4470
905.098	4295
905.216	4402
905.334	4436
905.451	4481
905.569	4409
905.686	4584
905.803	4599
905.921	4405
906.038	4596
906.155	4558
906.272	4402
906.389	4478
906.506	4360
906.623	4386
906.74	4417
906.857	4295
906.974	4409
907.091	4588
907.208	4660
907.324	4622
907.441	4519
907.557	4329
907.674	4360
907.79	4299
907.907	4402
908.023	4489
908.139	4512
908.256	4462
908.372	4500
908.488	4508
908.604	4390
908.72	4390
908.836	4383
908.952	4371
909.068	4443
909.184	4573
909.3	4470
909.415	4565
909.531	4569
909.647	4417
909.762	4398
909.878	4322
909.993	4462
910.108	4443
910.224	4409
910.339	4459
910.454	4417
910.57	4390
910.685	4325
910.8	4672
910.915	4626
911.03	4500
911.145	4379
911.259	4352
911.374	4421
911.489	4276
911.604	4276
911.718	4188
911.833	4238
911.947	4120
912.062	4013
912.176	4200
912.291	4261
912.405	4291
912.519	4481
912.633	4523
912.748	4413
912.862	4344
912.976	4200
913.09	4112
913.204	4204
913.318	4246
913.431	4386
913.545	4322
913.659	4451
913.772	4379
913.886	4261
914	4223
914.113	4424
914.226	4443
914.34	4417
914.453	4238
914.566	4443
914.68	4314
914.793	4318
914.906	4185
915.019	4086
915.132	4105
915.245	4204
915.358	4177
915.47	4257
915.583	4268
915.696	4348
915.809	4402
915.921	4413
916.034	4261
916.146	4287
916.259	4284
916.371	4386
916.483	4383
916.595	4253
916.708	4367
916.82	4348
916.932	4344
917.044	4310
917.156	4333
917.268	4268
917.38	4276
917.491	4272
917.603	4360
917.715	4386
917.826	4443
917.938	4379
918.049	4246
918.161	4341
918.272	4535
918.384	4580
918.495	4485
918.606	4325
918.717	4249
918.828	4322
918.939	4405
919.05	4280
919.161	4303
919.272	4124
919.383	4227
919.494	4405
919.604	4653
919.715	4470
919.826	4348
919.936	4421
920.047	4535
920.157	4478
920.267	4767
920.378	4527
920.488	4500
920.598	4668
920.708	4835
920.818	4706
920.928	4816
921.038	4942
921.148	4908
921.258	4656
921.368	4592
921.477	4478
921.587	4447
921.697	4390
921.806	4542
921.916	4424
922.025	4280
922.134	4314
922.244	4238
922.353	4360
922.462	4169
922.571	4139
922.68	4029
922.789	3979
922.898	4055
923.007	4017
923.116	4128
923.224	4078
923.333	4116
923.442	3994
923.55	3987
923.659	4059
923.767	4120
923.876	4074
923.984	4143
924.092	3960
924.201	4078
924.309	4055
924.417	4112
924.525	4051
924.633	4093
924.741	5010
924.849	3953
924.956	4124
925.064	4002
925.172	3937
925.279	3956
925.387	4078
925.494	4067
925.602	4207
925.709	4166
925.816	4017
925.924	4166
926.031	4223
926.138	4139
926.245	4234
926.352	4051
926.459	4287
926.566	4318
926.673	4166
926.779	4093
926.886	4067
926.993	3998
927.099	3941
927.206	3960
927.312	3896
927.419	4067
927.525	4025
927.631	4093
927.737	4021
927.843	3911
927.95	3876
928.056	3953
928.162	3979
928.267	4029
928.373	4637
928.479	4120
928.585	3857
928.69	4059
928.796	4059
928.901	4021
929.007	3831
929.112	4032
929.218	3953
929.323	3968
929.428	3926
929.533	4147
929.638	3907
929.743	3979
929.848	4074
929.953	4002
930.058	3926
930.163	3797
930.267	3854
930.372	3983
930.477	3804
930.581	4101
930.685	3945
930.79	3857
930.894	3842
930.998	3884
931.103	4048
931.207	3743
931.311	3705
931.415	3724
931.519	3553
931.623	3561
