Data from test_V78500241_2105.txt Node
Date: Fri Mar 25 17:03:38 CST 2022
User: usil
Spectrometer: V785-0024
Trigger mode: 0
Integration Time (sec): 4.000000E-1
Scans to average: 1
Nonlinearity correction enabled: false
Boxcar width: 0
Storing dark spectrum: false
XAxis mode: Wavelengths
Number of Pixels in Spectrum: 1024
>>>>>Begin Spectral Data<<<<<
801.071	7970
801.214	7947
801.356	7864
801.499	7849
801.641	7803
801.783	7818
801.926	8016
802.068	7909
802.211	8001
802.353	8020
802.496	7792
802.638	7860
802.78	7909
802.923	7890
803.065	7871
803.208	7879
803.35	7993
803.492	8100
803.635	8142
803.777	7974
803.919	8073
804.061	8492
804.204	8153
804.346	8031
804.488	7936
804.63	8142
804.773	8039
804.915	8107
805.057	8263
805.199	8130
805.341	8240
805.483	8320
805.626	8248
805.768	8077
805.91	8229
806.052	8195
806.194	8142
806.336	8313
806.478	8088
806.62	8073
806.762	8081
806.904	8256
807.046	8461
807.188	8290
807.33	8366
807.472	8324
807.614	8119
807.756	8092
807.898	7982
808.04	7849
808.182	7860
808.324	7871
808.465	7875
808.607	8084
808.749	8088
808.891	8195
809.033	8244
809.174	8183
809.316	8096
809.458	8016
809.6	8058
809.741	8058
809.883	8035
810.025	8123
810.166	8024
810.308	7974
810.45	7978
810.591	7902
810.733	7788
810.875	7731
811.016	7521
811.158	7419
811.299	7571
811.441	7704
811.582	7647
811.724	7590
811.865	7552
812.007	7582
812.148	7613
812.29	7578
812.431	7723
812.573	7917
812.714	7986
812.855	8115
812.997	8221
813.138	8294
813.279	8180
813.421	8100
813.562	7959
813.703	7833
813.845	7780
813.986	7388
814.127	7278
814.268	7217
814.41	7118
814.551	7141
814.692	7190
814.833	7107
814.974	7126
815.115	7137
815.256	7042
815.397	6970
815.539	6928
815.68	6768
815.821	6768
815.962	6818
816.103	6810
816.244	6700
816.385	6608
816.526	6639
816.666	6486
816.807	6327
816.948	6410
817.089	6464
817.23	6452
817.371	6380
817.512	6361
817.653	6391
817.793	6357
817.934	6376
818.075	6464
818.216	6361
818.356	6410
818.497	6224
818.638	6106
818.778	6190
818.919	6159
819.06	6155
819.2	6308
819.341	6308
819.481	6372
819.622	6517
819.762	6749
819.903	6757
820.043	6627
820.184	6551
820.324	6578
820.465	6738
820.605	6665
820.746	6639
820.886	6578
821.026	6582
821.167	6646
821.307	6795
821.447	6730
821.588	6665
821.728	6532
821.868	6513
822.008	6334
822.149	6342
822.289	6376
822.429	6167
822.569	6129
822.709	6091
822.849	5916
822.99	5874
823.13	5885
823.27	5893
823.41	5767
823.55	5786
823.69	5790
823.83	5771
823.97	5710
824.11	5543
824.25	5516
824.389	5551
824.529	5543
824.669	5589
824.809	5627
824.949	5665
825.089	5581
825.228	5596
825.368	5429
825.508	5353
825.648	5364
825.787	5387
825.927	5379
826.067	5254
826.206	5254
826.346	5376
826.485	5410
826.625	5372
826.765	5543
826.904	5448
827.044	5239
827.183	5204
827.323	5162
827.462	5250
827.601	5166
827.741	5208
827.88	5231
828.02	5105
828.159	5261
828.298	5299
828.437	5337
828.577	5250
828.716	5493
828.855	5315
828.994	5136
829.134	5155
829.273	5170
829.412	5136
829.551	5128
829.69	5159
829.829	5334
829.968	5337
830.107	5223
830.246	5258
830.385	5162
830.524	5094
830.663	5064
830.802	4961
830.941	4862
831.08	4908
831.219	4984
831.357	5006
831.496	5166
831.635	4881
831.774	4866
831.913	4862
832.051	4736
832.19	4752
832.329	4835
832.467	4729
832.606	4641
832.744	4767
832.883	4679
833.022	4691
833.16	4816
833.299	4870
833.437	4797
833.576	4839
833.714	4881
833.852	4797
833.991	4877
834.129	4968
834.267	4904
834.406	4911
834.544	4972
834.682	4976
834.821	4946
834.959	5197
835.097	4957
835.235	5102
835.373	5117
835.511	5109
835.65	5029
835.788	5003
835.926	4862
836.064	4824
836.202	4911
836.34	5140
836.478	5201
836.615	5117
836.753	5193
836.891	5315
837.029	5212
837.167	5174
837.305	5162
837.443	5151
837.58	5083
837.718	5227
837.856	5136
837.993	5147
838.131	5193
838.269	5242
838.406	5204
838.544	5174
838.681	5014
838.819	4961
838.956	4911
839.094	4881
839.231	4949
839.369	5083
839.506	5417
839.643	5269
839.781	5052
839.918	4961
840.055	5109
840.193	5067
840.33	5121
840.467	5151
840.604	5147
840.742	5417
840.879	5136
841.016	5060
841.153	5128
841.29	5353
841.427	5353
841.564	5223
841.701	5353
841.838	5265
841.975	5250
842.112	5261
842.249	5117
842.385	5132
842.522	5273
842.659	5151
842.796	5151
842.933	5201
843.069	5143
843.206	5155
843.343	5273
843.479	5235
843.616	5296
843.752	5033
843.889	5018
844.025	5227
844.162	5022
844.298	5212
844.435	5071
844.571	5060
844.708	5204
844.844	5334
844.98	5280
845.117	5315
845.253	5143
845.389	5064
845.525	5189
845.661	5124
845.798	4980
845.934	5109
846.07	5045
846.206	5178
846.342	5280
846.478	5140
846.614	4995
846.75	4965
846.886	4915
847.022	5143
847.158	5041
847.294	5052
847.429	5094
847.565	5018
847.701	5284
847.837	4824
847.972	4816
848.108	4942
848.244	4934
848.379	4778
848.515	4721
848.65	4702
848.786	4748
848.921	4793
849.057	4892
849.192	4824
849.328	4831
849.463	4835
849.598	4778
849.734	4702
849.869	4706
850.004	4622
850.14	4656
850.275	4645
850.41	4481
850.545	4497
850.68	4611
850.815	4607
850.95	4573
851.085	4847
851.22	4714
851.355	4679
851.49	4603
851.625	4615
851.76	4596
851.895	4508
852.03	4535
852.165	4683
852.299	4698
852.434	4767
852.569	4717
852.703	4752
852.838	4843
852.973	4934
853.107	4919
853.242	4694
853.376	4637
853.511	4561
853.645	4615
853.78	4793
853.914	4660
854.048	4672
854.183	4653
854.317	4702
854.451	4809
854.585	4641
854.72	4653
854.854	4717
854.988	4603
855.122	4622
855.256	4535
855.39	4668
855.524	4805
855.658	4744
855.792	4698
855.926	4714
856.06	4748
856.194	4801
856.327	4694
856.461	4603
856.595	4580
856.729	4641
856.862	4733
856.996	4687
857.13	4702
857.263	4748
857.397	4828
857.53	4653
857.664	4698
857.797	4755
857.931	4740
858.064	4664
858.197	4675
858.331	4656
858.464	4584
858.597	4523
858.731	4615
858.864	4637
858.997	4607
859.13	4637
859.263	4660
859.396	4622
859.529	4542
859.662	4542
859.795	4554
859.928	4637
860.061	4755
860.194	4767
860.327	4637
860.46	4538
860.592	4710
860.725	4752
860.858	4679
860.99	4538
861.123	4546
861.256	4550
861.388	4637
861.521	5383
861.653	4497
861.786	4405
861.918	4432
862.05	4523
862.183	4565
862.315	4603
862.447	4626
862.58	4542
862.712	4394
862.844	4341
862.976	4436
863.108	4447
863.24	4725
863.372	4337
863.504	4417
863.636	4386
863.768	4451
863.9	4489
864.032	4341
864.164	4363
864.296	4489
864.428	4550
864.559	4580
864.691	4459
864.823	4478
864.954	4489
865.086	4531
865.217	4424
865.349	4440
865.48	4493
865.612	4512
865.743	4637
865.875	4459
866.006	4459
866.137	4478
866.269	4413
866.4	4451
866.531	4417
866.662	4402
866.793	4413
866.924	4417
867.055	4459
867.186	4497
867.317	4394
867.448	4344
867.579	4333
867.71	4390
867.841	4405
867.972	4443
868.103	4447
868.233	4432
868.364	4383
868.495	4466
868.625	4630
868.756	4721
868.886	4577
869.017	4580
869.147	4748
869.278	4774
869.408	4618
869.539	4664
869.669	4687
869.799	4691
869.929	4706
870.06	4729
870.19	4908
870.32	4919
870.45	4938
870.58	4991
870.71	5075
870.84	5102
870.97	4995
871.1	4854
871.23	5105
871.36	5105
871.489	5067
871.619	5048
871.749	5105
871.879	5086
872.008	5185
872.138	5067
872.267	4972
872.397	4877
872.526	4824
872.656	4714
872.785	4809
872.915	4949
873.044	5006
873.173	4961
873.303	4949
873.432	4957
873.561	4991
873.69	4896
873.819	4801
873.948	4946
874.077	4805
874.206	4729
874.335	4816
874.464	4942
874.593	5067
874.722	4972
874.851	5109
874.979	5052
875.108	5003
875.237	4938
875.365	4866
875.494	4854
875.623	4976
875.751	4831
875.88	4862
876.008	4961
876.136	5083
876.265	5174
876.393	5421
876.521	5220
876.65	5193
876.778	5124
876.906	5052
877.034	5033
877.162	5025
877.29	4995
877.418	5083
877.546	5003
877.674	5033
877.802	5006
877.93	4995
878.058	4889
878.185	4809
878.313	4930
878.441	4934
878.568	4809
878.696	4881
878.824	4968
878.951	4987
879.079	5124
879.206	5296
879.333	5140
879.461	4946
879.588	4995
879.715	5048
879.842	5178
879.97	5003
880.097	4809
880.224	4714
880.351	4820
880.478	4805
880.605	4782
880.732	4793
880.859	5045
880.986	4892
881.112	4915
881.239	4805
881.366	4637
881.493	4592
881.619	4561
881.746	4611
881.872	4649
881.999	4634
882.125	4679
882.252	4759
882.378	4801
882.505	4957
882.631	4778
882.757	4641
882.883	4675
883.01	4710
883.136	4641
883.262	4615
883.388	4607
883.514	4790
883.64	4847
883.766	4824
883.892	4683
884.018	4733
884.143	4839
884.269	5014
884.395	4603
884.52	4603
884.646	4653
884.772	4561
884.897	4546
885.023	4634
885.148	4771
885.274	4812
885.399	4809
885.524	4710
885.65	4645
885.775	4691
885.9	4660
886.025	4824
886.15	4797
886.275	4679
886.4	4660
886.525	4763
886.65	4618
886.775	4664
886.9	4850
887.025	5048
887.149	4759
887.274	4698
887.399	4523
887.523	4592
887.648	4565
887.773	4603
887.897	4744
888.021	4752
888.146	4683
888.27	4782
888.395	4877
888.519	4801
888.643	4782
888.767	4816
888.891	4656
889.015	4565
889.139	4698
889.263	4626
889.387	4717
889.511	4908
889.635	4824
889.759	4645
889.883	4618
890.006	4717
890.13	4847
890.254	4603
890.377	4672
890.501	4577
890.624	4538
890.748	4649
890.871	4546
890.995	4497
891.118	4478
891.241	4504
891.364	4558
891.488	4626
891.611	4523
891.734	4561
891.857	4630
891.98	4573
892.103	4725
892.226	4615
892.349	4569
892.471	4436
892.594	4554
892.717	4645
892.839	4599
892.962	4637
893.085	4755
893.207	4656
893.33	4474
893.452	4554
893.575	4702
893.697	4626
893.819	4805
893.941	4870
894.064	4816
894.186	4649
894.308	4599
894.43	4767
894.552	4816
894.674	4774
894.796	4603
894.918	4618
895.04	4622
895.161	4824
895.283	4694
895.405	4603
895.526	4691
895.648	4740
895.769	4691
895.891	4774
896.012	4774
896.134	4736
896.255	4691
896.376	4664
896.498	4611
896.619	4740
896.74	4653
896.861	4733
896.982	4949
897.103	5071
897.224	4843
897.345	4774
897.466	4675
897.587	4733
897.708	4923
897.828	4809
897.949	4691
898.07	4637
898.19	4675
898.311	4854
898.431	4736
898.552	4782
898.672	4835
898.792	4850
898.913	4767
899.033	4622
899.153	4546
899.273	4538
899.393	4546
899.513	4523
899.633	4554
899.753	4554
899.873	4538
899.993	4596
900.113	4558
900.232	4668
900.352	4561
900.472	4546
900.591	4390
900.711	4569
900.83	4474
900.95	4649
901.069	4733
901.189	4592
901.308	4394
901.427	4386
901.546	4405
901.665	4523
901.784	4516
901.904	4440
902.023	4363
902.141	4204
902.26	4200
902.379	4367
902.498	4268
902.617	4284
902.735	4402
902.854	4440
902.973	4424
903.091	4257
903.21	4215
903.328	4322
903.446	4276
903.565	4291
903.683	4363
903.801	4322
903.919	4436
904.038	4493
904.156	4386
904.274	4440
904.392	4451
904.51	4462
904.627	4508
904.745	4618
904.863	4694
904.981	4432
905.098	4386
905.216	4379
905.334	4440
905.451	4481
905.569	4466
905.686	4584
905.803	4584
905.921	4436
906.038	4603
906.155	4523
906.272	4440
906.389	4466
906.506	4421
906.623	4405
906.74	4386
906.857	4344
906.974	4440
907.091	4577
907.208	4687
907.324	4645
907.441	4577
907.557	4341
907.674	4341
907.79	4375
907.907	4402
908.023	4523
908.139	4481
908.256	4432
908.372	4447
908.488	4451
908.604	4344
908.72	4360
908.836	4432
908.952	4405
909.068	4493
909.184	4592
909.3	4485
909.415	4622
909.531	4550
909.647	4405
909.762	4417
909.878	4363
909.993	4470
910.108	4455
910.224	4417
910.339	4550
910.454	4417
910.57	4390
910.685	4371
910.8	4675
910.915	4641
911.03	4481
911.145	4352
911.259	4383
911.374	4402
911.489	4379
911.604	4325
911.718	4234
911.833	4249
911.947	4131
912.062	4067
912.176	4249
912.291	4234
912.405	4310
912.519	4474
912.633	4554
912.748	4424
912.862	4352
912.976	4238
913.09	4120
913.204	4181
913.318	4276
913.431	4371
913.545	4409
913.659	4474
913.772	4405
913.886	4276
914	4284
914.113	4428
914.226	4451
914.34	4436
914.453	4238
914.566	4413
914.68	4356
914.793	4398
914.906	4185
915.019	4135
915.132	4101
915.245	4219
915.358	4253
915.47	4272
915.583	4287
915.696	4341
915.809	4440
915.921	4451
916.034	4306
916.146	4272
916.259	4291
916.371	4363
916.483	4363
916.595	4322
916.708	4356
916.82	4424
916.932	4329
917.044	4344
917.156	4398
917.268	4234
917.38	4306
917.491	4291
917.603	4413
917.715	4485
917.826	4535
917.938	4375
918.049	4310
918.161	4428
918.272	4588
918.384	4554
918.495	4466
918.606	4329
918.717	4257
918.828	4375
918.939	4417
919.05	4284
919.161	4344
919.272	4211
919.383	4211
919.494	4466
919.604	4637
919.715	4447
919.826	4360
919.936	4451
920.047	4558
920.157	4527
920.267	4721
920.378	4596
920.488	4546
920.598	4744
920.708	4900
920.818	4771
920.928	4744
921.038	4908
921.148	4915
921.258	4653
921.368	4569
921.477	4542
921.587	4497
921.697	4383
921.806	4546
921.916	4451
922.025	4272
922.134	4314
922.244	4291
922.353	4348
922.462	4150
922.571	4139
922.68	3998
922.789	3991
922.898	4021
923.007	4040
923.116	4169
923.224	4109
923.333	4135
923.442	3994
923.55	4055
923.659	4021
923.767	4147
923.876	4013
923.984	4128
924.092	3987
924.201	4120
924.309	4109
924.417	4154
924.525	4055
924.633	4139
924.741	5109
924.849	3979
924.956	4150
925.064	3994
925.172	4006
925.279	3949
925.387	4093
925.494	4074
925.602	4234
925.709	4196
925.816	4082
925.924	4109
926.031	4207
926.138	4200
926.245	4238
926.352	4150
926.459	4272
926.566	4314
926.673	4192
926.779	4131
926.886	4097
926.993	4010
927.099	4006
927.206	3964
927.312	3937
927.419	4078
927.525	4021
927.631	4128
927.737	3968
927.843	3975
927.95	3876
928.056	3983
928.162	4010
928.267	4032
928.373	4596
928.479	4124
928.585	3873
928.69	4029
928.796	4105
928.901	4017
929.007	3861
929.112	3994
929.218	4059
929.323	3903
929.428	3972
929.533	4154
929.638	3926
929.743	3960
929.848	4055
929.953	4032
930.058	3941
930.163	3793
930.267	3854
930.372	3998
930.477	3842
930.581	4105
930.685	3956
930.79	3854
930.894	3835
930.998	3922
931.103	4032
931.207	3694
931.311	3732
931.415	3690
931.519	3557
931.623	3553
