Data from test_V78500241_2139.txt Node
Date: Fri Mar 25 17:03:52 CST 2022
User: usil
Spectrometer: V785-0024
Trigger mode: 0
Integration Time (sec): 4.000000E-1
Scans to average: 1
Nonlinearity correction enabled: false
Boxcar width: 0
Storing dark spectrum: false
XAxis mode: Wavelengths
Number of Pixels in Spectrum: 1024
>>>>>Begin Spectral Data<<<<<
801.071	7982
801.214	7967
801.356	7799
801.499	7811
801.641	7792
801.783	7906
801.926	7947
802.068	8020
802.211	7989
802.353	7993
802.496	7822
802.638	7890
802.78	7955
802.923	7917
803.065	7849
803.208	7906
803.35	7947
803.492	8073
803.635	8145
803.777	8024
803.919	8168
804.061	8431
804.204	8161
804.346	7963
804.488	7974
804.63	8046
804.773	8046
804.915	8081
805.057	8305
805.199	8126
805.341	8157
805.483	8206
805.626	8229
805.768	8142
805.91	8202
806.052	8271
806.194	8100
806.336	8275
806.478	8069
806.62	8103
806.762	8123
806.904	8279
807.046	8499
807.188	8389
807.33	8237
807.472	8336
807.614	8115
807.756	8107
807.898	7951
808.04	7830
808.182	7921
808.324	7845
808.465	7909
808.607	8111
808.749	8123
808.891	8206
809.033	8313
809.174	8206
809.316	8035
809.458	8107
809.6	8001
809.741	8039
809.883	8020
810.025	8107
810.166	8073
810.308	7982
810.45	7959
810.591	7830
810.733	7742
810.875	7586
811.016	7483
811.158	7460
811.299	7575
811.441	7712
811.582	7700
811.724	7556
811.865	7495
812.007	7578
812.148	7647
812.29	7575
812.431	7765
812.573	7902
812.714	8031
812.855	8088
812.997	8142
813.138	8294
813.279	8115
813.421	8073
813.562	7982
813.703	7826
813.845	7750
813.986	7476
814.127	7171
814.268	7209
814.41	7198
814.551	7145
814.692	7266
814.833	7099
814.974	7137
815.115	7091
815.256	6977
815.397	6924
815.539	6935
815.68	6776
815.821	6764
815.962	6875
816.103	6776
816.244	6658
816.385	6646
816.526	6601
816.666	6498
816.807	6308
816.948	6395
817.089	6544
817.23	6467
817.371	6384
817.512	6395
817.653	6403
817.793	6304
817.934	6441
818.075	6490
818.216	6441
818.356	6426
818.497	6281
818.638	6079
818.778	6136
818.919	6140
819.06	6129
819.2	6350
819.341	6258
819.481	6426
819.622	6513
819.762	6681
819.903	6715
820.043	6669
820.184	6563
820.324	6582
820.465	6711
820.605	6662
820.746	6631
820.886	6547
821.026	6700
821.167	6722
821.307	6738
821.447	6738
821.588	6673
821.728	6525
821.868	6502
822.008	6285
822.149	6376
822.289	6331
822.429	6121
822.569	6068
822.709	6110
822.849	5958
822.99	5878
823.13	5916
823.27	5950
823.41	5775
823.55	5756
823.69	5767
823.83	5786
823.97	5623
824.11	5532
824.25	5478
824.389	5543
824.529	5619
824.669	5554
824.809	5592
824.949	5646
825.089	5623
825.228	5512
825.368	5398
825.508	5360
825.648	5345
825.787	5353
825.927	5360
826.067	5284
826.206	5258
826.346	5353
826.485	5387
826.625	5433
826.765	5589
826.904	5463
827.044	5235
827.183	5189
827.323	5102
827.462	5239
827.601	5109
827.741	5212
827.88	5231
828.02	5136
828.159	5254
828.298	5242
828.437	5368
828.577	5296
828.716	5509
828.855	5315
828.994	5185
829.134	5159
829.273	5208
829.412	5174
829.551	5105
829.69	5193
829.829	5208
829.968	5364
830.107	5162
830.246	5250
830.385	5140
830.524	5136
830.663	5033
830.802	4957
830.941	4854
831.08	4900
831.219	4968
831.357	4991
831.496	5155
831.635	4911
831.774	4877
831.913	4793
832.051	4744
832.19	4748
832.329	4824
832.467	4694
832.606	4641
832.744	4717
832.883	4733
833.022	4736
833.16	4698
833.299	4809
833.437	4805
833.576	4835
833.714	4866
833.852	4824
833.991	4839
834.129	4965
834.267	4892
834.406	4843
834.544	4995
834.682	4987
834.821	4965
834.959	5143
835.097	5014
835.235	5105
835.373	5064
835.511	5086
835.65	5014
835.788	5014
835.926	4900
836.064	4870
836.202	4904
836.34	5117
836.478	5227
836.615	5109
836.753	5132
836.891	5273
837.029	5227
837.167	5185
837.305	5121
837.443	5189
837.58	5071
837.718	5269
837.856	5204
837.993	5159
838.131	5284
838.269	5181
838.406	5178
838.544	5162
838.681	5060
838.819	4995
838.956	4862
839.094	4919
839.231	4942
839.369	5037
839.506	5440
839.643	5258
839.781	5113
839.918	5010
840.055	5113
840.193	5086
840.33	5098
840.467	5090
840.604	5105
840.742	5452
840.879	5060
841.016	5041
841.153	5083
841.29	5398
841.427	5315
841.564	5322
841.701	5376
841.838	5296
841.975	5227
842.112	5284
842.249	5124
842.385	5121
842.522	5292
842.659	5166
842.796	5086
842.933	5220
843.069	5075
843.206	5143
843.343	5326
843.479	5197
843.616	5216
843.752	5006
843.889	5018
844.025	5189
844.162	4995
844.298	5178
844.435	5147
844.571	5045
844.708	5223
844.844	5265
844.98	5360
845.117	5280
845.253	5102
845.389	5075
845.525	5117
845.661	5105
845.798	5041
845.934	5185
846.07	5033
846.206	5204
846.342	5277
846.478	5242
846.614	5060
846.75	4995
846.886	4923
847.022	5132
847.158	5045
847.294	5025
847.429	5045
847.565	5003
847.701	5322
847.837	4828
847.972	4774
848.108	4904
848.244	4919
848.379	4755
848.515	4740
848.65	4725
848.786	4767
848.921	4752
849.057	4824
849.192	4896
849.328	4839
849.463	4812
849.598	4763
849.734	4744
849.869	4660
850.004	4603
850.14	4672
850.275	4611
850.41	4527
850.545	4577
850.68	4565
850.815	4607
850.95	4569
851.085	4812
851.22	4736
851.355	4656
851.49	4607
851.625	4626
851.76	4668
851.895	4527
852.03	4523
852.165	4649
852.299	4721
852.434	4767
852.569	4767
852.703	4744
852.838	4847
852.973	4885
853.107	4866
853.242	4752
853.376	4675
853.511	4538
853.645	4622
853.78	4793
853.914	4649
854.048	4698
854.183	4618
854.317	4687
854.451	4820
854.585	4691
854.72	4645
854.854	4774
854.988	4611
855.122	4618
855.256	4512
855.39	4668
855.524	4774
855.658	4717
855.792	4721
855.926	4755
856.06	4725
856.194	4778
856.327	4645
856.461	4634
856.595	4599
856.729	4668
856.862	4725
856.996	4634
857.13	4763
857.263	4725
857.397	4812
857.53	4668
857.664	4733
857.797	4778
857.931	4767
858.064	4702
858.197	4752
858.331	4637
858.464	4615
858.597	4523
858.731	4588
858.864	4622
858.997	4603
859.13	4649
859.263	4710
859.396	4691
859.529	4565
859.662	4561
859.795	4519
859.928	4653
860.061	4717
860.194	4778
860.327	4656
860.46	4554
860.592	4702
860.725	4721
860.858	4679
860.99	4577
861.123	4512
861.256	4523
861.388	4611
861.521	5433
861.653	4466
861.786	4447
861.918	4459
862.05	4535
862.183	4542
862.315	4573
862.447	4668
862.58	4523
862.712	4413
862.844	4329
862.976	4489
863.108	4466
863.24	4824
863.372	4287
863.504	4443
863.636	4436
863.768	4500
863.9	4409
864.032	4363
864.164	4367
864.296	4493
864.428	4561
864.559	4550
864.691	4550
864.823	4542
864.954	4500
865.086	4512
865.217	4417
865.349	4424
865.48	4432
865.612	4455
865.743	4615
865.875	4466
866.006	4466
866.137	4512
866.269	4443
866.4	4428
866.531	4398
866.662	4360
866.793	4405
866.924	4409
867.055	4497
867.186	4417
867.317	4421
867.448	4363
867.579	4417
867.71	4409
867.841	4367
867.972	4478
868.103	4428
868.233	4428
868.364	4417
868.495	4500
868.625	4675
868.756	4759
868.886	4569
869.017	4630
869.147	4797
869.278	4835
869.408	4691
869.539	4626
869.669	4725
869.799	4592
869.929	4763
870.06	4702
870.19	5010
870.32	4927
870.45	4957
870.58	5037
870.71	5109
870.84	5124
870.97	4961
871.1	4953
871.23	5094
871.36	5140
871.489	5029
871.619	5086
871.749	5105
871.879	5140
872.008	5189
872.138	5029
872.267	4957
872.397	4835
872.526	4752
872.656	4729
872.785	4828
872.915	4919
873.044	5037
873.173	4908
873.303	4972
873.432	4949
873.561	4968
873.69	4820
873.819	4847
873.948	4877
874.077	4816
874.206	4752
874.335	4816
874.464	4908
874.593	5090
874.722	4987
874.851	5136
874.979	5029
875.108	5064
875.237	4930
875.365	4854
875.494	4866
875.623	4949
875.751	4805
875.88	4896
876.008	4968
876.136	5067
876.265	5185
876.393	5334
876.521	5258
876.65	5242
876.778	5136
876.906	5075
877.034	5048
877.162	5052
877.29	5025
877.418	5071
877.546	5003
877.674	5037
877.802	5041
877.93	4999
878.058	4923
878.185	4843
878.313	4961
878.441	4961
878.568	4816
878.696	4892
878.824	4934
878.951	5029
879.079	5117
879.206	5269
879.333	5113
879.461	4984
879.588	5010
879.715	5140
879.842	5208
879.97	5018
880.097	4759
880.224	4778
880.351	4801
880.478	4790
880.605	4816
880.732	4820
880.859	5124
880.986	4889
881.112	4889
881.239	4782
881.366	4656
881.493	4599
881.619	4531
881.746	4611
881.872	4698
881.999	4649
882.125	4691
882.252	4816
882.378	4816
882.505	4938
882.631	4820
882.757	4653
882.883	4740
883.01	4717
883.136	4664
883.262	4588
883.388	4634
883.514	4801
883.64	4877
883.766	4824
883.892	4634
884.018	4717
884.143	4831
884.269	5003
884.395	4660
884.52	4618
884.646	4637
884.772	4538
884.897	4603
885.023	4668
885.148	4748
885.274	4835
885.399	4828
885.524	4694
885.65	4687
885.775	4736
885.9	4649
886.025	4839
886.15	4767
886.275	4740
886.4	4630
886.525	4725
886.65	4717
886.775	4683
886.9	4908
887.025	5052
887.149	4858
887.274	4687
887.399	4588
887.523	4580
887.648	4618
887.773	4611
887.897	4736
888.021	4797
888.146	4641
888.27	4835
888.395	4908
888.519	4786
888.643	4816
888.767	4812
888.891	4679
889.015	4573
889.139	4653
889.263	4573
889.387	4736
889.511	4843
889.635	4782
889.759	4603
889.883	4634
890.006	4721
890.13	4809
890.254	4634
890.377	4694
890.501	4527
890.624	4512
890.748	4656
890.871	4512
890.995	4405
891.118	4402
891.241	4519
891.364	4470
891.488	4584
891.611	4489
891.734	4538
891.857	4611
891.98	4531
892.103	4622
892.226	4542
892.349	4523
892.471	4436
892.594	4535
892.717	4592
892.839	4550
892.962	4584
893.085	4615
893.207	4626
893.33	4443
893.452	4527
893.575	4687
893.697	4588
893.819	4790
893.941	4835
894.064	4778
894.186	4565
894.308	4558
894.43	4744
894.552	4812
894.674	4816
894.796	4596
894.918	4569
895.04	4519
895.161	4679
895.283	4611
895.405	4584
895.526	4634
895.648	4740
895.769	4683
895.891	4687
896.012	4702
896.134	4706
896.255	4691
896.376	4634
896.498	4603
896.619	4656
896.74	4641
896.861	4660
896.982	4889
897.103	5064
897.224	4809
897.345	4694
897.466	4637
897.587	4717
897.708	4843
897.828	4767
897.949	4637
898.07	4550
898.19	4653
898.311	4805
898.431	4653
898.552	4729
898.672	4850
898.792	4698
898.913	4702
899.033	4622
899.153	4455
899.273	4432
899.393	4516
899.513	4508
899.633	4523
899.753	4535
899.873	4561
899.993	4584
900.113	4535
900.232	4550
900.352	4512
900.472	4440
900.591	4405
900.711	4481
900.83	4413
900.95	4618
901.069	4706
901.189	4493
901.308	4322
901.427	4314
901.546	4398
901.665	4489
901.784	4516
901.904	4405
902.023	4383
902.141	4200
902.26	4128
902.379	4261
902.498	4246
902.617	4211
902.735	4329
902.854	4386
902.973	4360
903.091	4185
903.21	4234
903.328	4348
903.446	4261
903.565	4276
903.683	4394
903.801	4238
903.919	4367
904.038	4447
904.156	4303
904.274	4432
904.392	4390
904.51	4402
904.627	4500
904.745	4558
904.863	4645
904.981	4413
905.098	4287
905.216	4398
905.334	4470
905.451	4402
905.569	4413
905.686	4538
905.803	4550
905.921	4436
906.038	4554
906.155	4516
906.272	4367
906.389	4432
906.506	4363
906.623	4386
906.74	4386
906.857	4291
906.974	4360
907.091	4546
907.208	4660
907.324	4603
907.441	4474
907.557	4322
907.674	4352
907.79	4284
907.907	4367
908.023	4447
908.139	4497
908.256	4443
908.372	4519
908.488	4478
908.604	4295
908.72	4318
908.836	4371
908.952	4432
909.068	4405
909.184	4542
909.3	4481
909.415	4542
909.531	4584
909.647	4333
909.762	4371
909.878	4333
909.993	4413
910.108	4379
910.224	4390
910.339	4478
910.454	4398
910.57	4337
910.685	4333
910.8	4672
910.915	4546
911.03	4500
911.145	4344
911.259	4287
911.374	4379
911.489	4276
911.604	4306
911.718	4162
911.833	4227
911.947	4097
912.062	3983
912.176	4215
912.291	4257
912.405	4215
912.519	4440
912.633	4497
912.748	4356
912.862	4318
912.976	4158
913.09	4082
913.204	4169
913.318	4230
913.431	4329
913.545	4394
913.659	4478
913.772	4367
913.886	4268
914	4287
914.113	4421
914.226	4451
914.34	4409
914.453	4207
914.566	4394
914.68	4253
914.793	4325
914.906	4162
915.019	4128
915.132	4067
915.245	4169
915.358	4147
915.47	4181
915.583	4227
915.696	4246
915.809	4398
915.921	4436
916.034	4280
916.146	4223
916.259	4246
916.371	4413
916.483	4299
916.595	4253
916.708	4306
916.82	4352
916.932	4322
917.044	4325
917.156	4322
917.268	4227
917.38	4295
917.491	4268
917.603	4360
917.715	4459
917.826	4436
917.938	4329
918.049	4242
918.161	4352
918.272	4577
918.384	4577
918.495	4443
918.606	4272
918.717	4188
918.828	4352
918.939	4379
919.05	4272
919.161	4291
919.272	4150
919.383	4238
919.494	4451
919.604	4634
919.715	4432
919.826	4333
919.936	4405
920.047	4527
920.157	4470
920.267	4698
920.378	4519
920.488	4493
920.598	4759
920.708	4870
920.818	4793
920.928	4740
921.038	4961
921.148	4930
921.258	4645
921.368	4561
921.477	4481
921.587	4436
921.697	4379
921.806	4523
921.916	4436
922.025	4200
922.134	4291
922.244	4211
922.353	4360
922.462	4185
922.571	4147
922.68	4025
922.789	3937
922.898	4021
923.007	3964
923.116	4131
923.224	4067
923.333	4067
923.442	3994
923.55	3994
923.659	4002
923.767	4090
923.876	3987
923.984	4090
924.092	3934
924.201	4055
924.309	4071
924.417	4124
924.525	4055
924.633	4109
924.741	5045
924.849	3964
924.956	4116
925.064	3972
925.172	3903
925.279	3934
925.387	4071
925.494	4029
925.602	4211
925.709	4196
925.816	4006
925.924	4131
926.031	4181
926.138	4215
926.245	4242
926.352	4086
926.459	4238
926.566	4341
926.673	4185
926.779	4086
926.886	4097
926.993	3987
927.099	3979
927.206	3949
927.312	3926
927.419	4082
927.525	4021
927.631	4055
927.737	3964
927.843	3926
927.95	3857
928.056	3964
928.162	3949
928.267	4055
928.373	4550
928.479	4101
928.585	3915
928.69	3987
928.796	4078
928.901	3964
929.007	3869
929.112	4036
929.218	3934
929.323	3934
929.428	3972
929.533	4116
929.638	3911
929.743	3960
929.848	4029
929.953	3975
930.058	3956
930.163	3759
930.267	3819
930.372	3983
930.477	3800
930.581	4097
930.685	3983
930.79	3816
930.894	3857
930.998	3861
931.103	4013
931.207	3705
931.311	3675
931.415	3641
931.519	3462
931.623	3534
