Data from test_V78500241_2189.txt Node
Date: Fri Mar 25 17:04:13 CST 2022
User: usil
Spectrometer: V785-0024
Trigger mode: 0
Integration Time (sec): 4.000000E-1
Scans to average: 1
Nonlinearity correction enabled: false
Boxcar width: 0
Storing dark spectrum: false
XAxis mode: Wavelengths
Number of Pixels in Spectrum: 1024
>>>>>Begin Spectral Data<<<<<
801.071	7993
801.214	7967
801.356	7875
801.499	7830
801.641	7856
801.783	7852
801.926	7932
802.068	7947
802.211	8035
802.353	7921
802.496	7818
802.638	7890
802.78	7902
802.923	7902
803.065	7826
803.208	7856
803.35	8008
803.492	8100
803.635	8115
803.777	7947
803.919	8123
804.061	8480
804.204	8130
804.346	8016
804.488	7940
804.63	8046
804.773	7955
804.915	8123
805.057	8263
805.199	8142
805.341	8199
805.483	8240
805.626	8183
805.768	8111
805.91	8180
806.052	8275
806.194	8084
806.336	8275
806.478	8153
806.62	8050
806.762	8115
806.904	8214
807.046	8431
807.188	8370
807.33	8328
807.472	8324
807.614	8138
807.756	8103
807.898	7940
808.04	7921
808.182	7837
808.324	7856
808.465	7875
808.607	7993
808.749	8119
808.891	8202
809.033	8317
809.174	8199
809.316	8005
809.458	8103
809.6	8005
809.741	8005
809.883	8031
810.025	8153
810.166	8046
810.308	7993
810.45	7974
810.591	7849
810.733	7757
810.875	7696
811.016	7476
811.158	7434
811.299	7537
811.441	7685
811.582	7670
811.724	7571
811.865	7540
812.007	7616
812.148	7544
812.29	7613
812.431	7715
812.573	7879
812.714	7940
812.855	8130
812.997	8218
813.138	8259
813.279	8084
813.421	8031
813.562	7917
813.703	7792
813.845	7761
813.986	7400
814.127	7183
814.268	7183
814.41	7240
814.551	7202
814.692	7179
814.833	7095
814.974	7069
815.115	7072
815.256	6962
815.397	6916
815.539	6924
815.68	6810
815.821	6802
815.962	6871
816.103	6829
816.244	6738
816.385	6635
816.526	6555
816.666	6521
816.807	6292
816.948	6429
817.089	6570
817.23	6403
817.371	6410
817.512	6346
817.653	6418
817.793	6365
817.934	6479
818.075	6429
818.216	6448
818.356	6460
818.497	6285
818.638	6076
818.778	6163
818.919	6129
819.06	6186
819.2	6281
819.341	6334
819.481	6308
819.622	6517
819.762	6764
819.903	6669
820.043	6601
820.184	6544
820.324	6574
820.465	6681
820.605	6642
820.746	6555
820.886	6506
821.026	6700
821.167	6612
821.307	6810
821.447	6757
821.588	6692
821.728	6574
821.868	6494
822.008	6357
822.149	6342
822.289	6327
822.429	6136
822.569	6057
822.709	6171
822.849	5908
822.99	5935
823.13	5969
823.27	5889
823.41	5824
823.55	5786
823.69	5840
823.83	5722
823.97	5672
824.11	5551
824.25	5493
824.389	5558
824.529	5611
824.669	5558
824.809	5657
824.949	5638
825.089	5615
825.228	5551
825.368	5357
825.508	5315
825.648	5372
825.787	5357
825.927	5368
826.067	5299
826.206	5284
826.346	5326
826.485	5364
826.625	5463
826.765	5551
826.904	5421
827.044	5273
827.183	5208
827.323	5136
827.462	5239
827.601	5166
827.741	5193
827.88	5159
828.02	5117
828.159	5254
828.298	5292
828.437	5379
828.577	5303
828.716	5398
828.855	5273
828.994	5166
829.134	5109
829.273	5185
829.412	5113
829.551	5113
829.69	5132
829.829	5235
829.968	5402
830.107	5280
830.246	5227
830.385	5166
830.524	5136
830.663	5090
830.802	4927
830.941	4915
831.08	4881
831.219	4942
831.357	4953
831.496	5166
831.635	4919
831.774	4839
831.913	4805
832.051	4729
832.19	4755
832.329	4839
832.467	4653
832.606	4615
832.744	4694
832.883	4725
833.022	4717
833.16	4774
833.299	4828
833.437	4896
833.576	4843
833.714	4805
833.852	4805
833.991	4843
834.129	4900
834.267	4881
834.406	4877
834.544	4965
834.682	4995
834.821	4938
834.959	5201
835.097	4968
835.235	5121
835.373	5060
835.511	5102
835.65	5029
835.788	5022
835.926	4915
836.064	4915
836.202	4915
836.34	5140
836.478	5208
836.615	5143
836.753	5216
836.891	5265
837.029	5223
837.167	5193
837.305	5181
837.443	5124
837.58	5052
837.718	5223
837.856	5159
837.993	5140
838.131	5220
838.269	5197
838.406	5189
838.544	5170
838.681	5052
838.819	4984
838.956	4858
839.094	4885
839.231	4949
839.369	5029
839.506	5387
839.643	5269
839.781	5052
839.918	5025
840.055	5147
840.193	5090
840.33	5064
840.467	5159
840.604	5212
840.742	5448
840.879	5090
841.016	5105
841.153	5147
841.29	5341
841.427	5334
841.564	5292
841.701	5353
841.838	5208
841.975	5239
842.112	5250
842.249	5155
842.385	5064
842.522	5337
842.659	5170
842.796	5121
842.933	5151
843.069	5147
843.206	5124
843.343	5299
843.479	5246
843.616	5261
843.752	5045
843.889	4968
844.025	5220
844.162	4991
844.298	5181
844.435	5109
844.571	5052
844.708	5189
844.844	5296
844.98	5318
845.117	5269
845.253	5136
845.389	5060
845.525	5151
845.661	5132
845.798	5022
845.934	5109
846.07	5056
846.206	5201
846.342	5311
846.478	5143
846.614	5014
846.75	4949
846.886	4976
847.022	5140
847.158	5006
847.294	5064
847.429	5094
847.565	5060
847.701	5334
847.837	4809
847.972	4816
848.108	4915
848.244	4930
848.379	4790
848.515	4744
848.65	4675
848.786	4694
848.921	4843
849.057	4900
849.192	4930
849.328	4763
849.463	4824
849.598	4774
849.734	4771
849.869	4733
850.004	4626
850.14	4660
850.275	4607
850.41	4512
850.545	4573
850.68	4542
850.815	4596
850.95	4634
851.085	4831
851.22	4733
851.355	4622
851.49	4634
851.625	4615
851.76	4607
851.895	4542
852.03	4546
852.165	4622
852.299	4748
852.434	4725
852.569	4752
852.703	4763
852.838	4835
852.973	4911
853.107	4904
853.242	4736
853.376	4656
853.511	4554
853.645	4603
853.78	4793
853.914	4649
854.048	4664
854.183	4641
854.317	4687
854.451	4778
854.585	4653
854.72	4615
854.854	4721
854.988	4592
855.122	4603
855.256	4523
855.39	4603
855.524	4748
855.658	4744
855.792	4656
855.926	4725
856.06	4744
856.194	4778
856.327	4710
856.461	4580
856.595	4618
856.729	4603
856.862	4694
856.996	4706
857.13	4714
857.263	4717
857.397	4805
857.53	4607
857.664	4698
857.797	4774
857.931	4850
858.064	4668
858.197	4744
858.331	4645
858.464	4599
858.597	4554
858.731	4656
858.864	4630
858.997	4561
859.13	4626
859.263	4675
859.396	4721
859.529	4550
859.662	4561
859.795	4523
859.928	4649
860.061	4714
860.194	4782
860.327	4615
860.46	4569
860.592	4710
860.725	4721
860.858	4725
860.99	4649
861.123	4504
861.256	4519
861.388	4649
861.521	5440
861.653	4455
861.786	4466
861.918	4436
862.05	4569
862.183	4603
862.315	4649
862.447	4664
862.58	4531
862.712	4405
862.844	4390
862.976	4466
863.108	4474
863.24	4793
863.372	4390
863.504	4466
863.636	4409
863.768	4519
863.9	4447
864.032	4462
864.164	4443
864.296	4519
864.428	4599
864.559	4561
864.691	4596
864.823	4607
864.954	4493
865.086	4546
865.217	4451
865.349	4451
865.48	4512
865.612	4546
865.743	4668
865.875	4519
866.006	4470
866.137	4531
866.269	4500
866.4	4531
866.531	4493
866.662	4436
866.793	4474
866.924	4455
867.055	4538
867.186	4531
867.317	4485
867.448	4421
867.579	4417
867.71	4440
867.841	4424
867.972	4474
868.103	4516
868.233	4466
868.364	4474
868.495	4512
868.625	4679
868.756	4793
868.886	4615
869.017	4634
869.147	4812
869.278	4862
869.408	4729
869.539	4725
869.669	4763
869.799	4706
869.929	4767
870.06	4782
870.19	5025
870.32	4961
870.45	4930
870.58	5056
870.71	5117
870.84	5128
870.97	4961
871.1	4946
871.23	5147
871.36	5170
871.489	5037
871.619	5083
871.749	5075
871.879	5166
872.008	5250
872.138	5090
872.267	5006
872.397	4915
872.526	4816
872.656	4755
872.785	4854
872.915	4942
873.044	5064
873.173	5003
873.303	4972
873.432	5022
873.561	4946
873.69	4900
873.819	4930
873.948	4923
874.077	4858
874.206	4778
874.335	4824
874.464	4999
874.593	5060
874.722	5003
874.851	5132
874.979	5086
875.108	5064
875.237	4908
875.365	4953
875.494	4892
875.623	5075
875.751	4850
875.88	4904
876.008	4972
876.136	5102
876.265	5204
876.393	5353
876.521	5239
876.65	5227
876.778	5193
876.906	5109
877.034	5010
877.162	5056
877.29	5014
877.418	5064
877.546	5102
877.674	5064
877.802	5033
877.93	5029
878.058	4957
878.185	4900
878.313	4972
878.441	5022
878.568	4820
878.696	4896
878.824	4968
878.951	5014
879.079	5124
879.206	5288
879.333	5094
879.461	4972
879.588	4995
879.715	5140
879.842	5193
879.97	5018
880.097	4831
880.224	4767
880.351	4820
880.478	4843
880.605	4862
880.732	4847
880.859	5105
880.986	4870
881.112	4915
881.239	4805
881.366	4725
881.493	4626
881.619	4618
881.746	4660
881.872	4679
881.999	4645
882.125	4736
882.252	4839
882.378	4850
882.505	4987
882.631	4831
882.757	4683
882.883	4755
883.01	4797
883.136	4679
883.262	4649
883.388	4645
883.514	4831
883.64	4934
883.766	4816
883.892	4687
884.018	4714
884.143	4946
884.269	5025
884.395	4714
884.52	4656
884.646	4672
884.772	4611
884.897	4599
885.023	4691
885.148	4820
885.274	4923
885.399	4858
885.524	4752
885.65	4748
885.775	4828
885.9	4698
886.025	4915
886.15	4786
886.275	4717
886.4	4679
886.525	4694
886.65	4694
886.775	4714
886.9	4968
887.025	5086
887.149	4839
887.274	4687
887.399	4630
887.523	4622
887.648	4561
887.773	4618
887.897	4774
888.021	4793
888.146	4672
888.27	4858
888.395	4984
888.519	4854
888.643	4797
888.767	4862
888.891	4740
889.015	4634
889.139	4679
889.263	4626
889.387	4835
889.511	4877
889.635	4820
889.759	4733
889.883	4634
890.006	4736
890.13	4820
890.254	4702
890.377	4702
890.501	4603
890.624	4603
890.748	4645
890.871	4500
890.995	4470
891.118	4455
891.241	4550
891.364	4558
891.488	4622
891.611	4531
891.734	4523
891.857	4630
891.98	4573
892.103	4706
892.226	4599
892.349	4550
892.471	4481
892.594	4523
892.717	4645
892.839	4618
892.962	4637
893.085	4668
893.207	4607
893.33	4512
893.452	4565
893.575	4664
893.697	4580
893.819	4778
893.941	4839
894.064	4786
894.186	4573
894.308	4634
894.43	4771
894.552	4809
894.674	4782
894.796	4603
894.918	4630
895.04	4596
895.161	4714
895.283	4687
895.405	4615
895.526	4679
895.648	4694
895.769	4733
895.891	4733
896.012	4740
896.134	4748
896.255	4664
896.376	4679
896.498	4664
896.619	4740
896.74	4599
896.861	4653
896.982	4938
897.103	5071
897.224	4866
897.345	4782
897.466	4664
897.587	4736
897.708	4892
897.828	4763
897.949	4691
898.07	4626
898.19	4653
898.311	4877
898.431	4714
898.552	4752
898.672	4892
898.792	4809
898.913	4725
899.033	4630
899.153	4550
899.273	4440
899.393	4531
899.513	4531
899.633	4588
899.753	4554
899.873	4561
899.993	4634
900.113	4538
900.232	4569
900.352	4508
900.472	4527
900.591	4443
900.711	4519
900.83	4462
900.95	4664
901.069	4675
901.189	4542
901.308	4421
901.427	4341
901.546	4421
901.665	4500
901.784	4569
901.904	4413
902.023	4337
902.141	4219
902.26	4207
902.379	4360
902.498	4291
902.617	4192
902.735	4375
902.854	4455
902.973	4413
903.091	4246
903.21	4299
903.328	4303
903.446	4310
903.565	4291
903.683	4348
903.801	4284
903.919	4402
904.038	4462
904.156	4363
904.274	4421
904.392	4443
904.51	4459
904.627	4497
904.745	4607
904.863	4698
904.981	4436
905.098	4337
905.216	4413
905.334	4474
905.451	4481
905.569	4440
905.686	4527
905.803	4577
905.921	4413
906.038	4569
906.155	4462
906.272	4413
906.389	4462
906.506	4402
906.623	4363
906.74	4390
906.857	4367
906.974	4352
907.091	4580
907.208	4714
907.324	4607
907.441	4462
907.557	4344
907.674	4371
907.79	4325
907.907	4371
908.023	4500
908.139	4489
908.256	4466
908.372	4485
908.488	4455
908.604	4383
908.72	4329
908.836	4379
908.952	4390
909.068	4481
909.184	4546
909.3	4466
909.415	4607
909.531	4565
909.647	4360
909.762	4352
909.878	4367
909.993	4383
910.108	4443
910.224	4455
910.339	4459
910.454	4436
910.57	4329
910.685	4337
910.8	4634
910.915	4653
911.03	4474
911.145	4329
911.259	4409
911.374	4318
911.489	4337
911.604	4299
911.718	4166
911.833	4169
911.947	4078
912.062	4025
912.176	4242
912.291	4261
912.405	4284
912.519	4489
912.633	4535
912.748	4356
912.862	4272
912.976	4227
913.09	4150
913.204	4147
913.318	4257
913.431	4383
913.545	4413
913.659	4519
913.772	4352
913.886	4268
914	4265
914.113	4386
914.226	4470
914.34	4402
914.453	4265
914.566	4409
914.68	4306
914.793	4310
914.906	4131
915.019	4150
915.132	4082
915.245	4223
915.358	4200
915.47	4276
915.583	4287
915.696	4276
915.809	4432
915.921	4440
916.034	4291
916.146	4287
916.259	4249
916.371	4360
916.483	4383
916.595	4284
916.708	4363
916.82	4352
916.932	4318
917.044	4341
917.156	4356
917.268	4238
917.38	4299
917.491	4303
917.603	4329
917.715	4405
917.826	4474
917.938	4371
918.049	4238
918.161	4451
918.272	4523
918.384	4516
918.495	4478
918.606	4341
918.717	4257
918.828	4337
918.939	4348
919.05	4280
919.161	4314
919.272	4158
919.383	4242
919.494	4466
919.604	4653
919.715	4462
919.826	4440
919.936	4459
920.047	4542
920.157	4470
920.267	4656
920.378	4527
920.488	4447
920.598	4725
920.708	4908
920.818	4793
920.928	4809
921.038	4949
921.148	4953
921.258	4675
921.368	4599
921.477	4538
921.587	4459
921.697	4424
921.806	4527
921.916	4470
922.025	4268
922.134	4280
922.244	4227
922.353	4409
922.462	4169
922.571	4169
922.68	4006
922.789	3953
922.898	3983
923.007	3994
923.116	4082
923.224	4051
923.333	4090
923.442	4010
923.55	4002
923.659	4048
923.767	4109
923.876	3998
923.984	4162
924.092	4067
924.201	4086
924.309	4082
924.417	4116
924.525	4040
924.633	4051
924.741	5041
924.849	3941
924.956	4128
925.064	3964
925.172	3934
925.279	3979
925.387	4074
925.494	4082
925.602	4207
925.709	4215
925.816	4051
925.924	4150
926.031	4257
926.138	4173
926.245	4192
926.352	4124
926.459	4257
926.566	4329
926.673	4185
926.779	4074
926.886	4109
926.993	3998
927.099	3941
927.206	3968
927.312	3964
927.419	4051
927.525	4021
927.631	4090
927.737	3972
927.843	3945
927.95	3876
928.056	3975
928.162	3991
928.267	4078
928.373	4725
928.479	4128
928.585	3892
928.69	4040
928.796	4086
928.901	4010
929.007	3865
929.112	4051
929.218	4013
929.323	3983
929.428	3968
929.533	4158
929.638	3941
929.743	3998
929.848	4101
929.953	4017
930.058	3941
930.163	3876
930.267	3827
930.372	4006
930.477	3838
930.581	4105
930.685	3972
930.79	3800
930.894	3922
930.998	3876
931.103	4082
931.207	3713
931.311	3755
931.415	3755
931.519	3553
931.623	3580
