Data from test_V78500241_1010.txt Node
Date: Fri Mar 25 16:56:01 CST 2022
User: usil
Spectrometer: V785-0024
Trigger mode: 0
Integration Time (sec): 4.000000E-1
Scans to average: 1
Nonlinearity correction enabled: false
Boxcar width: 0
Storing dark spectrum: false
XAxis mode: Wavelengths
Number of Pixels in Spectrum: 1024
>>>>>Begin Spectral Data<<<<<
801.071	8031
801.214	8027
801.356	7917
801.499	7799
801.641	7696
801.783	7776
801.926	7860
802.068	7955
802.211	7902
802.353	7947
802.496	7811
802.638	7837
802.78	7925
802.923	7951
803.065	7837
803.208	7849
803.35	7986
803.492	8107
803.635	8081
803.777	7997
803.919	8130
804.061	8484
804.204	8073
804.346	7993
804.488	7970
804.63	8077
804.773	8008
804.915	8008
805.057	8294
805.199	8168
805.341	8225
805.483	8271
805.626	8180
805.768	8100
805.91	8168
806.052	8218
806.194	8088
806.336	8237
806.478	8065
806.62	8039
806.762	8176
806.904	8229
807.046	8476
807.188	8332
807.33	8290
807.472	8298
807.614	8058
807.756	8119
807.898	8035
808.04	7860
808.182	7868
808.324	7860
808.465	7928
808.607	8077
808.749	8123
808.891	8210
809.033	8221
809.174	8229
809.316	8092
809.458	8016
809.6	7967
809.741	8001
809.883	7970
810.025	8092
810.166	8039
810.308	7944
810.45	7967
810.591	7909
810.733	7719
810.875	7620
811.016	7529
811.158	7419
811.299	7529
811.441	7761
811.582	7609
811.724	7575
811.865	7487
812.007	7590
812.148	7548
812.29	7639
812.431	7677
812.573	7860
812.714	8001
812.855	8123
812.997	8145
813.138	8305
813.279	8218
813.421	8012
813.562	8020
813.703	7837
813.845	7746
813.986	7384
814.127	7251
814.268	7190
814.41	7171
814.551	7145
814.692	7076
814.833	6977
814.974	7099
815.115	7053
815.256	6958
815.397	6840
815.539	6966
815.68	6738
815.821	6829
815.962	6833
816.103	6814
816.244	6760
816.385	6692
816.526	6639
816.666	6502
816.807	6281
816.948	6410
817.089	6460
817.23	6555
817.371	6395
817.512	6338
817.653	6403
817.793	6338
817.934	6410
818.075	6433
818.216	6448
818.356	6426
818.497	6201
818.638	6159
818.778	6140
818.919	6159
819.06	6114
819.2	6251
819.341	6342
819.481	6353
819.622	6509
819.762	6719
819.903	6673
820.043	6642
820.184	6513
820.324	6551
820.465	6658
820.605	6677
820.746	6604
820.886	6452
821.026	6608
821.167	6745
821.307	6783
821.447	6741
821.588	6639
821.728	6578
821.868	6490
822.008	6315
822.149	6376
822.289	6384
822.429	6140
822.569	6091
822.709	6140
822.849	5901
822.99	5927
823.13	5897
823.27	5885
823.41	5790
823.55	5733
823.69	5737
823.83	5783
823.97	5661
824.11	5524
824.25	5558
824.389	5581
824.529	5581
824.669	5509
824.809	5608
824.949	5630
825.089	5566
825.228	5573
825.368	5357
825.508	5296
825.648	5284
825.787	5349
825.927	5349
826.067	5265
826.206	5311
826.346	5387
826.485	5429
826.625	5425
826.765	5505
826.904	5520
827.044	5212
827.183	5208
827.323	5121
827.462	5178
827.601	5208
827.741	5166
827.88	5181
828.02	5121
828.159	5269
828.298	5288
828.437	5292
828.577	5288
828.716	5410
828.855	5273
828.994	5090
829.134	5132
829.273	5147
829.412	5147
829.551	5109
829.69	5117
829.829	5231
829.968	5353
830.107	5261
830.246	5299
830.385	5166
830.524	5094
830.663	5033
830.802	4991
830.941	4866
831.08	4858
831.219	4976
831.357	4927
831.496	5098
831.635	4866
831.774	4797
831.913	4835
832.051	4672
832.19	4694
832.329	4858
832.467	4607
832.606	4637
832.744	4675
832.883	4706
833.022	4664
833.16	4774
833.299	4854
833.437	4809
833.576	4816
833.714	4854
833.852	4843
833.991	4881
834.129	4934
834.267	4942
834.406	4927
834.544	4968
834.682	4987
834.821	4965
834.959	5155
835.097	4934
835.235	5197
835.373	5064
835.511	5079
835.65	4995
835.788	5025
835.926	4877
836.064	4835
836.202	4908
836.34	5113
836.478	5193
836.615	5083
836.753	5231
836.891	5235
837.029	5227
837.167	5212
837.305	5132
837.443	5140
837.58	5033
837.718	5261
837.856	5204
837.993	5109
838.131	5212
838.269	5189
838.406	5140
838.544	5140
838.681	5056
838.819	4946
838.956	4908
839.094	4904
839.231	4938
839.369	5052
839.506	5417
839.643	5273
839.781	5048
839.918	5003
840.055	5064
840.193	5064
840.33	5147
840.467	5140
840.604	5223
840.742	5467
840.879	5060
841.016	5064
841.153	5170
841.29	5341
841.427	5345
841.564	5318
841.701	5349
841.838	5303
841.975	5265
842.112	5239
842.249	5155
842.385	5147
842.522	5337
842.659	5170
842.796	5128
842.933	5223
843.069	5140
843.206	5151
843.343	5288
843.479	5235
843.616	5242
843.752	5064
843.889	4999
844.025	5174
844.162	5083
844.298	5204
844.435	5067
844.571	5003
844.708	5159
844.844	5299
844.98	5341
845.117	5315
845.253	5124
845.389	5025
845.525	5132
845.661	5136
845.798	5064
845.934	5056
846.07	5048
846.206	5151
846.342	5273
846.478	5174
846.614	4984
846.75	4938
846.886	4919
847.022	5151
847.158	4942
847.294	5052
847.429	5033
847.565	5064
847.701	5265
847.837	4839
847.972	4816
848.108	4889
848.244	4881
848.379	4797
848.515	4771
848.65	4706
848.786	4740
848.921	4778
849.057	4862
849.192	4896
849.328	4771
849.463	4812
849.598	4824
849.734	4797
849.869	4630
850.004	4630
850.14	4637
850.275	4615
850.41	4489
850.545	4569
850.68	4546
850.815	4607
850.95	4603
851.085	4858
851.22	4702
851.355	4683
851.49	4641
851.625	4630
851.76	4634
851.895	4558
852.03	4542
852.165	4641
852.299	4675
852.434	4805
852.569	4725
852.703	4771
852.838	4824
852.973	4919
853.107	4919
853.242	4740
853.376	4687
853.511	4535
853.645	4618
853.78	4755
853.914	4672
854.048	4691
854.183	4611
854.317	4691
854.451	4801
854.585	4691
854.72	4645
854.854	4759
854.988	4588
855.122	4634
855.256	4512
855.39	4653
855.524	4809
855.658	4653
855.792	4664
855.926	4683
856.06	4767
856.194	4767
856.327	4706
856.461	4599
856.595	4611
856.729	4615
856.862	4702
856.996	4660
857.13	4714
857.263	4694
857.397	4816
857.53	4637
857.664	4698
857.797	4725
857.931	4694
858.064	4702
858.197	4786
858.331	4611
858.464	4645
858.597	4538
858.731	4634
858.864	4672
858.997	4558
859.13	4626
859.263	4634
859.396	4698
859.529	4592
859.662	4535
859.795	4500
859.928	4599
860.061	4748
860.194	4744
860.327	4592
860.46	4569
860.592	4706
860.725	4710
860.858	4733
860.99	4596
861.123	4519
861.256	4535
861.388	4630
861.521	5216
861.653	4489
861.786	4451
861.918	4440
862.05	4481
862.183	4546
862.315	4500
862.447	4611
862.58	4538
862.712	4383
862.844	4272
862.976	4512
863.108	4443
863.24	4870
863.372	4333
863.504	4409
863.636	4390
863.768	4474
863.9	4462
864.032	4318
864.164	4375
864.296	4455
864.428	4538
864.559	4542
864.691	4542
864.823	4512
864.954	4497
865.086	4432
865.217	4436
865.349	4394
865.48	4485
865.612	4451
865.743	4641
865.875	4470
866.006	4390
866.137	4447
866.269	4443
866.4	4417
866.531	4394
866.662	4386
866.793	4421
866.924	4436
867.055	4462
867.186	4428
867.317	4424
867.448	4325
867.579	4375
867.71	4432
867.841	4341
867.972	4432
868.103	4447
868.233	4402
868.364	4409
868.495	4462
868.625	4634
868.756	4687
868.886	4573
869.017	4622
869.147	4752
869.278	4767
869.408	4660
869.539	4675
869.669	4687
869.799	4660
869.929	4809
870.06	4706
870.19	4927
870.32	4896
870.45	4919
870.58	4976
870.71	5079
870.84	5079
870.97	4877
871.1	4908
871.23	5060
871.36	5098
871.489	5056
871.619	5052
871.749	5041
871.879	5143
872.008	5189
872.138	5071
872.267	4968
872.397	4782
872.526	4812
872.656	4641
872.785	4755
872.915	4953
873.044	5048
873.173	4957
873.303	4961
873.432	4953
873.561	4942
873.69	4881
873.819	4858
873.948	4919
874.077	4820
874.206	4748
874.335	4797
874.464	4900
874.593	5025
874.722	4999
874.851	5071
874.979	5060
875.108	5048
875.237	4896
875.365	4820
875.494	4858
875.623	4995
875.751	4831
875.88	4877
876.008	4927
876.136	5010
876.265	5189
876.393	5296
876.521	5220
876.65	5189
876.778	5102
876.906	5041
877.034	5014
877.162	5056
877.29	4980
877.418	5037
877.546	4965
877.674	5033
877.802	5033
877.93	4968
878.058	4919
878.185	4866
878.313	4965
878.441	4927
878.568	4816
878.696	4866
878.824	4881
878.951	4976
879.079	5075
879.206	5242
879.333	5022
879.461	5018
879.588	5014
879.715	5162
879.842	5193
879.97	5018
880.097	4801
880.224	4717
880.351	4801
880.478	4782
880.605	4816
880.732	4771
880.859	5083
880.986	4896
881.112	4873
881.239	4763
881.366	4637
881.493	4599
881.619	4592
881.746	4618
881.872	4641
881.999	4649
882.125	4660
882.252	4740
882.378	4828
882.505	4965
882.631	4778
882.757	4694
882.883	4748
883.01	4721
883.136	4687
883.262	4554
883.388	4588
883.514	4797
883.64	4850
883.766	4733
883.892	4660
884.018	4694
884.143	4915
884.269	4987
884.395	4653
884.52	4588
884.646	4596
884.772	4580
884.897	4558
885.023	4626
885.148	4767
885.274	4850
885.399	4774
885.524	4691
885.65	4691
885.775	4736
885.9	4698
886.025	4812
886.15	4759
886.275	4717
886.4	4679
886.525	4725
886.65	4679
886.775	4668
886.9	4843
887.025	5048
887.149	4782
887.274	4626
887.399	4577
887.523	4611
887.648	4565
887.773	4554
887.897	4698
888.021	4717
888.146	4679
888.27	4839
888.395	4904
888.519	4809
888.643	4816
888.767	4839
888.891	4577
889.015	4580
889.139	4607
889.263	4641
889.387	4759
889.511	4847
889.635	4755
889.759	4664
889.883	4630
890.006	4752
890.13	4786
890.254	4611
890.377	4694
890.501	4569
890.624	4531
890.748	4611
890.871	4489
890.995	4413
891.118	4383
891.241	4512
891.364	4554
891.488	4622
891.611	4455
891.734	4478
891.857	4573
891.98	4504
892.103	4637
892.226	4577
892.349	4459
892.471	4459
892.594	4558
892.717	4569
892.839	4573
892.962	4580
893.085	4611
893.207	4550
893.33	4440
893.452	4500
893.575	4626
893.697	4554
893.819	4771
893.941	4820
894.064	4736
894.186	4573
894.308	4580
894.43	4725
894.552	4828
894.674	4778
894.796	4538
894.918	4569
895.04	4512
895.161	4687
895.283	4660
895.405	4584
895.526	4698
895.648	4660
895.769	4672
895.891	4706
896.012	4698
896.134	4698
896.255	4649
896.376	4637
896.498	4626
896.619	4653
896.74	4561
896.861	4618
896.982	4942
897.103	4999
897.224	4786
897.345	4714
897.466	4656
897.587	4691
897.708	4850
897.828	4793
897.949	4687
898.07	4561
898.19	4683
898.311	4854
898.431	4675
898.552	4698
898.672	4831
898.792	4812
898.913	4725
899.033	4561
899.153	4485
899.273	4424
899.393	4462
899.513	4500
899.633	4508
899.753	4462
899.873	4451
899.993	4519
900.113	4493
900.232	4592
900.352	4516
900.472	4497
900.591	4394
900.711	4459
900.83	4432
900.95	4634
901.069	4656
901.189	4519
901.308	4348
901.427	4325
901.546	4367
901.665	4421
901.784	4500
901.904	4424
902.023	4284
902.141	4158
902.26	4147
902.379	4284
902.498	4230
902.617	4200
902.735	4344
902.854	4360
902.973	4341
903.091	4188
903.21	4211
903.328	4322
903.446	4272
903.565	4257
903.683	4322
903.801	4295
903.919	4390
904.038	4432
904.156	4295
904.274	4424
904.392	4375
904.51	4459
904.627	4447
904.745	4607
904.863	4599
904.981	4375
905.098	4291
905.216	4375
905.334	4424
905.451	4462
905.569	4409
905.686	4550
905.803	4561
905.921	4409
906.038	4531
906.155	4481
906.272	4421
906.389	4413
906.506	4344
906.623	4325
906.74	4379
906.857	4303
906.974	4337
907.091	4527
907.208	4729
907.324	4558
907.441	4493
907.557	4344
907.674	4348
907.79	4306
907.907	4421
908.023	4474
908.139	4447
908.256	4424
908.372	4428
908.488	4390
908.604	4341
908.72	4295
908.836	4333
908.952	4329
909.068	4390
909.184	4527
909.3	4451
909.415	4527
909.531	4565
909.647	4367
909.762	4371
909.878	4318
909.993	4440
910.108	4390
910.224	4413
910.339	4443
910.454	4360
910.57	4356
910.685	4314
910.8	4630
910.915	4592
911.03	4451
911.145	4341
911.259	4341
911.374	4390
911.489	4280
911.604	4268
911.718	4158
911.833	4211
911.947	4105
912.062	4071
912.176	4188
912.291	4219
912.405	4238
912.519	4402
912.633	4474
912.748	4375
912.862	4306
912.976	4227
913.09	4048
913.204	4185
913.318	4211
913.431	4352
913.545	4375
913.659	4398
913.772	4344
913.886	4246
914	4196
914.113	4344
914.226	4451
914.34	4375
914.453	4215
914.566	4417
914.68	4280
914.793	4295
914.906	4162
915.019	4139
915.132	4055
915.245	4196
915.358	4124
915.47	4234
915.583	4272
915.696	4253
915.809	4402
915.921	4447
916.034	4265
916.146	4238
916.259	4246
916.371	4375
916.483	4310
916.595	4287
916.708	4303
916.82	4306
916.932	4287
917.044	4314
917.156	4306
917.268	4215
917.38	4200
917.491	4261
917.603	4333
917.715	4379
917.826	4398
917.938	4310
918.049	4223
918.161	4363
918.272	4504
918.384	4512
918.495	4421
918.606	4280
918.717	4238
918.828	4329
918.939	4344
919.05	4246
919.161	4280
919.272	4078
919.383	4204
919.494	4443
919.604	4615
919.715	4440
919.826	4325
919.936	4390
920.047	4569
920.157	4459
920.267	4691
920.378	4596
920.488	4493
920.598	4714
920.708	4908
920.818	4778
920.928	4755
921.038	4915
921.148	4904
921.258	4683
921.368	4565
921.477	4546
921.587	4470
921.697	4363
921.806	4558
921.916	4413
922.025	4284
922.134	4325
922.244	4230
922.353	4333
922.462	4177
922.571	4139
922.68	4013
922.789	3998
922.898	4101
923.007	4010
923.116	4097
923.224	4036
923.333	4074
923.442	4032
923.55	3983
923.659	4048
923.767	4120
923.876	4013
923.984	4173
924.092	3991
924.201	4120
924.309	4147
924.417	4162
924.525	4090
924.633	4116
924.741	5067
924.849	3934
924.956	4166
925.064	3960
925.172	3934
925.279	4010
925.387	4105
925.494	4086
925.602	4284
925.709	4169
925.816	4059
925.924	4143
926.031	4261
926.138	4223
926.245	4204
926.352	4128
926.459	4291
926.566	4318
926.673	4192
926.779	4150
926.886	4074
926.993	4002
927.099	4006
927.206	3987
927.312	3968
927.419	4078
927.525	4051
927.631	4139
927.737	4032
927.843	3964
927.95	3896
928.056	3968
928.162	4025
928.267	4051
928.373	4725
928.479	4143
928.585	3911
928.69	4055
928.796	4074
928.901	4025
929.007	3915
929.112	4017
929.218	4006
929.323	3991
929.428	3979
929.533	4135
929.638	3975
929.743	3972
929.848	4059
929.953	4036
930.058	3949
930.163	3819
930.267	3884
930.372	4017
930.477	3842
930.581	4105
930.685	3941
930.79	3884
930.894	3884
930.998	3884
931.103	4093
931.207	3766
931.311	3713
931.415	3698
931.519	3526
931.623	3584
