Data from test_V78500241_673.txt Node
Date: Fri Mar 25 16:53:40 CST 2022
User: usil
Spectrometer: V785-0024
Trigger mode: 0
Integration Time (sec): 4.000000E-1
Scans to average: 1
Nonlinearity correction enabled: false
Boxcar width: 0
Storing dark spectrum: false
XAxis mode: Wavelengths
Number of Pixels in Spectrum: 1024
>>>>>Begin Spectral Data<<<<<
801.071	8012
801.214	7959
801.356	7902
801.499	7811
801.641	7837
801.783	7837
801.926	8046
802.068	7902
802.211	7921
802.353	7967
802.496	7883
802.638	7970
802.78	7951
802.923	7898
803.065	7814
803.208	7906
803.35	7963
803.492	8153
803.635	8157
803.777	8020
803.919	8202
804.061	8404
804.204	8119
804.346	8024
804.488	7967
804.63	8084
804.773	8054
804.915	8111
805.057	8229
805.199	8202
805.341	8233
805.483	8267
805.626	8259
805.768	8103
805.91	8206
806.052	8199
806.194	8069
806.336	8332
806.478	8103
806.62	8103
806.762	8180
806.904	8294
807.046	8476
807.188	8347
807.33	8328
807.472	8343
807.614	8183
807.756	8142
807.898	7997
808.04	7803
808.182	7898
808.324	7967
808.465	7906
808.607	8035
808.749	8130
808.891	8214
809.033	8336
809.174	8187
809.316	8005
809.458	8073
809.6	8016
809.741	8081
809.883	8020
810.025	8123
810.166	8069
810.308	7993
810.45	8008
810.591	7932
810.733	7734
810.875	7734
811.016	7559
811.158	7491
811.299	7651
811.441	7715
811.582	7674
811.724	7529
811.865	7514
812.007	7613
812.148	7529
812.29	7525
812.431	7655
812.573	7883
812.714	8001
812.855	8142
812.997	8210
813.138	8313
813.279	8187
813.421	8225
813.562	8039
813.703	7875
813.845	7742
813.986	7441
814.127	7358
814.268	7289
814.41	7213
814.551	7080
814.692	7232
814.833	7038
814.974	7091
815.115	7122
815.256	6993
815.397	6901
815.539	6928
815.68	6810
815.821	6856
815.962	6844
816.103	6810
816.244	6719
816.385	6639
816.526	6612
816.666	6460
816.807	6296
816.948	6426
817.089	6486
817.23	6418
817.371	6395
817.512	6361
817.653	6350
817.793	6353
817.934	6403
818.075	6494
818.216	6445
818.356	6414
818.497	6239
818.638	6129
818.778	6133
818.919	6129
819.06	6114
819.2	6300
819.341	6296
819.481	6353
819.622	6509
819.762	6749
819.903	6654
820.043	6604
820.184	6566
820.324	6551
820.465	6639
820.605	6623
820.746	6650
820.886	6521
821.026	6669
821.167	6692
821.307	6722
821.447	6669
821.588	6669
821.728	6532
821.868	6471
822.008	6311
822.149	6369
822.289	6327
822.429	6190
822.569	6095
822.709	6083
822.849	5889
822.99	5904
823.13	5912
823.27	5847
823.41	5767
823.55	5722
823.69	5760
823.83	5775
823.97	5688
824.11	5547
824.25	5539
824.389	5554
824.529	5600
824.669	5505
824.809	5657
824.949	5665
825.089	5623
825.228	5581
825.368	5395
825.508	5330
825.648	5387
825.787	5406
825.927	5341
826.067	5322
826.206	5284
826.346	5368
826.485	5395
826.625	5368
826.765	5486
826.904	5467
827.044	5246
827.183	5170
827.323	5113
827.462	5258
827.601	5197
827.741	5212
827.88	5212
828.02	5143
828.159	5231
828.298	5277
828.437	5284
828.577	5337
828.716	5505
828.855	5368
828.994	5147
829.134	5143
829.273	5212
829.412	5170
829.551	5162
829.69	5201
829.829	5284
829.968	5360
830.107	5292
830.246	5273
830.385	5174
830.524	5128
830.663	5102
830.802	4987
830.941	4843
831.08	4889
831.219	4938
831.357	4968
831.496	5185
831.635	4885
831.774	4877
831.913	4824
832.051	4771
832.19	4717
832.329	4805
832.467	4748
832.606	4668
832.744	4672
832.883	4706
833.022	4706
833.16	4771
833.299	4809
833.437	4858
833.576	4824
833.714	4915
833.852	4889
833.991	4881
834.129	4900
834.267	4946
834.406	4927
834.544	4957
834.682	4984
834.821	4957
834.959	5170
835.097	4991
835.235	5166
835.373	5067
835.511	5094
835.65	5052
835.788	5006
835.926	4908
836.064	4866
836.202	4896
836.34	5204
836.478	5212
836.615	5102
836.753	5201
836.891	5368
837.029	5311
837.167	5189
837.305	5189
837.443	5132
837.58	5022
837.718	5250
837.856	5121
837.993	5090
838.131	5231
838.269	5250
838.406	5185
838.544	5189
838.681	5060
838.819	4976
838.956	4866
839.094	4866
839.231	4930
839.369	5075
839.506	5425
839.643	5227
839.781	5083
839.918	5048
840.055	5124
840.193	5079
840.33	5143
840.467	5094
840.604	5155
840.742	5425
840.879	5075
841.016	5064
841.153	5174
841.29	5376
841.427	5364
841.564	5299
841.701	5349
841.838	5261
841.975	5204
842.112	5334
842.249	5124
842.385	5124
842.522	5326
842.659	5151
842.796	5140
842.933	5204
843.069	5128
843.206	5159
843.343	5277
843.479	5227
843.616	5284
843.752	5029
843.889	5014
844.025	5204
844.162	5052
844.298	5197
844.435	5090
844.571	5045
844.708	5185
844.844	5296
844.98	5372
845.117	5334
845.253	5166
845.389	5025
845.525	5166
845.661	5140
845.798	5064
845.934	5121
846.07	5056
846.206	5246
846.342	5307
846.478	5159
846.614	5041
846.75	4968
846.886	4885
847.022	5121
847.158	5048
847.294	5041
847.429	5086
847.565	5025
847.701	5284
847.837	4839
847.972	4797
848.108	4980
848.244	4953
848.379	4797
848.515	4725
848.65	4710
848.786	4740
848.921	4782
849.057	4858
849.192	4854
849.328	4839
849.463	4843
849.598	4812
849.734	4767
849.869	4675
850.004	4637
850.14	4626
850.275	4622
850.41	4535
850.545	4558
850.68	4577
850.815	4580
850.95	4626
851.085	4828
851.22	4778
851.355	4641
851.49	4641
851.625	4630
851.76	4649
851.895	4519
852.03	4569
852.165	4664
852.299	4706
852.434	4748
852.569	4725
852.703	4801
852.838	4828
852.973	4904
853.107	4942
853.242	4721
853.376	4675
853.511	4577
853.645	4580
853.78	4809
853.914	4656
854.048	4649
854.183	4668
854.317	4744
854.451	4828
854.585	4714
854.72	4626
854.854	4755
854.988	4596
855.122	4618
855.256	4550
855.39	4641
855.524	4763
855.658	4763
855.792	4694
855.926	4752
856.06	4748
856.194	4782
856.327	4694
856.461	4645
856.595	4603
856.729	4599
856.862	4740
856.996	4645
857.13	4763
857.263	4736
857.397	4831
857.53	4634
857.664	4748
857.797	4733
857.931	4774
858.064	4660
858.197	4733
858.331	4641
858.464	4577
858.597	4451
858.731	4618
858.864	4668
858.997	4645
859.13	4630
859.263	4645
859.396	4698
859.529	4580
859.662	4531
859.795	4538
859.928	4584
860.061	4740
860.194	4755
860.327	4558
860.46	4546
860.592	4675
860.725	4683
860.858	4725
860.99	4584
861.123	4516
861.256	4523
861.388	4592
861.521	5258
861.653	4436
861.786	4421
861.918	4462
862.05	4508
862.183	4558
862.315	4588
862.447	4668
862.58	4573
862.712	4413
862.844	4284
862.976	4436
863.108	4497
863.24	4870
863.372	4337
863.504	4390
863.636	4402
863.768	4481
863.9	4417
864.032	4356
864.164	4386
864.296	4447
864.428	4561
864.559	4519
864.691	4535
864.823	4535
864.954	4500
865.086	4497
865.217	4447
865.349	4443
865.48	4424
865.612	4459
865.743	4622
865.875	4489
866.006	4440
866.137	4424
866.269	4443
866.4	4459
866.531	4390
866.662	4371
866.793	4436
866.924	4402
867.055	4455
867.186	4424
867.317	4390
867.448	4421
867.579	4360
867.71	4371
867.841	4363
867.972	4459
868.103	4462
868.233	4485
868.364	4402
868.495	4466
868.625	4672
868.756	4752
868.886	4550
869.017	4580
869.147	4752
869.278	4691
869.408	4618
869.539	4618
869.669	4725
869.799	4649
869.929	4729
870.06	4740
870.19	4862
870.32	4911
870.45	4904
870.58	5010
870.71	5143
870.84	5086
870.97	4946
871.1	4911
871.23	5181
871.36	5113
871.489	5022
871.619	5071
871.749	5105
871.879	5102
872.008	5140
872.138	5056
872.267	4961
872.397	4820
872.526	4797
872.656	4736
872.785	4828
872.915	4915
873.044	5029
873.173	4919
873.303	4949
873.432	4953
873.561	4896
873.69	4881
873.819	4870
873.948	4858
874.077	4820
874.206	4740
874.335	4816
874.464	4942
874.593	5067
874.722	4896
874.851	5105
874.979	5067
875.108	5029
875.237	4896
875.365	4843
875.494	4850
875.623	4999
875.751	4862
875.88	4858
876.008	4904
876.136	5018
876.265	5197
876.393	5318
876.521	5197
876.65	5185
876.778	5140
876.906	5064
877.034	5048
877.162	5018
877.29	4938
877.418	5086
877.546	5060
877.674	5014
877.802	5045
877.93	5041
878.058	4927
878.185	4900
878.313	4976
878.441	4984
878.568	4778
878.696	4839
878.824	4949
878.951	4984
879.079	5147
879.206	5242
879.333	5105
879.461	4968
879.588	4972
879.715	5105
879.842	5197
879.97	5048
880.097	4767
880.224	4702
880.351	4767
880.478	4820
880.605	4767
880.732	4755
880.859	5094
880.986	4900
881.112	4896
881.239	4763
881.366	4691
881.493	4615
881.619	4596
881.746	4618
881.872	4649
881.999	4664
882.125	4672
882.252	4805
882.378	4820
882.505	4919
882.631	4820
882.757	4679
882.883	4782
883.01	4755
883.136	4630
883.262	4611
883.388	4603
883.514	4793
883.64	4866
883.766	4748
883.892	4626
884.018	4656
884.143	4930
884.269	4968
884.395	4626
884.52	4645
884.646	4592
884.772	4615
884.897	4546
885.023	4679
885.148	4820
885.274	4885
885.399	4866
885.524	4710
885.65	4748
885.775	4706
885.9	4714
886.025	4835
886.15	4786
886.275	4714
886.4	4683
886.525	4698
886.65	4630
886.775	4637
886.9	4881
887.025	5045
887.149	4782
887.274	4592
887.399	4569
887.523	4611
887.648	4596
887.773	4596
887.897	4805
888.021	4786
888.146	4710
888.27	4812
888.395	4839
888.519	4771
888.643	4782
888.767	4862
888.891	4668
889.015	4588
889.139	4675
889.263	4637
889.387	4797
889.511	4870
889.635	4801
889.759	4618
889.883	4603
890.006	4721
890.13	4824
890.254	4630
890.377	4752
890.501	4512
890.624	4535
890.748	4630
890.871	4519
890.995	4405
891.118	4409
891.241	4500
891.364	4538
891.488	4615
891.611	4493
891.734	4512
891.857	4546
891.98	4558
892.103	4630
892.226	4622
892.349	4523
892.471	4417
892.594	4523
892.717	4599
892.839	4580
892.962	4584
893.085	4656
893.207	4592
893.33	4462
893.452	4523
893.575	4649
893.697	4535
893.819	4778
893.941	4862
894.064	4748
894.186	4561
894.308	4622
894.43	4664
894.552	4809
894.674	4748
894.796	4527
894.918	4599
895.04	4531
895.161	4710
895.283	4645
895.405	4573
895.526	4607
895.648	4694
895.769	4683
895.891	4653
896.012	4729
896.134	4710
896.255	4660
896.376	4630
896.498	4592
896.619	4668
896.74	4637
896.861	4649
896.982	4930
897.103	5037
897.224	4786
897.345	4797
897.466	4664
897.587	4698
897.708	4854
897.828	4782
897.949	4649
898.07	4550
898.19	4622
898.311	4793
898.431	4694
898.552	4714
898.672	4801
898.792	4790
898.913	4736
899.033	4584
899.153	4493
899.273	4436
899.393	4527
899.513	4478
899.633	4523
899.753	4523
899.873	4489
899.993	4622
900.113	4519
900.232	4630
900.352	4577
900.472	4500
900.591	4363
900.711	4466
900.83	4428
900.95	4611
901.069	4687
901.189	4550
901.308	4371
901.427	4367
901.546	4386
901.665	4451
901.784	4512
901.904	4360
902.023	4303
902.141	4211
902.26	4154
902.379	4314
902.498	4276
902.617	4181
902.735	4383
902.854	4402
902.973	4394
903.091	4204
903.21	4234
903.328	4272
903.446	4287
903.565	4230
903.683	4371
903.801	4227
903.919	4375
904.038	4466
904.156	4306
904.274	4440
904.392	4409
904.51	4443
904.627	4447
904.745	4546
904.863	4599
904.981	4413
905.098	4352
905.216	4383
905.334	4451
905.451	4402
905.569	4428
905.686	4554
905.803	4592
905.921	4424
906.038	4569
906.155	4485
906.272	4409
906.389	4451
906.506	4375
906.623	4322
906.74	4409
906.857	4291
906.974	4386
907.091	4523
907.208	4702
907.324	4565
907.441	4504
907.557	4333
907.674	4348
907.79	4287
907.907	4405
908.023	4531
908.139	4508
908.256	4386
908.372	4440
908.488	4405
908.604	4383
908.72	4352
908.836	4367
908.952	4371
909.068	4424
909.184	4584
909.3	4504
909.415	4603
909.531	4508
909.647	4341
909.762	4306
909.878	4363
909.993	4390
910.108	4451
910.224	4413
910.339	4478
910.454	4363
910.57	4314
910.685	4322
910.8	4649
910.915	4603
911.03	4451
911.145	4291
911.259	4371
911.374	4360
911.489	4284
911.604	4249
911.718	4204
911.833	4162
911.947	4074
912.062	4036
912.176	4162
912.291	4253
912.405	4223
912.519	4436
912.633	4500
912.748	4352
912.862	4325
912.976	4219
913.09	4063
913.204	4169
913.318	4265
913.431	4375
913.545	4337
913.659	4451
913.772	4318
913.886	4253
914	4242
914.113	4394
914.226	4443
914.34	4379
914.453	4223
914.566	4398
914.68	4344
914.793	4318
914.906	4150
915.019	4139
915.132	4048
915.245	4196
915.358	4223
915.47	4257
915.583	4303
915.696	4295
915.809	4447
915.921	4421
916.034	4276
916.146	4230
916.259	4272
916.371	4405
916.483	4417
916.595	4272
916.708	4360
916.82	4352
916.932	4333
917.044	4363
917.156	4352
917.268	4223
917.38	4344
917.491	4310
917.603	4371
917.715	4447
917.826	4500
917.938	4371
918.049	4287
918.161	4424
918.272	4558
918.384	4584
918.495	4512
918.606	4318
918.717	4299
918.828	4356
918.939	4375
919.05	4272
919.161	4348
919.272	4173
919.383	4261
919.494	4462
919.604	4702
919.715	4421
919.826	4424
919.936	4440
920.047	4596
920.157	4500
920.267	4736
920.378	4603
920.488	4558
920.598	4729
920.708	4957
920.818	4782
920.928	4782
921.038	5014
921.148	4957
921.258	4649
921.368	4607
921.477	4516
921.587	4531
921.697	4443
921.806	4611
921.916	4519
922.025	4329
922.134	4291
922.244	4303
922.353	4341
922.462	4185
922.571	4207
922.68	4051
922.789	4002
922.898	4116
923.007	4067
923.116	4082
923.224	4131
923.333	4105
923.442	4051
923.55	3998
923.659	4044
923.767	4101
923.876	4078
923.984	4150
924.092	4025
924.201	4078
924.309	4036
924.417	4169
924.525	4097
924.633	4143
924.741	5094
924.849	3956
924.956	4154
925.064	3945
925.172	3915
925.279	3998
925.387	4097
925.494	4067
925.602	4219
925.709	4227
925.816	4051
925.924	4150
926.031	4242
926.138	4215
926.245	4223
926.352	4120
926.459	4325
926.566	4356
926.673	4207
926.779	4143
926.886	4090
926.993	4029
927.099	3979
927.206	3979
927.312	3983
927.419	4131
927.525	4017
927.631	4078
927.737	3979
927.843	3937
927.95	3865
928.056	3983
928.162	3979
928.267	4078
928.373	4668
928.479	4147
928.585	3873
928.69	4093
928.796	4090
928.901	3949
929.007	3896
929.112	4059
929.218	3979
929.323	3956
929.428	3983
929.533	4128
929.638	3975
929.743	3987
929.848	4101
929.953	4006
930.058	3979
930.163	3808
930.267	3869
930.372	3991
930.477	3865
930.581	4109
930.685	3964
930.79	3888
930.894	3907
930.998	3876
931.103	4059
931.207	3740
931.311	3740
931.415	3728
931.519	3549
931.623	3568
