Data from test_V78500241_1463.txt Node
Date: Fri Mar 25 16:59:10 CST 2022
User: usil
Spectrometer: V785-0024
Trigger mode: 0
Integration Time (sec): 4.000000E-1
Scans to average: 1
Nonlinearity correction enabled: false
Boxcar width: 0
Storing dark spectrum: false
XAxis mode: Wavelengths
Number of Pixels in Spectrum: 1024
>>>>>Begin Spectral Data<<<<<
801.071	8050
801.214	8027
801.356	7852
801.499	7864
801.641	7837
801.783	7780
801.926	7951
802.068	7947
802.211	7974
802.353	7970
802.496	7845
802.638	7822
802.78	7906
802.923	7925
803.065	7830
803.208	7830
803.35	7951
803.492	8077
803.635	8119
803.777	7993
803.919	8069
804.061	8476
804.204	8119
804.346	8035
804.488	7932
804.63	8077
804.773	8012
804.915	8149
805.057	8336
805.199	8130
805.341	8202
805.483	8263
805.626	8206
805.768	8096
805.91	8233
806.052	8180
806.194	8107
806.336	8244
806.478	8084
806.62	8107
806.762	8157
806.904	8168
807.046	8446
807.188	8339
807.33	8366
807.472	8244
807.614	8130
807.756	8157
807.898	8039
808.04	7883
808.182	7906
808.324	7921
808.465	7875
808.607	8096
808.749	8119
808.891	8168
809.033	8324
809.174	8183
809.316	8073
809.458	8069
809.6	7955
809.741	8008
809.883	8043
810.025	8157
810.166	8054
810.308	7967
810.45	7970
810.591	7875
810.733	7662
810.875	7616
811.016	7518
811.158	7499
811.299	7563
811.441	7769
811.582	7658
811.724	7651
811.865	7521
812.007	7601
812.148	7521
812.29	7601
812.431	7757
812.573	7860
812.714	7947
812.855	8111
812.997	8195
813.138	8305
813.279	8183
813.421	8088
813.562	7970
813.703	7849
813.845	7738
813.986	7422
814.127	7213
814.268	7240
814.41	7228
814.551	7145
814.692	7198
814.833	7046
814.974	7133
815.115	7061
815.256	6939
815.397	6920
815.539	6951
815.68	6840
815.821	6753
815.962	6852
816.103	6814
816.244	6700
816.385	6604
816.526	6623
816.666	6452
816.807	6292
816.948	6388
817.089	6429
817.23	6353
817.371	6372
817.512	6384
817.653	6399
817.793	6365
817.934	6407
818.075	6395
818.216	6399
818.356	6414
818.497	6228
818.638	6136
818.778	6140
818.919	6178
819.06	6163
819.2	6296
819.341	6327
819.481	6308
819.622	6525
819.762	6688
819.903	6715
820.043	6563
820.184	6593
820.324	6551
820.465	6707
820.605	6650
820.746	6623
820.886	6475
821.026	6696
821.167	6681
821.307	6696
821.447	6768
821.588	6631
821.728	6623
821.868	6441
822.008	6334
822.149	6334
822.289	6342
822.429	6129
822.569	6068
822.709	6076
822.849	5855
822.99	5882
823.13	5889
823.27	5916
823.41	5737
823.55	5802
823.69	5710
823.83	5653
823.97	5699
824.11	5551
824.25	5497
824.389	5592
824.529	5596
824.669	5501
824.809	5630
824.949	5627
825.089	5585
825.228	5532
825.368	5368
825.508	5341
825.648	5315
825.787	5296
825.927	5349
826.067	5242
826.206	5280
826.346	5349
826.485	5383
826.625	5379
826.765	5520
826.904	5463
827.044	5242
827.183	5181
827.323	5155
827.462	5227
827.601	5121
827.741	5170
827.88	5223
828.02	5124
828.159	5212
828.298	5277
828.437	5383
828.577	5269
828.716	5490
828.855	5269
828.994	5159
829.134	5140
829.273	5132
829.412	5132
829.551	5166
829.69	5166
829.829	5178
829.968	5395
830.107	5284
830.246	5258
830.385	5147
830.524	5136
830.663	5113
830.802	4976
830.941	4873
831.08	4889
831.219	4949
831.357	4999
831.496	5170
831.635	4923
831.774	4816
831.913	4801
832.051	4683
832.19	4782
832.329	4847
832.467	4729
832.606	4637
832.744	4694
832.883	4755
833.022	4714
833.16	4786
833.299	4835
833.437	4786
833.576	4809
833.714	4843
833.852	4862
833.991	4896
834.129	4919
834.267	4934
834.406	4908
834.544	4980
834.682	4946
834.821	4957
834.959	5136
835.097	5018
835.235	5170
835.373	5140
835.511	5090
835.65	5037
835.788	4976
835.926	4911
836.064	4831
836.202	4904
836.34	5151
836.478	5216
836.615	5140
836.753	5216
836.891	5326
837.029	5231
837.167	5162
837.305	5166
837.443	5204
837.58	5037
837.718	5250
837.856	5143
837.993	5136
838.131	5223
838.269	5204
838.406	5235
838.544	5166
838.681	5014
838.819	5018
838.956	4900
839.094	4892
839.231	4957
839.369	5025
839.506	5391
839.643	5273
839.781	5052
839.918	5025
840.055	5102
840.193	5075
840.33	5132
840.467	5147
840.604	5178
840.742	5383
840.879	5094
841.016	5090
841.153	5147
841.29	5311
841.427	5284
841.564	5280
841.701	5395
841.838	5273
841.975	5261
842.112	5261
842.249	5143
842.385	5064
842.522	5322
842.659	5124
842.796	5132
842.933	5197
843.069	5166
843.206	5143
843.343	5334
843.479	5227
843.616	5242
843.752	5041
843.889	5041
844.025	5189
844.162	5033
844.298	5178
844.435	5048
844.571	5083
844.708	5242
844.844	5303
844.98	5326
845.117	5357
845.253	5143
845.389	5105
845.525	5147
845.661	5128
845.798	5025
845.934	5094
846.07	5037
846.206	5178
846.342	5242
846.478	5178
846.614	5003
846.75	5010
846.886	4949
847.022	5121
847.158	4987
847.294	5033
847.429	5090
847.565	5052
847.701	5265
847.837	4839
847.972	4812
848.108	4949
848.244	4873
848.379	4797
848.515	4725
848.65	4714
848.786	4725
848.921	4733
849.057	4862
849.192	4930
849.328	4778
849.463	4850
849.598	4820
849.734	4733
849.869	4717
850.004	4599
850.14	4702
850.275	4607
850.41	4519
850.545	4573
850.68	4626
850.815	4634
850.95	4664
851.085	4847
851.22	4683
851.355	4687
851.49	4584
851.625	4656
851.76	4626
851.895	4599
852.03	4512
852.165	4626
852.299	4717
852.434	4771
852.569	4714
852.703	4725
852.838	4839
852.973	4900
853.107	4877
853.242	4675
853.376	4691
853.511	4508
853.645	4573
853.78	4793
853.914	4668
854.048	4653
854.183	4626
854.317	4687
854.451	4835
854.585	4672
854.72	4615
854.854	4793
854.988	4653
855.122	4637
855.256	4504
855.39	4630
855.524	4740
855.658	4645
855.792	4691
855.926	4721
856.06	4774
856.194	4771
856.327	4698
856.461	4599
856.595	4603
856.729	4558
856.862	4759
856.996	4675
857.13	4706
857.263	4748
857.397	4748
857.53	4599
857.664	4755
857.797	4736
857.931	4786
858.064	4675
858.197	4740
858.331	4603
858.464	4531
858.597	4527
858.731	4645
858.864	4656
858.997	4630
859.13	4645
859.263	4649
859.396	4706
859.529	4599
859.662	4542
859.795	4512
859.928	4637
860.061	4729
860.194	4786
860.327	4546
860.46	4535
860.592	4675
860.725	4714
860.858	4702
860.99	4550
861.123	4531
861.256	4519
861.388	4561
861.521	5440
861.653	4459
861.786	4405
861.918	4447
862.05	4588
862.183	4504
862.315	4637
862.447	4649
862.58	4561
862.712	4409
862.844	4363
862.976	4474
863.108	4447
863.24	4843
863.372	4329
863.504	4459
863.636	4428
863.768	4474
863.9	4443
864.032	4318
864.164	4409
864.296	4447
864.428	4554
864.559	4527
864.691	4512
864.823	4436
864.954	4440
865.086	4508
865.217	4451
865.349	4417
865.48	4470
865.612	4478
865.743	4611
865.875	4481
866.006	4405
866.137	4478
866.269	4462
866.4	4443
866.531	4394
866.662	4386
866.793	4443
866.924	4428
867.055	4508
867.186	4428
867.317	4421
867.448	4363
867.579	4386
867.71	4379
867.841	4329
867.972	4428
868.103	4493
868.233	4413
868.364	4405
868.495	4466
868.625	4649
868.756	4759
868.886	4546
869.017	4596
869.147	4755
869.278	4752
869.408	4679
869.539	4630
869.669	4729
869.799	4691
869.929	4759
870.06	4729
870.19	4961
870.32	4881
870.45	4946
870.58	4987
870.71	5109
870.84	5098
870.97	4980
871.1	4911
871.23	5109
871.36	5159
871.489	5029
871.619	5090
871.749	5113
871.879	5083
872.008	5208
872.138	5075
872.267	4965
872.397	4862
872.526	4778
872.656	4729
872.785	4816
872.915	4953
873.044	4980
873.173	4908
873.303	4953
873.432	4972
873.561	4949
873.69	4904
873.819	4892
873.948	4900
874.077	4824
874.206	4782
874.335	4820
874.464	4900
874.593	5071
874.722	4984
874.851	5079
874.979	5029
875.108	5025
875.237	4892
875.365	4877
875.494	4889
875.623	4961
875.751	4820
875.88	4885
876.008	4949
876.136	5025
876.265	5174
876.393	5322
876.521	5193
876.65	5246
876.778	5151
876.906	5075
877.034	5006
877.162	5041
877.29	4953
877.418	5052
877.546	5022
877.674	5067
877.802	4987
877.93	4999
878.058	4923
878.185	4904
878.313	4915
878.441	4892
878.568	4809
878.696	4877
878.824	4946
878.951	5022
879.079	5140
879.206	5269
879.333	5083
879.461	4995
879.588	5010
879.715	5098
879.842	5246
879.97	4984
880.097	4797
880.224	4793
880.351	4805
880.478	4850
880.605	4824
880.732	4801
880.859	5086
880.986	4862
881.112	4908
881.239	4790
881.366	4675
881.493	4580
881.619	4558
881.746	4615
881.872	4637
881.999	4637
882.125	4668
882.252	4793
882.378	4831
882.505	4984
882.631	4755
882.757	4687
882.883	4714
883.01	4702
883.136	4645
883.262	4596
883.388	4641
883.514	4835
883.64	4850
883.766	4843
883.892	4653
884.018	4698
884.143	4911
884.269	4965
884.395	4634
884.52	4641
884.646	4656
884.772	4580
884.897	4516
885.023	4611
885.148	4774
885.274	4850
885.399	4828
885.524	4717
885.65	4679
885.775	4752
885.9	4744
886.025	4850
886.15	4744
886.275	4702
886.4	4645
886.525	4698
886.65	4702
886.775	4679
886.9	4900
887.025	5037
887.149	4824
887.274	4687
887.399	4634
887.523	4630
887.648	4569
887.773	4580
887.897	4740
888.021	4797
888.146	4626
888.27	4790
888.395	4889
888.519	4793
888.643	4778
888.767	4797
888.891	4634
889.015	4580
889.139	4622
889.263	4565
889.387	4729
889.511	4873
889.635	4805
889.759	4630
889.883	4607
890.006	4687
890.13	4805
890.254	4603
890.377	4649
890.501	4565
890.624	4535
890.748	4611
890.871	4516
890.995	4455
891.118	4386
891.241	4493
891.364	4527
891.488	4641
891.611	4478
891.734	4561
891.857	4626
891.98	4577
892.103	4580
892.226	4588
892.349	4584
892.471	4405
892.594	4558
892.717	4607
892.839	4523
892.962	4584
893.085	4675
893.207	4584
893.33	4436
893.452	4466
893.575	4679
893.697	4519
893.819	4778
893.941	4820
894.064	4740
894.186	4577
894.308	4538
894.43	4748
894.552	4820
894.674	4736
894.796	4493
894.918	4592
895.04	4588
895.161	4660
895.283	4649
895.405	4577
895.526	4630
895.648	4679
895.769	4653
895.891	4725
896.012	4714
896.134	4744
896.255	4702
896.376	4668
896.498	4637
896.619	4744
896.74	4660
896.861	4653
896.982	4923
897.103	5052
897.224	4793
897.345	4717
897.466	4649
897.587	4664
897.708	4892
897.828	4816
897.949	4641
898.07	4588
898.19	4603
898.311	4820
898.431	4664
898.552	4721
898.672	4809
898.792	4786
898.913	4755
899.033	4622
899.153	4474
899.273	4436
899.393	4462
899.513	4500
899.633	4558
899.753	4580
899.873	4470
899.993	4558
900.113	4542
900.232	4580
900.352	4508
900.472	4512
900.591	4417
900.711	4462
900.83	4421
900.95	4603
901.069	4672
901.189	4592
901.308	4344
901.427	4337
901.546	4371
901.665	4455
901.784	4481
901.904	4432
902.023	4314
902.141	4158
902.26	4173
902.379	4257
902.498	4234
902.617	4261
902.735	4341
902.854	4371
902.973	4371
903.091	4207
903.21	4227
903.328	4295
903.446	4227
903.565	4303
903.683	4363
903.801	4287
903.919	4352
904.038	4409
904.156	4352
904.274	4421
904.392	4398
904.51	4409
904.627	4504
904.745	4558
904.863	4592
904.981	4417
905.098	4265
905.216	4341
905.334	4451
905.451	4451
905.569	4443
905.686	4573
905.803	4577
905.921	4398
906.038	4588
906.155	4459
906.272	4413
906.389	4455
906.506	4337
906.623	4375
906.74	4413
906.857	4310
906.974	4375
907.091	4580
907.208	4645
907.324	4584
907.441	4478
907.557	4348
907.674	4329
907.79	4318
907.907	4398
908.023	4481
908.139	4481
908.256	4417
908.372	4474
908.488	4436
908.604	4352
908.72	4333
908.836	4352
908.952	4360
909.068	4398
909.184	4565
909.3	4481
909.415	4569
909.531	4554
909.647	4352
909.762	4291
909.878	4360
909.993	4459
910.108	4409
910.224	4432
910.339	4470
910.454	4428
910.57	4383
910.685	4341
910.8	4630
910.915	4573
911.03	4459
911.145	4344
911.259	4325
911.374	4394
911.489	4280
911.604	4287
911.718	4185
911.833	4200
911.947	4101
912.062	4044
912.176	4211
912.291	4227
912.405	4261
912.519	4462
912.633	4512
912.748	4386
912.862	4291
912.976	4223
913.09	4051
913.204	4192
913.318	4257
913.431	4352
913.545	4394
913.659	4421
913.772	4356
913.886	4265
914	4196
914.113	4390
914.226	4440
914.34	4371
914.453	4261
914.566	4428
914.68	4280
914.793	4268
914.906	4112
915.019	4135
915.132	4063
915.245	4200
915.358	4200
915.47	4204
915.583	4291
915.696	4287
915.809	4428
915.921	4402
916.034	4253
916.146	4261
916.259	4242
916.371	4367
916.483	4360
916.595	4299
916.708	4352
916.82	4314
916.932	4325
917.044	4265
917.156	4310
917.268	4238
917.38	4299
917.491	4306
917.603	4284
917.715	4402
917.826	4394
917.938	4360
918.049	4230
918.161	4402
918.272	4538
918.384	4546
918.495	4466
918.606	4322
918.717	4249
918.828	4360
918.939	4409
919.05	4268
919.161	4287
919.272	4128
919.383	4272
919.494	4413
919.604	4588
919.715	4424
919.826	4371
919.936	4489
920.047	4527
920.157	4451
920.267	4698
920.378	4527
920.488	4462
920.598	4714
920.708	4858
920.818	4721
920.928	4694
921.038	4908
921.148	4911
921.258	4618
921.368	4538
921.477	4497
921.587	4489
921.697	4383
921.806	4500
921.916	4470
922.025	4291
922.134	4246
922.244	4246
922.353	4337
922.462	4154
922.571	4116
922.68	3987
922.789	3960
922.898	4059
923.007	3983
923.116	4059
923.224	4071
923.333	4101
923.442	4013
923.55	4017
923.659	4002
923.767	4109
923.876	3975
923.984	4188
924.092	3964
924.201	4071
924.309	4116
924.417	4120
924.525	4025
924.633	4139
924.741	5041
924.849	3937
924.956	4139
925.064	3987
925.172	3934
925.279	3941
925.387	4055
925.494	4032
925.602	4238
925.709	4173
925.816	4017
925.924	4131
926.031	4215
926.138	4196
926.245	4223
926.352	4090
926.459	4257
926.566	4276
926.673	4143
926.779	4101
926.886	4078
926.993	3972
927.099	3991
927.206	3964
927.312	3934
927.419	4025
927.525	3979
927.631	4105
927.737	4010
927.843	3915
927.95	3819
928.056	3911
928.162	4029
928.267	4067
928.373	4577
928.479	4097
928.585	3854
928.69	3998
928.796	4071
928.901	3926
929.007	3835
929.112	3994
929.218	3979
929.323	3956
929.428	3926
929.533	4131
929.638	3880
929.743	3964
929.848	4074
929.953	3998
930.058	3934
930.163	3778
930.267	3816
930.372	3949
930.477	3789
930.581	4067
930.685	3926
930.79	3816
930.894	3861
930.998	3880
931.103	4025
931.207	3755
931.311	3671
931.415	3656
931.519	3526
931.623	3526
