Data from test_V78500241_793.txt Node
Date: Fri Mar 25 16:54:31 CST 2022
User: usil
Spectrometer: V785-0024
Trigger mode: 0
Integration Time (sec): 4.000000E-1
Scans to average: 1
Nonlinearity correction enabled: false
Boxcar width: 0
Storing dark spectrum: false
XAxis mode: Wavelengths
Number of Pixels in Spectrum: 1024
>>>>>Begin Spectral Data<<<<<
801.071	8062
801.214	8012
801.356	7860
801.499	7898
801.641	7792
801.783	7803
801.926	7925
802.068	7947
802.211	7959
802.353	7947
802.496	7890
802.638	7940
802.78	7894
802.923	7928
803.065	7856
803.208	7902
803.35	7986
803.492	8058
803.635	8161
803.777	8012
803.919	8168
804.061	8408
804.204	8119
804.346	8012
804.488	7917
804.63	8153
804.773	8024
804.915	8088
805.057	8240
805.199	8233
805.341	8206
805.483	8263
805.626	8134
805.768	8130
805.91	8187
806.052	8172
806.194	8119
806.336	8320
806.478	8020
806.62	8039
806.762	8123
806.904	8259
807.046	8434
807.188	8320
807.33	8267
807.472	8267
807.614	8126
807.756	8119
807.898	8035
808.04	7795
808.182	7837
808.324	7811
808.465	7913
808.607	7997
808.749	8077
808.891	8142
809.033	8252
809.174	8168
809.316	8058
809.458	8046
809.6	7936
809.741	8058
809.883	8046
810.025	8062
810.166	8069
810.308	7989
810.45	8039
810.591	7799
810.733	7753
810.875	7643
811.016	7537
811.158	7491
811.299	7613
811.441	7685
811.582	7628
811.724	7506
811.865	7502
812.007	7537
812.148	7571
812.29	7590
812.431	7658
812.573	7921
812.714	7925
812.855	8058
812.997	8126
813.138	8271
813.279	8123
813.421	8088
813.562	7997
813.703	7780
813.845	7700
813.986	7426
814.127	7266
814.268	7221
814.41	7168
814.551	7110
814.692	7103
814.833	7042
814.974	7076
815.115	7122
815.256	6928
815.397	6890
815.539	6958
815.68	6791
815.821	6798
815.962	6848
816.103	6829
816.244	6730
816.385	6623
816.526	6639
816.666	6479
816.807	6273
816.948	6422
817.089	6456
817.23	6471
817.371	6323
817.512	6372
817.653	6319
817.793	6391
817.934	6365
818.075	6441
818.216	6418
818.356	6369
818.497	6197
818.638	6106
818.778	6152
818.919	6178
819.06	6133
819.2	6270
819.341	6273
819.481	6365
819.622	6555
819.762	6700
819.903	6703
820.043	6582
820.184	6525
820.324	6559
820.465	6627
820.605	6639
820.746	6658
820.886	6525
821.026	6620
821.167	6768
821.307	6772
821.447	6741
821.588	6597
821.728	6593
821.868	6513
822.008	6342
822.149	6384
822.289	6311
822.429	6163
822.569	6117
822.709	6076
822.849	5866
822.99	5863
823.13	5939
823.27	5878
823.41	5790
823.55	5794
823.69	5798
823.83	5813
823.97	5680
824.11	5505
824.25	5520
824.389	5512
824.529	5604
824.669	5516
824.809	5585
824.949	5630
825.089	5604
825.228	5532
825.368	5360
825.508	5334
825.648	5345
825.787	5387
825.927	5395
826.067	5296
826.206	5318
826.346	5391
826.485	5349
826.625	5391
826.765	5512
826.904	5440
827.044	5239
827.183	5166
827.323	5136
827.462	5223
827.601	5197
827.741	5178
827.88	5181
828.02	5143
828.159	5227
828.298	5261
828.437	5322
828.577	5288
828.716	5429
828.855	5250
828.994	5159
829.134	5155
829.273	5193
829.412	5147
829.551	5162
829.69	5143
829.829	5166
829.968	5337
830.107	5185
830.246	5288
830.385	5174
830.524	5132
830.663	5037
830.802	5029
830.941	4896
831.08	4892
831.219	4984
831.357	4934
831.496	5189
831.635	4984
831.774	4900
831.913	4831
832.051	4729
832.19	4752
832.329	4843
832.467	4630
832.606	4630
832.744	4672
832.883	4721
833.022	4729
833.16	4755
833.299	4831
833.437	4843
833.576	4824
833.714	4831
833.852	4828
833.991	4892
834.129	4923
834.267	4957
834.406	4904
834.544	4999
834.682	5025
834.821	4980
834.959	5094
835.097	4915
835.235	5113
835.373	5090
835.511	5117
835.65	5033
835.788	5010
835.926	4915
836.064	4797
836.202	4892
836.34	5174
836.478	5235
836.615	5128
836.753	5155
836.891	5242
837.029	5227
837.167	5185
837.305	5178
837.443	5155
837.58	5064
837.718	5216
837.856	5201
837.993	5155
838.131	5216
838.269	5197
838.406	5181
838.544	5189
838.681	4961
838.819	5045
838.956	4908
839.094	4934
839.231	4961
839.369	5090
839.506	5440
839.643	5288
839.781	5010
839.918	5006
840.055	5117
840.193	5056
840.33	5075
840.467	5136
840.604	5166
840.742	5459
840.879	5037
841.016	5102
841.153	5189
841.29	5360
841.427	5269
841.564	5318
841.701	5376
841.838	5261
841.975	5181
842.112	5220
842.249	5121
842.385	5117
842.522	5307
842.659	5128
842.796	5140
842.933	5185
843.069	5132
843.206	5155
843.343	5258
843.479	5239
843.616	5231
843.752	4995
843.889	4972
844.025	5204
844.162	4980
844.298	5197
844.435	5079
844.571	5037
844.708	5181
844.844	5227
844.98	5334
845.117	5258
845.253	5140
845.389	5052
845.525	5109
845.661	5170
845.798	5045
845.934	5109
846.07	5018
846.206	5181
846.342	5250
846.478	5151
846.614	5010
846.75	4980
846.886	4930
847.022	5113
847.158	5041
847.294	5003
847.429	5113
847.565	5105
847.701	5307
847.837	4862
847.972	4854
848.108	4942
848.244	4923
848.379	4752
848.515	4714
848.65	4706
848.786	4733
848.921	4721
849.057	4839
849.192	4877
849.328	4782
849.463	4820
849.598	4767
849.734	4797
849.869	4698
850.004	4645
850.14	4656
850.275	4561
850.41	4527
850.545	4523
850.68	4599
850.815	4569
850.95	4611
851.085	4805
851.22	4778
851.355	4668
851.49	4637
851.625	4622
851.76	4588
851.895	4516
852.03	4516
852.165	4668
852.299	4710
852.434	4797
852.569	4729
852.703	4744
852.838	4793
852.973	4900
853.107	4938
853.242	4698
853.376	4637
853.511	4523
853.645	4618
853.78	4797
853.914	4717
854.048	4618
854.183	4615
854.317	4653
854.451	4877
854.585	4675
854.72	4649
854.854	4733
854.988	4580
855.122	4645
855.256	4527
855.39	4626
855.524	4733
855.658	4698
855.792	4691
855.926	4710
856.06	4752
856.194	4816
856.327	4656
856.461	4603
856.595	4588
856.729	4622
856.862	4729
856.996	4687
857.13	4740
857.263	4755
857.397	4801
857.53	4641
857.664	4736
857.797	4801
857.931	4805
858.064	4691
858.197	4771
858.331	4637
858.464	4596
858.597	4508
858.731	4584
858.864	4656
858.997	4599
859.13	4599
859.263	4622
859.396	4710
859.529	4531
859.662	4538
859.795	4538
859.928	4664
860.061	4755
860.194	4740
860.327	4573
860.46	4542
860.592	4679
860.725	4668
860.858	4717
860.99	4599
861.123	4554
861.256	4462
861.388	4607
861.521	5220
861.653	4493
861.786	4421
861.918	4428
862.05	4535
862.183	4527
862.315	4561
862.447	4664
862.58	4538
862.712	4424
862.844	4356
862.976	4447
863.108	4455
863.24	4885
863.372	4333
863.504	4390
863.636	4428
863.768	4504
863.9	4466
864.032	4329
864.164	4424
864.296	4481
864.428	4527
864.559	4577
864.691	4538
864.823	4489
864.954	4470
865.086	4489
865.217	4413
865.349	4390
865.48	4443
865.612	4504
865.743	4615
865.875	4478
866.006	4440
866.137	4451
866.269	4489
866.4	4413
866.531	4394
866.662	4386
866.793	4394
866.924	4402
867.055	4489
867.186	4390
867.317	4409
867.448	4360
867.579	4394
867.71	4352
867.841	4348
867.972	4405
868.103	4497
868.233	4405
868.364	4455
868.495	4440
868.625	4656
868.756	4752
868.886	4531
869.017	4603
869.147	4714
869.278	4698
869.408	4675
869.539	4607
869.669	4679
869.799	4618
869.929	4748
870.06	4752
870.19	4930
870.32	4904
870.45	4915
870.58	4995
870.71	5060
870.84	5075
870.97	4919
871.1	4892
871.23	5105
871.36	5052
871.489	5022
871.619	5098
871.749	5086
871.879	5090
872.008	5147
872.138	5010
872.267	4987
872.397	4835
872.526	4786
872.656	4755
872.785	4820
872.915	4904
873.044	4965
873.173	4892
873.303	4965
873.432	4957
873.561	4938
873.69	4839
873.819	4824
873.948	4915
874.077	4820
874.206	4744
874.335	4786
874.464	4900
874.593	5083
874.722	4953
874.851	5041
874.979	5060
875.108	5003
875.237	4862
875.365	4900
875.494	4877
875.623	4930
875.751	4843
875.88	4889
876.008	4976
876.136	5010
876.265	5170
876.393	5353
876.521	5265
876.65	5231
876.778	5201
876.906	5033
877.034	5010
877.162	5067
877.29	5014
877.418	5064
877.546	5041
877.674	5056
877.802	5048
877.93	5018
878.058	4953
878.185	4873
878.313	4968
878.441	4953
878.568	4828
878.696	4892
878.824	4927
878.951	4995
879.079	5178
879.206	5322
879.333	5128
879.461	4968
879.588	5003
879.715	5151
879.842	5212
879.97	5018
880.097	4782
880.224	4831
880.351	4793
880.478	4900
880.605	4824
880.732	4881
880.859	5083
880.986	4904
881.112	4889
881.239	4801
881.366	4736
881.493	4615
881.619	4622
881.746	4660
881.872	4694
881.999	4691
882.125	4649
882.252	4809
882.378	4828
882.505	4980
882.631	4839
882.757	4717
882.883	4759
883.01	4736
883.136	4725
883.262	4637
883.388	4660
883.514	4839
883.64	4908
883.766	4889
883.892	4691
884.018	4767
884.143	4911
884.269	5064
884.395	4740
884.52	4637
884.646	4679
884.772	4569
884.897	4599
885.023	4698
885.148	4820
885.274	4904
885.399	4816
885.524	4694
885.65	4710
885.775	4771
885.9	4774
886.025	4862
886.15	4820
886.275	4805
886.4	4729
886.525	4748
886.65	4733
886.775	4706
886.9	4873
887.025	5064
887.149	4866
887.274	4679
887.399	4592
887.523	4622
887.648	4637
887.773	4626
887.897	4828
888.021	4771
888.146	4714
888.27	4850
888.395	4923
888.519	4824
888.643	4854
888.767	4816
888.891	4656
889.015	4626
889.139	4714
889.263	4672
889.387	4782
889.511	4900
889.635	4850
889.759	4641
889.883	4660
890.006	4771
890.13	4870
890.254	4653
890.377	4721
890.501	4546
890.624	4508
890.748	4691
890.871	4580
890.995	4462
891.118	4375
891.241	4558
891.364	4542
891.488	4660
891.611	4550
891.734	4542
891.857	4615
891.98	4565
892.103	4683
892.226	4592
892.349	4565
892.471	4424
892.594	4577
892.717	4645
892.839	4603
892.962	4611
893.085	4710
893.207	4603
893.33	4485
893.452	4558
893.575	4641
893.697	4580
893.819	4801
893.941	4824
894.064	4782
894.186	4596
894.308	4679
894.43	4744
894.552	4866
894.674	4786
894.796	4546
894.918	4615
895.04	4577
895.161	4740
895.283	4740
895.405	4615
895.526	4664
895.648	4687
895.769	4733
895.891	4793
896.012	4778
896.134	4733
896.255	4679
896.376	4649
896.498	4683
896.619	4683
896.74	4653
896.861	4717
896.982	4911
897.103	5094
897.224	4877
897.345	4752
897.466	4710
897.587	4752
897.708	4847
897.828	4820
897.949	4672
898.07	4577
898.19	4664
898.311	4824
898.431	4645
898.552	4740
898.672	4862
898.792	4839
898.913	4755
899.033	4622
899.153	4485
899.273	4489
899.393	4516
899.513	4523
899.633	4493
899.753	4554
899.873	4504
899.993	4672
900.113	4546
900.232	4630
900.352	4550
900.472	4512
900.591	4402
900.711	4500
900.83	4493
900.95	4592
901.069	4687
901.189	4554
901.308	4413
901.427	4356
901.546	4405
901.665	4466
901.784	4508
901.904	4428
902.023	4371
902.141	4200
902.26	4196
902.379	4291
902.498	4284
902.617	4238
902.735	4360
902.854	4409
902.973	4344
903.091	4219
903.21	4242
903.328	4287
903.446	4310
903.565	4242
903.683	4371
903.801	4276
903.919	4424
904.038	4424
904.156	4344
904.274	4504
904.392	4386
904.51	4424
904.627	4493
904.745	4615
904.863	4694
904.981	4409
905.098	4398
905.216	4383
905.334	4459
905.451	4440
905.569	4470
905.686	4607
905.803	4599
905.921	4428
906.038	4573
906.155	4535
906.272	4440
906.389	4516
906.506	4379
906.623	4405
906.74	4417
906.857	4318
906.974	4375
907.091	4561
907.208	4702
907.324	4599
907.441	4519
907.557	4344
907.674	4390
907.79	4341
907.907	4417
908.023	4485
908.139	4462
908.256	4470
908.372	4481
908.488	4459
908.604	4390
908.72	4360
908.836	4409
908.952	4409
909.068	4424
909.184	4588
909.3	4523
909.415	4588
909.531	4561
909.647	4398
909.762	4383
909.878	4383
909.993	4489
910.108	4421
910.224	4428
910.339	4485
910.454	4466
910.57	4390
910.685	4337
910.8	4687
910.915	4611
911.03	4500
911.145	4375
911.259	4363
911.374	4348
911.489	4306
911.604	4306
911.718	4177
911.833	4230
911.947	4166
912.062	4055
912.176	4257
912.291	4257
912.405	4291
912.519	4504
912.633	4512
912.748	4409
912.862	4325
912.976	4234
913.09	4097
913.204	4177
913.318	4223
913.431	4390
913.545	4405
913.659	4466
913.772	4383
913.886	4284
914	4215
914.113	4367
914.226	4462
914.34	4383
914.453	4299
914.566	4447
914.68	4341
914.793	4333
914.906	4185
915.019	4158
915.132	4105
915.245	4173
915.358	4227
915.47	4261
915.583	4227
915.696	4329
915.809	4436
915.921	4417
916.034	4238
916.146	4265
916.259	4261
916.371	4409
916.483	4379
916.595	4268
916.708	4383
916.82	4360
916.932	4356
917.044	4356
917.156	4325
917.268	4234
917.38	4295
917.491	4230
917.603	4394
917.715	4421
917.826	4493
917.938	4371
918.049	4261
918.161	4383
918.272	4569
918.384	4531
918.495	4481
918.606	4306
918.717	4234
918.828	4394
918.939	4363
919.05	4280
919.161	4360
919.272	4166
919.383	4246
919.494	4500
919.604	4660
919.715	4481
919.826	4363
919.936	4447
920.047	4573
920.157	4485
920.267	4691
920.378	4596
920.488	4451
920.598	4797
920.708	4900
920.818	4744
920.928	4752
921.038	4938
921.148	4934
921.258	4694
921.368	4577
921.477	4481
921.587	4508
921.697	4394
921.806	4542
921.916	4443
922.025	4322
922.134	4291
922.244	4246
922.353	4394
922.462	4188
922.571	4097
922.68	3994
922.789	3998
922.898	4078
923.007	4032
923.116	4097
923.224	4059
923.333	4067
923.442	4040
923.55	3987
923.659	4029
923.767	4124
923.876	4048
923.984	4169
924.092	4013
924.201	4090
924.309	4162
924.417	4158
924.525	4078
924.633	4124
924.741	4881
924.849	3953
924.956	4082
925.064	3934
925.172	3880
925.279	3975
925.387	4051
925.494	4074
925.602	4223
925.709	4227
925.816	4036
925.924	4135
926.031	4280
926.138	4150
926.245	4257
926.352	4090
926.459	4329
926.566	4280
926.673	4188
926.779	4097
926.886	4147
926.993	4040
927.099	3972
927.206	3941
927.312	3945
927.419	4055
927.525	4059
927.631	4124
927.737	3964
927.843	3934
927.95	3854
928.056	3972
928.162	3998
928.267	4074
928.373	4706
928.479	4162
928.585	3869
928.69	4032
928.796	4036
928.901	3956
929.007	3876
929.112	4036
929.218	3994
929.323	3972
929.428	3937
929.533	4109
929.638	3880
929.743	3968
929.848	4055
929.953	4040
930.058	3949
930.163	3819
930.267	3823
930.372	4006
930.477	3854
930.581	4112
930.685	3960
930.79	3880
930.894	3949
930.998	3850
931.103	4021
931.207	3740
931.311	3686
931.415	3652
931.519	3572
931.623	3572
