Data from test_V78500241_2230.txt Node
Date: Fri Mar 25 17:04:30 CST 2022
User: usil
Spectrometer: V785-0024
Trigger mode: 0
Integration Time (sec): 4.000000E-1
Scans to average: 1
Nonlinearity correction enabled: false
Boxcar width: 0
Storing dark spectrum: false
XAxis mode: Wavelengths
Number of Pixels in Spectrum: 1024
>>>>>Begin Spectral Data<<<<<
801.071	8020
801.214	8035
801.356	7837
801.499	7864
801.641	7830
801.783	7799
801.926	7967
802.068	7936
802.211	8058
802.353	7970
802.496	7849
802.638	7898
802.78	7955
802.923	7894
803.065	7864
803.208	7856
803.35	7860
803.492	8073
803.635	8134
803.777	7993
803.919	8092
804.061	8461
804.204	8183
804.346	8039
804.488	7913
804.63	8081
804.773	7986
804.915	8138
805.057	8237
805.199	8180
805.341	8168
805.483	8324
805.626	8271
805.768	8111
805.91	8206
806.052	8206
806.194	8031
806.336	8279
806.478	8043
806.62	8012
806.762	8073
806.904	8256
807.046	8423
807.188	8351
807.33	8240
807.472	8298
807.614	8138
807.756	8119
807.898	7902
808.04	7887
808.182	7841
808.324	7845
808.465	7913
808.607	8039
808.749	8073
808.891	8214
809.033	8240
809.174	8195
809.316	8115
809.458	8103
809.6	8020
809.741	8027
809.883	7986
810.025	8084
810.166	8054
810.308	7982
810.45	8065
810.591	7845
810.733	7677
810.875	7662
811.016	7476
811.158	7464
811.299	7537
811.441	7636
811.582	7677
811.724	7582
811.865	7483
812.007	7449
812.148	7616
812.29	7578
812.431	7765
812.573	7917
812.714	7963
812.855	8145
812.997	8119
813.138	8305
813.279	8180
813.421	8069
813.562	7978
813.703	7875
813.845	7780
813.986	7441
814.127	7263
814.268	7232
814.41	7168
814.551	7103
814.692	7213
814.833	7072
814.974	7110
815.115	7072
815.256	6993
815.397	6920
815.539	7000
815.68	6821
815.821	6734
815.962	6882
816.103	6844
816.244	6673
816.385	6623
816.526	6555
816.666	6422
816.807	6304
816.948	6384
817.089	6395
817.23	6422
817.371	6369
817.512	6327
817.653	6384
817.793	6399
817.934	6376
818.075	6456
818.216	6441
818.356	6350
818.497	6323
818.638	6079
818.778	6155
818.919	6148
819.06	6159
819.2	6350
819.341	6289
819.481	6357
819.622	6555
819.762	6818
819.903	6665
820.043	6620
820.184	6570
820.324	6646
820.465	6669
820.605	6669
820.746	6677
820.886	6490
821.026	6707
821.167	6715
821.307	6798
821.447	6776
821.588	6681
821.728	6570
821.868	6513
822.008	6350
822.149	6334
822.289	6342
822.429	6194
822.569	6144
822.709	6129
822.849	5912
822.99	5931
823.13	5927
823.27	5977
823.41	5809
823.55	5767
823.69	5786
823.83	5821
823.97	5710
824.11	5604
824.25	5436
824.389	5615
824.529	5592
824.669	5543
824.809	5596
824.949	5718
825.089	5627
825.228	5608
825.368	5383
825.508	5414
825.648	5379
825.787	5383
825.927	5414
826.067	5326
826.206	5322
826.346	5360
826.485	5383
826.625	5455
826.765	5623
826.904	5459
827.044	5265
827.183	5250
827.323	5166
827.462	5265
827.601	5204
827.741	5193
827.88	5303
828.02	5189
828.159	5265
828.298	5345
828.437	5402
828.577	5337
828.716	5482
828.855	5357
828.994	5189
829.134	5197
829.273	5277
829.412	5201
829.551	5121
829.69	5227
829.829	5277
829.968	5391
830.107	5322
830.246	5277
830.385	5208
830.524	5181
830.663	5117
830.802	5010
830.941	4923
831.08	4923
831.219	5010
831.357	5052
831.496	5159
831.635	4946
831.774	4923
831.913	4870
832.051	4786
832.19	4816
832.329	4870
832.467	4725
832.606	4698
832.744	4763
832.883	4752
833.022	4710
833.16	4828
833.299	4843
833.437	4873
833.576	4881
833.714	4847
833.852	4889
833.991	4908
834.129	4995
834.267	5037
834.406	4968
834.544	5071
834.682	5052
834.821	5056
834.959	5181
835.097	5067
835.235	5147
835.373	5128
835.511	5170
835.65	5071
835.788	5079
835.926	4923
836.064	4938
836.202	4911
836.34	5204
836.478	5246
836.615	5185
836.753	5239
836.891	5299
837.029	5273
837.167	5246
837.305	5197
837.443	5197
837.58	5090
837.718	5261
837.856	5204
837.993	5220
838.131	5280
838.269	5265
838.406	5239
838.544	5170
838.681	5083
838.819	5079
838.956	4938
839.094	4942
839.231	5022
839.369	5090
839.506	5414
839.643	5303
839.781	5117
839.918	5037
840.055	5155
840.193	5136
840.33	5105
840.467	5155
840.604	5181
840.742	5520
840.879	5162
841.016	5117
841.153	5166
841.29	5398
841.427	5315
841.564	5334
841.701	5364
841.838	5284
841.975	5288
842.112	5284
842.249	5201
842.385	5162
842.522	5315
842.659	5166
842.796	5204
842.933	5258
843.069	5193
843.206	5189
843.343	5315
843.479	5261
843.616	5307
843.752	5006
843.889	5045
844.025	5265
844.162	5010
844.298	5208
844.435	5109
844.571	5064
844.708	5220
844.844	5398
844.98	5307
845.117	5341
845.253	5166
845.389	5105
845.525	5166
845.661	5124
845.798	5071
845.934	5159
846.07	5083
846.206	5246
846.342	5265
846.478	5216
846.614	5113
846.75	5060
846.886	4961
847.022	5124
847.158	4999
847.294	5105
847.429	5143
847.565	5060
847.701	5330
847.837	4877
847.972	4824
848.108	4980
848.244	4961
848.379	4816
848.515	4755
848.65	4763
848.786	4812
848.921	4809
849.057	4919
849.192	4911
849.328	4835
849.463	4904
849.598	4828
849.734	4786
849.869	4759
850.004	4664
850.14	4668
850.275	4592
850.41	4603
850.545	4584
850.68	4641
850.815	4645
850.95	4588
851.085	4873
851.22	4767
851.355	4736
851.49	4634
851.625	4679
851.76	4656
851.895	4535
852.03	4561
852.165	4698
852.299	4748
852.434	4801
852.569	4755
852.703	4820
852.838	4866
852.973	4904
853.107	4980
853.242	4793
853.376	4679
853.511	4592
853.645	4645
853.78	4850
853.914	4717
854.048	4679
854.183	4664
854.317	4736
854.451	4866
854.585	4691
854.72	4634
854.854	4748
854.988	4645
855.122	4637
855.256	4542
855.39	4721
855.524	4835
855.658	4755
855.792	4729
855.926	4748
856.06	4778
856.194	4866
856.327	4660
856.461	4630
856.595	4645
856.729	4649
856.862	4778
856.996	4763
857.13	4744
857.263	4790
857.397	4812
857.53	4706
857.664	4752
857.797	4805
857.931	4824
858.064	4675
858.197	4801
858.331	4675
858.464	4634
858.597	4535
858.731	4656
858.864	4645
858.997	4645
859.13	4687
859.263	4714
859.396	4733
859.529	4607
859.662	4569
859.795	4577
859.928	4611
860.061	4801
860.194	4736
860.327	4626
860.46	4630
860.592	4702
860.725	4733
860.858	4767
860.99	4588
861.123	4531
861.256	4535
861.388	4656
861.521	5341
861.653	4519
861.786	4481
861.918	4478
862.05	4500
862.183	4615
862.315	4580
862.447	4675
862.58	4546
862.712	4440
862.844	4360
862.976	4527
863.108	4516
863.24	4919
863.372	4390
863.504	4462
863.636	4451
863.768	4504
863.9	4516
864.032	4390
864.164	4470
864.296	4462
864.428	4577
864.559	4592
864.691	4558
864.823	4527
864.954	4504
865.086	4504
865.217	4474
865.349	4455
865.48	4470
865.612	4516
865.743	4675
865.875	4481
866.006	4447
866.137	4489
866.269	4443
866.4	4451
866.531	4470
866.662	4413
866.793	4466
866.924	4421
867.055	4516
867.186	4519
867.317	4451
867.448	4440
867.579	4383
867.71	4428
867.841	4386
867.972	4527
868.103	4470
868.233	4424
868.364	4497
868.495	4470
868.625	4706
868.756	4767
868.886	4596
869.017	4618
869.147	4801
869.278	4828
869.408	4687
869.539	4641
869.669	4710
869.799	4637
869.929	4771
870.06	4736
870.19	4949
870.32	4946
870.45	4968
870.58	5025
870.71	5064
870.84	5124
870.97	4976
871.1	4866
871.23	5151
871.36	5121
871.489	5113
871.619	5128
871.749	5132
871.879	5124
872.008	5170
872.138	5109
872.267	5025
872.397	4885
872.526	4839
872.656	4767
872.785	4805
872.915	4938
873.044	5075
873.173	4976
873.303	4984
873.432	4991
873.561	5018
873.69	4900
873.819	4892
873.948	4949
874.077	4858
874.206	4755
874.335	4824
874.464	4908
874.593	5060
874.722	4987
874.851	5067
874.979	5029
875.108	5083
875.237	4942
875.365	4889
875.494	4927
875.623	4953
875.751	4862
875.88	4908
876.008	4995
876.136	5060
876.265	5227
876.393	5360
876.521	5235
876.65	5216
876.778	5178
876.906	5060
877.034	5045
877.162	5048
877.29	4968
877.418	5098
877.546	5029
877.674	5060
877.802	5010
877.93	5071
878.058	4995
878.185	4927
878.313	4942
878.441	4980
878.568	4862
878.696	4854
878.824	4949
878.951	4961
879.079	5143
879.206	5280
879.333	5181
879.461	5010
879.588	5010
879.715	5151
879.842	5223
879.97	4984
880.097	4793
880.224	4771
880.351	4793
880.478	4816
880.605	4805
880.732	4755
880.859	5105
880.986	4961
881.112	4934
881.239	4828
881.366	4660
881.493	4626
881.619	4607
881.746	4596
881.872	4653
881.999	4653
882.125	4698
882.252	4790
882.378	4839
882.505	4987
882.631	4835
882.757	4694
882.883	4740
883.01	4733
883.136	4668
883.262	4603
883.388	4611
883.514	4835
883.64	4881
883.766	4805
883.892	4668
884.018	4759
884.143	4828
884.269	4972
884.395	4691
884.52	4626
884.646	4668
884.772	4580
884.897	4550
885.023	4675
885.148	4759
885.274	4892
885.399	4847
885.524	4710
885.65	4668
885.775	4801
885.9	4706
886.025	4858
886.15	4847
886.275	4740
886.4	4641
886.525	4763
886.65	4653
886.775	4706
886.9	4881
887.025	4995
887.149	4778
887.274	4668
887.399	4641
887.523	4615
887.648	4531
887.773	4615
887.897	4771
888.021	4801
888.146	4694
888.27	4809
888.395	4885
888.519	4771
888.643	4816
888.767	4847
888.891	4706
889.015	4618
889.139	4637
889.263	4584
889.387	4782
889.511	4847
889.635	4797
889.759	4679
889.883	4664
890.006	4725
890.13	4824
890.254	4584
890.377	4679
890.501	4569
890.624	4546
890.748	4656
890.871	4485
890.995	4398
891.118	4428
891.241	4538
891.364	4580
891.488	4683
891.611	4527
891.734	4569
891.857	4607
891.98	4569
892.103	4653
892.226	4626
892.349	4558
892.471	4436
892.594	4569
892.717	4596
892.839	4569
892.962	4603
893.085	4565
893.207	4603
893.33	4421
893.452	4527
893.575	4611
893.697	4592
893.819	4767
893.941	4892
894.064	4786
894.186	4603
894.308	4546
894.43	4752
894.552	4812
894.674	4767
894.796	4577
894.918	4618
895.04	4584
895.161	4702
895.283	4729
895.405	4622
895.526	4656
895.648	4710
895.769	4672
895.891	4748
896.012	4752
896.134	4675
896.255	4729
896.376	4691
896.498	4630
896.619	4641
896.74	4634
896.861	4645
896.982	4923
897.103	5102
897.224	4858
897.345	4740
897.466	4710
897.587	4725
897.708	4786
897.828	4820
897.949	4660
898.07	4580
898.19	4645
898.311	4831
898.431	4675
898.552	4752
898.672	4812
898.792	4850
898.913	4782
899.033	4664
899.153	4538
899.273	4455
899.393	4527
899.513	4523
899.633	4519
899.753	4565
899.873	4500
899.993	4592
900.113	4512
900.232	4596
900.352	4573
900.472	4493
900.591	4424
900.711	4489
900.83	4413
900.95	4656
901.069	4691
901.189	4554
901.308	4424
901.427	4367
901.546	4398
901.665	4523
901.784	4546
901.904	4455
902.023	4310
902.141	4192
902.26	4154
902.379	4348
902.498	4238
902.617	4158
902.735	4341
902.854	4398
902.973	4371
903.091	4238
903.21	4238
903.328	4337
903.446	4219
903.565	4238
903.683	4367
903.801	4295
903.919	4379
904.038	4424
904.156	4341
904.274	4432
904.392	4352
904.51	4402
904.627	4447
904.745	4573
904.863	4656
904.981	4417
905.098	4303
905.216	4337
905.334	4390
905.451	4455
905.569	4462
905.686	4599
905.803	4538
905.921	4379
906.038	4531
906.155	4516
906.272	4443
906.389	4481
906.506	4352
906.623	4352
906.74	4409
906.857	4268
906.974	4363
907.091	4584
907.208	4714
907.324	4592
907.441	4485
907.557	4360
907.674	4375
907.79	4383
907.907	4440
908.023	4459
908.139	4504
908.256	4447
908.372	4470
908.488	4489
908.604	4306
908.72	4363
908.836	4409
908.952	4352
909.068	4443
909.184	4519
909.3	4497
909.415	4596
909.531	4542
909.647	4363
909.762	4405
909.878	4341
909.993	4470
910.108	4443
910.224	4417
910.339	4523
910.454	4367
910.57	4383
910.685	4325
910.8	4611
910.915	4550
911.03	4516
911.145	4322
911.259	4352
911.374	4360
911.489	4295
911.604	4287
911.718	4120
911.833	4242
911.947	4040
912.062	4059
912.176	4223
912.291	4246
912.405	4249
912.519	4421
912.633	4523
912.748	4333
912.862	4284
912.976	4249
913.09	4135
913.204	4173
913.318	4291
913.431	4394
913.545	4402
913.659	4440
913.772	4367
913.886	4291
914	4246
914.113	4394
914.226	4470
914.34	4405
914.453	4211
914.566	4474
914.68	4295
914.793	4314
914.906	4124
915.019	4143
915.132	4093
915.245	4150
915.358	4196
915.47	4200
915.583	4299
915.696	4287
915.809	4383
915.921	4421
916.034	4211
916.146	4284
916.259	4185
916.371	4352
916.483	4344
916.595	4276
916.708	4352
916.82	4333
916.932	4291
917.044	4337
917.156	4333
917.268	4249
917.38	4299
917.491	4272
917.603	4344
917.715	4409
917.826	4443
917.938	4390
918.049	4211
918.161	4455
918.272	4554
918.384	4535
918.495	4451
918.606	4303
918.717	4227
918.828	4344
918.939	4344
919.05	4276
919.161	4341
919.272	4093
919.383	4192
919.494	4424
919.604	4637
919.715	4459
919.826	4348
919.936	4405
920.047	4481
920.157	4516
920.267	4736
920.378	4554
920.488	4531
920.598	4714
920.708	4862
920.818	4736
920.928	4767
921.038	4923
921.148	4934
921.258	4626
921.368	4558
921.477	4493
921.587	4485
921.697	4352
921.806	4577
921.916	4421
922.025	4272
922.134	4272
922.244	4200
922.353	4352
922.462	4223
922.571	4112
922.68	4006
922.789	3960
922.898	4032
923.007	3975
923.116	4097
923.224	4074
923.333	4082
923.442	3998
923.55	4002
923.659	4017
923.767	4112
923.876	3987
923.984	4120
924.092	4025
924.201	4101
924.309	4109
924.417	4120
924.525	4040
924.633	4093
924.741	5041
924.849	3934
924.956	4116
925.064	3960
925.172	3907
925.279	4013
925.387	4025
925.494	4013
925.602	4185
925.709	4154
925.816	4051
925.924	4120
926.031	4207
926.138	4181
926.245	4204
926.352	4105
926.459	4246
926.566	4287
926.673	4150
926.779	4097
926.886	4010
926.993	3979
927.099	3983
927.206	3922
927.312	3915
927.419	4059
927.525	4021
927.631	4093
927.737	3987
927.843	3953
927.95	3842
928.056	3930
928.162	3998
928.267	4010
928.373	4694
928.479	4112
928.585	3892
928.69	4017
928.796	4082
928.901	3991
929.007	3876
929.112	3964
929.218	3975
929.323	3926
929.428	3896
929.533	4120
929.638	3907
929.743	3994
929.848	4017
929.953	3994
930.058	3884
930.163	3797
930.267	3835
930.372	4010
930.477	3804
930.581	4051
930.685	3934
930.79	3827
930.894	3888
930.998	3854
931.103	4048
931.207	3724
931.311	3720
931.415	3690
931.519	3538
931.623	3526
