Data from test_V78500241_346.txt Node
Date: Fri Mar 25 16:51:24 CST 2022
User: usil
Spectrometer: V785-0024
Trigger mode: 0
Integration Time (sec): 4.000000E-1
Scans to average: 1
Nonlinearity correction enabled: false
Boxcar width: 0
Storing dark spectrum: false
XAxis mode: Wavelengths
Number of Pixels in Spectrum: 1024
>>>>>Begin Spectral Data<<<<<
801.071	8130
801.214	8054
801.356	7902
801.499	7913
801.641	7856
801.783	7868
801.926	8020
802.068	7974
802.211	8077
802.353	8081
802.496	7868
802.638	8005
802.78	8012
802.923	7936
803.065	7925
803.208	7890
803.35	8024
803.492	8111
803.635	8123
803.777	8027
803.919	8149
804.061	8423
804.204	8058
804.346	8058
804.488	8027
804.63	8100
804.773	7967
804.915	8119
805.057	8328
805.199	8153
805.341	8248
805.483	8294
805.626	8149
805.768	8084
805.91	8130
806.052	8199
806.194	8039
806.336	8336
806.478	8187
806.62	8123
806.762	8180
806.904	8313
807.046	8438
807.188	8351
807.33	8324
807.472	8305
807.614	8176
807.756	8073
807.898	8054
808.04	7921
808.182	8005
808.324	7936
808.465	7978
808.607	8088
808.749	8176
808.891	8187
809.033	8279
809.174	8229
809.316	7997
809.458	7989
809.6	8031
809.741	8043
809.883	8008
810.025	8092
810.166	8077
810.308	8058
810.45	8020
810.591	7849
810.733	7807
810.875	7643
811.016	7548
811.158	7434
811.299	7670
811.441	7814
811.582	7719
811.724	7651
811.865	7624
812.007	7647
812.148	7616
812.29	7689
812.431	7772
812.573	7898
812.714	7921
812.855	8202
812.997	8187
813.138	8343
813.279	8145
813.421	8119
813.562	8008
813.703	7921
813.845	7757
813.986	7483
814.127	7289
814.268	7217
814.41	7206
814.551	7114
814.692	7179
814.833	7118
814.974	7114
815.115	7107
815.256	6897
815.397	6924
815.539	7004
815.68	6741
815.821	6779
815.962	6924
816.103	6840
816.244	6753
816.385	6646
816.526	6627
816.666	6502
816.807	6323
816.948	6506
817.089	6464
817.23	6410
817.371	6437
817.512	6388
817.653	6308
817.793	6327
817.934	6384
818.075	6391
818.216	6479
818.356	6403
818.497	6216
818.638	6163
818.778	6178
818.919	6190
819.06	6114
819.2	6365
819.341	6327
819.481	6342
819.622	6559
819.762	6703
819.903	6696
820.043	6593
820.184	6620
820.324	6578
820.465	6642
820.605	6711
820.746	6684
820.886	6506
821.026	6722
821.167	6738
821.307	6768
821.447	6779
821.588	6677
821.728	6608
821.868	6506
822.008	6346
822.149	6410
822.289	6448
822.429	6228
822.569	6072
822.709	6152
822.849	5988
822.99	5927
823.13	5965
823.27	5931
823.41	5821
823.55	5859
823.69	5794
823.83	5798
823.97	5741
824.11	5570
824.25	5611
824.389	5642
824.529	5611
824.669	5589
824.809	5619
824.949	5653
825.089	5672
825.228	5604
825.368	5383
825.508	5364
825.648	5360
825.787	5467
825.927	5448
826.067	5444
826.206	5360
826.346	5425
826.485	5440
826.625	5429
826.765	5535
826.904	5535
827.044	5299
827.183	5277
827.323	5204
827.462	5318
827.601	5178
827.741	5254
827.88	5273
828.02	5140
828.159	5273
828.298	5349
828.437	5417
828.577	5292
828.716	5532
828.855	5395
828.994	5189
829.134	5178
829.273	5246
829.412	5185
829.551	5193
829.69	5220
829.829	5273
829.968	5467
830.107	5341
830.246	5341
830.385	5273
830.524	5174
830.663	5155
830.802	5029
830.941	4904
831.08	4976
831.219	5075
831.357	4995
831.496	5254
831.635	4957
831.774	4923
831.913	4889
832.051	4805
832.19	4801
832.329	4942
832.467	4733
832.606	4641
832.744	4733
832.883	4805
833.022	4786
833.16	4839
833.299	4850
833.437	4896
833.576	4839
833.714	4968
833.852	4839
833.991	4942
834.129	4976
834.267	4991
834.406	4991
834.544	5052
834.682	4984
834.821	5010
834.959	5204
835.097	5010
835.235	5140
835.373	5121
835.511	5128
835.65	5117
835.788	5025
835.926	4961
836.064	4953
836.202	5010
836.34	5193
836.478	5277
836.615	5178
836.753	5246
836.891	5334
837.029	5326
837.167	5189
837.305	5204
837.443	5185
837.58	5098
837.718	5288
837.856	5269
837.993	5220
838.131	5265
838.269	5250
838.406	5242
838.544	5223
838.681	5064
838.819	5056
838.956	4968
839.094	4957
839.231	4995
839.369	5102
839.506	5440
839.643	5360
839.781	5124
839.918	5079
840.055	5113
840.193	5109
840.33	5086
840.467	5140
840.604	5254
840.742	5490
840.879	5162
841.016	5185
841.153	5220
841.29	5414
841.427	5315
841.564	5341
841.701	5410
841.838	5292
841.975	5315
842.112	5315
842.249	5174
842.385	5140
842.522	5345
842.659	5216
842.796	5227
842.933	5265
843.069	5189
843.206	5212
843.343	5337
843.479	5265
843.616	5269
843.752	5121
843.889	5022
844.025	5258
844.162	5128
844.298	5250
844.435	5083
844.571	5056
844.708	5284
844.844	5383
844.98	5395
845.117	5318
845.253	5136
845.389	5086
845.525	5250
845.661	5193
845.798	5052
845.934	5181
846.07	5029
846.206	5227
846.342	5303
846.478	5181
846.614	5067
846.75	5022
846.886	4991
847.022	5166
847.158	5029
847.294	5113
847.429	5113
847.565	5121
847.701	5349
847.837	4881
847.972	4820
848.108	5033
848.244	4980
848.379	4816
848.515	4797
848.65	4752
848.786	4767
848.921	4809
849.057	4953
849.192	4961
849.328	4854
849.463	4873
849.598	4805
849.734	4820
849.869	4721
850.004	4679
850.14	4672
850.275	4622
850.41	4626
850.545	4603
850.68	4656
850.815	4721
850.95	4691
851.085	4843
851.22	4752
851.355	4668
851.49	4615
851.625	4664
851.76	4668
851.895	4577
852.03	4550
852.165	4694
852.299	4752
852.434	4850
852.569	4816
852.703	4816
852.838	4858
852.973	4980
853.107	5022
853.242	4771
853.376	4691
853.511	4603
853.645	4683
853.78	4812
853.914	4702
854.048	4710
854.183	4668
854.317	4733
854.451	4858
854.585	4675
854.72	4664
854.854	4752
854.988	4637
855.122	4664
855.256	4565
855.39	4679
855.524	4839
855.658	4774
855.792	4744
855.926	4763
856.06	4790
856.194	4854
856.327	4744
856.461	4664
856.595	4634
856.729	4672
856.862	4816
856.996	4740
857.13	4786
857.263	4835
857.397	4809
857.53	4664
857.664	4801
857.797	4786
857.931	4812
858.064	4767
858.197	4793
858.331	4736
858.464	4698
858.597	4538
858.731	4706
858.864	4664
858.997	4596
859.13	4706
859.263	4740
859.396	4759
859.529	4618
859.662	4592
859.795	4542
859.928	4607
860.061	4820
860.194	4843
860.327	4668
860.46	4592
860.592	4767
860.725	4736
860.858	4767
860.99	4626
861.123	4538
861.256	4550
861.388	4618
861.521	5326
861.653	4516
861.786	4485
861.918	4478
862.05	4565
862.183	4577
862.315	4618
862.447	4675
862.58	4554
862.712	4402
862.844	4337
862.976	4558
863.108	4489
863.24	4828
863.372	4371
863.504	4470
863.636	4390
863.768	4523
863.9	4470
864.032	4413
864.164	4451
864.296	4500
864.428	4599
864.559	4618
864.691	4558
864.823	4573
864.954	4519
865.086	4561
865.217	4516
865.349	4455
865.48	4489
865.612	4580
865.743	4649
865.875	4497
866.006	4466
866.137	4542
866.269	4455
866.4	4489
866.531	4428
866.662	4402
866.793	4451
866.924	4462
867.055	4500
867.186	4443
867.317	4447
867.448	4440
867.579	4447
867.71	4383
867.841	4417
867.972	4485
868.103	4466
868.233	4440
868.364	4489
868.495	4546
868.625	4679
868.756	4771
868.886	4599
869.017	4656
869.147	4763
869.278	4786
869.408	4691
869.539	4668
869.669	4736
869.799	4691
869.929	4805
870.06	4763
870.19	4984
870.32	4980
870.45	4949
870.58	5056
870.71	5121
870.84	5117
870.97	4904
871.1	4927
871.23	5162
871.36	5166
871.489	5045
871.619	5109
871.749	5105
871.879	5170
872.008	5239
872.138	5083
872.267	4949
872.397	4900
872.526	4873
872.656	4721
872.785	4854
872.915	4957
873.044	5041
873.173	4976
873.303	5006
873.432	4938
873.561	4999
873.69	4923
873.819	4900
873.948	4968
874.077	4831
874.206	4782
874.335	4820
874.464	4930
874.593	5060
874.722	4953
874.851	5132
874.979	5124
875.108	5086
875.237	4930
875.365	4915
875.494	4919
875.623	4972
875.751	4900
875.88	4949
876.008	5014
876.136	5090
876.265	5250
876.393	5353
876.521	5284
876.65	5189
876.778	5189
876.906	5075
877.034	5033
877.162	5075
877.29	5022
877.418	5052
877.546	5071
877.674	5029
877.802	5086
877.93	4995
878.058	4972
878.185	4904
878.313	4984
878.441	4991
878.568	4820
878.696	4892
878.824	4999
878.951	5037
879.079	5109
879.206	5315
879.333	5121
879.461	4984
879.588	5041
879.715	5086
879.842	5242
879.97	4961
880.097	4847
880.224	4771
880.351	4793
880.478	4881
880.605	4820
880.732	4824
880.859	5086
880.986	4908
881.112	4961
881.239	4797
881.366	4691
881.493	4626
881.619	4607
881.746	4691
881.872	4710
881.999	4679
882.125	4675
882.252	4820
882.378	4801
882.505	4976
882.631	4809
882.757	4683
882.883	4759
883.01	4771
883.136	4702
883.262	4675
883.388	4653
883.514	4866
883.64	4873
883.766	4824
883.892	4706
884.018	4725
884.143	4923
884.269	5025
884.395	4694
884.52	4637
884.646	4702
884.772	4569
884.897	4573
885.023	4702
885.148	4786
885.274	4923
885.399	4847
885.524	4721
885.65	4748
885.775	4736
885.9	4714
886.025	4858
886.15	4797
886.275	4736
886.4	4664
886.525	4748
886.65	4710
886.775	4702
886.9	4892
887.025	5045
887.149	4839
887.274	4668
887.399	4626
887.523	4653
887.648	4588
887.773	4596
887.897	4816
888.021	4824
888.146	4714
888.27	4816
888.395	4949
888.519	4835
888.643	4843
888.767	4854
888.891	4672
889.015	4668
889.139	4656
889.263	4656
889.387	4725
889.511	4873
889.635	4877
889.759	4630
889.883	4637
890.006	4744
890.13	4824
890.254	4622
890.377	4710
890.501	4580
890.624	4569
890.748	4660
890.871	4493
890.995	4459
891.118	4432
891.241	4577
891.364	4565
891.488	4706
891.611	4504
891.734	4565
891.857	4607
891.98	4580
892.103	4675
892.226	4615
892.349	4599
892.471	4424
892.594	4584
892.717	4634
892.839	4573
892.962	4596
893.085	4660
893.207	4626
893.33	4459
893.452	4538
893.575	4679
893.697	4577
893.819	4820
893.941	4831
894.064	4740
894.186	4618
894.308	4637
894.43	4733
894.552	4885
894.674	4774
894.796	4535
894.918	4618
895.04	4603
895.161	4706
895.283	4664
895.405	4580
895.526	4637
895.648	4668
895.769	4710
895.891	4740
896.012	4759
896.134	4759
896.255	4660
896.376	4668
896.498	4622
896.619	4694
896.74	4675
896.861	4649
896.982	4987
897.103	5064
897.224	4797
897.345	4771
897.466	4725
897.587	4755
897.708	4850
897.828	4873
897.949	4687
898.07	4584
898.19	4634
898.311	4824
898.431	4694
898.552	4767
898.672	4778
898.792	4839
898.913	4721
899.033	4626
899.153	4542
899.273	4409
899.393	4538
899.513	4546
899.633	4550
899.753	4523
899.873	4512
899.993	4641
900.113	4558
900.232	4611
900.352	4504
900.472	4527
900.591	4436
900.711	4523
900.83	4466
900.95	4622
901.069	4702
901.189	4618
901.308	4405
901.427	4314
901.546	4421
901.665	4493
901.784	4497
901.904	4402
902.023	4348
902.141	4177
902.26	4139
902.379	4329
902.498	4303
902.617	4196
902.735	4409
902.854	4417
902.973	4352
903.091	4230
903.21	4234
903.328	4333
903.446	4272
903.565	4314
903.683	4344
903.801	4291
903.919	4402
904.038	4478
904.156	4299
904.274	4428
904.392	4440
904.51	4428
904.627	4462
904.745	4611
904.863	4607
904.981	4352
905.098	4356
905.216	4363
905.334	4421
905.451	4459
905.569	4451
905.686	4592
905.803	4538
905.921	4432
906.038	4584
906.155	4504
906.272	4421
906.389	4459
906.506	4360
906.623	4394
906.74	4428
906.857	4333
906.974	4413
907.091	4561
907.208	4660
907.324	4592
907.441	4542
907.557	4390
907.674	4356
907.79	4318
907.907	4398
908.023	4497
908.139	4443
908.256	4424
908.372	4508
908.488	4466
908.604	4371
908.72	4344
908.836	4390
908.952	4405
909.068	4417
909.184	4550
909.3	4500
909.415	4599
909.531	4542
909.647	4348
909.762	4375
909.878	4314
909.993	4459
910.108	4409
910.224	4421
910.339	4474
910.454	4421
910.57	4310
910.685	4299
910.8	4702
910.915	4584
911.03	4538
911.145	4341
911.259	4329
911.374	4379
911.489	4314
911.604	4306
911.718	4116
911.833	4181
911.947	4105
912.062	4025
912.176	4219
912.291	4253
912.405	4291
912.519	4489
912.633	4512
912.748	4344
912.862	4333
912.976	4204
913.09	4086
913.204	4196
913.318	4246
913.431	4352
913.545	4390
913.659	4462
913.772	4375
913.886	4272
914	4246
914.113	4398
914.226	4546
914.34	4390
914.453	4265
914.566	4447
914.68	4337
914.793	4318
914.906	4192
915.019	4154
915.132	4074
915.245	4154
915.358	4261
915.47	4238
915.583	4261
915.696	4280
915.809	4440
915.921	4398
916.034	4238
916.146	4227
916.259	4200
916.371	4363
916.483	4386
916.595	4238
916.708	4306
916.82	4363
916.932	4325
917.044	4314
917.156	4325
917.268	4253
917.38	4287
917.491	4287
917.603	4348
917.715	4386
917.826	4474
917.938	4363
918.049	4268
918.161	4402
918.272	4538
918.384	4481
918.495	4421
918.606	4303
918.717	4238
918.828	4352
918.939	4379
919.05	4253
919.161	4337
919.272	4173
919.383	4303
919.494	4470
919.604	4645
919.715	4451
919.826	4367
919.936	4402
920.047	4538
920.157	4504
920.267	4702
920.378	4516
920.488	4538
920.598	4687
920.708	4873
920.818	4771
920.928	4778
921.038	4942
921.148	4911
921.258	4618
921.368	4584
921.477	4519
921.587	4462
921.697	4390
921.806	4565
921.916	4432
922.025	4261
922.134	4280
922.244	4234
922.353	4310
922.462	4196
922.571	4139
922.68	4036
922.789	3983
922.898	4040
923.007	4010
923.116	4173
923.224	4063
923.333	4051
923.442	4040
923.55	3991
923.659	4036
923.767	4105
923.876	4032
923.984	4169
924.092	4021
924.201	4074
924.309	4086
924.417	4139
924.525	4067
924.633	4109
924.741	4915
924.849	3911
924.956	4139
925.064	3979
925.172	3945
925.279	3960
925.387	4067
925.494	4074
925.602	4204
925.709	4162
925.816	4044
925.924	4177
926.031	4261
926.138	4204
926.245	4188
926.352	4109
926.459	4246
926.566	4341
926.673	4211
926.779	4120
926.886	4063
926.993	3987
927.099	3991
927.206	3972
927.312	3972
927.419	4051
927.525	4017
927.631	4097
927.737	3975
927.843	4010
927.95	3831
928.056	3953
928.162	4013
928.267	4044
928.373	4721
928.479	4147
928.585	3869
928.69	4013
928.796	4063
928.901	3945
929.007	3854
929.112	4013
929.218	3998
929.323	4002
929.428	3918
929.533	4093
929.638	3907
929.743	3968
929.848	4055
929.953	4006
930.058	3934
930.163	3808
930.267	3865
930.372	4010
930.477	3823
930.581	4078
930.685	3953
930.79	3835
930.894	3896
930.998	3865
931.103	4036
931.207	3720
931.311	3705
931.415	3675
931.519	3496
931.623	3557
