Data from test_V78500241_2477.txt Node
Date: Fri Mar 25 17:06:13 CST 2022
User: usil
Spectrometer: V785-0024
Trigger mode: 0
Integration Time (sec): 4.000000E-1
Scans to average: 1
Nonlinearity correction enabled: false
Boxcar width: 0
Storing dark spectrum: false
XAxis mode: Wavelengths
Number of Pixels in Spectrum: 1024
>>>>>Begin Spectral Data<<<<<
801.071	7947
801.214	7921
801.356	7845
801.499	7871
801.641	7757
801.783	7792
801.926	8020
802.068	7883
802.211	7955
802.353	7951
802.496	7860
802.638	7852
802.78	7951
802.923	7928
803.065	7807
803.208	7879
803.35	7894
803.492	8046
803.635	8134
803.777	8035
803.919	8130
804.061	8389
804.204	8191
804.346	8073
804.488	7986
804.63	8088
804.773	7940
804.915	8111
805.057	8259
805.199	8157
805.341	8180
805.483	8233
805.626	8282
805.768	8168
805.91	8191
806.052	8176
806.194	8050
806.336	8237
806.478	8073
806.62	8069
806.762	8065
806.904	8252
807.046	8457
807.188	8336
807.33	8313
807.472	8286
807.614	8153
807.756	8164
807.898	8054
808.04	7879
808.182	7879
808.324	7890
808.465	7868
808.607	8103
808.749	8043
808.891	8202
809.033	8294
809.174	8282
809.316	8134
809.458	8016
809.6	7989
809.741	8027
809.883	8065
810.025	8081
810.166	8031
810.308	7989
810.45	7982
810.591	7963
810.733	7765
810.875	7658
811.016	7567
811.158	7449
811.299	7533
811.441	7696
811.582	7704
811.724	7590
811.865	7537
812.007	7681
812.148	7582
812.29	7651
812.431	7742
812.573	7841
812.714	8005
812.855	8157
812.997	8206
813.138	8275
813.279	8157
813.421	8084
813.562	7909
813.703	7883
813.845	7814
813.986	7430
814.127	7282
814.268	7171
814.41	7206
814.551	7168
814.692	7282
814.833	7099
814.974	7069
815.115	7095
815.256	6981
815.397	6939
815.539	6943
815.68	6814
815.821	6798
815.962	6848
816.103	6848
816.244	6719
816.385	6593
816.526	6601
816.666	6494
816.807	6346
816.948	6464
817.089	6486
817.23	6422
817.371	6414
817.512	6403
817.653	6464
817.793	6372
817.934	6323
818.075	6452
818.216	6407
818.356	6410
818.497	6304
818.638	6144
818.778	6125
818.919	6178
819.06	6087
819.2	6384
819.341	6384
819.481	6395
819.622	6540
819.762	6707
819.903	6639
820.043	6604
820.184	6555
820.324	6570
820.465	6681
820.605	6684
820.746	6631
820.886	6551
821.026	6662
821.167	6707
821.307	6791
821.447	6791
821.588	6642
821.728	6585
821.868	6536
822.008	6353
822.149	6414
822.289	6334
822.429	6201
822.569	6140
822.709	6117
822.849	5855
822.99	5912
823.13	5954
823.27	5954
823.41	5790
823.55	5836
823.69	5783
823.83	5817
823.97	5649
824.11	5589
824.25	5467
824.389	5562
824.529	5592
824.669	5619
824.809	5638
824.949	5627
825.089	5611
825.228	5604
825.368	5387
825.508	5376
825.648	5322
825.787	5296
825.927	5364
826.067	5242
826.206	5280
826.346	5391
826.485	5368
826.625	5357
826.765	5573
826.904	5455
827.044	5254
827.183	5193
827.323	5086
827.462	5235
827.601	5201
827.741	5181
827.88	5269
828.02	5075
828.159	5204
828.298	5341
828.437	5436
828.577	5280
828.716	5463
828.855	5337
828.994	5155
829.134	5181
829.273	5204
829.412	5109
829.551	5124
829.69	5189
829.829	5258
829.968	5341
830.107	5296
830.246	5242
830.385	5174
830.524	5113
830.663	5079
830.802	4976
830.941	4866
831.08	4885
831.219	4965
831.357	5003
831.496	5098
831.635	4896
831.774	4801
831.913	4866
832.051	4698
832.19	4763
832.329	4828
832.467	4675
832.606	4660
832.744	4725
832.883	4717
833.022	4717
833.16	4850
833.299	4820
833.437	4831
833.576	4793
833.714	4881
833.852	4828
833.991	4873
834.129	4976
834.267	4976
834.406	4919
834.544	4999
834.682	4942
834.821	5003
834.959	5140
835.097	4968
835.235	5067
835.373	5067
835.511	5128
835.65	5029
835.788	5025
835.926	4896
836.064	4889
836.202	4885
836.34	5174
836.478	5204
836.615	5117
836.753	5185
836.891	5292
837.029	5292
837.167	5212
837.305	5181
837.443	5147
837.58	5067
837.718	5246
837.856	5181
837.993	5128
838.131	5235
838.269	5181
838.406	5212
838.544	5227
838.681	5025
838.819	5003
838.956	4911
839.094	4927
839.231	4968
839.369	5109
839.506	5425
839.643	5189
839.781	5113
839.918	4995
840.055	5124
840.193	5075
840.33	5083
840.467	5132
840.604	5162
840.742	5467
840.879	5056
841.016	5128
841.153	5117
841.29	5368
841.427	5311
841.564	5330
841.701	5326
841.838	5277
841.975	5239
842.112	5280
842.249	5094
842.385	5113
842.522	5341
842.659	5105
842.796	5094
842.933	5151
843.069	5166
843.206	5132
843.343	5307
843.479	5250
843.616	5246
843.752	5003
843.889	5075
844.025	5227
844.162	5014
844.298	5216
844.435	5136
844.571	5022
844.708	5204
844.844	5296
844.98	5273
845.117	5330
845.253	5143
845.389	5025
845.525	5155
845.661	5140
845.798	5067
845.934	5128
846.07	5056
846.206	5212
846.342	5239
846.478	5181
846.614	5045
846.75	4946
846.886	4858
847.022	5132
847.158	5033
847.294	5094
847.429	5094
847.565	5022
847.701	5368
847.837	4862
847.972	4831
848.108	4976
848.244	4889
848.379	4782
848.515	4714
848.65	4668
848.786	4774
848.921	4774
849.057	4858
849.192	4881
849.328	4873
849.463	4839
849.598	4733
849.734	4752
849.869	4698
850.004	4603
850.14	4683
850.275	4592
850.41	4538
850.545	4554
850.68	4607
850.815	4653
850.95	4626
851.085	4824
851.22	4710
851.355	4660
851.49	4607
851.625	4630
851.76	4641
851.895	4550
852.03	4512
852.165	4668
852.299	4771
852.434	4793
852.569	4740
852.703	4767
852.838	4847
852.973	4930
853.107	4934
853.242	4706
853.376	4641
853.511	4527
853.645	4615
853.78	4812
853.914	4672
854.048	4653
854.183	4622
854.317	4687
854.451	4820
854.585	4649
854.72	4641
854.854	4717
854.988	4588
855.122	4641
855.256	4550
855.39	4672
855.524	4797
855.658	4706
855.792	4664
855.926	4710
856.06	4717
856.194	4816
856.327	4694
856.461	4607
856.595	4584
856.729	4645
856.862	4782
856.996	4630
857.13	4729
857.263	4763
857.397	4774
857.53	4656
857.664	4733
857.797	4763
857.931	4740
858.064	4656
858.197	4752
858.331	4656
858.464	4599
858.597	4519
858.731	4596
858.864	4630
858.997	4558
859.13	4653
859.263	4660
859.396	4656
859.529	4637
859.662	4565
859.795	4512
859.928	4603
860.061	4740
860.194	4736
860.327	4611
860.46	4550
860.592	4740
860.725	4706
860.858	4672
860.99	4554
861.123	4459
861.256	4512
861.388	4645
861.521	5231
861.653	4489
861.786	4447
861.918	4493
862.05	4508
862.183	4478
862.315	4565
862.447	4672
862.58	4531
862.712	4375
862.844	4318
862.976	4432
863.108	4485
863.24	4831
863.372	4375
863.504	4386
863.636	4379
863.768	4440
863.9	4402
864.032	4371
864.164	4417
864.296	4508
864.428	4538
864.559	4588
864.691	4519
864.823	4558
864.954	4462
865.086	4500
865.217	4519
865.349	4436
865.48	4440
865.612	4451
865.743	4603
865.875	4455
866.006	4402
866.137	4462
866.269	4424
866.4	4432
866.531	4417
866.662	4363
866.793	4417
866.924	4402
867.055	4466
867.186	4409
867.317	4424
867.448	4390
867.579	4363
867.71	4398
867.841	4390
867.972	4432
868.103	4485
868.233	4443
868.364	4421
868.495	4508
868.625	4645
868.756	4790
868.886	4577
869.017	4599
869.147	4755
869.278	4725
869.408	4664
869.539	4649
869.669	4729
869.799	4675
869.929	4801
870.06	4721
870.19	4915
870.32	4946
870.45	4976
870.58	5025
870.71	5102
870.84	5109
870.97	4904
871.1	4850
871.23	5113
871.36	5117
871.489	5064
871.619	5029
871.749	5105
871.879	5140
872.008	5162
872.138	5056
872.267	4961
872.397	4793
872.526	4767
872.656	4717
872.785	4835
872.915	4908
873.044	5041
873.173	4877
873.303	4949
873.432	4949
873.561	4911
873.69	4839
873.819	4843
873.948	4870
874.077	4809
874.206	4748
874.335	4797
874.464	4885
874.593	4999
874.722	4915
874.851	5075
874.979	5064
875.108	4984
875.237	4904
875.365	4927
875.494	4957
875.623	4991
875.751	4858
875.88	4896
876.008	4972
876.136	4991
876.265	5151
876.393	5265
876.521	5284
876.65	5254
876.778	5166
876.906	5086
877.034	4991
877.162	5041
877.29	5003
877.418	5060
877.546	5037
877.674	5052
877.802	5090
877.93	5010
878.058	4942
878.185	4881
878.313	4984
878.441	4961
878.568	4782
878.696	4900
878.824	4953
878.951	4972
879.079	5185
879.206	5353
879.333	5113
879.461	5010
879.588	5025
879.715	5151
879.842	5273
879.97	4980
880.097	4797
880.224	4763
880.351	4873
880.478	4908
880.605	4828
880.732	4831
880.859	5075
880.986	4919
881.112	4900
881.239	4782
881.366	4714
881.493	4698
881.619	4637
881.746	4634
881.872	4668
881.999	4668
882.125	4717
882.252	4778
882.378	4839
882.505	4995
882.631	4801
882.757	4721
882.883	4774
883.01	4801
883.136	4683
883.262	4668
883.388	4694
883.514	4858
883.64	4896
883.766	4866
883.892	4729
884.018	4767
884.143	4957
884.269	5079
884.395	4721
884.52	4691
884.646	4698
884.772	4630
884.897	4637
885.023	4714
885.148	4809
885.274	4908
885.399	4850
885.524	4782
885.65	4755
885.775	4774
885.9	4744
886.025	4896
886.15	4831
886.275	4744
886.4	4660
886.525	4801
886.65	4725
886.775	4702
886.9	4870
887.025	5090
887.149	4809
887.274	4694
887.399	4603
887.523	4641
887.648	4645
887.773	4626
887.897	4820
888.021	4805
888.146	4721
888.27	4866
888.395	4957
888.519	4809
888.643	4858
888.767	4866
888.891	4729
889.015	4607
889.139	4702
889.263	4634
889.387	4790
889.511	4919
889.635	4835
889.759	4668
889.883	4672
890.006	4782
890.13	4828
890.254	4653
890.377	4793
890.501	4592
890.624	4554
890.748	4714
890.871	4550
890.995	4489
891.118	4394
891.241	4615
891.364	4611
891.488	4687
891.611	4516
891.734	4630
891.857	4668
891.98	4596
892.103	4710
892.226	4649
892.349	4588
892.471	4462
892.594	4558
892.717	4630
892.839	4565
892.962	4592
893.085	4717
893.207	4649
893.33	4493
893.452	4592
893.575	4687
893.697	4592
893.819	4858
893.941	4847
894.064	4873
894.186	4664
894.308	4596
894.43	4797
894.552	4850
894.674	4778
894.796	4569
894.918	4607
895.04	4611
895.161	4752
895.283	4679
895.405	4615
895.526	4672
895.648	4759
895.769	4725
895.891	4717
896.012	4774
896.134	4748
896.255	4710
896.376	4634
896.498	4580
896.619	4763
896.74	4622
896.861	4660
896.982	4984
897.103	5083
897.224	4835
897.345	4714
897.466	4679
897.587	4759
897.708	4881
897.828	4778
897.949	4683
898.07	4569
898.19	4660
898.311	4850
898.431	4721
898.552	4752
898.672	4824
898.792	4835
898.913	4797
899.033	4622
899.153	4512
899.273	4455
899.393	4500
899.513	4542
899.633	4577
899.753	4592
899.873	4558
899.993	4569
900.113	4565
900.232	4596
900.352	4603
900.472	4527
900.591	4436
900.711	4531
900.83	4493
900.95	4691
901.069	4782
901.189	4535
901.308	4421
901.427	4363
901.546	4390
901.665	4459
901.784	4512
901.904	4421
902.023	4322
902.141	4238
902.26	4166
902.379	4344
902.498	4291
902.617	4246
902.735	4371
902.854	4402
902.973	4375
903.091	4249
903.21	4211
903.328	4329
903.446	4344
903.565	4318
903.683	4375
903.801	4318
903.919	4428
904.038	4508
904.156	4379
904.274	4466
904.392	4455
904.51	4478
904.627	4504
904.745	4603
904.863	4637
904.981	4409
905.098	4329
905.216	4417
905.334	4443
905.451	4447
905.569	4504
905.686	4584
905.803	4538
905.921	4394
906.038	4577
906.155	4508
906.272	4390
906.389	4478
906.506	4363
906.623	4440
906.74	4386
906.857	4333
906.974	4413
907.091	4615
907.208	4706
907.324	4660
907.441	4535
907.557	4402
907.674	4356
907.79	4333
907.907	4428
908.023	4493
908.139	4478
908.256	4459
908.372	4459
908.488	4462
908.604	4379
908.72	4341
908.836	4379
908.952	4367
909.068	4485
909.184	4573
909.3	4550
909.415	4626
909.531	4664
909.647	4398
909.762	4398
909.878	4379
909.993	4470
910.108	4402
910.224	4451
910.339	4451
910.454	4424
910.57	4375
910.685	4325
910.8	4668
910.915	4618
911.03	4535
911.145	4344
911.259	4348
911.374	4367
911.489	4329
911.604	4299
911.718	4215
911.833	4219
911.947	4093
912.062	4032
912.176	4257
912.291	4265
912.405	4299
912.519	4489
912.633	4497
912.748	4348
912.862	4398
912.976	4223
913.09	4082
913.204	4207
913.318	4219
913.431	4390
913.545	4383
913.659	4451
913.772	4409
913.886	4287
914	4257
914.113	4409
914.226	4519
914.34	4421
914.453	4276
914.566	4455
914.68	4303
914.793	4363
914.906	4169
915.019	4177
915.132	4120
915.245	4215
915.358	4215
915.47	4230
915.583	4314
915.696	4306
915.809	4398
915.921	4436
916.034	4295
916.146	4257
916.259	4253
916.371	4371
916.483	4386
916.595	4268
916.708	4341
916.82	4333
916.932	4325
917.044	4341
917.156	4333
917.268	4249
917.38	4333
917.491	4306
917.603	4371
917.715	4443
917.826	4428
917.938	4337
918.049	4261
918.161	4417
918.272	4554
918.384	4550
918.495	4440
918.606	4363
918.717	4223
918.828	4390
918.939	4390
919.05	4249
919.161	4352
919.272	4135
919.383	4261
919.494	4478
919.604	4653
919.715	4481
919.826	4390
919.936	4424
920.047	4569
920.157	4478
920.267	4725
920.378	4618
920.488	4535
920.598	4763
920.708	4911
920.818	4733
920.928	4759
921.038	4923
921.148	4965
921.258	4653
921.368	4554
921.477	4542
921.587	4512
921.697	4417
921.806	4569
921.916	4462
922.025	4295
922.134	4291
922.244	4242
922.353	4318
922.462	4227
922.571	4120
922.68	4051
922.789	4059
922.898	4036
923.007	3975
923.116	4112
923.224	4067
923.333	4090
923.442	3964
923.55	3994
923.659	4044
923.767	4124
923.876	4021
923.984	4150
924.092	4002
924.201	4109
924.309	4105
924.417	4143
924.525	4025
924.633	4150
924.741	5045
924.849	3934
924.956	4185
925.064	3991
925.172	3915
925.279	3964
925.387	4055
925.494	4105
925.602	4257
925.709	4200
925.816	4071
925.924	4173
926.031	4261
926.138	4173
926.245	4207
926.352	4082
926.459	4265
926.566	4310
926.673	4169
926.779	4120
926.886	4101
926.993	3987
927.099	4051
927.206	3979
927.312	4002
927.419	4109
927.525	4067
927.631	4158
927.737	3998
927.843	3945
927.95	3911
928.056	3968
928.162	4032
928.267	4048
928.373	4679
928.479	4124
928.585	3842
928.69	3975
928.796	4071
928.901	3983
929.007	3819
929.112	3998
929.218	4013
929.323	3903
929.428	3945
929.533	4150
929.638	3915
929.743	3979
929.848	4044
929.953	3987
930.058	3934
930.163	3827
930.267	3800
930.372	3945
930.477	3785
930.581	4131
930.685	3994
930.79	3819
930.894	3876
930.998	3873
931.103	4059
931.207	3743
931.311	3675
931.415	3648
931.519	3526
931.623	3549
