Data from test_V78500241_160.txt Node
Date: Fri Mar 25 16:50:06 CST 2022
User: usil
Spectrometer: V785-0024
Trigger mode: 0
Integration Time (sec): 4.000000E-1
Scans to average: 1
Nonlinearity correction enabled: false
Boxcar width: 0
Storing dark spectrum: false
XAxis mode: Wavelengths
Number of Pixels in Spectrum: 1024
>>>>>Begin Spectral Data<<<<<
801.071	8012
801.214	7978
801.356	7826
801.499	7822
801.641	7841
801.783	7860
801.926	8043
802.068	8005
802.211	8012
802.353	7947
802.496	7944
802.638	7890
802.78	7883
802.923	7951
803.065	7803
803.208	7818
803.35	7967
803.492	8084
803.635	8123
803.777	8024
803.919	8081
804.061	8343
804.204	8043
804.346	7970
804.488	7947
804.63	8024
804.773	7906
804.915	8008
805.057	8336
805.199	8111
805.341	8119
805.483	8214
805.626	8199
805.768	8153
805.91	8126
806.052	8187
806.194	8088
806.336	8328
806.478	8100
806.62	8039
806.762	8130
806.904	8145
807.046	8442
807.188	8317
807.33	8259
807.472	8305
807.614	8187
807.756	8180
807.898	7940
808.04	7871
808.182	7894
808.324	7864
808.465	7921
808.607	8016
808.749	8123
808.891	8168
809.033	8358
809.174	8233
809.316	8012
809.458	8035
809.6	7932
809.741	8065
809.883	8020
810.025	8008
810.166	8100
810.308	8069
810.45	7986
810.591	7902
810.733	7792
810.875	7674
811.016	7537
811.158	7472
811.299	7582
811.441	7784
811.582	7658
811.724	7586
811.865	7578
812.007	7632
812.148	7639
812.29	7700
812.431	7757
812.573	7909
812.714	8012
812.855	8187
812.997	8290
813.138	8377
813.279	8244
813.421	8153
813.562	8012
813.703	7963
813.845	7765
813.986	7491
814.127	7289
814.268	7228
814.41	7289
814.551	7175
814.692	7236
814.833	7129
814.974	7126
815.115	7149
815.256	7034
815.397	6924
815.539	6966
815.68	6928
815.821	6768
815.962	6871
816.103	6875
816.244	6745
816.385	6707
816.526	6627
816.666	6494
816.807	6350
816.948	6445
817.089	6452
817.23	6448
817.371	6395
817.512	6384
817.653	6426
817.793	6399
817.934	6410
818.075	6498
818.216	6414
818.356	6395
818.497	6182
818.638	6125
818.778	6167
818.919	6171
819.06	6136
819.2	6308
819.341	6353
819.481	6331
819.622	6551
819.762	6776
819.903	6692
820.043	6593
820.184	6578
820.324	6582
820.465	6741
820.605	6715
820.746	6669
820.886	6486
821.026	6730
821.167	6715
821.307	6837
821.447	6783
821.588	6650
821.728	6563
821.868	6532
822.008	6311
822.149	6346
822.289	6361
822.429	6155
822.569	6079
822.709	6117
822.849	5988
822.99	5901
823.13	5920
823.27	5931
823.41	5828
823.55	5805
823.69	5798
823.83	5824
823.97	5699
824.11	5551
824.25	5585
824.389	5608
824.529	5589
824.669	5554
824.809	5611
824.949	5748
825.089	5642
825.228	5532
825.368	5429
825.508	5326
825.648	5330
825.787	5395
825.927	5391
826.067	5311
826.206	5288
826.346	5425
826.485	5436
826.625	5433
826.765	5562
826.904	5497
827.044	5269
827.183	5201
827.323	5197
827.462	5220
827.601	5239
827.741	5216
827.88	5227
828.02	5151
828.159	5227
828.298	5395
828.437	5322
828.577	5334
828.716	5509
828.855	5303
828.994	5181
829.134	5102
829.273	5189
829.412	5181
829.551	5140
829.69	5197
829.829	5284
829.968	5360
830.107	5318
830.246	5246
830.385	5208
830.524	5155
830.663	5033
830.802	4995
830.941	4919
831.08	4877
831.219	5022
831.357	5022
831.496	5136
831.635	4911
831.774	4828
831.913	4896
832.051	4767
832.19	4763
832.329	4847
832.467	4714
832.606	4630
832.744	4729
832.883	4679
833.022	4763
833.16	4801
833.299	4839
833.437	4854
833.576	4816
833.714	4812
833.852	4831
833.991	4900
834.129	4934
834.267	4968
834.406	4900
834.544	5003
834.682	4987
834.821	4930
834.959	5143
835.097	4961
835.235	5170
835.373	5090
835.511	5105
835.65	5056
835.788	5045
835.926	4927
836.064	4877
836.202	4995
836.34	5193
836.478	5204
836.615	5121
836.753	5193
836.891	5280
837.029	5273
837.167	5181
837.305	5208
837.443	5162
837.58	5094
837.718	5220
837.856	5178
837.993	5170
838.131	5242
838.269	5284
838.406	5204
838.544	5212
838.681	5014
838.819	5018
838.956	4862
839.094	4938
839.231	5014
839.369	5086
839.506	5429
839.643	5299
839.781	5060
839.918	4957
840.055	5067
840.193	5124
840.33	5083
840.467	5140
840.604	5136
840.742	5410
840.879	5136
841.016	5113
841.153	5117
841.29	5315
841.427	5379
841.564	5383
841.701	5376
841.838	5318
841.975	5250
842.112	5261
842.249	5174
842.385	5083
842.522	5322
842.659	5201
842.796	5143
842.933	5208
843.069	5181
843.206	5117
843.343	5318
843.479	5204
843.616	5280
843.752	5052
843.889	5003
844.025	5265
844.162	5006
844.298	5178
844.435	5098
844.571	5086
844.708	5147
844.844	5341
844.98	5334
845.117	5296
845.253	5124
845.389	5014
845.525	5143
845.661	5193
845.798	5060
845.934	5052
846.07	5052
846.206	5197
846.342	5242
846.478	5159
846.614	5064
846.75	4953
846.886	4961
847.022	5147
847.158	5014
847.294	5067
847.429	5090
847.565	5052
847.701	5311
847.837	4858
847.972	4850
848.108	4976
848.244	4923
848.379	4786
848.515	4752
848.65	4744
848.786	4721
848.921	4790
849.057	4896
849.192	4885
849.328	4824
849.463	4820
849.598	4778
849.734	4759
849.869	4656
850.004	4664
850.14	4668
850.275	4599
850.41	4558
850.545	4580
850.68	4588
850.815	4653
850.95	4664
851.085	4835
851.22	4797
851.355	4706
851.49	4615
851.625	4660
851.76	4672
851.895	4558
852.03	4516
852.165	4622
852.299	4736
852.434	4767
852.569	4793
852.703	4774
852.838	4889
852.973	4980
853.107	4968
853.242	4736
853.376	4710
853.511	4592
853.645	4645
853.78	4809
853.914	4672
854.048	4660
854.183	4645
854.317	4694
854.451	4862
854.585	4744
854.72	4675
854.854	4694
854.988	4626
855.122	4641
855.256	4561
855.39	4656
855.524	4793
855.658	4740
855.792	4729
855.926	4748
856.06	4790
856.194	4767
856.327	4767
856.461	4596
856.595	4637
856.729	4694
856.862	4767
856.996	4714
857.13	4744
857.263	4744
857.397	4809
857.53	4691
857.664	4740
857.797	4805
857.931	4828
858.064	4668
858.197	4706
858.331	4656
858.464	4645
858.597	4569
858.731	4660
858.864	4641
858.997	4622
859.13	4637
859.263	4679
859.396	4725
859.529	4653
859.662	4523
859.795	4565
859.928	4630
860.061	4774
860.194	4752
860.327	4656
860.46	4573
860.592	4672
860.725	4698
860.858	4733
860.99	4611
861.123	4527
861.256	4531
861.388	4599
861.521	5402
861.653	4489
861.786	4440
861.918	4443
862.05	4516
862.183	4538
862.315	4561
862.447	4653
862.58	4569
862.712	4451
862.844	4325
862.976	4451
863.108	4447
863.24	4904
863.372	4363
863.504	4447
863.636	4402
863.768	4519
863.9	4398
864.032	4367
864.164	4481
864.296	4493
864.428	4542
864.559	4550
864.691	4535
864.823	4504
864.954	4466
865.086	4512
865.217	4489
865.349	4481
865.48	4478
865.612	4485
865.743	4641
865.875	4497
866.006	4432
866.137	4451
866.269	4440
866.4	4459
866.531	4421
866.662	4390
866.793	4432
866.924	4405
867.055	4512
867.186	4455
867.317	4417
867.448	4386
867.579	4390
867.71	4424
867.841	4386
867.972	4516
868.103	4466
868.233	4478
868.364	4478
868.495	4523
868.625	4668
868.756	4748
868.886	4538
869.017	4580
869.147	4763
869.278	4812
869.408	4668
869.539	4615
869.669	4740
869.799	4679
869.929	4740
870.06	4698
870.19	4965
870.32	4934
870.45	4934
870.58	5029
870.71	5045
870.84	5098
870.97	5014
871.1	4934
871.23	5155
871.36	5128
871.489	5025
871.619	5102
871.749	5117
871.879	5136
872.008	5128
872.138	5105
872.267	4934
872.397	4858
872.526	4809
872.656	4725
872.785	4778
872.915	4934
873.044	4995
873.173	4987
873.303	5045
873.432	4961
873.561	4965
873.69	4904
873.819	4904
873.948	4961
874.077	4839
874.206	4763
874.335	4866
874.464	4965
874.593	5113
874.722	4972
874.851	5109
874.979	5075
875.108	5052
875.237	4938
875.365	4908
875.494	4911
875.623	5014
875.751	4801
875.88	4877
876.008	4991
876.136	5025
876.265	5231
876.393	5322
876.521	5258
876.65	5208
876.778	5170
876.906	5140
877.034	5014
877.162	5037
877.29	4980
877.418	5105
877.546	5060
877.674	5052
877.802	5018
877.93	5071
878.058	4953
878.185	4835
878.313	5010
878.441	4915
878.568	4828
878.696	4877
878.824	5006
878.951	5029
879.079	5132
879.206	5326
879.333	5117
879.461	4961
879.588	5006
879.715	5102
879.842	5231
879.97	5003
880.097	4858
880.224	4721
880.351	4812
880.478	4850
880.605	4809
880.732	4805
880.859	5075
880.986	4946
881.112	4930
881.239	4763
881.366	4721
881.493	4607
881.619	4622
881.746	4637
881.872	4675
881.999	4656
882.125	4702
882.252	4790
882.378	4835
882.505	4938
882.631	4801
882.757	4714
882.883	4683
883.01	4763
883.136	4637
883.262	4580
883.388	4622
883.514	4828
883.64	4900
883.766	4801
883.892	4714
884.018	4668
884.143	4831
884.269	4961
884.395	4675
884.52	4611
884.646	4660
884.772	4577
884.897	4596
885.023	4641
885.148	4801
885.274	4870
885.399	4797
885.524	4694
885.65	4672
885.775	4729
885.9	4721
886.025	4885
886.15	4767
886.275	4733
886.4	4672
886.525	4679
886.65	4691
886.775	4664
886.9	4900
887.025	5048
887.149	4831
887.274	4656
887.399	4550
887.523	4630
887.648	4573
887.773	4622
887.897	4767
888.021	4767
888.146	4710
888.27	4850
888.395	4892
888.519	4828
888.643	4881
888.767	4862
888.891	4714
889.015	4615
889.139	4641
889.263	4630
889.387	4767
889.511	4911
889.635	4839
889.759	4603
889.883	4672
890.006	4767
890.13	4873
890.254	4656
890.377	4790
890.501	4599
890.624	4592
890.748	4668
890.871	4535
890.995	4489
891.118	4409
891.241	4573
891.364	4535
891.488	4664
891.611	4523
891.734	4558
891.857	4645
891.98	4573
892.103	4691
892.226	4603
892.349	4561
892.471	4493
892.594	4664
892.717	4656
892.839	4641
892.962	4615
893.085	4702
893.207	4649
893.33	4538
893.452	4580
893.575	4721
893.697	4675
893.819	4881
893.941	4847
894.064	4820
894.186	4637
894.308	4668
894.43	4793
894.552	4877
894.674	4755
894.796	4653
894.918	4656
895.04	4641
895.161	4809
895.283	4748
895.405	4660
895.526	4702
895.648	4755
895.769	4740
895.891	4782
896.012	4816
896.134	4771
896.255	4733
896.376	4733
896.498	4645
896.619	4744
896.74	4733
896.861	4675
896.982	4980
897.103	5162
897.224	4961
897.345	4843
897.466	4740
897.587	4767
897.708	4904
897.828	4850
897.949	4710
898.07	4599
898.19	4714
898.311	4896
898.431	4733
898.552	4824
898.672	4843
898.792	4873
898.913	4729
899.033	4702
899.153	4558
899.273	4512
899.393	4588
899.513	4592
899.633	4611
899.753	4611
899.873	4603
899.993	4679
900.113	4645
900.232	4660
900.352	4622
900.472	4592
900.591	4470
900.711	4546
900.83	4531
900.95	4668
901.069	4748
901.189	4596
901.308	4443
901.427	4405
901.546	4447
901.665	4508
901.784	4580
901.904	4455
902.023	4421
902.141	4238
902.26	4207
902.379	4402
902.498	4295
902.617	4261
902.735	4436
902.854	4474
902.973	4432
903.091	4238
903.21	4287
903.328	4352
903.446	4299
903.565	4280
903.683	4371
903.801	4367
903.919	4455
904.038	4470
904.156	4375
904.274	4489
904.392	4462
904.51	4493
904.627	4569
904.745	4714
904.863	4687
904.981	4424
905.098	4363
905.216	4447
905.334	4485
905.451	4470
905.569	4462
905.686	4637
905.803	4653
905.921	4421
906.038	4626
906.155	4561
906.272	4383
906.389	4485
906.506	4409
906.623	4462
906.74	4493
906.857	4325
906.974	4417
907.091	4592
907.208	4748
907.324	4649
907.441	4542
907.557	4443
907.674	4386
907.79	4299
907.907	4462
908.023	4508
908.139	4542
908.256	4447
908.372	4516
908.488	4485
908.604	4459
908.72	4356
908.836	4436
908.952	4455
909.068	4474
909.184	4641
909.3	4542
909.415	4634
909.531	4607
909.647	4390
909.762	4379
909.878	4417
909.993	4516
910.108	4474
910.224	4459
910.339	4558
910.454	4424
910.57	4455
910.685	4379
910.8	4797
910.915	4668
911.03	4584
911.145	4417
911.259	4405
911.374	4428
911.489	4371
911.604	4322
911.718	4246
911.833	4280
911.947	4154
912.062	4082
912.176	4303
912.291	4303
912.405	4280
912.519	4519
912.633	4558
912.748	4421
912.862	4352
912.976	4318
913.09	4238
913.204	4272
913.318	4352
913.431	4440
913.545	4424
913.659	4531
913.772	4428
913.886	4306
914	4268
914.113	4451
914.226	4508
914.34	4455
914.453	4303
914.566	4474
914.68	4440
914.793	4413
914.906	4227
915.019	4162
915.132	4139
915.245	4253
915.358	4314
915.47	4246
915.583	4303
915.696	4344
915.809	4466
915.921	4493
916.034	4344
916.146	4322
916.259	4303
916.371	4424
916.483	4417
916.595	4314
916.708	4348
916.82	4390
916.932	4413
917.044	4405
917.156	4424
917.268	4337
917.38	4287
917.491	4322
917.603	4424
917.715	4478
917.826	4523
917.938	4424
918.049	4341
918.161	4432
918.272	4615
918.384	4618
918.495	4519
918.606	4333
918.717	4314
918.828	4424
918.939	4421
919.05	4314
919.161	4417
919.272	4204
919.383	4341
919.494	4523
919.604	4687
919.715	4542
919.826	4459
919.936	4474
920.047	4649
920.157	4565
920.267	4835
920.378	4698
920.488	4618
920.598	4809
920.708	4965
920.818	4850
920.928	4847
921.038	5003
921.148	5045
921.258	4717
921.368	4691
921.477	4615
921.587	4550
921.697	4455
921.806	4660
921.916	4535
922.025	4375
922.134	4360
922.244	4287
922.353	4451
922.462	4318
922.571	4185
922.68	4059
922.789	4002
922.898	4139
923.007	4067
923.116	4215
923.224	4147
923.333	4192
923.442	4124
923.55	4048
923.659	4139
923.767	4215
923.876	4120
923.984	4215
924.092	4090
924.201	4173
924.309	4196
924.417	4173
924.525	4166
924.633	4169
924.741	4965
924.849	3983
924.956	4265
925.064	4063
925.172	4013
925.279	4025
925.387	4162
925.494	4154
925.602	4341
925.709	4287
925.816	4143
925.924	4223
926.031	4375
926.138	4261
926.245	4318
926.352	4215
926.459	4352
926.566	4417
926.673	4249
926.779	4200
926.886	4166
926.993	4112
927.099	4055
927.206	4025
927.312	4067
927.419	4128
927.525	4139
927.631	4177
927.737	4105
927.843	4051
927.95	3907
928.056	4051
928.162	4078
928.267	4169
928.373	4774
928.479	4261
928.585	4006
928.69	4105
928.796	4238
928.901	4120
929.007	3960
929.112	4128
929.218	4071
929.323	4082
929.428	4090
929.533	4215
929.638	4025
929.743	4032
929.848	4116
929.953	4090
930.058	4071
930.163	3861
930.267	3953
930.372	4112
930.477	3892
930.581	4185
930.685	4059
930.79	3937
930.894	3991
930.998	3918
931.103	4086
931.207	3812
931.311	3774
931.415	3762
931.519	3618
931.623	3629
