Data from test_V78500241_751.txt Node
Date: Fri Mar 25 16:54:13 CST 2022
User: usil
Spectrometer: V785-0024
Trigger mode: 0
Integration Time (sec): 4.000000E-1
Scans to average: 1
Nonlinearity correction enabled: false
Boxcar width: 0
Storing dark spectrum: false
XAxis mode: Wavelengths
Number of Pixels in Spectrum: 1024
>>>>>Begin Spectral Data<<<<<
801.071	7928
801.214	7989
801.356	7864
801.499	7792
801.641	7784
801.783	7883
801.926	7955
802.068	7993
802.211	7970
802.353	7932
802.496	7811
802.638	7928
802.78	7928
802.923	7890
803.065	7833
803.208	7856
803.35	8005
803.492	8149
803.635	8161
803.777	8039
803.919	8081
804.061	8423
804.204	8065
804.346	8012
804.488	7959
804.63	8073
804.773	7978
804.915	8119
805.057	8271
805.199	8164
805.341	8240
805.483	8282
805.626	8183
805.768	8088
805.91	8214
806.052	8199
806.194	8119
806.336	8301
806.478	7986
806.62	8073
806.762	8134
806.904	8267
807.046	8507
807.188	8328
807.33	8237
807.472	8275
807.614	8103
807.756	8062
807.898	7940
808.04	7852
808.182	7818
808.324	7967
808.465	7894
808.607	8012
808.749	8149
808.891	8123
809.033	8240
809.174	8233
809.316	8077
809.458	8054
809.6	8065
809.741	8069
809.883	7993
810.025	8103
810.166	8024
810.308	8035
810.45	8073
810.591	7928
810.733	7746
810.875	7658
811.016	7495
811.158	7483
811.299	7624
811.441	7685
811.582	7658
811.724	7525
811.865	7521
812.007	7540
812.148	7556
812.29	7594
812.431	7715
812.573	7833
812.714	7932
812.855	8107
812.997	8145
813.138	8271
813.279	8153
813.421	8077
813.562	7955
813.703	7871
813.845	7723
813.986	7476
814.127	7259
814.268	7285
814.41	7244
814.551	7126
814.692	7110
814.833	7042
814.974	7065
815.115	7133
815.256	6935
815.397	6943
815.539	6954
815.68	6871
815.821	6791
815.962	6825
816.103	6768
816.244	6662
816.385	6608
816.526	6639
816.666	6445
816.807	6289
816.948	6391
817.089	6403
817.23	6437
817.371	6426
817.512	6399
817.653	6346
817.793	6365
817.934	6422
818.075	6479
818.216	6391
818.356	6376
818.497	6243
818.638	6133
818.778	6133
818.919	6114
819.06	6167
819.2	6251
819.341	6308
819.481	6338
819.622	6494
819.762	6722
819.903	6654
820.043	6612
820.184	6532
820.324	6601
820.465	6684
820.605	6642
820.746	6642
820.886	6498
821.026	6639
821.167	6700
821.307	6738
821.447	6688
821.588	6646
821.728	6547
821.868	6479
822.008	6224
822.149	6357
822.289	6327
822.429	6095
822.569	6060
822.709	6102
822.849	5901
822.99	5904
823.13	5885
823.27	5958
823.41	5790
823.55	5737
823.69	5748
823.83	5752
823.97	5665
824.11	5509
824.25	5551
824.389	5539
824.529	5604
824.669	5505
824.809	5604
824.949	5646
825.089	5608
825.228	5554
825.368	5379
825.508	5299
825.648	5307
825.787	5459
825.927	5433
826.067	5318
826.206	5296
826.346	5360
826.485	5402
826.625	5387
826.765	5505
826.904	5440
827.044	5227
827.183	5204
827.323	5113
827.462	5193
827.601	5113
827.741	5208
827.88	5227
828.02	5083
828.159	5181
828.298	5261
828.437	5337
828.577	5239
828.716	5452
828.855	5307
828.994	5132
829.134	5151
829.273	5201
829.412	5132
829.551	5045
829.69	5109
829.829	5223
829.968	5322
830.107	5246
830.246	5296
830.385	5162
830.524	5090
830.663	5086
830.802	4991
830.941	4908
831.08	4881
831.219	4987
831.357	4938
831.496	5155
831.635	4866
831.774	4835
831.913	4835
832.051	4656
832.19	4714
832.329	4805
832.467	4683
832.606	4656
832.744	4733
832.883	4672
833.022	4706
833.16	4774
833.299	4824
833.437	4816
833.576	4839
833.714	4824
833.852	4843
833.991	4911
834.129	4961
834.267	4953
834.406	4904
834.544	4949
834.682	4946
834.821	4938
834.959	5113
835.097	4965
835.235	5159
835.373	5064
835.511	5098
835.65	5033
835.788	5003
835.926	4877
836.064	4862
836.202	4972
836.34	5147
836.478	5227
836.615	5105
836.753	5189
836.891	5242
837.029	5254
837.167	5162
837.305	5143
837.443	5147
837.58	5048
837.718	5201
837.856	5204
837.993	5147
838.131	5246
838.269	5201
838.406	5235
838.544	5181
838.681	5003
838.819	4991
838.956	4892
839.094	4847
839.231	4976
839.369	5067
839.506	5429
839.643	5204
839.781	5075
839.918	4980
840.055	5128
840.193	5094
840.33	5071
840.467	5189
840.604	5178
840.742	5429
840.879	5048
841.016	5079
841.153	5170
841.29	5322
841.427	5368
841.564	5292
841.701	5353
841.838	5296
841.975	5174
842.112	5280
842.249	5162
842.385	5086
842.522	5318
842.659	5147
842.796	5132
842.933	5151
843.069	5090
843.206	5166
843.343	5254
843.479	5212
843.616	5227
843.752	5064
843.889	4995
844.025	5159
844.162	5010
844.298	5204
844.435	5064
844.571	4999
844.708	5155
844.844	5345
844.98	5334
845.117	5284
845.253	5079
845.389	5010
845.525	5212
845.661	5140
845.798	5033
845.934	5086
846.07	5056
846.206	5166
846.342	5265
846.478	5174
846.614	4995
846.75	4934
846.886	4923
847.022	5132
847.158	4968
847.294	5010
847.429	5121
847.565	5041
847.701	5345
847.837	4858
847.972	4801
848.108	4942
848.244	4930
848.379	4736
848.515	4698
848.65	4687
848.786	4736
848.921	4755
849.057	4847
849.192	4911
849.328	4786
849.463	4850
849.598	4790
849.734	4793
849.869	4721
850.004	4558
850.14	4679
850.275	4622
850.41	4527
850.545	4565
850.68	4569
850.815	4641
850.95	4641
851.085	4809
851.22	4733
851.355	4611
851.49	4622
851.625	4603
851.76	4649
851.895	4527
852.03	4516
852.165	4607
852.299	4706
852.434	4797
852.569	4733
852.703	4755
852.838	4801
852.973	4919
853.107	4889
853.242	4691
853.376	4641
853.511	4561
853.645	4637
853.78	4805
853.914	4698
854.048	4645
854.183	4607
854.317	4725
854.451	4828
854.585	4649
854.72	4611
854.854	4736
854.988	4592
855.122	4615
855.256	4500
855.39	4664
855.524	4797
855.658	4714
855.792	4679
855.926	4702
856.06	4801
856.194	4771
856.327	4687
856.461	4596
856.595	4596
856.729	4550
856.862	4763
856.996	4653
857.13	4729
857.263	4729
857.397	4778
857.53	4599
857.664	4714
857.797	4714
857.931	4771
858.064	4664
858.197	4733
858.331	4660
858.464	4603
858.597	4481
858.731	4634
858.864	4656
858.997	4618
859.13	4603
859.263	4645
859.396	4714
859.529	4626
859.662	4561
859.795	4504
859.928	4580
860.061	4702
860.194	4778
860.327	4637
860.46	4550
860.592	4660
860.725	4717
860.858	4694
860.99	4554
861.123	4500
861.256	4527
861.388	4607
861.521	5402
861.653	4462
861.786	4443
861.918	4443
862.05	4489
862.183	4538
862.315	4565
862.447	4660
862.58	4550
862.712	4451
862.844	4360
862.976	4443
863.108	4455
863.24	4873
863.372	4329
863.504	4386
863.636	4417
863.768	4462
863.9	4443
864.032	4360
864.164	4383
864.296	4455
864.428	4554
864.559	4538
864.691	4538
864.823	4538
864.954	4527
865.086	4485
865.217	4436
865.349	4417
865.48	4428
865.612	4474
865.743	4637
865.875	4485
866.006	4424
866.137	4523
866.269	4455
866.4	4390
866.531	4455
866.662	4386
866.793	4367
866.924	4424
867.055	4443
867.186	4493
867.317	4386
867.448	4371
867.579	4367
867.71	4394
867.841	4360
867.972	4455
868.103	4478
868.233	4409
868.364	4447
868.495	4481
868.625	4641
868.756	4748
868.886	4550
869.017	4634
869.147	4702
869.278	4854
869.408	4641
869.539	4588
869.669	4725
869.799	4634
869.929	4778
870.06	4691
870.19	4934
870.32	4961
870.45	4942
870.58	4991
870.71	5128
870.84	5094
870.97	4911
871.1	4866
871.23	5174
871.36	5128
871.489	4953
871.619	5048
871.749	5071
871.879	5124
872.008	5204
872.138	5094
872.267	5018
872.397	4889
872.526	4805
872.656	4752
872.785	4854
872.915	4908
873.044	5003
873.173	4953
873.303	4904
873.432	4904
873.561	4934
873.69	4881
873.819	4831
873.948	4908
874.077	4801
874.206	4721
874.335	4828
874.464	4930
874.593	5071
874.722	4968
874.851	5102
874.979	5056
875.108	5079
875.237	4961
875.365	4885
875.494	4870
875.623	4980
875.751	4847
875.88	4889
876.008	4991
876.136	5014
876.265	5193
876.393	5391
876.521	5242
876.65	5227
876.778	5174
876.906	5033
877.034	4980
877.162	5033
877.29	5018
877.418	5025
877.546	5064
877.674	5067
877.802	5048
877.93	4984
878.058	4957
878.185	4820
878.313	4919
878.441	4976
878.568	4797
878.696	4820
878.824	4942
878.951	4938
879.079	5075
879.206	5284
879.333	5117
879.461	4987
879.588	4972
879.715	5140
879.842	5204
879.97	5010
880.097	4778
880.224	4729
880.351	4816
880.478	4828
880.605	4828
880.732	4755
880.859	5094
880.986	4847
881.112	4877
881.239	4782
881.366	4675
881.493	4592
881.619	4580
881.746	4679
881.872	4641
881.999	4668
882.125	4710
882.252	4774
882.378	4797
882.505	4999
882.631	4812
882.757	4653
882.883	4729
883.01	4706
883.136	4687
883.262	4603
883.388	4615
883.514	4835
883.64	4809
883.766	4786
883.892	4710
884.018	4717
884.143	4927
884.269	4980
884.395	4664
884.52	4637
884.646	4698
884.772	4611
884.897	4580
885.023	4668
885.148	4771
885.274	4797
885.399	4782
885.524	4714
885.65	4664
885.775	4733
885.9	4706
886.025	4828
886.15	4809
886.275	4675
886.4	4641
886.525	4656
886.65	4588
886.775	4679
886.9	4908
887.025	5037
887.149	4816
887.274	4645
887.399	4550
887.523	4599
887.648	4592
887.773	4542
887.897	4714
888.021	4812
888.146	4691
888.27	4854
888.395	4911
888.519	4752
888.643	4839
888.767	4854
888.891	4660
889.015	4634
889.139	4645
889.263	4607
889.387	4736
889.511	4847
889.635	4786
889.759	4622
889.883	4634
890.006	4721
890.13	4797
890.254	4599
890.377	4672
890.501	4519
890.624	4516
890.748	4618
890.871	4516
890.995	4398
891.118	4405
891.241	4565
891.364	4558
891.488	4653
891.611	4436
891.734	4538
891.857	4569
891.98	4512
892.103	4656
892.226	4588
892.349	4485
892.471	4409
892.594	4493
892.717	4607
892.839	4565
892.962	4618
893.085	4626
893.207	4580
893.33	4440
893.452	4531
893.575	4645
893.697	4577
893.819	4805
893.941	4835
894.064	4759
894.186	4565
894.308	4500
894.43	4721
894.552	4828
894.674	4797
894.796	4546
894.918	4588
895.04	4569
895.161	4733
895.283	4668
895.405	4577
895.526	4588
895.648	4660
895.769	4683
895.891	4740
896.012	4702
896.134	4721
896.255	4683
896.376	4634
896.498	4607
896.619	4691
896.74	4573
896.861	4603
896.982	4953
897.103	5083
897.224	4824
897.345	4717
897.466	4710
897.587	4752
897.708	4835
897.828	4717
897.949	4683
898.07	4527
898.19	4599
898.311	4828
898.431	4653
898.552	4740
898.672	4790
898.792	4786
898.913	4714
899.033	4637
899.153	4466
899.273	4436
899.393	4466
899.513	4538
899.633	4558
899.753	4542
899.873	4481
899.993	4573
900.113	4542
900.232	4573
900.352	4489
900.472	4432
900.591	4402
900.711	4432
900.83	4459
900.95	4611
901.069	4675
901.189	4550
901.308	4363
901.427	4360
901.546	4363
901.665	4485
901.784	4504
901.904	4329
902.023	4322
902.141	4188
902.26	4147
902.379	4272
902.498	4257
902.617	4196
902.735	4371
902.854	4352
902.973	4310
903.091	4200
903.21	4234
903.328	4295
903.446	4291
903.565	4234
903.683	4329
903.801	4238
903.919	4367
904.038	4474
904.156	4322
904.274	4367
904.392	4390
904.51	4417
904.627	4443
904.745	4519
904.863	4637
904.981	4363
905.098	4265
905.216	4360
905.334	4424
905.451	4417
905.569	4424
905.686	4550
905.803	4573
905.921	4421
906.038	4538
906.155	4493
906.272	4379
906.389	4409
906.506	4314
906.623	4390
906.74	4367
906.857	4287
906.974	4356
907.091	4565
907.208	4603
907.324	4580
907.441	4451
907.557	4337
907.674	4318
907.79	4314
907.907	4371
908.023	4405
908.139	4440
908.256	4443
908.372	4466
908.488	4470
908.604	4310
908.72	4375
908.836	4379
908.952	4390
909.068	4436
909.184	4535
909.3	4466
909.415	4596
909.531	4538
909.647	4348
909.762	4329
909.878	4333
909.993	4440
910.108	4367
910.224	4466
910.339	4474
910.454	4363
910.57	4386
910.685	4291
910.8	4660
910.915	4580
911.03	4497
911.145	4299
911.259	4360
911.374	4344
911.489	4265
911.604	4238
911.718	4173
911.833	4242
911.947	4067
912.062	4010
912.176	4166
912.291	4234
912.405	4200
912.519	4478
912.633	4504
912.748	4390
912.862	4318
912.976	4211
913.09	4109
913.204	4158
913.318	4268
913.431	4367
913.545	4344
913.659	4436
913.772	4344
913.886	4253
914	4238
914.113	4348
914.226	4375
914.34	4363
914.453	4219
914.566	4379
914.68	4284
914.793	4310
914.906	4131
915.019	4071
915.132	4082
915.245	4196
915.358	4143
915.47	4230
915.583	4246
915.696	4325
915.809	4409
915.921	4428
916.034	4219
916.146	4276
916.259	4215
916.371	4348
916.483	4325
916.595	4215
916.708	4272
916.82	4306
916.932	4291
917.044	4299
917.156	4344
917.268	4238
917.38	4284
917.491	4238
917.603	4333
917.715	4432
917.826	4432
917.938	4329
918.049	4234
918.161	4386
918.272	4535
918.384	4565
918.495	4413
918.606	4261
918.717	4207
918.828	4337
918.939	4371
919.05	4215
919.161	4322
919.272	4086
919.383	4227
919.494	4432
919.604	4603
919.715	4451
919.826	4363
919.936	4356
920.047	4500
920.157	4436
920.267	4691
920.378	4546
920.488	4500
920.598	4717
920.708	4877
920.818	4736
920.928	4752
921.038	4908
921.148	4961
921.258	4615
921.368	4508
921.477	4519
921.587	4462
921.697	4417
921.806	4538
921.916	4417
922.025	4325
922.134	4295
922.244	4204
922.353	4363
922.462	4147
922.571	4166
922.68	4032
922.789	4010
922.898	4055
923.007	4048
923.116	4105
923.224	4116
923.333	4112
923.442	3998
923.55	4017
923.659	4021
923.767	4120
923.876	4025
923.984	4150
924.092	4021
924.201	4082
924.309	4101
924.417	4219
924.525	4097
924.633	4131
924.741	4877
924.849	3964
924.956	4166
925.064	4032
925.172	3926
925.279	4036
925.387	4036
925.494	4078
925.602	4215
925.709	4284
925.816	4101
925.924	4169
926.031	4284
926.138	4253
926.245	4223
926.352	4109
926.459	4325
926.566	4341
926.673	4185
926.779	4147
926.886	4116
926.993	4006
927.099	4013
927.206	3983
927.312	3983
927.419	4124
927.525	4071
927.631	4150
927.737	3991
927.843	4013
927.95	3869
928.056	4017
928.162	3960
928.267	4097
928.373	4668
928.479	4154
928.585	3918
928.69	4017
928.796	4135
928.901	4002
929.007	3899
929.112	4036
929.218	4017
929.323	3991
929.428	3937
929.533	4131
929.638	3937
929.743	4010
929.848	4093
929.953	4032
930.058	4002
930.163	3789
930.267	3880
930.372	4071
930.477	3873
930.581	4101
930.685	4002
930.79	3896
930.894	3941
930.998	3896
931.103	4120
931.207	3766
931.311	3766
931.415	3713
931.519	3523
931.623	3572
