Data from test_V78500241_196.txt Node
Date: Fri Mar 25 16:50:21 CST 2022
User: usil
Spectrometer: V785-0024
Trigger mode: 0
Integration Time (sec): 4.000000E-1
Scans to average: 1
Nonlinearity correction enabled: false
Boxcar width: 0
Storing dark spectrum: false
XAxis mode: Wavelengths
Number of Pixels in Spectrum: 1024
>>>>>Begin Spectral Data<<<<<
801.071	7993
801.214	8008
801.356	7898
801.499	7841
801.641	7849
801.783	7898
801.926	8008
802.068	8005
802.211	8012
802.353	8005
802.496	7868
802.638	7913
802.78	7936
802.923	7986
803.065	7871
803.208	7879
803.35	8008
803.492	8081
803.635	8138
803.777	7978
803.919	8134
804.061	8503
804.204	8180
804.346	8024
804.488	7967
804.63	8111
804.773	7925
804.915	8046
805.057	8271
805.199	8183
805.341	8214
805.483	8279
805.626	8202
805.768	8073
805.91	8199
806.052	8218
806.194	8123
806.336	8309
806.478	8096
806.62	7997
806.762	8050
806.904	8218
807.046	8404
807.188	8415
807.33	8282
807.472	8328
807.614	8142
807.756	8084
807.898	7967
808.04	7947
808.182	7902
808.324	7967
808.465	7993
808.607	8119
808.749	8138
808.891	8221
809.033	8385
809.174	8275
809.316	8119
809.458	8065
809.6	7997
809.741	8035
809.883	8073
810.025	8134
810.166	8119
810.308	8054
810.45	7978
810.591	7947
810.733	7761
810.875	7780
811.016	7575
811.158	7559
811.299	7632
811.441	7769
811.582	7727
811.724	7639
811.865	7552
812.007	7651
812.148	7643
812.29	7658
812.431	7776
812.573	7906
812.714	8039
812.855	8252
812.997	8320
813.138	8362
813.279	8214
813.421	8191
813.562	8073
813.703	7875
813.845	7792
813.986	7445
814.127	7320
814.268	7327
814.41	7259
814.551	7183
814.692	7232
814.833	7046
814.974	7103
815.115	7141
815.256	7012
815.397	6977
815.539	7000
815.68	6833
815.821	6833
815.962	6966
816.103	6806
816.244	6711
816.385	6677
816.526	6696
816.666	6517
816.807	6319
816.948	6479
817.089	6536
817.23	6483
817.371	6426
817.512	6380
817.653	6448
817.793	6395
817.934	6395
818.075	6506
818.216	6414
818.356	6426
818.497	6273
818.638	6098
818.778	6190
818.919	6117
819.06	6148
819.2	6319
819.341	6266
819.481	6376
819.622	6574
819.762	6707
819.903	6749
820.043	6566
820.184	6536
820.324	6631
820.465	6745
820.605	6700
820.746	6646
820.886	6559
821.026	6707
821.167	6757
821.307	6810
821.447	6833
821.588	6711
821.728	6608
821.868	6517
822.008	6353
822.149	6327
822.289	6437
822.429	6205
822.569	6117
822.709	6148
822.849	5980
822.99	5977
823.13	6007
823.27	5973
823.41	5897
823.55	5824
823.69	5805
823.83	5855
823.97	5718
824.11	5581
824.25	5554
824.389	5566
824.529	5634
824.669	5547
824.809	5710
824.949	5684
825.089	5638
825.228	5573
825.368	5425
825.508	5391
825.648	5402
825.787	5448
825.927	5414
826.067	5296
826.206	5303
826.346	5395
826.485	5398
826.625	5459
826.765	5558
826.904	5516
827.044	5311
827.183	5223
827.323	5140
827.462	5307
827.601	5193
827.741	5227
827.88	5242
828.02	5140
828.159	5197
828.298	5299
828.437	5414
828.577	5315
828.716	5547
828.855	5303
828.994	5212
829.134	5185
829.273	5231
829.412	5155
829.551	5166
829.69	5181
829.829	5258
829.968	5414
830.107	5318
830.246	5315
830.385	5227
830.524	5121
830.663	5094
830.802	5025
830.941	4938
831.08	4866
831.219	5041
831.357	5045
831.496	5181
831.635	4938
831.774	4896
831.913	4854
832.051	4744
832.19	4782
832.329	4824
832.467	4660
832.606	4675
832.744	4793
832.883	4786
833.022	4736
833.16	4835
833.299	4858
833.437	4847
833.576	4900
833.714	4911
833.852	4862
833.991	4892
834.129	5022
834.267	4957
834.406	4957
834.544	5003
834.682	4999
834.821	5033
834.959	5193
835.097	5029
835.235	5193
835.373	5109
835.511	5113
835.65	5052
835.788	5086
835.926	4911
836.064	4885
836.202	4946
836.34	5151
836.478	5299
836.615	5132
836.753	5223
836.891	5288
837.029	5258
837.167	5239
837.305	5170
837.443	5193
837.58	5121
837.718	5284
837.856	5227
837.993	5143
838.131	5292
838.269	5261
838.406	5170
838.544	5227
838.681	5075
838.819	5010
838.956	4946
839.094	4942
839.231	5003
839.369	5143
839.506	5467
839.643	5303
839.781	5022
839.918	5014
840.055	5128
840.193	5143
840.33	5147
840.467	5178
840.604	5185
840.742	5459
840.879	5136
841.016	5102
841.153	5166
841.29	5421
841.427	5337
841.564	5387
841.701	5395
841.838	5299
841.975	5296
842.112	5296
842.249	5132
842.385	5178
842.522	5360
842.659	5193
842.796	5155
842.933	5212
843.069	5204
843.206	5181
843.343	5307
843.479	5280
843.616	5288
843.752	5075
843.889	4991
844.025	5178
844.162	5010
844.298	5239
844.435	5105
844.571	5109
844.708	5204
844.844	5299
844.98	5398
845.117	5280
845.253	5155
845.389	5056
845.525	5185
845.661	5208
845.798	5086
845.934	5155
846.07	5113
846.206	5231
846.342	5341
846.478	5159
846.614	5045
846.75	4953
846.886	4984
847.022	5208
847.158	5060
847.294	5083
847.429	5166
847.565	5090
847.701	5318
847.837	4908
847.972	4809
848.108	4930
848.244	4972
848.379	4786
848.515	4759
848.65	4755
848.786	4774
848.921	4820
849.057	4911
849.192	4938
849.328	4809
849.463	4877
849.598	4839
849.734	4767
849.869	4717
850.004	4637
850.14	4698
850.275	4683
850.41	4607
850.545	4588
850.68	4664
850.815	4679
850.95	4618
851.085	4904
851.22	4790
851.355	4672
851.49	4626
851.625	4672
851.76	4656
851.895	4596
852.03	4516
852.165	4641
852.299	4687
852.434	4866
852.569	4824
852.703	4809
852.838	4889
852.973	4957
853.107	4938
853.242	4778
853.376	4683
853.511	4618
853.645	4698
853.78	4801
853.914	4736
854.048	4740
854.183	4729
854.317	4714
854.451	4938
854.585	4714
854.72	4672
854.854	4816
854.988	4630
855.122	4637
855.256	4542
855.39	4710
855.524	4812
855.658	4717
855.792	4752
855.926	4725
856.06	4763
856.194	4812
856.327	4733
856.461	4656
856.595	4668
856.729	4664
856.862	4801
856.996	4752
857.13	4714
857.263	4809
857.397	4835
857.53	4675
857.664	4759
857.797	4782
857.931	4820
858.064	4683
858.197	4767
858.331	4675
858.464	4668
858.597	4542
858.731	4611
858.864	4694
858.997	4611
859.13	4656
859.263	4687
859.396	4725
859.529	4611
859.662	4603
859.795	4615
859.928	4668
860.061	4774
860.194	4812
860.327	4584
860.46	4615
860.592	4725
860.725	4759
860.858	4679
860.99	4542
861.123	4550
861.256	4554
861.388	4645
861.521	5414
861.653	4508
861.786	4443
861.918	4500
862.05	4546
862.183	4561
862.315	4603
862.447	4649
862.58	4584
862.712	4432
862.844	4356
862.976	4478
863.108	4474
863.24	4881
863.372	4303
863.504	4459
863.636	4402
863.768	4535
863.9	4462
864.032	4428
864.164	4394
864.296	4489
864.428	4523
864.559	4599
864.691	4538
864.823	4542
864.954	4504
865.086	4523
865.217	4462
865.349	4466
865.48	4531
865.612	4466
865.743	4634
865.875	4474
866.006	4436
866.137	4470
866.269	4440
866.4	4474
866.531	4462
866.662	4432
866.793	4421
866.924	4440
867.055	4527
867.186	4440
867.317	4436
867.448	4424
867.579	4390
867.71	4424
867.841	4394
867.972	4440
868.103	4478
868.233	4493
868.364	4493
868.495	4535
868.625	4714
868.756	4767
868.886	4573
869.017	4622
869.147	4793
869.278	4759
869.408	4660
869.539	4675
869.669	4729
869.799	4672
869.929	4774
870.06	4740
870.19	4976
870.32	4957
870.45	4953
870.58	5022
870.71	5105
870.84	5147
870.97	4961
871.1	4919
871.23	5201
871.36	5143
871.489	5003
871.619	5117
871.749	5136
871.879	5155
872.008	5181
872.138	5052
872.267	5006
872.397	4873
872.526	4847
872.656	4755
872.785	4854
872.915	4987
873.044	5052
873.173	5006
873.303	5006
873.432	5010
873.561	4995
873.69	4923
873.819	4889
873.948	4980
874.077	4835
874.206	4793
874.335	4847
874.464	4934
874.593	5079
874.722	4976
874.851	5109
874.979	5048
875.108	5018
875.237	4961
875.365	4915
875.494	4866
875.623	5037
875.751	4870
875.88	4938
876.008	5022
876.136	5022
876.265	5288
876.393	5357
876.521	5311
876.65	5235
876.778	5170
876.906	5079
877.034	5060
877.162	5060
877.29	4991
877.418	5014
877.546	5071
877.674	5109
877.802	5067
877.93	4976
878.058	5006
878.185	4900
878.313	4949
878.441	4938
878.568	4816
878.696	4919
878.824	4984
878.951	4968
879.079	5159
879.206	5326
879.333	5102
879.461	5056
879.588	5029
879.715	5117
879.842	5284
879.97	5025
880.097	4778
880.224	4767
880.351	4862
880.478	4850
880.605	4858
880.732	4816
880.859	5147
880.986	4938
881.112	4919
881.239	4816
881.366	4630
881.493	4615
881.619	4584
881.746	4645
881.872	4641
881.999	4599
882.125	4622
882.252	4801
882.378	4820
882.505	4999
882.631	4824
882.757	4675
882.883	4771
883.01	4706
883.136	4660
883.262	4626
883.388	4653
883.514	4824
883.64	4870
883.766	4835
883.892	4729
884.018	4748
884.143	4923
884.269	5022
884.395	4706
884.52	4641
884.646	4679
884.772	4558
884.897	4596
885.023	4683
885.148	4782
885.274	4881
885.399	4824
885.524	4729
885.65	4691
885.775	4752
885.9	4717
886.025	4858
886.15	4782
886.275	4748
886.4	4653
886.525	4710
886.65	4706
886.775	4694
886.9	4934
887.025	5041
887.149	4850
887.274	4656
887.399	4565
887.523	4580
887.648	4611
887.773	4569
887.897	4767
888.021	4763
888.146	4698
888.27	4847
888.395	4908
888.519	4847
888.643	4862
888.767	4839
888.891	4714
889.015	4596
889.139	4679
889.263	4656
889.387	4725
889.511	4904
889.635	4820
889.759	4660
889.883	4679
890.006	4740
890.13	4858
890.254	4630
890.377	4729
890.501	4577
890.624	4573
890.748	4672
890.871	4459
890.995	4443
891.118	4432
891.241	4519
891.364	4561
891.488	4641
891.611	4493
891.734	4554
891.857	4622
891.98	4588
892.103	4683
892.226	4603
892.349	4554
892.471	4432
892.594	4546
892.717	4626
892.839	4584
892.962	4615
893.085	4672
893.207	4626
893.33	4443
893.452	4523
893.575	4649
893.697	4626
893.819	4797
893.941	4835
894.064	4763
894.186	4615
894.308	4569
894.43	4733
894.552	4843
894.674	4740
894.796	4516
894.918	4634
895.04	4584
895.161	4744
895.283	4664
895.405	4626
895.526	4649
895.648	4706
895.769	4664
895.891	4736
896.012	4793
896.134	4736
896.255	4649
896.376	4660
896.498	4653
896.619	4725
896.74	4622
896.861	4634
896.982	4915
897.103	5083
897.224	4877
897.345	4763
897.466	4683
897.587	4687
897.708	4927
897.828	4793
897.949	4691
898.07	4569
898.19	4645
898.311	4873
898.431	4641
898.552	4782
898.672	4839
898.792	4786
898.913	4763
899.033	4649
899.153	4519
899.273	4474
899.393	4474
899.513	4546
899.633	4535
899.753	4577
899.873	4481
899.993	4546
900.113	4516
900.232	4607
900.352	4531
900.472	4512
900.591	4375
900.711	4531
900.83	4443
900.95	4645
901.069	4698
901.189	4523
901.308	4363
901.427	4337
901.546	4360
901.665	4485
901.784	4584
901.904	4383
902.023	4329
902.141	4238
902.26	4173
902.379	4322
902.498	4249
902.617	4253
902.735	4329
902.854	4394
902.973	4390
903.091	4234
903.21	4238
903.328	4333
903.446	4287
903.565	4291
903.683	4341
903.801	4322
903.919	4443
904.038	4409
904.156	4348
904.274	4508
904.392	4428
904.51	4413
904.627	4485
904.745	4637
904.863	4660
904.981	4417
905.098	4337
905.216	4348
905.334	4402
905.451	4447
905.569	4409
905.686	4596
905.803	4569
905.921	4413
906.038	4504
906.155	4497
906.272	4413
906.389	4504
906.506	4337
906.623	4436
906.74	4402
906.857	4306
906.974	4386
907.091	4584
907.208	4721
907.324	4584
907.441	4493
907.557	4386
907.674	4341
907.79	4310
907.907	4447
908.023	4485
908.139	4428
908.256	4474
908.372	4447
908.488	4489
908.604	4352
908.72	4303
908.836	4375
908.952	4344
909.068	4386
909.184	4573
909.3	4508
909.415	4588
909.531	4569
909.647	4375
909.762	4386
909.878	4367
909.993	4478
910.108	4443
910.224	4409
910.339	4489
910.454	4402
910.57	4383
910.685	4276
910.8	4637
910.915	4603
911.03	4535
911.145	4375
911.259	4303
911.374	4417
911.489	4299
911.604	4234
911.718	4143
911.833	4204
911.947	4086
912.062	4093
912.176	4223
912.291	4246
912.405	4314
912.519	4478
912.633	4485
912.748	4447
912.862	4303
912.976	4257
913.09	4101
913.204	4139
913.318	4242
913.431	4424
913.545	4371
913.659	4424
913.772	4383
913.886	4280
914	4227
914.113	4409
914.226	4447
914.34	4428
914.453	4257
914.566	4436
914.68	4310
914.793	4337
914.906	4196
915.019	4147
915.132	4067
915.245	4169
915.358	4249
915.47	4318
915.583	4268
915.696	4322
915.809	4512
915.921	4436
916.034	4261
916.146	4287
916.259	4242
916.371	4363
916.483	4337
916.595	4246
916.708	4325
916.82	4348
916.932	4329
917.044	4352
917.156	4325
917.268	4219
917.38	4291
917.491	4276
917.603	4352
917.715	4413
917.826	4466
917.938	4360
918.049	4246
918.161	4383
918.272	4596
918.384	4550
918.495	4466
918.606	4314
918.717	4280
918.828	4367
918.939	4371
919.05	4280
919.161	4314
919.272	4158
919.383	4200
919.494	4421
919.604	4672
919.715	4478
919.826	4325
919.936	4428
920.047	4493
920.157	4504
920.267	4733
920.378	4531
920.488	4519
920.598	4752
920.708	4919
920.818	4778
920.928	4778
921.038	4961
921.148	4942
921.258	4679
921.368	4546
921.477	4493
921.587	4462
921.697	4371
921.806	4592
921.916	4455
922.025	4291
922.134	4276
922.244	4249
922.353	4333
922.462	4185
922.571	4116
922.68	3998
922.789	3968
922.898	4051
923.007	3998
923.116	4116
923.224	4040
923.333	4109
923.442	4013
923.55	4040
923.659	4010
923.767	4086
923.876	4017
923.984	4139
924.092	3987
924.201	4093
924.309	4128
924.417	4128
924.525	4086
924.633	4112
924.741	4900
924.849	3964
924.956	4143
925.064	3998
925.172	3937
925.279	3953
925.387	4086
925.494	4093
925.602	4234
925.709	4211
925.816	4029
925.924	4135
926.031	4227
926.138	4207
926.245	4200
926.352	4101
926.459	4306
926.566	4310
926.673	4211
926.779	4093
926.886	4074
926.993	4017
927.099	3983
927.206	3907
927.312	3960
927.419	4090
927.525	4048
927.631	4124
927.737	4002
927.843	3892
927.95	3884
928.056	3934
928.162	4013
928.267	4071
928.373	4672
928.479	4101
928.585	3918
928.69	4086
928.796	4078
928.901	4025
929.007	3865
929.112	4032
929.218	3987
929.323	3956
929.428	3934
929.533	4116
929.638	3937
929.743	3994
929.848	4017
929.953	4025
930.058	3922
930.163	3800
930.267	3854
930.372	3998
930.477	3850
930.581	4105
930.685	3937
930.79	3831
930.894	3926
930.998	3892
931.103	4067
931.207	3770
931.311	3709
931.415	3663
931.519	3545
931.623	3557
