Data from test_V78500241_2527.txt Node
Date: Fri Mar 25 17:06:34 CST 2022
User: usil
Spectrometer: V785-0024
Trigger mode: 0
Integration Time (sec): 4.000000E-1
Scans to average: 1
Nonlinearity correction enabled: false
Boxcar width: 0
Storing dark spectrum: false
XAxis mode: Wavelengths
Number of Pixels in Spectrum: 1024
>>>>>Begin Spectral Data<<<<<
801.071	8031
801.214	7982
801.356	7902
801.499	7845
801.641	7792
801.783	7852
801.926	7986
802.068	7917
802.211	7997
802.353	8024
802.496	7845
802.638	7917
802.78	7913
802.923	7940
803.065	7932
803.208	7906
803.35	8031
803.492	8081
803.635	8123
803.777	7982
803.919	8123
804.061	8446
804.204	8202
804.346	8081
804.488	8005
804.63	8050
804.773	8016
804.915	8123
805.057	8305
805.199	8244
805.341	8206
805.483	8256
805.626	8240
805.768	8107
805.91	8180
806.052	8202
806.194	8050
806.336	8317
806.478	8081
806.62	8008
806.762	8123
806.904	8191
807.046	8457
807.188	8355
807.33	8244
807.472	8301
807.614	8145
807.756	8183
807.898	8008
808.04	7833
808.182	7849
808.324	7898
808.465	7963
808.607	8100
808.749	8088
808.891	8199
809.033	8336
809.174	8229
809.316	8077
809.458	8065
809.6	7997
809.741	8050
809.883	7993
810.025	8065
810.166	8012
810.308	8096
810.45	8031
810.591	7871
810.733	7750
810.875	7655
811.016	7502
811.158	7457
811.299	7609
811.441	7734
811.582	7738
811.724	7590
811.865	7487
812.007	7601
812.148	7624
812.29	7624
812.431	7738
812.573	7792
812.714	7936
812.855	8096
812.997	8134
813.138	8275
813.279	8187
813.421	8050
813.562	8020
813.703	7841
813.845	7746
813.986	7445
814.127	7244
814.268	7168
814.41	7251
814.551	7171
814.692	7190
814.833	7118
814.974	7088
815.115	7141
815.256	7053
815.397	6935
815.539	6920
815.68	6806
815.821	6707
815.962	6814
816.103	6859
816.244	6768
816.385	6692
816.526	6623
816.666	6513
816.807	6361
816.948	6418
817.089	6483
817.23	6464
817.371	6388
817.512	6391
817.653	6395
817.793	6369
817.934	6475
818.075	6441
818.216	6429
818.356	6456
818.497	6247
818.638	6125
818.778	6136
818.919	6125
819.06	6182
819.2	6315
819.341	6327
819.481	6380
819.622	6620
819.762	6741
819.903	6719
820.043	6620
820.184	6555
820.324	6623
820.465	6719
820.605	6669
820.746	6677
820.886	6540
821.026	6684
821.167	6730
821.307	6829
821.447	6821
821.588	6692
821.728	6578
821.868	6502
822.008	6372
822.149	6403
822.289	6331
822.429	6194
822.569	6175
822.709	6152
822.849	5954
822.99	5920
823.13	5988
823.27	5984
823.41	5790
823.55	5832
823.69	5832
823.83	5798
823.97	5691
824.11	5547
824.25	5558
824.389	5570
824.529	5634
824.669	5573
824.809	5703
824.949	5688
825.089	5619
825.228	5615
825.368	5395
825.508	5337
825.648	5364
825.787	5455
825.927	5417
826.067	5360
826.206	5334
826.346	5440
826.485	5406
826.625	5440
826.765	5589
826.904	5497
827.044	5265
827.183	5265
827.323	5151
827.462	5318
827.601	5216
827.741	5273
827.88	5254
828.02	5178
828.159	5250
828.298	5357
828.437	5402
828.577	5303
828.716	5493
828.855	5372
828.994	5223
829.134	5197
829.273	5231
829.412	5159
829.551	5178
829.69	5170
829.829	5261
829.968	5402
830.107	5307
830.246	5273
830.385	5231
830.524	5204
830.663	5109
830.802	5006
830.941	4934
831.08	4938
831.219	5018
831.357	5003
831.496	5162
831.635	4892
831.774	4919
831.913	4847
832.051	4805
832.19	4714
832.329	4889
832.467	4733
832.606	4679
832.744	4774
832.883	4752
833.022	4740
833.16	4786
833.299	4877
833.437	4854
833.576	4843
833.714	4881
833.852	4892
833.991	4911
834.129	5010
834.267	4984
834.406	4961
834.544	5003
834.682	5025
834.821	5010
834.959	5185
835.097	5033
835.235	5212
835.373	5121
835.511	5132
835.65	5045
835.788	5071
835.926	4972
836.064	4923
836.202	4934
836.34	5204
836.478	5216
836.615	5140
836.753	5216
836.891	5341
837.029	5311
837.167	5204
837.305	5189
837.443	5208
837.58	5159
837.718	5227
837.856	5216
837.993	5193
838.131	5292
838.269	5246
838.406	5231
838.544	5250
838.681	5094
838.819	5033
838.956	4870
839.094	4957
839.231	4995
839.369	5067
839.506	5482
839.643	5299
839.781	5136
839.918	5060
840.055	5174
840.193	5105
840.33	5140
840.467	5151
840.604	5201
840.742	5520
840.879	5117
841.016	5102
841.153	5208
841.29	5376
841.427	5337
841.564	5376
841.701	5452
841.838	5334
841.975	5303
842.112	5311
842.249	5143
842.385	5140
842.522	5368
842.659	5227
842.796	5204
842.933	5208
843.069	5193
843.206	5201
843.343	5360
843.479	5250
843.616	5307
843.752	5079
843.889	5121
844.025	5269
844.162	5083
844.298	5216
844.435	5140
844.571	5117
844.708	5250
844.844	5337
844.98	5311
845.117	5311
845.253	5197
845.389	5155
845.525	5178
845.661	5159
845.798	5045
845.934	5147
846.07	5075
846.206	5227
846.342	5284
846.478	5178
846.614	5060
846.75	5033
846.886	4976
847.022	5162
847.158	4999
847.294	5090
847.429	5136
847.565	5090
847.701	5364
847.837	4915
847.972	4862
848.108	4999
848.244	4938
848.379	4805
848.515	4759
848.65	4752
848.786	4782
848.921	4828
849.057	4900
849.192	4942
849.328	4877
849.463	4885
849.598	4831
849.734	4790
849.869	4717
850.004	4653
850.14	4729
850.275	4622
850.41	4580
850.545	4626
850.68	4649
850.815	4675
850.95	4622
851.085	4881
851.22	4786
851.355	4721
851.49	4702
851.625	4656
851.76	4607
851.895	4603
852.03	4649
852.165	4656
852.299	4736
852.434	4805
852.569	4793
852.703	4816
852.838	4885
852.973	4953
853.107	4957
853.242	4767
853.376	4668
853.511	4546
853.645	4656
853.78	4862
853.914	4694
854.048	4672
854.183	4679
854.317	4736
854.451	4881
854.585	4668
854.72	4687
854.854	4786
854.988	4664
855.122	4733
855.256	4565
855.39	4733
855.524	4828
855.658	4774
855.792	4725
855.926	4782
856.06	4706
856.194	4831
856.327	4672
856.461	4622
856.595	4660
856.729	4668
856.862	4809
856.996	4679
857.13	4744
857.263	4805
857.397	4835
857.53	4710
857.664	4752
857.797	4744
857.931	4771
858.064	4687
858.197	4786
858.331	4687
858.464	4599
858.597	4573
858.731	4645
858.864	4694
858.997	4634
859.13	4622
859.263	4717
859.396	4698
859.529	4607
859.662	4577
859.795	4580
859.928	4664
860.061	4752
860.194	4759
860.327	4672
860.46	4611
860.592	4725
860.725	4752
860.858	4721
860.99	4561
861.123	4546
861.256	4561
861.388	4656
861.521	5189
861.653	4523
861.786	4466
861.918	4516
862.05	4569
862.183	4569
862.315	4664
862.447	4736
862.58	4626
862.712	4424
862.844	4329
862.976	4500
863.108	4478
863.24	4790
863.372	4341
863.504	4432
863.636	4405
863.768	4478
863.9	4421
864.032	4428
864.164	4402
864.296	4497
864.428	4542
864.559	4584
864.691	4569
864.823	4523
864.954	4500
865.086	4569
865.217	4470
865.349	4402
865.48	4455
865.612	4561
865.743	4664
865.875	4523
866.006	4474
866.137	4512
866.269	4451
866.4	4466
866.531	4474
866.662	4356
866.793	4424
866.924	4436
867.055	4516
867.186	4497
867.317	4405
867.448	4409
867.579	4409
867.71	4440
867.841	4443
867.972	4462
868.103	4466
868.233	4512
868.364	4474
868.495	4493
868.625	4683
868.756	4744
868.886	4565
869.017	4675
869.147	4809
869.278	4782
869.408	4736
869.539	4649
869.669	4733
869.799	4698
869.929	4793
870.06	4790
870.19	4987
870.32	4984
870.45	4938
870.58	5022
870.71	5128
870.84	5143
870.97	4961
871.1	4953
871.23	5178
871.36	5132
871.489	5056
871.619	5094
871.749	5109
871.879	5147
872.008	5201
872.138	5052
872.267	4995
872.397	4866
872.526	4831
872.656	4774
872.785	4839
872.915	4968
873.044	5067
873.173	4953
873.303	4972
873.432	5014
873.561	4968
873.69	4881
873.819	4900
873.948	4889
874.077	4812
874.206	4774
874.335	4828
874.464	4911
874.593	5071
874.722	4995
874.851	5181
874.979	5102
875.108	5071
875.237	4953
875.365	4854
875.494	4896
875.623	4965
875.751	4862
875.88	4866
876.008	4968
876.136	5045
876.265	5193
876.393	5345
876.521	5265
876.65	5284
876.778	5166
876.906	5094
877.034	5083
877.162	5071
877.29	5029
877.418	5045
877.546	5003
877.674	5060
877.802	5067
877.93	4999
878.058	5010
878.185	4908
878.313	4984
878.441	4957
878.568	4801
878.696	4930
878.824	4915
878.951	5029
879.079	5128
879.206	5307
879.333	5109
879.461	5006
879.588	4972
879.715	5128
879.842	5227
879.97	5041
880.097	4839
880.224	4774
880.351	4873
880.478	4870
880.605	4824
880.732	4831
880.859	5124
880.986	4919
881.112	4919
881.239	4809
881.366	4668
881.493	4622
881.619	4607
881.746	4622
881.872	4634
881.999	4634
882.125	4710
882.252	4824
882.378	4835
882.505	4968
882.631	4812
882.757	4694
882.883	4736
883.01	4733
883.136	4687
883.262	4687
883.388	4622
883.514	4809
883.64	4946
883.766	4847
883.892	4725
884.018	4698
884.143	4911
884.269	5033
884.395	4694
884.52	4622
884.646	4645
884.772	4645
884.897	4603
885.023	4679
885.148	4816
885.274	4854
885.399	4835
885.524	4717
885.65	4763
885.775	4744
885.9	4721
886.025	4847
886.15	4824
886.275	4733
886.4	4641
886.525	4759
886.65	4702
886.775	4694
886.9	4927
887.025	5025
887.149	4873
887.274	4672
887.399	4618
887.523	4656
887.648	4535
887.773	4584
887.897	4755
888.021	4850
888.146	4710
888.27	4873
888.395	4881
888.519	4793
888.643	4816
888.767	4850
888.891	4691
889.015	4584
889.139	4611
889.263	4626
889.387	4752
889.511	4877
889.635	4824
889.759	4656
889.883	4641
890.006	4748
890.13	4862
890.254	4599
890.377	4702
890.501	4580
890.624	4565
890.748	4660
890.871	4489
890.995	4500
891.118	4409
891.241	4527
891.364	4596
891.488	4656
891.611	4531
891.734	4550
891.857	4577
891.98	4573
892.103	4687
892.226	4634
892.349	4535
892.471	4436
892.594	4607
892.717	4611
892.839	4584
892.962	4626
893.085	4694
893.207	4561
893.33	4481
893.452	4550
893.575	4664
893.697	4615
893.819	4820
893.941	4850
894.064	4774
894.186	4584
894.308	4546
894.43	4759
894.552	4786
894.674	4786
894.796	4523
894.918	4569
895.04	4558
895.161	4714
895.283	4622
895.405	4641
895.526	4630
895.648	4744
895.769	4679
895.891	4744
896.012	4774
896.134	4721
896.255	4611
896.376	4611
896.498	4653
896.619	4649
896.74	4622
896.861	4679
896.982	4942
897.103	5067
897.224	4850
897.345	4748
897.466	4672
897.587	4759
897.708	4850
897.828	4809
897.949	4710
898.07	4573
898.19	4653
898.311	4877
898.431	4660
898.552	4729
898.672	4816
898.792	4820
898.913	4706
899.033	4615
899.153	4527
899.273	4432
899.393	4512
899.513	4523
899.633	4523
899.753	4561
899.873	4538
899.993	4565
900.113	4546
900.232	4580
900.352	4489
900.472	4459
900.591	4428
900.711	4443
900.83	4459
900.95	4634
901.069	4694
901.189	4558
901.308	4402
901.427	4303
901.546	4375
901.665	4451
901.784	4531
901.904	4409
902.023	4352
902.141	4223
902.26	4162
902.379	4284
902.498	4230
902.617	4223
902.735	4383
902.854	4417
902.973	4405
903.091	4257
903.21	4246
903.328	4306
903.446	4314
903.565	4291
903.683	4348
903.801	4280
903.919	4447
904.038	4462
904.156	4299
904.274	4436
904.392	4363
904.51	4424
904.627	4451
904.745	4584
904.863	4634
904.981	4383
905.098	4295
905.216	4383
905.334	4466
905.451	4451
905.569	4459
905.686	4558
905.803	4573
905.921	4443
906.038	4516
906.155	4500
906.272	4398
906.389	4462
906.506	4379
906.623	4394
906.74	4383
906.857	4303
906.974	4360
907.091	4573
907.208	4672
907.324	4584
907.441	4508
907.557	4333
907.674	4348
907.79	4306
907.907	4405
908.023	4474
908.139	4470
908.256	4443
908.372	4485
908.488	4512
908.604	4341
908.72	4367
908.836	4421
908.952	4417
909.068	4417
909.184	4588
909.3	4455
909.415	4588
909.531	4592
909.647	4344
909.762	4348
909.878	4348
909.993	4402
910.108	4405
910.224	4413
910.339	4466
910.454	4421
910.57	4348
910.685	4344
910.8	4645
910.915	4573
911.03	4485
911.145	4383
911.259	4394
911.374	4363
911.489	4329
911.604	4291
911.718	4177
911.833	4223
911.947	4093
912.062	4059
912.176	4211
912.291	4257
912.405	4310
912.519	4451
912.633	4497
912.748	4333
912.862	4337
912.976	4211
913.09	4112
913.204	4188
913.318	4284
913.431	4428
913.545	4352
913.659	4424
913.772	4371
913.886	4261
914	4257
914.113	4356
914.226	4459
914.34	4360
914.453	4246
914.566	4432
914.68	4291
914.793	4371
914.906	4154
915.019	4150
915.132	4097
915.245	4181
915.358	4223
915.47	4257
915.583	4207
915.696	4268
915.809	4402
915.921	4443
916.034	4253
916.146	4276
916.259	4204
916.371	4375
916.483	4360
916.595	4287
916.708	4360
916.82	4329
916.932	4337
917.044	4314
917.156	4363
917.268	4246
917.38	4287
917.491	4215
917.603	4398
917.715	4417
917.826	4455
917.938	4390
918.049	4227
918.161	4424
918.272	4546
918.384	4550
918.495	4390
918.606	4314
918.717	4242
918.828	4375
918.939	4383
919.05	4268
919.161	4402
919.272	4120
919.383	4223
919.494	4466
919.604	4653
919.715	4394
919.826	4409
919.936	4379
920.047	4596
920.157	4504
920.267	4748
920.378	4546
920.488	4527
920.598	4740
920.708	4843
920.818	4771
920.928	4736
921.038	4949
921.148	4908
921.258	4637
921.368	4527
921.477	4497
921.587	4440
921.697	4360
921.806	4569
921.916	4421
922.025	4253
922.134	4306
922.244	4211
922.353	4322
922.462	4166
922.571	4120
922.68	3987
922.789	4002
922.898	4029
923.007	3972
923.116	4074
923.224	4074
923.333	4074
923.442	4017
923.55	4006
923.659	3964
923.767	4105
923.876	4013
923.984	4090
924.092	3998
924.201	4040
924.309	4105
924.417	4086
924.525	4082
924.633	4112
924.741	5064
924.849	3922
924.956	4105
925.064	3979
925.172	3899
925.279	3991
925.387	4051
925.494	4067
925.602	4238
925.709	4188
925.816	4010
925.924	4177
926.031	4215
926.138	4135
926.245	4196
926.352	4105
926.459	4230
926.566	4306
926.673	4143
926.779	4090
926.886	4025
926.993	3991
927.099	3934
927.206	3960
927.312	3972
927.419	4048
927.525	4021
927.631	4131
927.737	3953
927.843	3918
927.95	3857
928.056	3975
928.162	4021
928.267	4067
928.373	4588
928.479	4162
928.585	3884
928.69	3998
928.796	4071
928.901	3975
929.007	3850
929.112	3998
929.218	3949
929.323	3968
929.428	3911
929.533	4097
929.638	3915
929.743	3968
929.848	4044
929.953	3991
930.058	3926
930.163	3789
930.267	3808
930.372	3964
930.477	3778
930.581	4067
930.685	3930
930.79	3827
930.894	3850
930.998	3854
931.103	4055
931.207	3713
931.311	3694
931.415	3698
931.519	3519
931.623	3561
