Data from test_V78500241_2151.txt Node
Date: Fri Mar 25 17:03:57 CST 2022
User: usil
Spectrometer: V785-0024
Trigger mode: 0
Integration Time (sec): 4.000000E-1
Scans to average: 1
Nonlinearity correction enabled: false
Boxcar width: 0
Storing dark spectrum: false
XAxis mode: Wavelengths
Number of Pixels in Spectrum: 1024
>>>>>Begin Spectral Data<<<<<
801.071	7928
801.214	7974
801.356	7864
801.499	7830
801.641	7818
801.783	7776
801.926	7898
802.068	7986
802.211	7955
802.353	7967
802.496	7830
802.638	7833
802.78	7792
802.923	7909
803.065	7833
803.208	7890
803.35	7974
803.492	8134
803.635	8206
803.777	7989
803.919	8172
804.061	8434
804.204	8183
804.346	8054
804.488	7940
804.63	8020
804.773	8008
804.915	8164
805.057	8256
805.199	8164
805.341	8187
805.483	8229
805.626	8180
805.768	8084
805.91	8206
806.052	8240
806.194	8130
806.336	8294
806.478	8130
806.62	8092
806.762	8081
806.904	8229
807.046	8450
807.188	8286
807.33	8336
807.472	8233
807.614	8153
807.756	8145
807.898	8084
808.04	7864
808.182	7833
808.324	7822
808.465	7887
808.607	8081
808.749	8039
808.891	8172
809.033	8332
809.174	8267
809.316	8096
809.458	8107
809.6	7970
809.741	7940
809.883	8020
810.025	8214
810.166	7993
810.308	7982
810.45	7959
810.591	7845
810.733	7738
810.875	7643
811.016	7556
811.158	7460
811.299	7674
811.441	7727
811.582	7632
811.724	7575
811.865	7529
812.007	7609
812.148	7544
812.29	7620
812.431	7731
812.573	7830
812.714	7955
812.855	8164
812.997	8161
813.138	8317
813.279	8187
813.421	8046
813.562	7917
813.703	7837
813.845	7719
813.986	7419
814.127	7240
814.268	7247
814.41	7247
814.551	7206
814.692	7247
814.833	7110
814.974	7065
815.115	7042
815.256	7023
815.397	6916
815.539	6966
815.68	6776
815.821	6779
815.962	6859
816.103	6837
816.244	6681
816.385	6601
816.526	6620
816.666	6471
816.807	6232
816.948	6467
817.089	6433
817.23	6445
817.371	6361
817.512	6331
817.653	6399
817.793	6365
817.934	6372
818.075	6433
818.216	6414
818.356	6350
818.497	6239
818.638	6095
818.778	6125
818.919	6129
819.06	6171
819.2	6277
819.341	6319
819.481	6395
819.622	6559
819.762	6681
819.903	6673
820.043	6601
820.184	6555
820.324	6616
820.465	6677
820.605	6711
820.746	6631
820.886	6513
821.026	6650
821.167	6715
821.307	6768
821.447	6707
821.588	6635
821.728	6597
821.868	6506
822.008	6323
822.149	6346
822.289	6361
822.429	6152
822.569	6091
822.709	6076
822.849	5878
822.99	5874
823.13	5946
823.27	5889
823.41	5798
823.55	5752
823.69	5794
823.83	5771
823.97	5646
824.11	5509
824.25	5478
824.389	5554
824.529	5570
824.669	5532
824.809	5661
824.949	5615
825.089	5611
825.228	5547
825.368	5376
825.508	5349
825.648	5345
825.787	5414
825.927	5360
826.067	5299
826.206	5269
826.346	5376
826.485	5402
826.625	5387
826.765	5512
826.904	5467
827.044	5265
827.183	5239
827.323	5159
827.462	5250
827.601	5166
827.741	5208
827.88	5185
828.02	5102
828.159	5216
828.298	5334
828.437	5410
828.577	5254
828.716	5474
828.855	5307
828.994	5189
829.134	5102
829.273	5166
829.412	5109
829.551	5052
829.69	5185
829.829	5273
829.968	5353
830.107	5299
830.246	5254
830.385	5132
830.524	5181
830.663	5048
830.802	5025
830.941	4892
831.08	4873
831.219	4934
831.357	4995
831.496	5121
831.635	4896
831.774	4873
831.913	4892
832.051	4748
832.19	4748
832.329	4793
832.467	4672
832.606	4668
832.744	4675
832.883	4733
833.022	4691
833.16	4774
833.299	4820
833.437	4850
833.576	4858
833.714	4873
833.852	4839
833.991	4904
834.129	4972
834.267	4957
834.406	4900
834.544	4980
834.682	5025
834.821	4934
834.959	5143
835.097	4965
835.235	5136
835.373	5079
835.511	5052
835.65	5010
835.788	5029
835.926	4870
836.064	4892
836.202	4889
836.34	5132
836.478	5223
836.615	5113
836.753	5189
836.891	5277
837.029	5208
837.167	5216
837.305	5151
837.443	5162
837.58	5060
837.718	5261
837.856	5162
837.993	5166
838.131	5216
838.269	5223
838.406	5201
838.544	5220
838.681	5052
838.819	5033
838.956	4946
839.094	4835
839.231	4892
839.369	5071
839.506	5459
839.643	5231
839.781	5048
839.918	4991
840.055	5105
840.193	5079
840.33	5117
840.467	5117
840.604	5212
840.742	5486
840.879	5067
841.016	5094
841.153	5174
841.29	5406
841.427	5349
841.564	5231
841.701	5296
841.838	5261
841.975	5178
842.112	5273
842.249	5132
842.385	5105
842.522	5296
842.659	5212
842.796	5094
842.933	5185
843.069	5166
843.206	5102
843.343	5322
843.479	5220
843.616	5292
843.752	5029
843.889	4953
844.025	5212
844.162	5006
844.298	5201
844.435	5060
844.571	5052
844.708	5178
844.844	5330
844.98	5349
845.117	5280
845.253	5109
845.389	5102
845.525	5189
845.661	5136
845.798	5041
845.934	5136
846.07	5067
846.206	5174
846.342	5299
846.478	5185
846.614	5025
846.75	4987
846.886	4942
847.022	5109
847.158	5029
847.294	5079
847.429	5090
847.565	5045
847.701	5330
847.837	4873
847.972	4820
848.108	4930
848.244	4911
848.379	4763
848.515	4729
848.65	4752
848.786	4725
848.921	4744
849.057	4839
849.192	4946
849.328	4797
849.463	4831
849.598	4740
849.734	4729
849.869	4683
850.004	4634
850.14	4664
850.275	4592
850.41	4542
850.545	4558
850.68	4611
850.815	4668
850.95	4611
851.085	4782
851.22	4771
851.355	4664
851.49	4649
851.625	4645
851.76	4573
851.895	4531
852.03	4519
852.165	4599
852.299	4729
852.434	4805
852.569	4733
852.703	4752
852.838	4828
852.973	4896
853.107	4870
853.242	4729
853.376	4634
853.511	4561
853.645	4622
853.78	4782
853.914	4683
854.048	4649
854.183	4687
854.317	4710
854.451	4831
854.585	4672
854.72	4630
854.854	4714
854.988	4573
855.122	4679
855.256	4535
855.39	4679
855.524	4797
855.658	4729
855.792	4729
855.926	4778
856.06	4778
856.194	4786
856.327	4744
856.461	4607
856.595	4607
856.729	4580
856.862	4752
856.996	4679
857.13	4740
857.263	4752
857.397	4771
857.53	4736
857.664	4687
857.797	4736
857.931	4790
858.064	4721
858.197	4679
858.331	4656
858.464	4634
858.597	4527
858.731	4592
858.864	4626
858.997	4618
859.13	4611
859.263	4622
859.396	4687
859.529	4603
859.662	4554
859.795	4527
859.928	4607
860.061	4721
860.194	4797
860.327	4611
860.46	4565
860.592	4710
860.725	4706
860.858	4763
860.99	4538
861.123	4535
861.256	4504
861.388	4626
861.521	5433
861.653	4493
861.786	4409
861.918	4443
862.05	4550
862.183	4535
862.315	4592
862.447	4626
862.58	4546
862.712	4443
862.844	4344
862.976	4519
863.108	4462
863.24	4774
863.372	4394
863.504	4413
863.636	4417
863.768	4500
863.9	4440
864.032	4383
864.164	4451
864.296	4497
864.428	4550
864.559	4523
864.691	4569
864.823	4485
864.954	4481
865.086	4462
865.217	4421
865.349	4363
865.48	4447
865.612	4466
865.743	4588
865.875	4493
866.006	4440
866.137	4462
866.269	4443
866.4	4383
866.531	4436
866.662	4360
866.793	4409
866.924	4424
867.055	4493
867.186	4470
867.317	4428
867.448	4367
867.579	4402
867.71	4363
867.841	4363
867.972	4470
868.103	4436
868.233	4443
868.364	4474
868.495	4455
868.625	4645
868.756	4710
868.886	4542
869.017	4588
869.147	4725
869.278	4763
869.408	4607
869.539	4611
869.669	4691
869.799	4668
869.929	4748
870.06	4736
870.19	4934
870.32	4889
870.45	4980
870.58	4987
870.71	5102
870.84	5109
870.97	4938
871.1	4881
871.23	5090
871.36	5121
871.489	5014
871.619	5117
871.749	5098
871.879	5083
872.008	5155
872.138	4991
872.267	4987
872.397	4854
872.526	4797
872.656	4714
872.785	4767
872.915	4938
873.044	5045
873.173	4949
873.303	5022
873.432	4915
873.561	4949
873.69	4892
873.819	4816
873.948	4919
874.077	4820
874.206	4786
874.335	4793
874.464	4885
874.593	5033
874.722	4949
874.851	5102
874.979	5071
875.108	5006
875.237	4900
875.365	4873
875.494	4927
875.623	4995
875.751	4835
875.88	4889
876.008	4968
876.136	5018
876.265	5197
876.393	5318
876.521	5303
876.65	5193
876.778	5124
876.906	5033
877.034	5064
877.162	5064
877.29	4976
877.418	5109
877.546	5022
877.674	5052
877.802	5033
877.93	5022
878.058	4927
878.185	4866
878.313	4915
878.441	4953
878.568	4786
878.696	4873
878.824	4984
878.951	5003
879.079	5155
879.206	5212
879.333	5136
879.461	5006
879.588	4987
879.715	5071
879.842	5227
879.97	4995
880.097	4801
880.224	4763
880.351	4847
880.478	4820
880.605	4793
880.732	4797
880.859	5067
880.986	4915
881.112	4904
881.239	4801
881.366	4672
881.493	4626
881.619	4596
881.746	4615
881.872	4672
881.999	4649
882.125	4668
882.252	4782
882.378	4816
882.505	4949
882.631	4793
882.757	4683
882.883	4736
883.01	4702
883.136	4660
883.262	4569
883.388	4577
883.514	4835
883.64	4904
883.766	4801
883.892	4691
884.018	4694
884.143	4900
884.269	4995
884.395	4675
884.52	4603
884.646	4660
884.772	4603
884.897	4577
885.023	4656
885.148	4763
885.274	4908
885.399	4782
885.524	4694
885.65	4664
885.775	4729
885.9	4679
886.025	4778
886.15	4801
886.275	4683
886.4	4664
886.525	4736
886.65	4656
886.775	4729
886.9	4915
887.025	4976
887.149	4816
887.274	4672
887.399	4592
887.523	4607
887.648	4622
887.773	4546
887.897	4782
888.021	4748
888.146	4637
888.27	4805
888.395	4915
888.519	4778
888.643	4816
888.767	4759
888.891	4668
889.015	4584
889.139	4634
889.263	4618
889.387	4797
889.511	4812
889.635	4797
889.759	4630
889.883	4649
890.006	4706
890.13	4850
890.254	4607
890.377	4679
890.501	4535
890.624	4508
890.748	4630
890.871	4497
890.995	4466
891.118	4367
891.241	4561
891.364	4508
891.488	4603
891.611	4512
891.734	4485
891.857	4607
891.98	4588
892.103	4691
892.226	4565
892.349	4554
892.471	4466
892.594	4546
892.717	4618
892.839	4596
892.962	4561
893.085	4672
893.207	4611
893.33	4447
893.452	4508
893.575	4702
893.697	4538
893.819	4763
893.941	4790
894.064	4793
894.186	4599
894.308	4561
894.43	4706
894.552	4786
894.674	4759
894.796	4550
894.918	4558
895.04	4603
895.161	4660
895.283	4668
895.405	4546
895.526	4580
895.648	4664
895.769	4653
895.891	4672
896.012	4736
896.134	4706
896.255	4679
896.376	4653
896.498	4618
896.619	4660
896.74	4588
896.861	4660
896.982	4911
897.103	5098
897.224	4839
897.345	4801
897.466	4603
897.587	4744
897.708	4809
897.828	4778
897.949	4618
898.07	4558
898.19	4630
898.311	4805
898.431	4721
898.552	4733
898.672	4790
898.792	4778
898.913	4801
899.033	4668
899.153	4531
899.273	4432
899.393	4459
899.513	4516
899.633	4485
899.753	4508
899.873	4485
899.993	4615
900.113	4493
900.232	4493
900.352	4542
900.472	4455
900.591	4371
900.711	4493
900.83	4432
900.95	4599
901.069	4706
901.189	4569
901.308	4352
901.427	4303
901.546	4405
901.665	4455
901.784	4470
901.904	4383
902.023	4333
902.141	4158
902.26	4185
902.379	4265
902.498	4215
902.617	4192
902.735	4367
902.854	4402
902.973	4352
903.091	4188
903.21	4230
903.328	4318
903.446	4318
903.565	4272
903.683	4333
903.801	4276
903.919	4363
904.038	4421
904.156	4306
904.274	4462
904.392	4398
904.51	4459
904.627	4466
904.745	4573
904.863	4622
904.981	4428
905.098	4325
905.216	4371
905.334	4432
905.451	4363
905.569	4447
905.686	4516
905.803	4550
905.921	4409
906.038	4588
906.155	4474
906.272	4360
906.389	4455
906.506	4379
906.623	4379
906.74	4428
906.857	4360
906.974	4337
907.091	4577
907.208	4736
907.324	4565
907.441	4519
907.557	4322
907.674	4337
907.79	4348
907.907	4394
908.023	4481
908.139	4466
908.256	4375
908.372	4497
908.488	4466
908.604	4341
908.72	4295
908.836	4379
908.952	4405
909.068	4440
909.184	4561
909.3	4428
909.415	4580
909.531	4558
909.647	4318
909.762	4360
909.878	4333
909.993	4398
910.108	4443
910.224	4417
910.339	4466
910.454	4421
910.57	4333
910.685	4306
910.8	4634
910.915	4584
911.03	4523
911.145	4295
911.259	4360
911.374	4367
911.489	4253
911.604	4280
911.718	4147
911.833	4204
911.947	4071
912.062	3994
912.176	4192
912.291	4253
912.405	4238
912.519	4470
912.633	4493
912.748	4383
912.862	4341
912.976	4219
913.09	4093
913.204	4166
913.318	4219
913.431	4375
913.545	4363
913.659	4436
913.772	4379
913.886	4268
914	4238
914.113	4371
914.226	4440
914.34	4398
914.453	4227
914.566	4421
914.68	4272
914.793	4344
914.906	4154
915.019	4124
915.132	4078
915.245	4177
915.358	4200
915.47	4230
915.583	4249
915.696	4322
915.809	4432
915.921	4451
916.034	4215
916.146	4249
916.259	4200
916.371	4371
916.483	4352
916.595	4234
916.708	4303
916.82	4306
916.932	4310
917.044	4322
917.156	4295
917.268	4246
917.38	4234
917.491	4268
917.603	4299
917.715	4375
917.826	4428
917.938	4371
918.049	4265
918.161	4363
918.272	4497
918.384	4542
918.495	4462
918.606	4337
918.717	4238
918.828	4341
918.939	4367
919.05	4253
919.161	4337
919.272	4181
919.383	4211
919.494	4421
919.604	4618
919.715	4440
919.826	4344
919.936	4402
920.047	4489
920.157	4466
920.267	4668
920.378	4527
920.488	4493
920.598	4672
920.708	4881
920.818	4717
920.928	4721
921.038	4984
921.148	4972
921.258	4630
921.368	4596
921.477	4542
921.587	4455
921.697	4314
921.806	4531
921.916	4443
922.025	4276
922.134	4238
922.244	4211
922.353	4287
922.462	4116
922.571	4082
922.68	3975
922.789	3987
922.898	4048
923.007	3945
923.116	4078
923.224	4055
923.333	4055
923.442	3994
923.55	3994
923.659	4032
923.767	4120
923.876	3968
923.984	4090
924.092	3968
924.201	4044
924.309	4109
924.417	4067
924.525	4071
924.633	4097
924.741	5033
924.849	3930
924.956	4112
925.064	3983
925.172	3876
925.279	3960
925.387	4074
925.494	4063
925.602	4158
925.709	4211
925.816	4013
925.924	4192
926.031	4276
926.138	4131
926.245	4227
926.352	4051
926.459	4188
926.566	4276
926.673	4177
926.779	4086
926.886	4040
926.993	3979
927.099	3934
927.206	3918
927.312	3930
927.419	4063
927.525	4010
927.631	4120
927.737	3926
927.843	3941
927.95	3819
928.056	3968
928.162	4002
928.267	4063
928.373	4698
928.479	4090
928.585	3907
928.69	3964
928.796	4116
928.901	3945
929.007	3869
929.112	4025
929.218	3983
929.323	3922
929.428	3911
929.533	4109
929.638	3888
929.743	3983
929.848	4002
929.953	3964
930.058	3880
930.163	3789
930.267	3797
930.372	3991
930.477	3812
930.581	4082
930.685	3930
930.79	3797
930.894	3892
930.998	3819
931.103	3998
931.207	3728
931.311	3652
931.415	3690
931.519	3488
931.623	3572
