Data from test_V78500241_768.txt Node
Date: Fri Mar 25 16:54:20 CST 2022
User: usil
Spectrometer: V785-0024
Trigger mode: 0
Integration Time (sec): 4.000000E-1
Scans to average: 1
Nonlinearity correction enabled: false
Boxcar width: 0
Storing dark spectrum: false
XAxis mode: Wavelengths
Number of Pixels in Spectrum: 1024
>>>>>Begin Spectral Data<<<<<
801.071	7940
801.214	7951
801.356	7864
801.499	7856
801.641	7761
801.783	7837
801.926	7925
802.068	7898
802.211	7909
802.353	8020
802.496	7883
802.638	7856
802.78	7906
802.923	7868
803.065	7871
803.208	7921
803.35	7989
803.492	8157
803.635	8183
803.777	8046
803.919	8142
804.061	8351
804.204	8153
804.346	8062
804.488	7940
804.63	8115
804.773	8043
804.915	8046
805.057	8298
805.199	8073
805.341	8145
805.483	8279
805.626	8195
805.768	8092
805.91	8123
806.052	8202
806.194	8065
806.336	8237
806.478	8027
806.62	8024
806.762	8164
806.904	8267
807.046	8530
807.188	8294
807.33	8225
807.472	8339
807.614	8138
807.756	8164
807.898	7982
808.04	7928
808.182	7982
808.324	7887
808.465	7925
808.607	7986
808.749	8100
808.891	8164
809.033	8313
809.174	8206
809.316	8001
809.458	8069
809.6	7944
809.741	8069
809.883	8050
810.025	8100
810.166	8054
810.308	8062
810.45	8012
810.591	7879
810.733	7734
810.875	7689
811.016	7514
811.158	7529
811.299	7563
811.441	7712
811.582	7628
811.724	7594
811.865	7495
812.007	7559
812.148	7559
812.29	7616
812.431	7689
812.573	7841
812.714	7913
812.855	8100
812.997	8195
813.138	8275
813.279	8168
813.421	8050
813.562	7951
813.703	7944
813.845	7704
813.986	7510
814.127	7274
814.268	7255
814.41	7232
814.551	7069
814.692	7141
814.833	7034
814.974	7110
815.115	7080
815.256	6985
815.397	6947
815.539	6943
815.68	6837
815.821	6772
815.962	6856
816.103	6798
816.244	6677
816.385	6662
816.526	6639
816.666	6414
816.807	6277
816.948	6426
817.089	6403
817.23	6460
817.371	6369
817.512	6365
817.653	6414
817.793	6334
817.934	6422
818.075	6441
818.216	6346
818.356	6319
818.497	6239
818.638	6060
818.778	6163
818.919	6152
819.06	6155
819.2	6315
819.341	6251
819.481	6308
819.622	6574
819.762	6806
819.903	6688
820.043	6547
820.184	6593
820.324	6597
820.465	6684
820.605	6669
820.746	6650
820.886	6528
821.026	6700
821.167	6715
821.307	6715
821.447	6798
821.588	6612
821.728	6547
821.868	6441
822.008	6350
822.149	6350
822.289	6384
822.429	6095
822.569	6114
822.709	6098
822.849	5878
822.99	5923
823.13	5916
823.27	5897
823.41	5775
823.55	5786
823.69	5817
823.83	5764
823.97	5714
824.11	5532
824.25	5474
824.389	5539
824.529	5642
824.669	5551
824.809	5592
824.949	5684
825.089	5581
825.228	5596
825.368	5410
825.508	5353
825.648	5326
825.787	5345
825.927	5357
826.067	5299
826.206	5277
826.346	5383
826.485	5398
826.625	5353
826.765	5482
826.904	5444
827.044	5277
827.183	5235
827.323	5143
827.462	5212
827.601	5143
827.741	5181
827.88	5227
828.02	5113
828.159	5258
828.298	5280
828.437	5349
828.577	5265
828.716	5490
828.855	5315
828.994	5170
829.134	5155
829.273	5136
829.412	5102
829.551	5121
829.69	5147
829.829	5242
829.968	5326
830.107	5239
830.246	5235
830.385	5174
830.524	5109
830.663	5094
830.802	4972
830.941	4923
831.08	4892
831.219	4968
831.357	5018
831.496	5136
831.635	4908
831.774	4835
831.913	4866
832.051	4714
832.19	4706
832.329	4812
832.467	4736
832.606	4611
832.744	4733
832.883	4733
833.022	4755
833.16	4774
833.299	4793
833.437	4870
833.576	4850
833.714	4870
833.852	4850
833.991	4908
834.129	4965
834.267	4946
834.406	4946
834.544	4972
834.682	4961
834.821	5006
834.959	5197
835.097	5003
835.235	5121
835.373	5048
835.511	5113
835.65	4980
835.788	4987
835.926	4870
836.064	4847
836.202	4938
836.34	5109
836.478	5246
836.615	5075
836.753	5197
836.891	5265
837.029	5208
837.167	5185
837.305	5181
837.443	5174
837.58	5098
837.718	5242
837.856	5185
837.993	5136
838.131	5227
838.269	5189
838.406	5181
838.544	5201
838.681	5064
838.819	5064
838.956	4877
839.094	4915
839.231	4976
839.369	5098
839.506	5360
839.643	5296
839.781	5025
839.918	5025
840.055	5105
840.193	5098
840.33	5109
840.467	5151
840.604	5132
840.742	5406
840.879	5064
841.016	5109
841.153	5121
841.29	5353
841.427	5299
841.564	5269
841.701	5330
841.838	5250
841.975	5178
842.112	5242
842.249	5094
842.385	5113
842.522	5322
842.659	5143
842.796	5178
842.933	5204
843.069	5109
843.206	5170
843.343	5341
843.479	5197
843.616	5261
843.752	5045
843.889	5014
844.025	5201
844.162	4957
844.298	5239
844.435	5064
844.571	5045
844.708	5155
844.844	5330
844.98	5296
845.117	5303
845.253	5124
845.389	5090
845.525	5170
845.661	5109
845.798	5052
845.934	5132
846.07	5067
846.206	5201
846.342	5235
846.478	5132
846.614	5045
846.75	4965
846.886	4927
847.022	5083
847.158	4976
847.294	5045
847.429	5113
847.565	5098
847.701	5311
847.837	4866
847.972	4797
848.108	4919
848.244	4892
848.379	4763
848.515	4672
848.65	4740
848.786	4717
848.921	4778
849.057	4820
849.192	4881
849.328	4847
849.463	4828
849.598	4793
849.734	4717
849.869	4721
850.004	4558
850.14	4683
850.275	4584
850.41	4512
850.545	4542
850.68	4618
850.815	4615
850.95	4630
851.085	4843
851.22	4725
851.355	4687
851.49	4596
851.625	4630
851.76	4653
851.895	4569
852.03	4573
852.165	4611
852.299	4702
852.434	4786
852.569	4729
852.703	4771
852.838	4812
852.973	4915
853.107	4908
853.242	4736
853.376	4672
853.511	4512
853.645	4611
853.78	4824
853.914	4733
854.048	4668
854.183	4672
854.317	4668
854.451	4831
854.585	4653
854.72	4637
854.854	4771
854.988	4603
855.122	4622
855.256	4542
855.39	4664
855.524	4782
855.658	4698
855.792	4664
855.926	4771
856.06	4740
856.194	4759
856.327	4744
856.461	4641
856.595	4603
856.729	4618
856.862	4714
856.996	4694
857.13	4721
857.263	4797
857.397	4778
857.53	4599
857.664	4687
857.797	4755
857.931	4790
858.064	4660
858.197	4714
858.331	4656
858.464	4637
858.597	4516
858.731	4622
858.864	4577
858.997	4603
859.13	4656
859.263	4687
859.396	4645
859.529	4592
859.662	4573
859.795	4531
859.928	4641
860.061	4748
860.194	4744
860.327	4580
860.46	4558
860.592	4748
860.725	4729
860.858	4733
860.99	4546
861.123	4504
861.256	4519
861.388	4653
861.521	5383
861.653	4481
861.786	4447
861.918	4436
862.05	4500
862.183	4554
862.315	4645
862.447	4668
862.58	4535
862.712	4379
862.844	4318
862.976	4470
863.108	4466
863.24	4877
863.372	4356
863.504	4421
863.636	4386
863.768	4428
863.9	4379
864.032	4375
864.164	4360
864.296	4455
864.428	4546
864.559	4554
864.691	4497
864.823	4516
864.954	4485
865.086	4478
865.217	4451
865.349	4436
865.48	4447
865.612	4508
865.743	4641
865.875	4455
866.006	4432
866.137	4470
866.269	4451
866.4	4424
866.531	4421
866.662	4348
866.793	4383
866.924	4371
867.055	4497
867.186	4462
867.317	4421
867.448	4371
867.579	4344
867.71	4386
867.841	4352
867.972	4443
868.103	4455
868.233	4421
868.364	4440
868.495	4478
868.625	4618
868.756	4759
868.886	4516
869.017	4634
869.147	4759
869.278	4759
869.408	4649
869.539	4565
869.669	4729
869.799	4641
869.929	4755
870.06	4714
870.19	4953
870.32	4900
870.45	4938
870.58	5010
870.71	5128
870.84	5048
870.97	4896
871.1	4938
871.23	5086
871.36	5155
871.489	5033
871.619	5090
871.749	5102
871.879	5060
872.008	5178
872.138	5045
872.267	4953
872.397	4843
872.526	4816
872.656	4664
872.785	4805
872.915	4965
873.044	5037
873.173	4915
873.303	4949
873.432	4957
873.561	4968
873.69	4866
873.819	4854
873.948	4866
874.077	4820
874.206	4778
874.335	4805
874.464	4953
874.593	5014
874.722	4946
874.851	5143
874.979	5022
875.108	5037
875.237	4919
875.365	4816
875.494	4850
875.623	4984
875.751	4816
875.88	4923
876.008	4942
876.136	5003
876.265	5239
876.393	5303
876.521	5223
876.65	5181
876.778	5197
876.906	5075
877.034	4942
877.162	5045
877.29	4946
877.418	5041
877.546	5045
877.674	5014
877.802	5067
877.93	4984
878.058	4870
878.185	4866
878.313	4976
878.441	4972
878.568	4774
878.696	4824
878.824	4968
878.951	4957
879.079	5117
879.206	5269
879.333	5048
879.461	4957
879.588	5003
879.715	5132
879.842	5201
879.97	4999
880.097	4752
880.224	4714
880.351	4839
880.478	4805
880.605	4824
880.732	4771
880.859	5056
880.986	4900
881.112	4927
881.239	4717
881.366	4672
881.493	4618
881.619	4542
881.746	4653
881.872	4615
881.999	4679
882.125	4687
882.252	4782
882.378	4809
882.505	4953
882.631	4763
882.757	4660
882.883	4740
883.01	4714
883.136	4664
883.262	4599
883.388	4637
883.514	4847
883.64	4797
883.766	4748
883.892	4664
884.018	4740
884.143	4854
884.269	4953
884.395	4706
884.52	4649
884.646	4637
884.772	4596
884.897	4535
885.023	4668
885.148	4748
885.274	4877
885.399	4809
885.524	4691
885.65	4721
885.775	4786
885.9	4733
886.025	4858
886.15	4812
886.275	4706
886.4	4653
886.525	4740
886.65	4725
886.775	4653
886.9	4862
887.025	5064
887.149	4805
887.274	4683
887.399	4588
887.523	4569
887.648	4615
887.773	4607
887.897	4740
888.021	4793
888.146	4645
888.27	4843
888.395	4908
888.519	4824
888.643	4889
888.767	4786
888.891	4664
889.015	4558
889.139	4664
889.263	4580
889.387	4774
889.511	4896
889.635	4782
889.759	4656
889.883	4641
890.006	4675
890.13	4858
890.254	4550
890.377	4687
890.501	4519
890.624	4512
890.748	4588
890.871	4558
890.995	4413
891.118	4379
891.241	4516
891.364	4542
891.488	4637
891.611	4485
891.734	4531
891.857	4592
891.98	4561
892.103	4649
892.226	4592
892.349	4546
892.471	4466
892.594	4523
892.717	4607
892.839	4592
892.962	4626
893.085	4615
893.207	4550
893.33	4447
893.452	4519
893.575	4630
893.697	4558
893.819	4748
893.941	4850
894.064	4839
894.186	4577
894.308	4558
894.43	4717
894.552	4820
894.674	4714
894.796	4546
894.918	4584
895.04	4588
895.161	4717
895.283	4653
895.405	4630
895.526	4679
895.648	4694
895.769	4672
895.891	4744
896.012	4748
896.134	4687
896.255	4649
896.376	4645
896.498	4649
896.619	4641
896.74	4626
896.861	4668
896.982	4949
897.103	5022
897.224	4801
897.345	4793
897.466	4683
897.587	4733
897.708	4843
897.828	4759
897.949	4637
898.07	4611
898.19	4626
898.311	4771
898.431	4641
898.552	4740
898.672	4828
898.792	4778
898.913	4748
899.033	4660
899.153	4481
899.273	4436
899.393	4508
899.513	4508
899.633	4516
899.753	4584
899.873	4504
899.993	4573
900.113	4535
900.232	4577
900.352	4538
900.472	4443
900.591	4424
900.711	4516
900.83	4424
900.95	4599
901.069	4687
901.189	4569
901.308	4371
901.427	4337
901.546	4333
901.665	4485
901.784	4474
901.904	4405
902.023	4348
902.141	4204
902.26	4109
902.379	4325
902.498	4249
902.617	4268
902.735	4314
902.854	4398
902.973	4367
903.091	4204
903.21	4204
903.328	4265
903.446	4280
903.565	4227
903.683	4337
903.801	4261
903.919	4390
904.038	4443
904.156	4329
904.274	4447
904.392	4379
904.51	4474
904.627	4466
904.745	4569
904.863	4637
904.981	4413
905.098	4322
905.216	4360
905.334	4413
905.451	4409
905.569	4455
905.686	4531
905.803	4561
905.921	4424
906.038	4493
906.155	4443
906.272	4402
906.389	4462
906.506	4390
906.623	4363
906.74	4405
906.857	4295
906.974	4352
907.091	4527
907.208	4683
907.324	4649
907.441	4512
907.557	4322
907.674	4325
907.79	4310
907.907	4363
908.023	4466
908.139	4424
908.256	4466
908.372	4451
908.488	4440
908.604	4363
908.72	4329
908.836	4348
908.952	4352
909.068	4402
909.184	4558
909.3	4470
909.415	4588
909.531	4565
909.647	4352
909.762	4371
909.878	4356
909.993	4432
910.108	4390
910.224	4367
910.339	4504
910.454	4398
910.57	4356
910.685	4284
910.8	4649
910.915	4637
911.03	4466
911.145	4337
911.259	4325
911.374	4352
911.489	4314
911.604	4268
911.718	4192
911.833	4211
911.947	4093
912.062	4055
912.176	4215
912.291	4192
912.405	4249
912.519	4462
912.633	4500
912.748	4379
912.862	4329
912.976	4211
913.09	4097
913.204	4192
913.318	4265
913.431	4398
913.545	4367
913.659	4417
913.772	4341
913.886	4284
914	4287
914.113	4371
914.226	4405
914.34	4413
914.453	4215
914.566	4394
914.68	4253
914.793	4337
914.906	4200
915.019	4147
915.132	4040
915.245	4215
915.358	4177
915.47	4242
915.583	4303
915.696	4310
915.809	4421
915.921	4421
916.034	4257
916.146	4276
916.259	4242
916.371	4371
916.483	4383
916.595	4295
916.708	4360
916.82	4318
916.932	4306
917.044	4348
917.156	4299
917.268	4215
917.38	4238
917.491	4310
917.603	4371
917.715	4421
917.826	4424
917.938	4329
918.049	4253
918.161	4413
918.272	4538
918.384	4519
918.495	4459
918.606	4253
918.717	4223
918.828	4306
918.939	4299
919.05	4291
919.161	4318
919.272	4150
919.383	4230
919.494	4447
919.604	4653
919.715	4409
919.826	4322
919.936	4379
920.047	4512
920.157	4489
920.267	4710
920.378	4497
920.488	4470
920.598	4714
920.708	4828
920.818	4778
920.928	4759
921.038	4889
921.148	4889
921.258	4626
921.368	4592
921.477	4546
921.587	4451
921.697	4318
921.806	4546
921.916	4436
922.025	4265
922.134	4276
922.244	4204
922.353	4310
922.462	4177
922.571	4124
922.68	3983
922.789	3934
922.898	4082
923.007	4002
923.116	4097
923.224	4093
923.333	4097
923.442	3972
923.55	4010
923.659	4036
923.767	4078
923.876	4010
923.984	4097
924.092	3922
924.201	4082
924.309	4051
924.417	4150
924.525	4036
924.633	4090
924.741	4858
924.849	3930
924.956	4097
925.064	3937
925.172	3899
925.279	3983
925.387	4032
925.494	4044
925.602	4249
925.709	4196
925.816	4051
925.924	4131
926.031	4265
926.138	4162
926.245	4158
926.352	4101
926.459	4253
926.566	4314
926.673	4181
926.779	4063
926.886	4086
926.993	3964
927.099	3979
927.206	3873
927.312	3915
927.419	4078
927.525	4029
927.631	4093
927.737	3934
927.843	3975
927.95	3838
928.056	3941
928.162	3987
928.267	4063
928.373	4668
928.479	4150
928.585	3857
928.69	4032
928.796	4097
928.901	3945
929.007	3808
929.112	3983
929.218	3991
929.323	3930
929.428	3922
929.533	4150
929.638	3892
929.743	3956
929.848	4040
929.953	4006
930.058	3911
930.163	3781
930.267	3823
930.372	3934
930.477	3835
930.581	4120
930.685	3915
930.79	3842
930.894	3884
930.998	3812
931.103	4010
931.207	3698
931.311	3686
931.415	3682
931.519	3504
931.623	3553
