Data from test_V78500241_1908.txt Node
Date: Fri Mar 25 17:02:16 CST 2022
User: usil
Spectrometer: V785-0024
Trigger mode: 0
Integration Time (sec): 4.000000E-1
Scans to average: 1
Nonlinearity correction enabled: false
Boxcar width: 0
Storing dark spectrum: false
XAxis mode: Wavelengths
Number of Pixels in Spectrum: 1024
>>>>>Begin Spectral Data<<<<<
801.071	7978
801.214	8008
801.356	7841
801.499	7936
801.641	7814
801.783	7837
801.926	7997
802.068	7917
802.211	7963
802.353	8077
802.496	7818
802.638	7811
802.78	7947
802.923	7898
803.065	7860
803.208	7894
803.35	7989
803.492	8039
803.635	8164
803.777	8054
803.919	8142
804.061	8503
804.204	8240
804.346	8016
804.488	8020
804.63	8062
804.773	8062
804.915	8115
805.057	8377
805.199	8214
805.341	8267
805.483	8263
805.626	8237
805.768	8088
805.91	8210
806.052	8263
806.194	8126
806.336	8313
806.478	8111
806.62	7974
806.762	8145
806.904	8279
807.046	8465
807.188	8427
807.33	8336
807.472	8313
807.614	8240
807.756	8195
807.898	8024
808.04	7932
808.182	7921
808.324	7890
808.465	7947
808.607	8081
808.749	8081
808.891	8206
809.033	8324
809.174	8233
809.316	8065
809.458	8073
809.6	8016
809.741	8043
809.883	8069
810.025	8119
810.166	8073
810.308	8050
810.45	7978
810.591	7841
810.733	7696
810.875	7696
811.016	7525
811.158	7445
811.299	7556
811.441	7677
811.582	7727
811.724	7616
811.865	7518
812.007	7643
812.148	7521
812.29	7624
812.431	7788
812.573	8005
812.714	8039
812.855	8145
812.997	8225
813.138	8332
813.279	8187
813.421	8111
813.562	7925
813.703	7788
813.845	7738
813.986	7430
814.127	7278
814.268	7232
814.41	7259
814.551	7160
814.692	7209
814.833	7095
814.974	7110
815.115	7122
815.256	6973
815.397	6962
815.539	6970
815.68	6818
815.821	6791
815.962	6901
816.103	6798
816.244	6741
816.385	6604
816.526	6593
816.666	6513
816.807	6350
816.948	6464
817.089	6448
817.23	6483
817.371	6331
817.512	6380
817.653	6372
817.793	6315
817.934	6353
818.075	6437
818.216	6471
818.356	6437
818.497	6304
818.638	6171
818.778	6182
818.919	6110
819.06	6171
819.2	6380
819.341	6361
819.481	6372
819.622	6582
819.762	6741
819.903	6711
820.043	6612
820.184	6555
820.324	6589
820.465	6719
820.605	6665
820.746	6585
820.886	6547
821.026	6650
821.167	6715
821.307	6806
821.447	6821
821.588	6677
821.728	6570
821.868	6479
822.008	6296
822.149	6391
822.289	6342
822.429	6197
822.569	6041
822.709	6205
822.849	5923
822.99	5897
823.13	5916
823.27	5920
823.41	5794
823.55	5821
823.69	5805
823.83	5840
823.97	5665
824.11	5573
824.25	5543
824.389	5608
824.529	5577
824.669	5497
824.809	5608
824.949	5611
825.089	5642
825.228	5566
825.368	5387
825.508	5360
825.648	5402
825.787	5372
825.927	5353
826.067	5303
826.206	5303
826.346	5429
826.485	5410
826.625	5444
826.765	5539
826.904	5459
827.044	5231
827.183	5181
827.323	5124
827.462	5265
827.601	5181
827.741	5162
827.88	5239
828.02	5124
828.159	5212
828.298	5330
828.437	5280
828.577	5212
828.716	5490
828.855	5311
828.994	5181
829.134	5159
829.273	5204
829.412	5170
829.551	5201
829.69	5235
829.829	5208
829.968	5402
830.107	5239
830.246	5311
830.385	5197
830.524	5121
830.663	5060
830.802	5010
830.941	4949
831.08	4877
831.219	4980
831.357	5025
831.496	5178
831.635	4919
831.774	4870
831.913	4881
832.051	4755
832.19	4774
832.329	4847
832.467	4679
832.606	4656
832.744	4706
832.883	4778
833.022	4710
833.16	4774
833.299	4812
833.437	4824
833.576	4839
833.714	4850
833.852	4839
833.991	4866
834.129	4949
834.267	5010
834.406	4873
834.544	5006
834.682	4980
834.821	4999
834.959	5143
835.097	4999
835.235	5178
835.373	5102
835.511	5105
835.65	5041
835.788	5022
835.926	4923
836.064	4847
836.202	4919
836.34	5128
836.478	5151
836.615	5136
836.753	5170
836.891	5254
837.029	5261
837.167	5208
837.305	5140
837.443	5143
837.58	5109
837.718	5280
837.856	5235
837.993	5174
838.131	5288
838.269	5185
838.406	5246
838.544	5204
838.681	5060
838.819	5041
838.956	4862
839.094	4911
839.231	4995
839.369	5067
839.506	5463
839.643	5280
839.781	5064
839.918	5022
840.055	5090
840.193	5128
840.33	5098
840.467	5185
840.604	5155
840.742	5467
840.879	5025
841.016	5124
841.153	5143
841.29	5379
841.427	5345
841.564	5315
841.701	5410
841.838	5269
841.975	5212
842.112	5303
842.249	5113
842.385	5060
842.522	5349
842.659	5181
842.796	5132
842.933	5204
843.069	5132
843.206	5151
843.343	5284
843.479	5189
843.616	5269
843.752	5064
843.889	5025
844.025	5231
844.162	5006
844.298	5235
844.435	5090
844.571	5071
844.708	5242
844.844	5254
844.98	5315
845.117	5307
845.253	5113
845.389	5083
845.525	5113
845.661	5102
845.798	5071
845.934	5132
846.07	5045
846.206	5193
846.342	5296
846.478	5201
846.614	5010
846.75	4957
846.886	4915
847.022	5162
847.158	5025
847.294	5048
847.429	5094
847.565	5029
847.701	5299
847.837	4866
847.972	4843
848.108	4976
848.244	4900
848.379	4771
848.515	4759
848.65	4706
848.786	4740
848.921	4812
849.057	4873
849.192	4896
849.328	4870
849.463	4805
849.598	4786
849.734	4809
849.869	4714
850.004	4645
850.14	4702
850.275	4653
850.41	4550
850.545	4596
850.68	4660
850.815	4653
850.95	4634
851.085	4862
851.22	4797
851.355	4691
851.49	4656
851.625	4733
851.76	4683
851.895	4599
852.03	4569
852.165	4668
852.299	4744
852.434	4820
852.569	4706
852.703	4820
852.838	4854
852.973	4942
853.107	4968
853.242	4744
853.376	4710
853.511	4630
853.645	4626
853.78	4862
853.914	4714
854.048	4668
854.183	4664
854.317	4702
854.451	4892
854.585	4721
854.72	4679
854.854	4793
854.988	4637
855.122	4668
855.256	4542
855.39	4694
855.524	4824
855.658	4752
855.792	4763
855.926	4736
856.06	4820
856.194	4847
856.327	4729
856.461	4653
856.595	4664
856.729	4664
856.862	4752
856.996	4702
857.13	4801
857.263	4774
857.397	4793
857.53	4679
857.664	4786
857.797	4771
857.931	4824
858.064	4740
858.197	4828
858.331	4759
858.464	4641
858.597	4508
858.731	4634
858.864	4672
858.997	4634
859.13	4698
859.263	4679
859.396	4714
859.529	4599
859.662	4641
859.795	4573
859.928	4668
860.061	4763
860.194	4835
860.327	4634
860.46	4611
860.592	4752
860.725	4767
860.858	4778
860.99	4611
861.123	4588
861.256	4565
861.388	4653
861.521	5311
861.653	4538
861.786	4432
861.918	4550
862.05	4580
862.183	4615
862.315	4672
862.447	4710
862.58	4573
862.712	4440
862.844	4383
862.976	4497
863.108	4481
863.24	4805
863.372	4337
863.504	4447
863.636	4523
863.768	4516
863.9	4443
864.032	4394
864.164	4424
864.296	4489
864.428	4542
864.559	4630
864.691	4607
864.823	4535
864.954	4538
865.086	4554
865.217	4508
865.349	4493
865.48	4470
865.612	4497
865.743	4656
865.875	4493
866.006	4500
866.137	4481
866.269	4508
866.4	4459
866.531	4470
866.662	4440
866.793	4413
866.924	4440
867.055	4523
867.186	4516
867.317	4428
867.448	4398
867.579	4398
867.71	4428
867.841	4421
867.972	4459
868.103	4481
868.233	4516
868.364	4519
868.495	4497
868.625	4679
868.756	4809
868.886	4558
869.017	4641
869.147	4763
869.278	4778
869.408	4660
869.539	4706
869.669	4755
869.799	4668
869.929	4759
870.06	4759
870.19	4980
870.32	4938
870.45	5003
870.58	5022
870.71	5174
870.84	5143
870.97	4980
871.1	4934
871.23	5212
871.36	5170
871.489	5052
871.619	5102
871.749	5117
871.879	5147
872.008	5185
872.138	5098
872.267	5006
872.397	4908
872.526	4828
872.656	4733
872.785	4889
872.915	5010
873.044	5071
873.173	4934
873.303	5022
873.432	4972
873.561	4999
873.69	4908
873.819	4870
873.948	4946
874.077	4786
874.206	4771
874.335	4831
874.464	4946
874.593	5109
874.722	4987
874.851	5113
874.979	5056
875.108	5124
875.237	4900
875.365	4911
875.494	4892
875.623	5022
875.751	4885
875.88	4911
876.008	5041
876.136	5052
876.265	5250
876.393	5379
876.521	5330
876.65	5307
876.778	5136
876.906	5071
877.034	5094
877.162	5045
877.29	4999
877.418	5121
877.546	5113
877.674	5071
877.802	5090
877.93	5071
878.058	4965
878.185	4908
878.313	4984
878.441	4965
878.568	4820
878.696	4904
878.824	5029
878.951	5045
879.079	5151
879.206	5330
879.333	5117
879.461	5052
879.588	5056
879.715	5193
879.842	5204
879.97	5029
880.097	4873
880.224	4831
880.351	4786
880.478	4843
880.605	4809
880.732	4831
880.859	5098
880.986	4911
881.112	4873
881.239	4782
881.366	4733
881.493	4645
881.619	4577
881.746	4637
881.872	4721
881.999	4687
882.125	4717
882.252	4812
882.378	4850
882.505	5003
882.631	4892
882.757	4668
882.883	4790
883.01	4744
883.136	4694
883.262	4645
883.388	4637
883.514	4870
883.64	4858
883.766	4831
883.892	4672
884.018	4759
884.143	4938
884.269	5090
884.395	4744
884.52	4656
884.646	4675
884.772	4603
884.897	4596
885.023	4740
885.148	4835
885.274	4881
885.399	4828
885.524	4725
885.65	4645
885.775	4767
885.9	4736
886.025	4889
886.15	4820
886.275	4710
886.4	4660
886.525	4755
886.65	4729
886.775	4733
886.9	4934
887.025	5045
887.149	4839
887.274	4675
887.399	4615
887.523	4664
887.648	4596
887.773	4641
887.897	4790
888.021	4847
888.146	4733
888.27	4797
888.395	4987
888.519	4763
888.643	4786
888.767	4820
888.891	4679
889.015	4630
889.139	4649
889.263	4660
889.387	4820
889.511	4885
889.635	4831
889.759	4675
889.883	4634
890.006	4763
890.13	4862
890.254	4626
890.377	4683
890.501	4573
890.624	4565
890.748	4630
890.871	4512
890.995	4436
891.118	4447
891.241	4550
891.364	4618
891.488	4649
891.611	4497
891.734	4573
891.857	4653
891.98	4618
892.103	4664
892.226	4603
892.349	4512
892.471	4443
892.594	4538
892.717	4634
892.839	4611
892.962	4618
893.085	4752
893.207	4592
893.33	4466
893.452	4554
893.575	4656
893.697	4588
893.819	4786
893.941	4839
894.064	4790
894.186	4596
894.308	4607
894.43	4736
894.552	4850
894.674	4752
894.796	4603
894.918	4603
895.04	4592
895.161	4733
895.283	4660
895.405	4569
895.526	4622
895.648	4721
895.769	4679
895.891	4717
896.012	4744
896.134	4717
896.255	4729
896.376	4664
896.498	4637
896.619	4725
896.74	4577
896.861	4683
896.982	4934
897.103	5113
897.224	4786
897.345	4767
897.466	4702
897.587	4740
897.708	4866
897.828	4786
897.949	4702
898.07	4584
898.19	4649
898.311	4866
898.431	4691
898.552	4740
898.672	4862
898.792	4816
898.913	4767
899.033	4637
899.153	4519
899.273	4440
899.393	4512
899.513	4535
899.633	4523
899.753	4561
899.873	4535
899.993	4607
900.113	4550
900.232	4596
900.352	4554
900.472	4519
900.591	4421
900.711	4493
900.83	4440
900.95	4611
901.069	4752
901.189	4516
901.308	4413
901.427	4318
901.546	4375
901.665	4523
901.784	4519
901.904	4466
902.023	4398
902.141	4207
902.26	4177
902.379	4318
902.498	4272
902.617	4253
902.735	4421
902.854	4390
902.973	4363
903.091	4215
903.21	4246
903.328	4287
903.446	4303
903.565	4299
903.683	4322
903.801	4310
903.919	4451
904.038	4497
904.156	4287
904.274	4459
904.392	4417
904.51	4497
904.627	4478
904.745	4565
904.863	4668
904.981	4402
905.098	4390
905.216	4386
905.334	4440
905.451	4478
905.569	4462
905.686	4584
905.803	4637
905.921	4440
906.038	4542
906.155	4504
906.272	4398
906.389	4440
906.506	4379
906.623	4379
906.74	4440
906.857	4333
906.974	4390
907.091	4607
907.208	4694
907.324	4565
907.441	4516
907.557	4333
907.674	4363
907.79	4325
907.907	4405
908.023	4489
908.139	4504
908.256	4478
908.372	4462
908.488	4447
908.604	4375
908.72	4371
908.836	4375
908.952	4413
909.068	4489
909.184	4611
909.3	4497
909.415	4592
909.531	4546
909.647	4390
909.762	4329
909.878	4337
909.993	4493
910.108	4390
910.224	4470
910.339	4535
910.454	4409
910.57	4344
910.685	4314
910.8	4691
910.915	4668
911.03	4485
911.145	4306
911.259	4333
911.374	4363
911.489	4325
911.604	4280
911.718	4173
911.833	4268
911.947	4131
912.062	4044
912.176	4192
912.291	4268
912.405	4299
912.519	4462
912.633	4531
912.748	4390
912.862	4318
912.976	4227
913.09	4135
913.204	4196
913.318	4246
913.431	4363
913.545	4356
913.659	4459
913.772	4344
913.886	4238
914	4223
914.113	4394
914.226	4455
914.34	4428
914.453	4219
914.566	4462
914.68	4352
914.793	4386
914.906	4200
915.019	4086
915.132	4116
915.245	4177
915.358	4253
915.47	4242
915.583	4257
915.696	4329
915.809	4394
915.921	4455
916.034	4257
916.146	4257
916.259	4211
916.371	4356
916.483	4360
916.595	4261
916.708	4329
916.82	4360
916.932	4341
917.044	4310
917.156	4356
917.268	4265
917.38	4303
917.491	4246
917.603	4348
917.715	4481
917.826	4409
917.938	4383
918.049	4272
918.161	4443
918.272	4573
918.384	4561
918.495	4462
918.606	4299
918.717	4223
918.828	4333
918.939	4344
919.05	4280
919.161	4318
919.272	4143
919.383	4219
919.494	4443
919.604	4641
919.715	4489
919.826	4363
919.936	4443
920.047	4554
920.157	4527
920.267	4702
920.378	4569
920.488	4504
920.598	4729
920.708	4911
920.818	4740
920.928	4759
921.038	4946
921.148	4828
921.258	4596
921.368	4535
921.477	4538
921.587	4428
921.697	4383
921.806	4542
921.916	4421
922.025	4306
922.134	4325
922.244	4249
922.353	4341
922.462	4162
922.571	4101
922.68	4032
922.789	3953
922.898	4048
923.007	4032
923.116	4154
923.224	4051
923.333	4059
923.442	3994
923.55	3930
923.659	4044
923.767	4074
923.876	4044
923.984	4139
924.092	3983
924.201	4063
924.309	4082
924.417	4128
924.525	4093
924.633	4093
924.741	5052
924.849	3899
924.956	4120
925.064	3956
925.172	3907
925.279	3975
925.387	4063
925.494	4067
925.602	4223
925.709	4204
925.816	4040
925.924	4147
926.031	4204
926.138	4196
926.245	4227
926.352	4120
926.459	4246
926.566	4322
926.673	4166
926.779	4055
926.886	4067
926.993	4029
927.099	3987
927.206	3941
927.312	3956
927.419	4093
927.525	4029
927.631	4101
927.737	3972
927.843	3953
927.95	3861
928.056	4006
928.162	3975
928.267	4078
928.373	4615
928.479	4162
928.585	3842
928.69	4017
928.796	4109
928.901	3956
929.007	3865
929.112	3994
929.218	3983
929.323	3949
929.428	3953
929.533	4105
929.638	3934
929.743	3960
929.848	4071
929.953	3998
930.058	3896
930.163	3766
930.267	3846
930.372	4002
930.477	3793
930.581	4074
930.685	3937
930.79	3838
930.894	3876
930.998	3869
931.103	4071
931.207	3717
931.311	3675
931.415	3648
931.519	3545
931.623	3542
