Data from test_V78500241_329.txt Node
Date: Fri Mar 25 16:51:17 CST 2022
User: usil
Spectrometer: V785-0024
Trigger mode: 0
Integration Time (sec): 4.000000E-1
Scans to average: 1
Nonlinearity correction enabled: false
Boxcar width: 0
Storing dark spectrum: false
XAxis mode: Wavelengths
Number of Pixels in Spectrum: 1024
>>>>>Begin Spectral Data<<<<<
801.071	8077
801.214	8027
801.356	7868
801.499	7902
801.641	7826
801.783	7814
801.926	8039
802.068	7947
802.211	7982
802.353	8008
802.496	7852
802.638	7936
802.78	7925
802.923	7959
803.065	7868
803.208	7951
803.35	8005
803.492	8069
803.635	8054
803.777	7963
803.919	8092
804.061	8396
804.204	8145
804.346	8031
804.488	7967
804.63	8138
804.773	8005
804.915	8065
805.057	8221
805.199	8138
805.341	8149
805.483	8191
805.626	8225
805.768	8103
805.91	8206
806.052	8218
806.194	8134
806.336	8355
806.478	8119
806.62	8115
806.762	8142
806.904	8252
807.046	8495
807.188	8404
807.33	8263
807.472	8294
807.614	8123
807.756	8126
807.898	8043
808.04	7868
808.182	7921
808.324	7947
808.465	7932
808.607	8058
808.749	8103
808.891	8244
809.033	8290
809.174	8176
809.316	8043
809.458	8069
809.6	8012
809.741	8050
809.883	8020
810.025	8145
810.166	8176
810.308	8058
810.45	8039
810.591	7860
810.733	7765
810.875	7700
811.016	7582
811.158	7483
811.299	7616
811.441	7837
811.582	7723
811.724	7624
811.865	7613
812.007	7670
812.148	7643
812.29	7609
812.431	7734
812.573	7925
812.714	7959
812.855	8069
812.997	8240
813.138	8336
813.279	8164
813.421	8043
813.562	8012
813.703	7879
813.845	7830
813.986	7453
814.127	7274
814.268	7270
814.41	7168
814.551	7183
814.692	7244
814.833	7126
814.974	7095
815.115	7088
815.256	6947
815.397	6901
815.539	6935
815.68	6829
815.821	6802
815.962	6920
816.103	6798
816.244	6757
816.385	6620
816.526	6669
816.666	6490
816.807	6327
816.948	6433
817.089	6456
817.23	6448
817.371	6361
817.512	6372
817.653	6407
817.793	6311
817.934	6441
818.075	6403
818.216	6433
818.356	6350
818.497	6235
818.638	6121
818.778	6136
818.919	6178
819.06	6125
819.2	6296
819.341	6281
819.481	6372
819.622	6551
819.762	6776
819.903	6707
820.043	6582
820.184	6642
820.324	6604
820.465	6734
820.605	6623
820.746	6654
820.886	6525
821.026	6715
821.167	6715
821.307	6734
821.447	6726
821.588	6711
821.728	6544
821.868	6540
822.008	6353
822.149	6342
822.289	6315
822.429	6159
822.569	6079
822.709	6136
822.849	5958
822.99	5920
823.13	5920
823.27	5927
823.41	5813
823.55	5798
823.69	5794
823.83	5775
823.97	5695
824.11	5558
824.25	5524
824.389	5596
824.529	5589
824.669	5543
824.809	5623
824.949	5668
825.089	5581
825.228	5562
825.368	5421
825.508	5357
825.648	5315
825.787	5357
825.927	5379
826.067	5330
826.206	5254
826.346	5414
826.485	5421
826.625	5410
826.765	5570
826.904	5505
827.044	5239
827.183	5197
827.323	5178
827.462	5227
827.601	5117
827.741	5181
827.88	5189
828.02	5132
828.159	5204
828.298	5337
828.437	5391
828.577	5269
828.716	5486
828.855	5318
828.994	5147
829.134	5197
829.273	5174
829.412	5174
829.551	5113
829.69	5208
829.829	5220
829.968	5398
830.107	5265
830.246	5318
830.385	5185
830.524	5143
830.663	5025
830.802	4965
830.941	4850
831.08	4942
831.219	4968
831.357	4991
831.496	5185
831.635	4927
831.774	4816
831.913	4812
832.051	4744
832.19	4774
832.329	4847
832.467	4706
832.606	4637
832.744	4675
832.883	4725
833.022	4687
833.16	4778
833.299	4790
833.437	4877
833.576	4835
833.714	4809
833.852	4904
833.991	4885
834.129	4976
834.267	4953
834.406	4919
834.544	4995
834.682	4927
834.821	4938
834.959	5143
835.097	5037
835.235	5159
835.373	5048
835.511	5109
835.65	5025
835.788	4995
835.926	4911
836.064	4885
836.202	4870
836.34	5170
836.478	5227
836.615	5193
836.753	5250
836.891	5330
837.029	5223
837.167	5197
837.305	5174
837.443	5132
837.58	5102
837.718	5277
837.856	5212
837.993	5083
838.131	5246
838.269	5162
838.406	5212
838.544	5174
838.681	5052
838.819	5003
838.956	4881
839.094	4953
839.231	4980
839.369	5105
839.506	5452
839.643	5269
839.781	5079
839.918	5022
840.055	5117
840.193	5098
840.33	5105
840.467	5090
840.604	5197
840.742	5448
840.879	5098
841.016	5113
841.153	5212
841.29	5337
841.427	5318
841.564	5315
841.701	5391
841.838	5273
841.975	5250
842.112	5284
842.249	5128
842.385	5128
842.522	5334
842.659	5151
842.796	5121
842.933	5212
843.069	5117
843.206	5162
843.343	5296
843.479	5227
843.616	5216
843.752	5041
843.889	5029
844.025	5261
844.162	5067
844.298	5201
844.435	5071
844.571	5048
844.708	5216
844.844	5284
844.98	5326
845.117	5246
845.253	5121
845.389	5094
845.525	5185
845.661	5094
845.798	5033
845.934	5178
846.07	5052
846.206	5197
846.342	5265
846.478	5102
846.614	4987
846.75	5010
846.886	4957
847.022	5113
847.158	5018
847.294	5098
847.429	5083
847.565	5071
847.701	5353
847.837	4820
847.972	4858
848.108	4965
848.244	4984
848.379	4740
848.515	4752
848.65	4729
848.786	4786
848.921	4793
849.057	4896
849.192	4896
849.328	4790
849.463	4828
849.598	4790
849.734	4755
849.869	4710
850.004	4611
850.14	4679
850.275	4611
850.41	4577
850.545	4531
850.68	4599
850.815	4618
850.95	4634
851.085	4816
851.22	4755
851.355	4660
851.49	4615
851.625	4618
851.76	4641
851.895	4615
852.03	4527
852.165	4694
852.299	4721
852.434	4774
852.569	4717
852.703	4767
852.838	4835
852.973	4911
853.107	4930
853.242	4759
853.376	4637
853.511	4546
853.645	4599
853.78	4759
853.914	4668
854.048	4679
854.183	4687
854.317	4725
854.451	4809
854.585	4698
854.72	4630
854.854	4744
854.988	4641
855.122	4664
855.256	4485
855.39	4683
855.524	4744
855.658	4759
855.792	4645
855.926	4698
856.06	4790
856.194	4767
856.327	4687
856.461	4630
856.595	4592
856.729	4615
856.862	4740
856.996	4729
857.13	4763
857.263	4782
857.397	4763
857.53	4660
857.664	4755
857.797	4759
857.931	4763
858.064	4691
858.197	4782
858.331	4618
858.464	4603
858.597	4516
858.731	4656
858.864	4622
858.997	4603
859.13	4683
859.263	4664
859.396	4656
859.529	4607
859.662	4603
859.795	4478
859.928	4630
860.061	4710
860.194	4733
860.327	4592
860.46	4607
860.592	4698
860.725	4748
860.858	4710
860.99	4573
861.123	4497
861.256	4523
861.388	4626
861.521	5345
861.653	4481
861.786	4470
861.918	4478
862.05	4493
862.183	4561
862.315	4592
862.447	4618
862.58	4558
862.712	4432
862.844	4303
862.976	4474
863.108	4462
863.24	4767
863.372	4367
863.504	4421
863.636	4360
863.768	4462
863.9	4466
864.032	4367
864.164	4367
864.296	4497
864.428	4558
864.559	4622
864.691	4527
864.823	4485
864.954	4478
865.086	4516
865.217	4462
865.349	4443
865.48	4478
865.612	4516
865.743	4641
865.875	4462
866.006	4432
866.137	4474
866.269	4443
866.4	4428
866.531	4424
866.662	4402
866.793	4348
866.924	4421
867.055	4500
867.186	4409
867.317	4455
867.448	4360
867.579	4360
867.71	4375
867.841	4363
867.972	4432
868.103	4470
868.233	4455
868.364	4466
868.495	4512
868.625	4645
868.756	4767
868.886	4558
869.017	4596
869.147	4801
869.278	4797
869.408	4668
869.539	4649
869.669	4725
869.799	4653
869.929	4778
870.06	4748
870.19	4984
870.32	4915
870.45	4938
870.58	5037
870.71	5060
870.84	5090
870.97	4987
871.1	4877
871.23	5159
871.36	5140
871.489	5041
871.619	5124
871.749	5121
871.879	5140
872.008	5162
872.138	5098
872.267	4953
872.397	4858
872.526	4793
872.656	4748
872.785	4816
872.915	4965
873.044	4976
873.173	4889
873.303	4938
873.432	4862
873.561	4972
873.69	4896
873.819	4809
873.948	4873
874.077	4812
874.206	4687
874.335	4831
874.464	4896
874.593	5079
874.722	4896
874.851	5109
874.979	5113
875.108	5003
875.237	4881
875.365	4885
875.494	4915
875.623	4968
875.751	4831
875.88	4889
876.008	5014
876.136	5010
876.265	5185
876.393	5303
876.521	5265
876.65	5277
876.778	5185
876.906	5136
877.034	5048
877.162	5052
877.29	5014
877.418	5022
877.546	4987
877.674	5071
877.802	5098
877.93	5010
878.058	4938
878.185	4957
878.313	4953
878.441	4946
878.568	4839
878.696	4908
878.824	4976
878.951	5022
879.079	5170
879.206	5326
879.333	5121
879.461	5014
879.588	4999
879.715	5075
879.842	5239
879.97	5025
880.097	4809
880.224	4828
880.351	4862
880.478	4881
880.605	4831
880.732	4835
880.859	5105
880.986	4949
881.112	4946
881.239	4824
881.366	4721
881.493	4611
881.619	4656
881.746	4694
881.872	4706
881.999	4714
882.125	4706
882.252	4831
882.378	4858
882.505	5018
882.631	4854
882.757	4736
882.883	4771
883.01	4797
883.136	4748
883.262	4626
883.388	4637
883.514	4862
883.64	4949
883.766	4854
883.892	4767
884.018	4782
884.143	4965
884.269	5045
884.395	4698
884.52	4649
884.646	4717
884.772	4675
884.897	4603
885.023	4702
885.148	4862
885.274	4919
885.399	4858
885.524	4771
885.65	4748
885.775	4805
885.9	4740
886.025	4904
886.15	4854
886.275	4786
886.4	4691
886.525	4782
886.65	4714
886.775	4725
886.9	4961
887.025	5041
887.149	4786
887.274	4710
887.399	4611
887.523	4656
887.648	4622
887.773	4607
887.897	4793
888.021	4854
888.146	4717
888.27	4850
888.395	4915
888.519	4820
888.643	4839
888.767	4881
888.891	4782
889.015	4630
889.139	4706
889.263	4702
889.387	4816
889.511	4877
889.635	4839
889.759	4706
889.883	4710
890.006	4771
890.13	4911
890.254	4649
890.377	4733
890.501	4637
890.624	4607
890.748	4656
890.871	4550
890.995	4470
891.118	4428
891.241	4512
891.364	4550
891.488	4656
891.611	4523
891.734	4573
891.857	4634
891.98	4592
892.103	4668
892.226	4615
892.349	4584
892.471	4440
892.594	4588
892.717	4596
892.839	4611
892.962	4634
893.085	4752
893.207	4626
893.33	4485
893.452	4569
893.575	4710
893.697	4626
893.819	4805
893.941	4862
894.064	4790
894.186	4596
894.308	4618
894.43	4767
894.552	4839
894.674	4778
894.796	4603
894.918	4577
895.04	4607
895.161	4736
895.283	4714
895.405	4618
895.526	4664
895.648	4721
895.769	4698
895.891	4721
896.012	4820
896.134	4786
896.255	4706
896.376	4664
896.498	4664
896.619	4729
896.74	4618
896.861	4687
896.982	4930
897.103	5124
897.224	4850
897.345	4763
897.466	4710
897.587	4763
897.708	4919
897.828	4847
897.949	4725
898.07	4592
898.19	4679
898.311	4870
898.431	4702
898.552	4778
898.672	4862
898.792	4809
898.913	4786
899.033	4645
899.153	4542
899.273	4455
899.393	4531
899.513	4580
899.633	4565
899.753	4615
899.873	4573
899.993	4615
900.113	4561
900.232	4649
900.352	4573
900.472	4531
900.591	4436
900.711	4538
900.83	4432
900.95	4664
901.069	4736
901.189	4580
901.308	4356
901.427	4348
901.546	4440
901.665	4531
901.784	4550
901.904	4417
902.023	4356
902.141	4219
902.26	4188
902.379	4371
902.498	4268
902.617	4253
902.735	4440
902.854	4443
902.973	4405
903.091	4272
903.21	4246
903.328	4333
903.446	4333
903.565	4306
903.683	4394
903.801	4333
903.919	4443
904.038	4421
904.156	4333
904.274	4398
904.392	4417
904.51	4470
904.627	4546
904.745	4622
904.863	4656
904.981	4409
905.098	4344
905.216	4386
905.334	4451
905.451	4485
905.569	4508
905.686	4599
905.803	4626
905.921	4417
906.038	4580
906.155	4550
906.272	4485
906.389	4535
906.506	4371
906.623	4436
906.74	4485
906.857	4398
906.974	4421
907.091	4626
907.208	4714
907.324	4660
907.441	4550
907.557	4375
907.674	4390
907.79	4329
907.907	4417
908.023	4508
908.139	4516
908.256	4436
908.372	4478
908.488	4497
908.604	4390
908.72	4360
908.836	4402
908.952	4371
909.068	4443
909.184	4611
909.3	4558
909.415	4630
909.531	4618
909.647	4402
909.762	4417
909.878	4383
909.993	4459
910.108	4478
910.224	4390
910.339	4527
910.454	4402
910.57	4360
910.685	4363
910.8	4694
910.915	4668
911.03	4489
911.145	4352
911.259	4356
911.374	4428
911.489	4341
911.604	4265
911.718	4188
911.833	4242
911.947	4139
912.062	4029
912.176	4223
912.291	4272
912.405	4295
912.519	4455
912.633	4535
912.748	4386
912.862	4322
912.976	4230
913.09	4143
913.204	4188
913.318	4291
913.431	4356
913.545	4409
913.659	4443
913.772	4386
913.886	4253
914	4249
914.113	4447
914.226	4493
914.34	4413
914.453	4284
914.566	4481
914.68	4375
914.793	4379
914.906	4166
915.019	4192
915.132	4101
915.245	4230
915.358	4291
915.47	4242
915.583	4295
915.696	4318
915.809	4443
915.921	4489
916.034	4280
916.146	4333
916.259	4253
916.371	4413
916.483	4398
916.595	4280
916.708	4367
916.82	4371
916.932	4337
917.044	4348
917.156	4394
917.268	4238
917.38	4295
917.491	4299
917.603	4371
917.715	4440
917.826	4459
917.938	4383
918.049	4291
918.161	4451
918.272	4603
918.384	4561
918.495	4512
918.606	4337
918.717	4238
918.828	4325
918.939	4348
919.05	4268
919.161	4325
919.272	4204
919.383	4238
919.494	4523
919.604	4683
919.715	4447
919.826	4379
919.936	4424
920.047	4531
920.157	4497
920.267	4691
920.378	4615
920.488	4516
920.598	4736
920.708	4904
920.818	4790
920.928	4847
921.038	5014
921.148	4949
921.258	4660
921.368	4584
921.477	4561
921.587	4516
921.697	4409
921.806	4561
921.916	4497
922.025	4299
922.134	4344
922.244	4238
922.353	4394
922.462	4257
922.571	4139
922.68	3998
922.789	4025
922.898	4025
923.007	3994
923.116	4112
923.224	4116
923.333	4128
923.442	4006
923.55	4044
923.659	4067
923.767	4116
923.876	4032
923.984	4162
924.092	4021
924.201	4112
924.309	4128
924.417	4150
924.525	4093
924.633	4135
924.741	4946
924.849	3956
924.956	4143
925.064	3998
925.172	3941
925.279	4017
925.387	4074
925.494	4097
925.602	4272
925.709	4219
925.816	4090
925.924	4173
926.031	4249
926.138	4131
926.245	4299
926.352	4131
926.459	4284
926.566	4337
926.673	4154
926.779	4086
926.886	4105
926.993	3994
927.099	3994
927.206	3991
927.312	3937
927.419	4021
927.525	4025
927.631	4109
927.737	3972
927.843	3972
927.95	3861
928.056	3975
928.162	4017
928.267	4086
928.373	4599
928.479	4135
928.585	3907
928.69	4013
928.796	4101
928.901	3972
929.007	3880
929.112	4013
929.218	4017
929.323	3979
929.428	3975
929.533	4109
929.638	3941
929.743	4002
929.848	4029
929.953	4017
930.058	3918
930.163	3781
930.267	3846
930.372	4017
930.477	3823
930.581	4131
930.685	3983
930.79	3808
930.894	3915
930.998	3907
931.103	4055
931.207	3701
931.311	3709
931.415	3705
931.519	3530
931.623	3561
