Data from test_V78500241_228.txt Node
Date: Fri Mar 25 16:50:35 CST 2022
User: usil
Spectrometer: V785-0024
Trigger mode: 0
Integration Time (sec): 4.000000E-1
Scans to average: 1
Nonlinearity correction enabled: false
Boxcar width: 0
Storing dark spectrum: false
XAxis mode: Wavelengths
Number of Pixels in Spectrum: 1024
>>>>>Begin Spectral Data<<<<<
801.071	8054
801.214	8024
801.356	7913
801.499	7845
801.641	7788
801.783	7871
801.926	7974
802.068	8001
802.211	7940
802.353	7993
802.496	7860
802.638	7940
802.78	7928
802.923	7970
803.065	7879
803.208	7837
803.35	8024
803.492	8046
803.635	8202
803.777	7997
803.919	8096
804.061	8423
804.204	8119
804.346	8039
804.488	7917
804.63	8111
804.773	8039
804.915	8043
805.057	8320
805.199	8153
805.341	8138
805.483	8210
805.626	8195
805.768	8062
805.91	8199
806.052	8123
806.194	8130
806.336	8271
806.478	8107
806.62	8054
806.762	8142
806.904	8168
807.046	8408
807.188	8339
807.33	8317
807.472	8267
807.614	8161
807.756	8077
807.898	7986
808.04	7814
808.182	7913
808.324	7887
808.465	7909
808.607	8096
808.749	8123
808.891	8199
809.033	8290
809.174	8180
809.316	8065
809.458	8119
809.6	7947
809.741	8027
809.883	7932
810.025	8065
810.166	8054
810.308	7947
810.45	7997
810.591	7906
810.733	7757
810.875	7651
811.016	7510
811.158	7468
811.299	7601
811.441	7757
811.582	7655
811.724	7605
811.865	7556
812.007	7647
812.148	7575
812.29	7639
812.431	7742
812.573	7944
812.714	8012
812.855	8142
812.997	8210
813.138	8309
813.279	8187
813.421	8073
813.562	7986
813.703	7890
813.845	7761
813.986	7453
814.127	7179
814.268	7266
814.41	7187
814.551	7228
814.692	7160
814.833	7133
814.974	7103
815.115	7114
815.256	6909
815.397	6886
815.539	7042
815.68	6848
815.821	6802
815.962	6863
816.103	6840
816.244	6760
816.385	6631
816.526	6578
816.666	6544
816.807	6315
816.948	6433
817.089	6433
817.23	6456
817.371	6346
817.512	6395
817.653	6357
817.793	6380
817.934	6388
818.075	6464
818.216	6422
818.356	6433
818.497	6243
818.638	6159
818.778	6106
818.919	6053
819.06	6175
819.2	6315
819.341	6292
819.481	6323
819.622	6528
819.762	6734
819.903	6711
820.043	6627
820.184	6601
820.324	6517
820.465	6673
820.605	6673
820.746	6703
820.886	6525
821.026	6654
821.167	6662
821.307	6760
821.447	6741
821.588	6684
821.728	6547
821.868	6509
822.008	6403
822.149	6380
822.289	6327
822.429	6144
822.569	6053
822.709	6095
822.849	5923
822.99	5901
823.13	5950
823.27	5897
823.41	5824
823.55	5847
823.69	5783
823.83	5790
823.97	5688
824.11	5551
824.25	5535
824.389	5532
824.529	5596
824.669	5532
824.809	5619
824.949	5676
825.089	5642
825.228	5608
825.368	5421
825.508	5357
825.648	5341
825.787	5379
825.927	5330
826.067	5273
826.206	5258
826.346	5402
826.485	5402
826.625	5383
826.765	5554
826.904	5474
827.044	5288
827.183	5197
827.323	5197
827.462	5220
827.601	5181
827.741	5216
827.88	5254
828.02	5124
828.159	5212
828.298	5292
828.437	5353
828.577	5261
828.716	5395
828.855	5303
828.994	5102
829.134	5113
829.273	5174
829.412	5181
829.551	5166
829.69	5181
829.829	5269
829.968	5345
830.107	5311
830.246	5288
830.385	5136
830.524	5201
830.663	5071
830.802	5006
830.941	4892
831.08	4911
831.219	4991
831.357	4999
831.496	5117
831.635	4976
831.774	4835
831.913	4850
832.051	4683
832.19	4763
832.329	4835
832.467	4714
832.606	4626
832.744	4763
832.883	4698
833.022	4740
833.16	4748
833.299	4858
833.437	4805
833.576	4801
833.714	4866
833.852	4816
833.991	4881
834.129	4938
834.267	4968
834.406	4915
834.544	4961
834.682	4949
834.821	4961
834.959	5159
835.097	4972
835.235	5185
835.373	5098
835.511	5140
835.65	5014
835.788	5067
835.926	4942
836.064	4885
836.202	4885
836.34	5189
836.478	5220
836.615	5132
836.753	5239
836.891	5299
837.029	5273
837.167	5212
837.305	5143
837.443	5201
837.58	5086
837.718	5227
837.856	5178
837.993	5109
838.131	5231
838.269	5197
838.406	5227
838.544	5212
838.681	5045
838.819	4980
838.956	4885
839.094	4927
839.231	4972
839.369	5090
839.506	5406
839.643	5254
839.781	5064
839.918	5052
840.055	5102
840.193	5075
840.33	5094
840.467	5090
840.604	5185
840.742	5391
840.879	5052
841.016	5060
841.153	5151
841.29	5387
841.427	5391
841.564	5322
841.701	5379
841.838	5292
841.975	5208
842.112	5284
842.249	5075
842.385	5098
842.522	5349
842.659	5162
842.796	5193
842.933	5201
843.069	5162
843.206	5113
843.343	5341
843.479	5269
843.616	5277
843.752	5014
843.889	5029
844.025	5185
844.162	4980
844.298	5201
844.435	5124
844.571	5083
844.708	5170
844.844	5288
844.98	5341
845.117	5220
845.253	5155
845.389	5060
845.525	5140
845.661	5166
845.798	5060
845.934	5121
846.07	5083
846.206	5151
846.342	5299
846.478	5223
846.614	4991
846.75	4991
846.886	4923
847.022	5174
847.158	5045
847.294	5109
847.429	5079
847.565	5067
847.701	5277
847.837	4854
847.972	4824
848.108	4972
848.244	4911
848.379	4801
848.515	4797
848.65	4733
848.786	4759
848.921	4786
849.057	4923
849.192	4892
849.328	4850
849.463	4831
849.598	4771
849.734	4752
849.869	4691
850.004	4634
850.14	4649
850.275	4573
850.41	4531
850.545	4542
850.68	4618
850.815	4637
850.95	4611
851.085	4805
851.22	4767
851.355	4660
851.49	4641
851.625	4672
851.76	4622
851.895	4554
852.03	4500
852.165	4611
852.299	4691
852.434	4793
852.569	4755
852.703	4782
852.838	4839
852.973	4938
853.107	4930
853.242	4717
853.376	4687
853.511	4592
853.645	4645
853.78	4831
853.914	4694
854.048	4656
854.183	4668
854.317	4729
854.451	4862
854.585	4687
854.72	4691
854.854	4782
854.988	4573
855.122	4645
855.256	4523
855.39	4637
855.524	4801
855.658	4714
855.792	4725
855.926	4748
856.06	4755
856.194	4797
856.327	4717
856.461	4596
856.595	4622
856.729	4615
856.862	4736
856.996	4675
857.13	4717
857.263	4721
857.397	4782
857.53	4645
857.664	4763
857.797	4755
857.931	4771
858.064	4668
858.197	4725
858.331	4645
858.464	4622
858.597	4443
858.731	4592
858.864	4656
858.997	4607
859.13	4679
859.263	4649
859.396	4717
859.529	4554
859.662	4603
859.795	4519
859.928	4668
860.061	4763
860.194	4755
860.327	4615
860.46	4569
860.592	4710
860.725	4694
860.858	4710
860.99	4554
861.123	4580
861.256	4481
861.388	4630
861.521	5417
861.653	4470
861.786	4459
861.918	4459
862.05	4531
862.183	4561
862.315	4580
862.447	4626
862.58	4550
862.712	4386
862.844	4375
862.976	4459
863.108	4474
863.24	4892
863.372	4333
863.504	4451
863.636	4405
863.768	4512
863.9	4413
864.032	4344
864.164	4409
864.296	4493
864.428	4569
864.559	4611
864.691	4573
864.823	4531
864.954	4497
865.086	4531
865.217	4436
865.349	4432
865.48	4402
865.612	4497
865.743	4622
865.875	4466
866.006	4409
866.137	4451
866.269	4443
866.4	4451
866.531	4443
866.662	4440
866.793	4386
866.924	4405
867.055	4504
867.186	4470
867.317	4363
867.448	4383
867.579	4394
867.71	4383
867.841	4352
867.972	4470
868.103	4459
868.233	4436
868.364	4455
868.495	4489
868.625	4691
868.756	4717
868.886	4535
869.017	4615
869.147	4740
869.278	4786
869.408	4618
869.539	4611
869.669	4675
869.799	4702
869.929	4706
870.06	4782
870.19	4953
870.32	4908
870.45	4930
870.58	4987
870.71	5067
870.84	5090
870.97	4923
871.1	4930
871.23	5128
871.36	5155
871.489	5033
871.619	5045
871.749	5132
871.879	5075
872.008	5204
872.138	5086
872.267	4965
872.397	4881
872.526	4782
872.656	4725
872.785	4763
872.915	4995
873.044	5052
873.173	4911
873.303	4984
873.432	4980
873.561	4938
873.69	4862
873.819	4911
873.948	4896
874.077	4854
874.206	4740
874.335	4831
874.464	4961
874.593	5071
874.722	5010
874.851	5117
874.979	5132
875.108	5048
875.237	4965
875.365	4927
875.494	4927
875.623	5029
875.751	4881
875.88	4919
876.008	5025
876.136	5029
876.265	5208
876.393	5341
876.521	5288
876.65	5246
876.778	5170
876.906	5140
877.034	5064
877.162	5083
877.29	5033
877.418	5079
877.546	5083
877.674	5056
877.802	5060
877.93	4984
878.058	4968
878.185	4957
878.313	5003
878.441	5025
878.568	4877
878.696	4938
878.824	5003
878.951	5045
879.079	5170
879.206	5334
879.333	5147
879.461	4991
879.588	5052
879.715	5174
879.842	5299
879.97	5113
880.097	4816
880.224	4847
880.351	4854
880.478	4843
880.605	4839
880.732	4858
880.859	5105
880.986	4934
881.112	5037
881.239	4835
881.366	4687
881.493	4618
881.619	4706
881.746	4679
881.872	4763
881.999	4717
882.125	4729
882.252	4873
882.378	4881
882.505	4995
882.631	4831
882.757	4771
882.883	4812
883.01	4759
883.136	4672
883.262	4603
883.388	4672
883.514	4866
883.64	4930
883.766	4866
883.892	4725
884.018	4748
884.143	4904
884.269	5067
884.395	4725
884.52	4698
884.646	4706
884.772	4630
884.897	4573
885.023	4717
885.148	4820
885.274	4889
885.399	4915
885.524	4786
885.65	4694
885.775	4736
885.9	4782
886.025	4927
886.15	4820
886.275	4755
886.4	4687
886.525	4759
886.65	4717
886.775	4725
886.9	4972
887.025	5075
887.149	4831
887.274	4698
887.399	4634
887.523	4634
887.648	4645
887.773	4656
887.897	4767
888.021	4797
888.146	4725
888.27	4858
888.395	4938
888.519	4900
888.643	4908
888.767	4839
888.891	4744
889.015	4656
889.139	4702
889.263	4634
889.387	4755
889.511	4877
889.635	4843
889.759	4706
889.883	4668
890.006	4767
890.13	4911
890.254	4618
890.377	4748
890.501	4618
890.624	4561
890.748	4721
890.871	4535
890.995	4428
891.118	4405
891.241	4584
891.364	4630
891.488	4668
891.611	4485
891.734	4531
891.857	4660
891.98	4634
892.103	4714
892.226	4618
892.349	4558
892.471	4523
892.594	4565
892.717	4649
892.839	4596
892.962	4634
893.085	4725
893.207	4630
893.33	4489
893.452	4596
893.575	4664
893.697	4653
893.819	4812
893.941	4858
894.064	4786
894.186	4588
894.308	4622
894.43	4774
894.552	4911
894.674	4755
894.796	4660
894.918	4664
895.04	4626
895.161	4771
895.283	4664
895.405	4626
895.526	4683
895.648	4774
895.769	4759
895.891	4759
896.012	4748
896.134	4793
896.255	4744
896.376	4641
896.498	4626
896.619	4698
896.74	4645
896.861	4668
896.982	4961
897.103	5128
897.224	4870
897.345	4801
897.466	4736
897.587	4790
897.708	4938
897.828	4828
897.949	4717
898.07	4577
898.19	4675
898.311	4854
898.431	4694
898.552	4797
898.672	4870
898.792	4850
898.913	4763
899.033	4710
899.153	4554
899.273	4466
899.393	4523
899.513	4569
899.633	4542
899.753	4592
899.873	4550
899.993	4634
900.113	4561
900.232	4603
900.352	4596
900.472	4538
900.591	4466
900.711	4497
900.83	4470
900.95	4656
901.069	4725
901.189	4599
901.308	4459
901.427	4295
901.546	4360
901.665	4497
901.784	4569
901.904	4436
902.023	4375
902.141	4211
902.26	4238
902.379	4341
902.498	4344
902.617	4306
902.735	4447
902.854	4402
902.973	4383
903.091	4249
903.21	4257
903.328	4337
903.446	4352
903.565	4287
903.683	4344
903.801	4318
903.919	4451
904.038	4504
904.156	4344
904.274	4470
904.392	4436
904.51	4424
904.627	4550
904.745	4577
904.863	4683
904.981	4436
905.098	4329
905.216	4405
905.334	4432
905.451	4478
905.569	4493
905.686	4607
905.803	4573
905.921	4470
906.038	4634
906.155	4478
906.272	4478
906.389	4516
906.506	4394
906.623	4447
906.74	4402
906.857	4341
906.974	4363
907.091	4615
907.208	4714
907.324	4645
907.441	4554
907.557	4371
907.674	4363
907.79	4333
907.907	4413
908.023	4504
908.139	4470
908.256	4485
908.372	4535
908.488	4447
908.604	4356
908.72	4356
908.836	4436
908.952	4409
909.068	4428
909.184	4641
909.3	4527
909.415	4664
909.531	4615
909.647	4363
909.762	4398
909.878	4402
909.993	4459
910.108	4440
910.224	4459
910.339	4447
910.454	4447
910.57	4390
910.685	4344
910.8	4645
910.915	4626
911.03	4546
911.145	4390
911.259	4360
911.374	4348
911.489	4348
911.604	4314
911.718	4196
911.833	4230
911.947	4112
912.062	4048
912.176	4253
912.291	4280
912.405	4249
912.519	4481
912.633	4504
912.748	4341
912.862	4352
912.976	4223
913.09	4147
913.204	4188
913.318	4261
913.431	4402
913.545	4375
913.659	4493
913.772	4379
913.886	4310
914	4234
914.113	4360
914.226	4481
914.34	4405
914.453	4249
914.566	4470
914.68	4337
914.793	4329
914.906	4166
915.019	4173
915.132	4090
915.245	4246
915.358	4276
915.47	4246
915.583	4325
915.696	4314
915.809	4383
915.921	4436
916.034	4253
916.146	4295
916.259	4284
916.371	4398
916.483	4390
916.595	4253
916.708	4360
916.82	4390
916.932	4390
917.044	4367
917.156	4363
917.268	4242
917.38	4325
917.491	4268
917.603	4394
917.715	4440
917.826	4474
917.938	4409
918.049	4287
918.161	4451
918.272	4573
918.384	4584
918.495	4436
918.606	4333
918.717	4230
918.828	4341
918.939	4371
919.05	4306
919.161	4329
919.272	4162
919.383	4306
919.494	4481
919.604	4634
919.715	4447
919.826	4367
919.936	4424
920.047	4546
920.157	4481
920.267	4759
920.378	4531
920.488	4538
920.598	4767
920.708	4896
920.818	4850
920.928	4771
921.038	5006
921.148	4930
921.258	4706
921.368	4611
921.477	4561
921.587	4508
921.697	4398
921.806	4565
921.916	4459
922.025	4314
922.134	4325
922.244	4268
922.353	4352
922.462	4211
922.571	4150
922.68	4063
922.789	3964
922.898	4048
923.007	4010
923.116	4147
923.224	4120
923.333	4120
923.442	4040
923.55	4036
923.659	4017
923.767	4131
923.876	4059
923.984	4120
924.092	4017
924.201	4112
924.309	4082
924.417	4211
924.525	4040
924.633	4086
924.741	5098
924.849	3918
924.956	4135
925.064	3941
925.172	3968
925.279	3979
925.387	4067
925.494	4120
925.602	4246
925.709	4219
925.816	4063
925.924	4150
926.031	4211
926.138	4181
926.245	4215
926.352	4124
926.459	4322
926.566	4318
926.673	4215
926.779	4051
926.886	4120
926.993	4013
927.099	4010
927.206	3949
927.312	3964
927.419	4101
927.525	4078
927.631	4139
927.737	3998
927.843	3945
927.95	3899
928.056	3926
928.162	3964
928.267	4067
928.373	4607
928.479	4162
928.585	3922
928.69	4055
928.796	4112
928.901	4010
929.007	3835
929.112	3991
929.218	4048
929.323	3960
929.428	3884
929.533	4109
929.638	3903
929.743	3975
929.848	4051
929.953	4006
930.058	3937
930.163	3816
930.267	3873
930.372	3953
930.477	3850
930.581	4150
930.685	3979
930.79	3838
930.894	3953
930.998	3880
931.103	4128
931.207	3713
931.311	3762
931.415	3747
931.519	3557
931.623	3576
