Data from test_V78500241_764.txt Node
Date: Fri Mar 25 16:54:18 CST 2022
User: usil
Spectrometer: V785-0024
Trigger mode: 0
Integration Time (sec): 4.000000E-1
Scans to average: 1
Nonlinearity correction enabled: false
Boxcar width: 0
Storing dark spectrum: false
XAxis mode: Wavelengths
Number of Pixels in Spectrum: 1024
>>>>>Begin Spectral Data<<<<<
801.071	8020
801.214	7974
801.356	7845
801.499	7932
801.641	7784
801.783	7852
801.926	7974
802.068	7993
802.211	7997
802.353	7997
802.496	7871
802.638	7826
802.78	7913
802.923	7932
803.065	7902
803.208	7909
803.35	7993
803.492	8164
803.635	8240
803.777	8069
803.919	8123
804.061	8419
804.204	8092
804.346	7986
804.488	7909
804.63	8103
804.773	7978
804.915	8126
805.057	8301
805.199	8176
805.341	8176
805.483	8244
805.626	8244
805.768	8157
805.91	8138
806.052	8237
806.194	8092
806.336	8328
806.478	8088
806.62	8077
806.762	8161
806.904	8187
807.046	8457
807.188	8377
807.33	8244
807.472	8385
807.614	8195
807.756	8107
807.898	7951
808.04	7822
808.182	7871
808.324	7921
808.465	7921
808.607	7955
808.749	8065
808.891	8210
809.033	8332
809.174	8183
809.316	8092
809.458	8081
809.6	7989
809.741	8043
809.883	8065
810.025	8043
810.166	8062
810.308	8012
810.45	8031
810.591	7894
810.733	7715
810.875	7689
811.016	7537
811.158	7483
811.299	7544
811.441	7700
811.582	7708
811.724	7601
811.865	7540
812.007	7495
812.148	7567
812.29	7616
812.431	7731
812.573	7807
812.714	7940
812.855	8081
812.997	8202
813.138	8355
813.279	8096
813.421	8111
813.562	7925
813.703	7890
813.845	7769
813.986	7521
814.127	7308
814.268	7259
814.41	7156
814.551	7129
814.692	7088
814.833	7076
814.974	7061
815.115	7103
815.256	6993
815.397	6966
815.539	6943
815.68	6844
815.821	6783
815.962	6867
816.103	6833
816.244	6700
816.385	6616
816.526	6551
816.666	6506
816.807	6281
816.948	6445
817.089	6456
817.23	6429
817.371	6327
817.512	6433
817.653	6338
817.793	6331
817.934	6376
818.075	6414
818.216	6414
818.356	6372
818.497	6247
818.638	6041
818.778	6057
818.919	6072
819.06	6171
819.2	6262
819.341	6308
819.481	6365
819.622	6483
819.762	6726
819.903	6593
820.043	6570
820.184	6620
820.324	6566
820.465	6665
820.605	6642
820.746	6566
820.886	6525
821.026	6650
821.167	6711
821.307	6783
821.447	6711
821.588	6604
821.728	6566
821.868	6471
822.008	6300
822.149	6353
822.289	6323
822.429	6068
822.569	6049
822.709	6106
822.849	5916
822.99	5885
823.13	5954
823.27	5931
823.41	5764
823.55	5760
823.69	5748
823.83	5809
823.97	5592
824.11	5592
824.25	5486
824.389	5566
824.529	5573
824.669	5539
824.809	5638
824.949	5611
825.089	5680
825.228	5570
825.368	5376
825.508	5376
825.648	5368
825.787	5334
825.927	5387
826.067	5299
826.206	5280
826.346	5406
826.485	5410
826.625	5410
826.765	5528
826.904	5501
827.044	5265
827.183	5227
827.323	5086
827.462	5273
827.601	5155
827.741	5140
827.88	5197
828.02	5132
828.159	5197
828.298	5303
828.437	5345
828.577	5258
828.716	5429
828.855	5303
828.994	5159
829.134	5212
829.273	5189
829.412	5140
829.551	5113
829.69	5121
829.829	5235
829.968	5334
830.107	5277
830.246	5250
830.385	5181
830.524	5140
830.663	5090
830.802	4980
830.941	4904
831.08	4870
831.219	4930
831.357	5025
831.496	5143
831.635	4919
831.774	4870
831.913	4839
832.051	4725
832.19	4721
832.329	4763
832.467	4672
832.606	4645
832.744	4698
832.883	4698
833.022	4710
833.16	4793
833.299	4816
833.437	4805
833.576	4782
833.714	4835
833.852	4877
833.991	4831
834.129	4938
834.267	4927
834.406	4850
834.544	5010
834.682	4976
834.821	4908
834.959	5128
835.097	4987
835.235	5132
835.373	5052
835.511	5083
835.65	5052
835.788	4968
835.926	4904
836.064	4850
836.202	4896
836.34	5105
836.478	5227
836.615	5113
836.753	5174
836.891	5201
837.029	5265
837.167	5166
837.305	5136
837.443	5102
837.58	5060
837.718	5246
837.856	5147
837.993	5124
838.131	5220
838.269	5204
838.406	5235
838.544	5193
838.681	4999
838.819	4976
838.956	4908
839.094	4946
839.231	4991
839.369	5067
839.506	5452
839.643	5201
839.781	5018
839.918	5041
840.055	5079
840.193	5079
840.33	5056
840.467	5128
840.604	5170
840.742	5417
840.879	5045
841.016	5113
841.153	5124
841.29	5383
841.427	5296
841.564	5349
841.701	5376
841.838	5315
841.975	5235
842.112	5246
842.249	5151
842.385	5124
842.522	5326
842.659	5128
842.796	5132
842.933	5197
843.069	5086
843.206	5189
843.343	5292
843.479	5197
843.616	5231
843.752	4995
843.889	4987
844.025	5216
844.162	4995
844.298	5201
844.435	5060
844.571	5041
844.708	5174
844.844	5337
844.98	5254
845.117	5303
845.253	5140
845.389	5079
845.525	5170
845.661	5121
845.798	5041
845.934	5170
846.07	5117
846.206	5155
846.342	5292
846.478	5162
846.614	5041
846.75	4930
846.886	4949
847.022	5151
847.158	5056
847.294	5041
847.429	5075
847.565	5022
847.701	5337
847.837	4854
847.972	4805
848.108	4980
848.244	4911
848.379	4774
848.515	4740
848.65	4752
848.786	4736
848.921	4782
849.057	4839
849.192	4930
849.328	4759
849.463	4828
849.598	4790
849.734	4759
849.869	4687
850.004	4603
850.14	4660
850.275	4618
850.41	4535
850.545	4577
850.68	4573
850.815	4622
850.95	4599
851.085	4843
851.22	4759
851.355	4675
851.49	4580
851.625	4611
851.76	4626
851.895	4611
852.03	4573
852.165	4630
852.299	4691
852.434	4771
852.569	4744
852.703	4755
852.838	4793
852.973	4892
853.107	4911
853.242	4725
853.376	4656
853.511	4523
853.645	4573
853.78	4771
853.914	4630
854.048	4656
854.183	4611
854.317	4664
854.451	4816
854.585	4698
854.72	4592
854.854	4771
854.988	4580
855.122	4592
855.256	4523
855.39	4656
855.524	4763
855.658	4752
855.792	4687
855.926	4736
856.06	4755
856.194	4793
856.327	4736
856.461	4592
856.595	4588
856.729	4592
856.862	4771
856.996	4710
857.13	4714
857.263	4748
857.397	4771
857.53	4675
857.664	4706
857.797	4752
857.931	4706
858.064	4679
858.197	4778
858.331	4656
858.464	4607
858.597	4516
858.731	4618
858.864	4596
858.997	4580
859.13	4660
859.263	4645
859.396	4706
859.529	4577
859.662	4500
859.795	4535
859.928	4668
860.061	4752
860.194	4809
860.327	4622
860.46	4569
860.592	4755
860.725	4733
860.858	4683
860.99	4592
861.123	4550
861.256	4519
861.388	4622
861.521	5357
861.653	4508
861.786	4428
861.918	4474
862.05	4546
862.183	4542
862.315	4588
862.447	4649
862.58	4554
862.712	4424
862.844	4333
862.976	4500
863.108	4470
863.24	4866
863.372	4322
863.504	4417
863.636	4405
863.768	4447
863.9	4402
864.032	4356
864.164	4383
864.296	4504
864.428	4542
864.559	4554
864.691	4478
864.823	4565
864.954	4436
865.086	4489
865.217	4424
865.349	4402
865.48	4409
865.612	4485
865.743	4630
865.875	4459
866.006	4413
866.137	4447
866.269	4413
866.4	4440
866.531	4421
866.662	4402
866.793	4428
866.924	4402
867.055	4489
867.186	4424
867.317	4466
867.448	4375
867.579	4367
867.71	4341
867.841	4344
867.972	4424
868.103	4481
868.233	4462
868.364	4451
868.495	4489
868.625	4637
868.756	4721
868.886	4573
869.017	4569
869.147	4801
869.278	4755
869.408	4698
869.539	4630
869.669	4714
869.799	4653
869.929	4736
870.06	4683
870.19	4995
870.32	4881
870.45	4930
870.58	5022
870.71	5117
870.84	5086
870.97	4942
871.1	4870
871.23	5162
871.36	5033
871.489	5010
871.619	5075
871.749	5064
871.879	5113
872.008	5155
872.138	5056
872.267	4991
872.397	4843
872.526	4801
872.656	4736
872.785	4828
872.915	4915
873.044	5003
873.173	4961
873.303	4949
873.432	5010
873.561	4972
873.69	4870
873.819	4816
873.948	4877
874.077	4835
874.206	4767
874.335	4797
874.464	4927
874.593	5006
874.722	4927
874.851	5109
874.979	5010
875.108	5086
875.237	4881
875.365	4870
875.494	4870
875.623	4953
875.751	4778
875.88	4839
876.008	4938
876.136	5003
876.265	5155
876.393	5284
876.521	5326
876.65	5235
876.778	5162
876.906	5025
877.034	5025
877.162	5094
877.29	4972
877.418	5006
877.546	5037
877.674	5090
877.802	5037
877.93	5018
878.058	4923
878.185	4889
878.313	4938
878.441	4904
878.568	4793
878.696	4847
878.824	4961
878.951	5018
879.079	5113
879.206	5273
879.333	5121
879.461	5022
879.588	5022
879.715	5128
879.842	5208
879.97	4987
880.097	4778
880.224	4714
880.351	4778
880.478	4805
880.605	4824
880.732	4816
880.859	5098
880.986	4904
881.112	4934
881.239	4809
881.366	4649
881.493	4603
881.619	4596
881.746	4611
881.872	4641
881.999	4626
882.125	4656
882.252	4763
882.378	4778
882.505	4923
882.631	4805
882.757	4683
882.883	4714
883.01	4717
883.136	4683
883.262	4588
883.388	4611
883.514	4744
883.64	4858
883.766	4801
883.892	4653
884.018	4767
884.143	4870
884.269	4991
884.395	4664
884.52	4645
884.646	4649
884.772	4618
884.897	4561
885.023	4698
885.148	4763
885.274	4831
885.399	4790
885.524	4717
885.65	4691
885.775	4729
885.9	4714
886.025	4820
886.15	4774
886.275	4740
886.4	4622
886.525	4755
886.65	4691
886.775	4679
886.9	4915
887.025	5006
887.149	4786
887.274	4653
887.399	4569
887.523	4584
887.648	4558
887.773	4554
887.897	4759
888.021	4759
888.146	4664
888.27	4786
888.395	4870
888.519	4801
888.643	4812
888.767	4839
888.891	4630
889.015	4588
889.139	4653
889.263	4637
889.387	4748
889.511	4858
889.635	4790
889.759	4618
889.883	4668
890.006	4706
890.13	4793
890.254	4615
890.377	4702
890.501	4504
890.624	4497
890.748	4618
890.871	4516
890.995	4386
891.118	4371
891.241	4500
891.364	4500
891.488	4622
891.611	4489
891.734	4546
891.857	4584
891.98	4565
892.103	4645
892.226	4550
892.349	4554
892.471	4398
892.594	4558
892.717	4626
892.839	4538
892.962	4565
893.085	4634
893.207	4626
893.33	4451
893.452	4542
893.575	4660
893.697	4584
893.819	4812
893.941	4820
894.064	4774
894.186	4554
894.308	4546
894.43	4702
894.552	4816
894.674	4714
894.796	4489
894.918	4561
895.04	4519
895.161	4675
895.283	4694
895.405	4596
895.526	4622
895.648	4656
895.769	4641
895.891	4721
896.012	4759
896.134	4706
896.255	4679
896.376	4622
896.498	4615
896.619	4675
896.74	4596
896.861	4637
896.982	4896
897.103	5022
897.224	4839
897.345	4733
897.466	4679
897.587	4759
897.708	4870
897.828	4778
897.949	4679
898.07	4607
898.19	4634
898.311	4801
898.431	4672
898.552	4744
898.672	4835
898.792	4755
898.913	4733
899.033	4626
899.153	4489
899.273	4432
899.393	4500
899.513	4546
899.633	4519
899.753	4535
899.873	4527
899.993	4611
900.113	4554
900.232	4634
900.352	4550
900.472	4459
900.591	4379
900.711	4485
900.83	4459
900.95	4645
901.069	4710
901.189	4519
901.308	4344
901.427	4295
901.546	4379
901.665	4504
901.784	4504
901.904	4367
902.023	4367
902.141	4230
902.26	4173
902.379	4322
902.498	4200
902.617	4238
902.735	4436
902.854	4375
902.973	4398
903.091	4188
903.21	4200
903.328	4276
903.446	4253
903.565	4265
903.683	4344
903.801	4303
903.919	4402
904.038	4440
904.156	4322
904.274	4405
904.392	4379
904.51	4402
904.627	4466
904.745	4561
904.863	4622
904.981	4417
905.098	4276
905.216	4356
905.334	4417
905.451	4440
905.569	4447
905.686	4542
905.803	4531
905.921	4360
906.038	4577
906.155	4478
906.272	4409
906.389	4428
906.506	4352
906.623	4356
906.74	4402
906.857	4299
906.974	4371
907.091	4554
907.208	4725
907.324	4630
907.441	4455
907.557	4337
907.674	4329
907.79	4333
907.907	4352
908.023	4497
908.139	4436
908.256	4459
908.372	4489
908.488	4432
908.604	4360
908.72	4314
908.836	4394
908.952	4402
909.068	4440
909.184	4565
909.3	4497
909.415	4596
909.531	4573
909.647	4383
909.762	4356
909.878	4299
909.993	4432
910.108	4394
910.224	4356
910.339	4489
910.454	4383
910.57	4379
910.685	4303
910.8	4660
910.915	4584
911.03	4493
911.145	4322
911.259	4306
911.374	4394
911.489	4318
911.604	4276
911.718	4150
911.833	4219
911.947	4105
912.062	4055
912.176	4215
912.291	4238
912.405	4234
912.519	4485
912.633	4485
912.748	4322
912.862	4280
912.976	4185
913.09	4105
913.204	4185
913.318	4257
913.431	4421
913.545	4371
913.659	4451
913.772	4375
913.886	4249
914	4188
914.113	4375
914.226	4436
914.34	4390
914.453	4253
914.566	4470
914.68	4280
914.793	4333
914.906	4135
915.019	4131
915.132	4074
915.245	4188
915.358	4181
915.47	4246
915.583	4291
915.696	4265
915.809	4398
915.921	4409
916.034	4261
916.146	4215
916.259	4173
916.371	4409
916.483	4341
916.595	4246
916.708	4371
916.82	4322
916.932	4337
917.044	4367
917.156	4344
917.268	4284
917.38	4261
917.491	4257
917.603	4325
917.715	4394
917.826	4466
917.938	4329
918.049	4265
918.161	4390
918.272	4569
918.384	4493
918.495	4459
918.606	4265
918.717	4280
918.828	4386
918.939	4356
919.05	4253
919.161	4299
919.272	4166
919.383	4227
919.494	4436
919.604	4656
919.715	4375
919.826	4333
919.936	4409
920.047	4519
920.157	4470
920.267	4687
920.378	4573
920.488	4527
920.598	4683
920.708	4858
920.818	4763
920.928	4767
921.038	4923
921.148	4908
921.258	4615
921.368	4546
921.477	4462
921.587	4459
921.697	4402
921.806	4558
921.916	4417
922.025	4265
922.134	4268
922.244	4192
922.353	4325
922.462	4177
922.571	4139
922.68	3987
922.789	3975
922.898	3994
923.007	3994
923.116	4101
923.224	4036
923.333	4063
923.442	3979
923.55	4021
923.659	4029
923.767	4101
923.876	3979
923.984	4147
924.092	4021
924.201	4032
924.309	4109
924.417	4120
924.525	4051
924.633	4154
924.741	4892
924.849	3975
924.956	4135
925.064	3998
925.172	3937
925.279	3964
925.387	4071
925.494	4029
925.602	4234
925.709	4150
925.816	4051
925.924	4169
926.031	4215
926.138	4162
926.245	4219
926.352	4071
926.459	4268
926.566	4280
926.673	4173
926.779	4128
926.886	4105
926.993	3998
927.099	3937
927.206	3991
927.312	3979
927.419	4051
927.525	3994
927.631	4097
927.737	3994
927.843	3937
927.95	3812
928.056	3949
928.162	3972
928.267	4093
928.373	4706
928.479	4120
928.585	3831
928.69	4006
928.796	4055
928.901	3956
929.007	3846
929.112	4013
929.218	3983
929.323	3915
929.428	3975
929.533	4109
929.638	3899
929.743	4010
929.848	4021
929.953	3975
930.058	3915
930.163	3774
930.267	3842
930.372	3983
930.477	3842
930.581	4097
930.685	3956
930.79	3808
930.894	3869
930.998	3854
931.103	3998
931.207	3720
931.311	3705
931.415	3663
931.519	3526
931.623	3545
