Data from test_V78500241_2445.txt Node
Date: Fri Mar 25 17:06:00 CST 2022
User: usil
Spectrometer: V785-0024
Trigger mode: 0
Integration Time (sec): 4.000000E-1
Scans to average: 1
Nonlinearity correction enabled: false
Boxcar width: 0
Storing dark spectrum: false
XAxis mode: Wavelengths
Number of Pixels in Spectrum: 1024
>>>>>Begin Spectral Data<<<<<
801.071	8016
801.214	8005
801.356	7875
801.499	7909
801.641	7814
801.783	7799
801.926	7989
802.068	7921
802.211	7955
802.353	8058
802.496	7947
802.638	7837
802.78	7917
802.923	7917
803.065	7864
803.208	7887
803.35	8008
803.492	8031
803.635	8240
803.777	8001
803.919	8130
804.061	8579
804.204	8119
804.346	8145
804.488	8001
804.63	8107
804.773	8035
804.915	8084
805.057	8370
805.199	8149
805.341	8218
805.483	8282
805.626	8244
805.768	8153
805.91	8248
806.052	8206
806.194	8126
806.336	8282
806.478	8111
806.62	8088
806.762	8229
806.904	8279
807.046	8427
807.188	8400
807.33	8290
807.472	8389
807.614	8149
807.756	8153
807.898	8115
808.04	7871
808.182	7887
808.324	7849
808.465	7909
808.607	8119
808.749	8210
808.891	8267
809.033	8320
809.174	8279
809.316	8111
809.458	8115
809.6	7993
809.741	8058
809.883	8153
810.025	8130
810.166	8054
810.308	8031
810.45	7963
810.591	7879
810.733	7753
810.875	7647
811.016	7476
811.158	7521
811.299	7620
811.441	7723
811.582	7674
811.724	7567
811.865	7556
812.007	7609
812.148	7632
812.29	7670
812.431	7738
812.573	7974
812.714	8016
812.855	8164
812.997	8240
813.138	8309
813.279	8149
813.421	8088
813.562	7951
813.703	7887
813.845	7788
813.986	7506
814.127	7327
814.268	7206
814.41	7164
814.551	7160
814.692	7240
814.833	7103
814.974	7129
815.115	7152
815.256	6951
815.397	6973
815.539	6943
815.68	6848
815.821	6779
815.962	6852
816.103	6894
816.244	6738
816.385	6639
816.526	6677
816.666	6502
816.807	6338
816.948	6479
817.089	6483
817.23	6502
817.371	6403
817.512	6403
817.653	6426
817.793	6426
817.934	6418
818.075	6471
818.216	6437
818.356	6433
818.497	6258
818.638	6140
818.778	6167
818.919	6133
819.06	6178
819.2	6323
819.341	6346
819.481	6361
819.622	6551
819.762	6760
819.903	6726
820.043	6601
820.184	6608
820.324	6597
820.465	6749
820.605	6715
820.746	6684
820.886	6494
821.026	6692
821.167	6753
821.307	6825
821.447	6901
821.588	6662
821.728	6612
821.868	6566
822.008	6338
822.149	6399
822.289	6437
822.429	6243
822.569	6159
822.709	6121
822.849	5935
822.99	5923
823.13	5988
823.27	5965
823.41	5817
823.55	5771
823.69	5783
823.83	5809
823.97	5680
824.11	5551
824.25	5570
824.389	5604
824.529	5623
824.669	5528
824.809	5680
824.949	5695
825.089	5604
825.228	5528
825.368	5398
825.508	5353
825.648	5368
825.787	5383
825.927	5398
826.067	5334
826.206	5292
826.346	5376
826.485	5421
826.625	5391
826.765	5570
826.904	5452
827.044	5299
827.183	5178
827.323	5208
827.462	5223
827.601	5181
827.741	5204
827.88	5231
828.02	5105
828.159	5261
828.298	5292
828.437	5341
828.577	5299
828.716	5497
828.855	5357
828.994	5178
829.134	5178
829.273	5185
829.412	5147
829.551	5189
829.69	5162
829.829	5242
829.968	5379
830.107	5292
830.246	5307
830.385	5193
830.524	5181
830.663	5109
830.802	4961
830.941	4854
831.08	4908
831.219	4949
831.357	4965
831.496	5151
831.635	4919
831.774	4828
831.913	4889
832.051	4752
832.19	4763
832.329	4858
832.467	4649
832.606	4664
832.744	4729
832.883	4698
833.022	4752
833.16	4782
833.299	4809
833.437	4896
833.576	4850
833.714	4858
833.852	4885
833.991	4919
834.129	4961
834.267	4946
834.406	4908
834.544	4942
834.682	5018
834.821	5048
834.959	5185
835.097	4995
835.235	5174
835.373	5124
835.511	5121
835.65	4984
835.788	5041
835.926	4957
836.064	4866
836.202	4968
836.34	5174
836.478	5223
836.615	5162
836.753	5265
836.891	5322
837.029	5239
837.167	5242
837.305	5136
837.443	5170
837.58	5045
837.718	5258
837.856	5178
837.993	5193
838.131	5273
838.269	5231
838.406	5227
838.544	5223
838.681	5056
838.819	5045
838.956	4915
839.094	4885
839.231	4991
839.369	5105
839.506	5395
839.643	5242
839.781	5037
839.918	5018
840.055	5132
840.193	5083
840.33	5159
840.467	5170
840.604	5220
840.742	5440
840.879	5086
841.016	5124
841.153	5174
841.29	5417
841.427	5337
841.564	5299
841.701	5334
841.838	5246
841.975	5231
842.112	5280
842.249	5193
842.385	5098
842.522	5292
842.659	5090
842.796	5098
842.933	5189
843.069	5128
843.206	5132
843.343	5269
843.479	5254
843.616	5330
843.752	5025
843.889	5052
844.025	5242
844.162	5071
844.298	5242
844.435	5079
844.571	5113
844.708	5242
844.844	5357
844.98	5303
845.117	5326
845.253	5162
845.389	5098
845.525	5166
845.661	5105
845.798	5079
845.934	5162
846.07	5079
846.206	5181
846.342	5280
846.478	5155
846.614	4999
846.75	4972
846.886	4976
847.022	5124
847.158	4999
847.294	5052
847.429	5094
847.565	5083
847.701	5345
847.837	4866
847.972	4793
848.108	4995
848.244	4953
848.379	4820
848.515	4748
848.65	4755
848.786	4729
848.921	4748
849.057	4877
849.192	4961
849.328	4831
849.463	4873
849.598	4778
849.734	4805
849.869	4740
850.004	4660
850.14	4664
850.275	4664
850.41	4535
850.545	4561
850.68	4580
850.815	4649
850.95	4622
851.085	4870
851.22	4782
851.355	4660
851.49	4656
851.625	4660
851.76	4637
851.895	4577
852.03	4550
852.165	4645
852.299	4710
852.434	4816
852.569	4733
852.703	4748
852.838	4809
852.973	4968
853.107	4889
853.242	4736
853.376	4679
853.511	4573
853.645	4611
853.78	4847
853.914	4694
854.048	4660
854.183	4653
854.317	4679
854.451	4885
854.585	4694
854.72	4653
854.854	4767
854.988	4660
855.122	4637
855.256	4500
855.39	4641
855.524	4820
855.658	4717
855.792	4634
855.926	4793
856.06	4767
856.194	4790
856.327	4725
856.461	4626
856.595	4603
856.729	4618
856.862	4809
856.996	4752
857.13	4767
857.263	4793
857.397	4843
857.53	4679
857.664	4725
857.797	4778
857.931	4759
858.064	4679
858.197	4752
858.331	4630
858.464	4592
858.597	4550
858.731	4603
858.864	4630
858.997	4626
859.13	4668
859.263	4656
859.396	4767
859.529	4580
859.662	4550
859.795	4565
859.928	4641
860.061	4755
860.194	4767
860.327	4603
860.46	4569
860.592	4721
860.725	4653
860.858	4725
860.99	4607
861.123	4519
861.256	4531
861.388	4618
861.521	5288
861.653	4447
861.786	4462
861.918	4466
862.05	4519
862.183	4573
862.315	4592
862.447	4694
862.58	4592
862.712	4421
862.844	4352
862.976	4489
863.108	4455
863.24	4744
863.372	4314
863.504	4462
863.636	4394
863.768	4478
863.9	4436
864.032	4390
864.164	4474
864.296	4436
864.428	4588
864.559	4500
864.691	4565
864.823	4573
864.954	4493
865.086	4508
865.217	4474
865.349	4352
865.48	4470
865.612	4493
865.743	4634
865.875	4497
866.006	4413
866.137	4470
866.269	4462
866.4	4455
866.531	4447
866.662	4436
866.793	4375
866.924	4447
867.055	4512
867.186	4504
867.317	4413
867.448	4428
867.579	4379
867.71	4398
867.841	4363
867.972	4436
868.103	4455
868.233	4459
868.364	4478
868.495	4489
868.625	4672
868.756	4805
868.886	4580
869.017	4615
869.147	4786
869.278	4771
869.408	4672
869.539	4630
869.669	4725
869.799	4687
869.929	4801
870.06	4771
870.19	4930
870.32	4961
870.45	5010
870.58	4968
870.71	5094
870.84	5060
870.97	4953
871.1	4885
871.23	5121
871.36	5155
871.489	5014
871.619	5075
871.749	5045
871.879	5136
872.008	5170
872.138	5022
872.267	4999
872.397	4873
872.526	4797
872.656	4729
872.785	4801
872.915	4915
873.044	5048
873.173	4949
873.303	4961
873.432	4976
873.561	4927
873.69	4862
873.819	4828
873.948	4923
874.077	4824
874.206	4816
874.335	4809
874.464	4885
874.593	5071
874.722	4961
874.851	5136
874.979	5090
875.108	5056
875.237	4949
875.365	4946
875.494	4870
875.623	4999
875.751	4824
875.88	4881
876.008	4995
876.136	5041
876.265	5235
876.393	5345
876.521	5284
876.65	5258
876.778	5159
876.906	5075
877.034	5022
877.162	5014
877.29	5014
877.418	5067
877.546	5079
877.674	5056
877.802	5037
877.93	5025
878.058	4915
878.185	4896
878.313	4961
878.441	4976
878.568	4850
878.696	4870
878.824	4987
878.951	5003
879.079	5132
879.206	5284
879.333	5174
879.461	4987
879.588	5006
879.715	5075
879.842	5265
879.97	5003
880.097	4835
880.224	4755
880.351	4782
880.478	4820
880.605	4767
880.732	4809
880.859	5124
880.986	4881
881.112	4900
881.239	4854
881.366	4710
881.493	4626
881.619	4561
881.746	4634
881.872	4630
881.999	4664
882.125	4717
882.252	4778
882.378	4797
882.505	4961
882.631	4847
882.757	4668
882.883	4706
883.01	4706
883.136	4653
883.262	4588
883.388	4550
883.514	4831
883.64	4847
883.766	4805
883.892	4679
884.018	4698
884.143	4919
884.269	5006
884.395	4683
884.52	4679
884.646	4664
884.772	4603
884.897	4538
885.023	4668
885.148	4812
885.274	4881
885.399	4824
885.524	4797
885.65	4714
885.775	4744
885.9	4771
886.025	4847
886.15	4771
886.275	4729
886.4	4630
886.525	4744
886.65	4645
886.775	4679
886.9	4900
887.025	5075
887.149	4797
887.274	4675
887.399	4527
887.523	4599
887.648	4580
887.773	4615
887.897	4752
888.021	4782
888.146	4668
888.27	4809
888.395	4911
888.519	4797
888.643	4778
888.767	4850
888.891	4675
889.015	4599
889.139	4637
889.263	4615
889.387	4717
889.511	4828
889.635	4824
889.759	4664
889.883	4622
890.006	4755
890.13	4831
890.254	4634
890.377	4694
890.501	4554
890.624	4474
890.748	4626
890.871	4485
890.995	4413
891.118	4379
891.241	4546
891.364	4538
891.488	4649
891.611	4478
891.734	4558
891.857	4561
891.98	4542
892.103	4653
892.226	4577
892.349	4481
892.471	4447
892.594	4584
892.717	4577
892.839	4577
892.962	4584
893.085	4664
893.207	4626
893.33	4432
893.452	4497
893.575	4660
893.697	4538
893.819	4835
893.941	4828
894.064	4809
894.186	4554
894.308	4519
894.43	4729
894.552	4759
894.674	4725
894.796	4573
894.918	4569
895.04	4573
895.161	4736
895.283	4656
895.405	4558
895.526	4664
895.648	4691
895.769	4687
895.891	4721
896.012	4759
896.134	4706
896.255	4691
896.376	4611
896.498	4622
896.619	4664
896.74	4618
896.861	4637
896.982	4877
897.103	5067
897.224	4820
897.345	4771
897.466	4714
897.587	4755
897.708	4877
897.828	4767
897.949	4653
898.07	4580
898.19	4588
898.311	4843
898.431	4721
898.552	4714
898.672	4767
898.792	4820
898.913	4748
899.033	4618
899.153	4531
899.273	4409
899.393	4523
899.513	4558
899.633	4527
899.753	4554
899.873	4512
899.993	4577
900.113	4508
900.232	4531
900.352	4542
900.472	4497
900.591	4424
900.711	4474
900.83	4436
900.95	4580
901.069	4653
901.189	4573
901.308	4413
901.427	4303
901.546	4413
901.665	4478
901.784	4512
901.904	4421
902.023	4268
902.141	4188
902.26	4177
902.379	4325
902.498	4219
902.617	4234
902.735	4356
902.854	4352
902.973	4390
903.091	4246
903.21	4219
903.328	4280
903.446	4276
903.565	4253
903.683	4363
903.801	4284
903.919	4398
904.038	4417
904.156	4333
904.274	4459
904.392	4421
904.51	4428
904.627	4474
904.745	4584
904.863	4607
904.981	4367
905.098	4325
905.216	4352
905.334	4424
905.451	4421
905.569	4459
905.686	4542
905.803	4596
905.921	4451
906.038	4527
906.155	4462
906.272	4402
906.389	4459
906.506	4337
906.623	4394
906.74	4352
906.857	4295
906.974	4379
907.091	4535
907.208	4637
907.324	4584
907.441	4493
907.557	4356
907.674	4348
907.79	4318
907.907	4398
908.023	4497
908.139	4421
908.256	4413
908.372	4451
908.488	4402
908.604	4341
908.72	4291
908.836	4379
908.952	4375
909.068	4470
909.184	4554
909.3	4470
909.415	4538
909.531	4531
909.647	4390
909.762	4371
909.878	4348
909.993	4432
910.108	4409
910.224	4394
910.339	4451
910.454	4371
910.57	4352
910.685	4284
910.8	4645
910.915	4569
911.03	4493
911.145	4379
911.259	4314
911.374	4367
911.489	4299
911.604	4257
911.718	4158
911.833	4181
911.947	4093
912.062	3998
912.176	4234
912.291	4242
912.405	4238
912.519	4481
912.633	4573
912.748	4356
912.862	4303
912.976	4234
913.09	4128
913.204	4211
913.318	4265
913.431	4371
913.545	4379
913.659	4424
913.772	4333
913.886	4238
914	4227
914.113	4398
914.226	4417
914.34	4371
914.453	4204
914.566	4485
914.68	4284
914.793	4322
914.906	4143
915.019	4147
915.132	4124
915.245	4200
915.358	4219
915.47	4276
915.583	4295
915.696	4306
915.809	4394
915.921	4421
916.034	4246
916.146	4242
916.259	4238
916.371	4344
916.483	4341
916.595	4257
916.708	4325
916.82	4341
916.932	4341
917.044	4310
917.156	4333
917.268	4211
917.38	4265
917.491	4265
917.603	4341
917.715	4402
917.826	4451
917.938	4295
918.049	4238
918.161	4447
918.272	4535
918.384	4527
918.495	4493
918.606	4322
918.717	4227
918.828	4333
918.939	4383
919.05	4234
919.161	4329
919.272	4101
919.383	4219
919.494	4470
919.604	4653
919.715	4386
919.826	4360
919.936	4371
920.047	4504
920.157	4489
920.267	4721
920.378	4554
920.488	4470
920.598	4725
920.708	4839
920.818	4748
920.928	4778
921.038	4896
921.148	4930
921.258	4656
921.368	4519
921.477	4531
921.587	4485
921.697	4367
921.806	4561
921.916	4424
922.025	4268
922.134	4276
922.244	4242
922.353	4371
922.462	4173
922.571	4154
922.68	4013
922.789	3953
922.898	3998
923.007	4029
923.116	4124
923.224	4067
923.333	4063
923.442	3994
923.55	3991
923.659	4044
923.767	4090
923.876	4013
923.984	4139
924.092	3972
924.201	4082
924.309	4093
924.417	4147
924.525	4124
924.633	4090
924.741	5064
924.849	3922
924.956	4131
925.064	3960
925.172	3915
925.279	3945
925.387	4071
925.494	4029
925.602	4219
925.709	4249
925.816	4078
925.924	4124
926.031	4219
926.138	4185
926.245	4181
926.352	4128
926.459	4287
926.566	4310
926.673	4150
926.779	4071
926.886	4071
926.993	3998
927.099	3941
927.206	3934
927.312	3968
927.419	4090
927.525	4040
927.631	4097
927.737	3968
927.843	3941
927.95	3831
928.056	3983
928.162	3926
928.267	4044
928.373	4653
928.479	4090
928.585	3842
928.69	4021
928.796	4071
928.901	3987
929.007	3850
929.112	4021
929.218	3968
929.323	3911
929.428	3941
929.533	4124
929.638	3915
929.743	3945
929.848	4021
929.953	4032
930.058	3911
930.163	3778
930.267	3816
930.372	3941
930.477	3812
930.581	4067
930.685	3918
930.79	3831
930.894	3884
930.998	3842
931.103	4025
931.207	3709
931.311	3720
931.415	3652
931.519	3526
931.623	3576
