Data from test_V78500241_45.txt Node
Date: Fri Mar 25 16:49:19 CST 2022
User: usil
Spectrometer: V785-0024
Trigger mode: 0
Integration Time (sec): 4.000000E-1
Scans to average: 1
Nonlinearity correction enabled: false
Boxcar width: 0
Storing dark spectrum: false
XAxis mode: Wavelengths
Number of Pixels in Spectrum: 1024
>>>>>Begin Spectral Data<<<<<
801.071	8149
801.214	8130
801.356	7978
801.499	7989
801.641	7868
801.783	7951
801.926	8012
802.068	8012
802.211	8050
802.353	8039
802.496	7925
802.638	7978
802.78	8024
802.923	8027
803.065	7982
803.208	7909
803.35	8084
803.492	8145
803.635	8199
803.777	8020
803.919	8126
804.061	8492
804.204	8202
804.346	8119
804.488	8062
804.63	8077
804.773	8005
804.915	8168
805.057	8358
805.199	8221
805.341	8240
805.483	8256
805.626	8259
805.768	8149
805.91	8202
806.052	8248
806.194	8130
806.336	8336
806.478	8176
806.62	8168
806.762	8240
806.904	8248
807.046	8454
807.188	8514
807.33	8393
807.472	8404
807.614	8237
807.756	8202
807.898	8123
808.04	7932
808.182	8031
808.324	7902
808.465	7955
808.607	8073
808.749	8145
808.891	8214
809.033	8351
809.174	8161
809.316	8119
809.458	8046
809.6	8008
809.741	7989
809.883	7989
810.025	8054
810.166	8077
810.308	8039
810.45	8096
810.591	7894
810.733	7731
810.875	7719
811.016	7575
811.158	7590
811.299	7666
811.441	7784
811.582	7784
811.724	7578
811.865	7563
812.007	7658
812.148	7632
812.29	7674
812.431	7780
812.573	7921
812.714	8012
812.855	8237
812.997	8240
813.138	8362
813.279	8214
813.421	8092
813.562	8065
813.703	7841
813.845	7803
813.986	7445
814.127	7297
814.268	7278
814.41	7240
814.551	7187
814.692	7259
814.833	7118
814.974	7107
815.115	7187
815.256	7065
815.397	6943
815.539	6970
815.68	6818
815.821	6875
815.962	6920
816.103	6856
816.244	6757
816.385	6631
816.526	6658
816.666	6528
816.807	6399
816.948	6441
817.089	6445
817.23	6502
817.371	6414
817.512	6437
817.653	6414
817.793	6410
817.934	6391
818.075	6464
818.216	6441
818.356	6445
818.497	6289
818.638	6178
818.778	6152
818.919	6213
819.06	6273
819.2	6388
819.341	6361
819.481	6395
819.622	6582
819.762	6753
819.903	6757
820.043	6623
820.184	6608
820.324	6639
820.465	6806
820.605	6707
820.746	6673
820.886	6559
821.026	6669
821.167	6719
821.307	6806
821.447	6852
821.588	6631
821.728	6669
821.868	6582
822.008	6323
822.149	6391
822.289	6426
822.429	6232
822.569	6175
822.709	6205
822.849	5889
822.99	5950
823.13	5946
823.27	5942
823.41	5821
823.55	5859
823.69	5828
823.83	5851
823.97	5695
824.11	5627
824.25	5497
824.389	5623
824.529	5604
824.669	5543
824.809	5585
824.949	5737
825.089	5642
825.228	5547
825.368	5395
825.508	5372
825.648	5379
825.787	5436
825.927	5463
826.067	5376
826.206	5337
826.346	5482
826.485	5474
826.625	5474
826.765	5573
826.904	5528
827.044	5360
827.183	5231
827.323	5204
827.462	5288
827.601	5204
827.741	5303
827.88	5261
828.02	5166
828.159	5337
828.298	5372
828.437	5490
828.577	5364
828.716	5589
828.855	5425
828.994	5216
829.134	5250
829.273	5265
829.412	5216
829.551	5178
829.69	5246
829.829	5318
829.968	5463
830.107	5318
830.246	5383
830.385	5258
830.524	5143
830.663	5151
830.802	5041
830.941	5018
831.08	4919
831.219	5037
831.357	5048
831.496	5273
831.635	5014
831.774	4885
831.913	4934
832.051	4782
832.19	4854
832.329	4923
832.467	4778
832.606	4717
832.744	4809
832.883	4793
833.022	4805
833.16	4896
833.299	4915
833.437	4885
833.576	4908
833.714	4961
833.852	4915
833.991	5029
834.129	5071
834.267	5060
834.406	5060
834.544	5056
834.682	5018
834.821	5041
834.959	5242
835.097	5056
835.235	5303
835.373	5102
835.511	5181
835.65	5140
835.788	5121
835.926	4957
836.064	4938
836.202	4991
836.34	5227
836.478	5280
836.615	5250
836.753	5311
836.891	5436
837.029	5330
837.167	5242
837.305	5204
837.443	5231
837.58	5189
837.718	5341
837.856	5254
837.993	5197
838.131	5261
838.269	5296
838.406	5216
838.544	5265
838.681	5079
838.819	5041
838.956	4968
839.094	4968
839.231	5003
839.369	5208
839.506	5509
839.643	5357
839.781	5113
839.918	5128
840.055	5159
840.193	5181
840.33	5178
840.467	5220
840.604	5239
840.742	5459
840.879	5178
841.016	5208
841.153	5269
841.29	5425
841.427	5391
841.564	5402
841.701	5368
841.838	5349
841.975	5341
842.112	5345
842.249	5269
842.385	5216
842.522	5410
842.659	5227
842.796	5201
842.933	5284
843.069	5204
843.206	5208
843.343	5391
843.479	5345
843.616	5402
843.752	5052
843.889	5117
844.025	5292
844.162	5140
844.298	5277
844.435	5136
844.571	5124
844.708	5208
844.844	5372
844.98	5410
845.117	5292
845.253	5246
845.389	5086
845.525	5227
845.661	5239
845.798	5064
845.934	5193
846.07	5136
846.206	5258
846.342	5345
846.478	5227
846.614	5113
846.75	5064
846.886	5029
847.022	5151
847.158	5079
847.294	5147
847.429	5113
847.565	5178
847.701	5383
847.837	4961
847.972	4923
848.108	5037
848.244	5003
848.379	4873
848.515	4801
848.65	4774
848.786	4824
848.921	4854
849.057	4930
849.192	4980
849.328	4873
849.463	4850
849.598	4908
849.734	4873
849.869	4767
850.004	4759
850.14	4763
850.275	4679
850.41	4538
850.545	4656
850.68	4679
850.815	4710
850.95	4675
851.085	4908
851.22	4831
851.355	4763
851.49	4687
851.625	4698
851.76	4679
851.895	4618
852.03	4561
852.165	4683
852.299	4771
852.434	4831
852.569	4797
852.703	4809
852.838	4896
852.973	4949
853.107	5003
853.242	4797
853.376	4729
853.511	4599
853.645	4653
853.78	4866
853.914	4725
854.048	4755
854.183	4660
854.317	4771
854.451	4850
854.585	4755
854.72	4721
854.854	4801
854.988	4672
855.122	4702
855.256	4649
855.39	4755
855.524	4820
855.658	4847
855.792	4778
855.926	4812
856.06	4824
856.194	4828
856.327	4755
856.461	4691
856.595	4675
856.729	4672
856.862	4805
856.996	4793
857.13	4774
857.263	4843
857.397	4892
857.53	4710
857.664	4744
857.797	4858
857.931	4847
858.064	4786
858.197	4824
858.331	4744
858.464	4675
858.597	4596
858.731	4702
858.864	4740
858.997	4641
859.13	4786
859.263	4721
859.396	4835
859.529	4675
859.662	4626
859.795	4660
859.928	4736
860.061	4881
860.194	4858
860.327	4675
860.46	4626
860.592	4816
860.725	4759
860.858	4839
860.99	4649
861.123	4599
861.256	4607
861.388	4664
861.521	5330
861.653	4542
861.786	4527
861.918	4558
862.05	4618
862.183	4641
862.315	4645
862.447	4721
862.58	4584
862.712	4481
862.844	4386
862.976	4512
863.108	4538
863.24	4908
863.372	4356
863.504	4462
863.636	4481
863.768	4558
863.9	4519
864.032	4379
864.164	4474
864.296	4535
864.428	4675
864.559	4637
864.691	4618
864.823	4584
864.954	4538
865.086	4577
865.217	4565
865.349	4485
865.48	4512
865.612	4550
865.743	4736
865.875	4542
866.006	4436
866.137	4531
866.269	4474
866.4	4508
866.531	4497
866.662	4443
866.793	4516
866.924	4481
867.055	4550
867.186	4546
867.317	4478
867.448	4424
867.579	4447
867.71	4489
867.841	4451
867.972	4546
868.103	4493
868.233	4516
868.364	4519
868.495	4554
868.625	4752
868.756	4812
868.886	4641
869.017	4694
869.147	4835
869.278	4820
869.408	4740
869.539	4672
869.669	4771
869.799	4687
869.929	4812
870.06	4843
870.19	5014
870.32	4984
870.45	5022
870.58	5071
870.71	5178
870.84	5189
870.97	5010
871.1	4991
871.23	5265
871.36	5212
871.489	5113
871.619	5109
871.749	5166
871.879	5178
872.008	5269
872.138	5124
872.267	5048
872.397	4923
872.526	4866
872.656	4774
872.785	4896
872.915	5018
873.044	5075
873.173	5033
873.303	5045
873.432	4987
873.561	5014
873.69	4976
873.819	4942
873.948	4972
874.077	4889
874.206	4828
874.335	4896
874.464	4953
874.593	5086
874.722	4991
874.851	5197
874.979	5113
875.108	5102
875.237	4934
875.365	4915
875.494	4991
875.623	5025
875.751	4896
875.88	4991
876.008	5041
876.136	5083
876.265	5246
876.393	5440
876.521	5296
876.65	5246
876.778	5227
876.906	5166
877.034	5117
877.162	5143
877.29	5086
877.418	5083
877.546	5143
877.674	5117
877.802	5102
877.93	5067
878.058	5014
878.185	4896
878.313	4995
878.441	5003
878.568	4873
878.696	4923
878.824	5060
878.951	5060
879.079	5201
879.206	5337
879.333	5162
879.461	5041
879.588	5067
879.715	5151
879.842	5299
879.97	5056
880.097	4816
880.224	4831
880.351	4839
880.478	4850
880.605	4877
880.732	4854
880.859	5124
880.986	4972
881.112	4938
881.239	4835
881.366	4759
881.493	4626
881.619	4656
881.746	4691
881.872	4698
881.999	4752
882.125	4706
882.252	4847
882.378	4904
882.505	4984
882.631	4915
882.757	4740
882.883	4774
883.01	4805
883.136	4706
883.262	4626
883.388	4717
883.514	4862
883.64	4927
883.766	4881
883.892	4694
884.018	4820
884.143	4896
884.269	5060
884.395	4755
884.52	4702
884.646	4675
884.772	4634
884.897	4611
885.023	4774
885.148	4843
885.274	4961
885.399	4866
885.524	4786
885.65	4717
885.775	4778
885.9	4778
886.025	4873
886.15	4862
886.275	4748
886.4	4702
886.525	4755
886.65	4729
886.775	4763
886.9	4957
887.025	5079
887.149	4881
887.274	4721
887.399	4634
887.523	4668
887.648	4645
887.773	4641
887.897	4797
888.021	4870
888.146	4763
888.27	4904
888.395	4946
888.519	4816
888.643	4881
888.767	4919
888.891	4698
889.015	4649
889.139	4710
889.263	4653
889.387	4843
889.511	4915
889.635	4778
889.759	4691
889.883	4656
890.006	4801
890.13	4919
890.254	4672
890.377	4755
890.501	4588
890.624	4626
890.748	4679
890.871	4535
890.995	4493
891.118	4413
891.241	4538
891.364	4615
891.488	4702
891.611	4580
891.734	4577
891.857	4664
891.98	4637
892.103	4694
892.226	4660
892.349	4618
892.471	4500
892.594	4603
892.717	4653
892.839	4611
892.962	4630
893.085	4698
893.207	4698
893.33	4497
893.452	4615
893.575	4710
893.697	4653
893.819	4862
893.941	4927
894.064	4755
894.186	4618
894.308	4649
894.43	4805
894.552	4816
894.674	4828
894.796	4622
894.918	4653
895.04	4622
895.161	4778
895.283	4748
895.405	4660
895.526	4767
895.648	4740
895.769	4702
895.891	4755
896.012	4797
896.134	4797
896.255	4694
896.376	4664
896.498	4656
896.619	4740
896.74	4687
896.861	4691
896.982	4953
897.103	5147
897.224	4854
897.345	4771
897.466	4702
897.587	4744
897.708	4892
897.828	4820
897.949	4755
898.07	4634
898.19	4698
898.311	4949
898.431	4744
898.552	4755
898.672	4854
898.792	4835
898.913	4744
899.033	4656
899.153	4588
899.273	4478
899.393	4584
899.513	4588
899.633	4569
899.753	4603
899.873	4569
899.993	4584
900.113	4565
900.232	4645
900.352	4634
900.472	4538
900.591	4462
900.711	4531
900.83	4500
900.95	4672
901.069	4744
901.189	4580
901.308	4424
901.427	4306
901.546	4440
901.665	4531
901.784	4504
901.904	4405
902.023	4375
902.141	4253
902.26	4207
902.379	4333
902.498	4261
902.617	4284
902.735	4462
902.854	4485
902.973	4363
903.091	4257
903.21	4242
903.328	4352
903.446	4325
903.565	4306
903.683	4402
903.801	4310
903.919	4455
904.038	4508
904.156	4360
904.274	4447
904.392	4451
904.51	4440
904.627	4535
904.745	4637
904.863	4653
904.981	4436
905.098	4367
905.216	4424
905.334	4474
905.451	4466
905.569	4462
905.686	4592
905.803	4637
905.921	4481
906.038	4622
906.155	4538
906.272	4402
906.389	4451
906.506	4383
906.623	4428
906.74	4413
906.857	4363
906.974	4409
907.091	4649
907.208	4748
907.324	4622
907.441	4558
907.557	4413
907.674	4394
907.79	4367
907.907	4394
908.023	4493
908.139	4538
908.256	4481
908.372	4554
908.488	4485
908.604	4375
908.72	4344
908.836	4402
908.952	4402
909.068	4451
909.184	4641
909.3	4474
909.415	4630
909.531	4603
909.647	4352
909.762	4424
909.878	4398
909.993	4504
910.108	4447
910.224	4440
910.339	4485
910.454	4409
910.57	4360
910.685	4318
910.8	4679
910.915	4637
911.03	4580
911.145	4398
911.259	4379
911.374	4436
911.489	4352
911.604	4325
911.718	4188
911.833	4185
911.947	4120
912.062	4048
912.176	4287
912.291	4249
912.405	4230
912.519	4527
912.633	4546
912.748	4428
912.862	4352
912.976	4261
913.09	4177
913.204	4196
913.318	4303
913.431	4405
913.545	4383
913.659	4432
913.772	4417
913.886	4299
914	4234
914.113	4428
914.226	4485
914.34	4390
914.453	4280
914.566	4436
914.68	4356
914.793	4375
914.906	4192
915.019	4192
915.132	4131
915.245	4227
915.358	4234
915.47	4314
915.583	4310
915.696	4348
915.809	4466
915.921	4497
916.034	4268
916.146	4310
916.259	4287
916.371	4413
916.483	4424
916.595	4363
916.708	4344
916.82	4352
916.932	4402
917.044	4436
917.156	4421
917.268	4280
917.38	4306
917.491	4337
917.603	4436
917.715	4481
917.826	4485
917.938	4394
918.049	4287
918.161	4432
918.272	4588
918.384	4611
918.495	4508
918.606	4379
918.717	4268
918.828	4402
918.939	4386
919.05	4322
919.161	4348
919.272	4173
919.383	4303
919.494	4466
919.604	4656
919.715	4466
919.826	4432
919.936	4455
920.047	4554
920.157	4443
920.267	4771
920.378	4645
920.488	4535
920.598	4816
920.708	4911
920.818	4816
920.928	4824
921.038	4984
921.148	4961
921.258	4668
921.368	4550
921.477	4588
921.587	4516
921.697	4398
921.806	4637
921.916	4493
922.025	4310
922.134	4341
922.244	4268
922.353	4379
922.462	4185
922.571	4181
922.68	4055
922.789	4017
922.898	4063
923.007	4055
923.116	4135
923.224	4116
923.333	4147
923.442	3983
923.55	4082
923.659	4109
923.767	4192
923.876	4086
923.984	4158
924.092	4048
924.201	4131
924.309	4078
924.417	4177
924.525	4101
924.633	4154
924.741	5113
924.849	3934
924.956	4135
925.064	4002
925.172	3945
925.279	4017
925.387	4150
925.494	4067
925.602	4265
925.709	4249
925.816	4074
925.924	4150
926.031	4329
926.138	4207
926.245	4242
926.352	4105
926.459	4314
926.566	4341
926.673	4188
926.779	4139
926.886	4090
926.993	4017
927.099	4013
927.206	3979
927.312	4013
927.419	4074
927.525	4067
927.631	4124
927.737	4040
927.843	3934
927.95	3899
928.056	3975
928.162	4025
928.267	4124
928.373	4649
928.479	4143
928.585	3926
928.69	4078
928.796	4105
928.901	4010
929.007	3892
929.112	4044
929.218	4071
929.323	4021
929.428	4002
929.533	4162
929.638	3972
929.743	3998
929.848	4040
929.953	4025
930.058	3934
930.163	3827
930.267	3854
930.372	3998
930.477	3869
930.581	4124
930.685	3953
930.79	3857
930.894	3934
930.998	3903
931.103	4101
931.207	3793
931.311	3743
931.415	3747
931.519	3530
931.623	3587
