Data from test_V78500241_1814.txt Node
Date: Fri Mar 25 17:01:36 CST 2022
User: usil
Spectrometer: V785-0024
Trigger mode: 0
Integration Time (sec): 4.000000E-1
Scans to average: 1
Nonlinearity correction enabled: false
Boxcar width: 0
Storing dark spectrum: false
XAxis mode: Wavelengths
Number of Pixels in Spectrum: 1024
>>>>>Begin Spectral Data<<<<<
801.071	7974
801.214	8016
801.356	7887
801.499	7830
801.641	7879
801.783	7860
801.926	7978
802.068	7947
802.211	7940
802.353	8031
802.496	7864
802.638	7906
802.78	7970
802.923	7955
803.065	7875
803.208	7807
803.35	7932
803.492	8016
803.635	8126
803.777	8058
803.919	8145
804.061	8450
804.204	8199
804.346	8100
804.488	7978
804.63	8111
804.773	8054
804.915	8176
805.057	8244
805.199	8161
805.341	8229
805.483	8317
805.626	8229
805.768	8153
805.91	8221
806.052	8233
806.194	8065
806.336	8294
806.478	8100
806.62	8130
806.762	8164
806.904	8396
807.046	8419
807.188	8355
807.33	8313
807.472	8317
807.614	8210
807.756	8176
807.898	8054
808.04	7875
808.182	7970
808.324	7951
808.465	7951
808.607	8058
808.749	8134
808.891	8206
809.033	8343
809.174	8267
809.316	8123
809.458	8088
809.6	8088
809.741	8024
809.883	8035
810.025	8123
810.166	8103
810.308	8008
810.45	7970
810.591	7875
810.733	7772
810.875	7704
811.016	7487
811.158	7491
811.299	7647
811.441	7727
811.582	7708
811.724	7609
811.865	7449
812.007	7594
812.148	7605
812.29	7662
812.431	7780
812.573	7871
812.714	8016
812.855	8168
812.997	8168
813.138	8275
813.279	8183
813.421	8062
813.562	7982
813.703	7822
813.845	7693
813.986	7434
814.127	7285
814.268	7206
814.41	7259
814.551	7194
814.692	7228
814.833	7061
814.974	7103
815.115	7198
815.256	6966
815.397	6966
815.539	6939
815.68	6856
815.821	6806
815.962	6875
816.103	6878
816.244	6677
816.385	6597
816.526	6623
816.666	6521
816.807	6346
816.948	6456
817.089	6498
817.23	6422
817.371	6365
817.512	6479
817.653	6422
817.793	6319
817.934	6433
818.075	6486
818.216	6452
818.356	6506
818.497	6220
818.638	6159
818.778	6114
818.919	6129
819.06	6163
819.2	6304
819.341	6357
819.481	6414
819.622	6616
819.762	6798
819.903	6734
820.043	6612
820.184	6642
820.324	6601
820.465	6715
820.605	6711
820.746	6692
820.886	6494
821.026	6665
821.167	6776
821.307	6802
821.447	6798
821.588	6719
821.728	6547
821.868	6483
822.008	6399
822.149	6361
822.289	6334
822.429	6190
822.569	6083
822.709	6117
822.849	5958
822.99	5901
823.13	5946
823.27	5927
823.41	5870
823.55	5855
823.69	5805
823.83	5771
823.97	5657
824.11	5532
824.25	5501
824.389	5543
824.529	5577
824.669	5543
824.809	5676
824.949	5646
825.089	5642
825.228	5581
825.368	5376
825.508	5360
825.648	5402
825.787	5383
825.927	5440
826.067	5387
826.206	5246
826.346	5395
826.485	5455
826.625	5471
826.765	5570
826.904	5440
827.044	5288
827.183	5212
827.323	5147
827.462	5227
827.601	5193
827.741	5181
827.88	5181
828.02	5155
828.159	5223
828.298	5303
828.437	5303
828.577	5326
828.716	5490
828.855	5303
828.994	5181
829.134	5178
829.273	5223
829.412	5102
829.551	5143
829.69	5151
829.829	5231
829.968	5406
830.107	5311
830.246	5322
830.385	5170
830.524	5174
830.663	5075
830.802	5006
830.941	4854
831.08	4942
831.219	4991
831.357	4991
831.496	5235
831.635	4923
831.774	4889
831.913	4896
832.051	4752
832.19	4767
832.329	4847
832.467	4702
832.606	4653
832.744	4714
832.883	4736
833.022	4714
833.16	4873
833.299	4816
833.437	4835
833.576	4782
833.714	4843
833.852	4900
833.991	4877
834.129	4946
834.267	4965
834.406	4934
834.544	5003
834.682	5006
834.821	4995
834.959	5181
835.097	5010
835.235	5159
835.373	5090
835.511	5174
835.65	5029
835.788	5064
835.926	4904
836.064	4877
836.202	4839
836.34	5166
836.478	5220
836.615	5090
836.753	5181
836.891	5326
837.029	5250
837.167	5197
837.305	5185
837.443	5151
837.58	5105
837.718	5261
837.856	5227
837.993	5124
838.131	5242
838.269	5223
838.406	5212
838.544	5201
838.681	5056
838.819	4987
838.956	4927
839.094	4881
839.231	4987
839.369	5109
839.506	5459
839.643	5288
839.781	5079
839.918	5056
840.055	5098
840.193	5079
840.33	5079
840.467	5105
840.604	5197
840.742	5429
840.879	5132
841.016	5086
841.153	5155
841.29	5345
841.427	5353
841.564	5318
841.701	5372
841.838	5307
841.975	5273
842.112	5261
842.249	5105
842.385	5064
842.522	5326
842.659	5174
842.796	5159
842.933	5220
843.069	5147
843.206	5140
843.343	5277
843.479	5231
843.616	5223
843.752	4987
843.889	5048
844.025	5197
844.162	4987
844.298	5193
844.435	5048
844.571	5003
844.708	5227
844.844	5345
844.98	5315
845.117	5334
845.253	5117
845.389	5006
845.525	5159
845.661	5181
845.798	5071
845.934	5117
846.07	5048
846.206	5136
846.342	5277
846.478	5178
846.614	4991
846.75	4984
846.886	4946
847.022	5162
847.158	5003
847.294	5006
847.429	5124
847.565	5022
847.701	5330
847.837	4911
847.972	4843
848.108	5010
848.244	4949
848.379	4759
848.515	4782
848.65	4725
848.786	4771
848.921	4812
849.057	4889
849.192	4908
849.328	4824
849.463	4835
849.598	4824
849.734	4759
849.869	4687
850.004	4626
850.14	4656
850.275	4641
850.41	4508
850.545	4577
850.68	4637
850.815	4653
850.95	4694
851.085	4839
851.22	4740
851.355	4744
851.49	4607
851.625	4672
851.76	4687
851.895	4558
852.03	4558
852.165	4622
852.299	4729
852.434	4820
852.569	4763
852.703	4759
852.838	4892
852.973	4923
853.107	5003
853.242	4778
853.376	4664
853.511	4573
853.645	4656
853.78	4820
853.914	4710
854.048	4694
854.183	4656
854.317	4710
854.451	4870
854.585	4744
854.72	4626
854.854	4771
854.988	4679
855.122	4649
855.256	4573
855.39	4675
855.524	4816
855.658	4740
855.792	4683
855.926	4805
856.06	4831
856.194	4885
856.327	4714
856.461	4664
856.595	4656
856.729	4694
856.862	4801
856.996	4714
857.13	4801
857.263	4778
857.397	4843
857.53	4698
857.664	4763
857.797	4771
857.931	4778
858.064	4767
858.197	4793
858.331	4714
858.464	4649
858.597	4565
858.731	4672
858.864	4664
858.997	4626
859.13	4641
859.263	4721
859.396	4748
859.529	4630
859.662	4584
859.795	4577
859.928	4668
860.061	4809
860.194	4793
860.327	4656
860.46	4558
860.592	4763
860.725	4774
860.858	4755
860.99	4626
861.123	4550
861.256	4569
861.388	4660
861.521	5391
861.653	4508
861.786	4497
861.918	4485
862.05	4569
862.183	4588
862.315	4622
862.447	4725
862.58	4592
862.712	4409
862.844	4363
862.976	4504
863.108	4485
863.24	4919
863.372	4375
863.504	4428
863.636	4417
863.768	4573
863.9	4500
864.032	4432
864.164	4436
864.296	4516
864.428	4611
864.559	4592
864.691	4565
864.823	4561
864.954	4531
865.086	4500
865.217	4478
865.349	4443
865.48	4493
865.612	4516
865.743	4679
865.875	4512
866.006	4474
866.137	4519
866.269	4504
866.4	4481
866.531	4462
866.662	4436
866.793	4432
866.924	4394
867.055	4512
867.186	4455
867.317	4455
867.448	4428
867.579	4421
867.71	4432
867.841	4417
867.972	4470
868.103	4527
868.233	4531
868.364	4497
868.495	4531
868.625	4683
868.756	4801
868.886	4577
869.017	4630
869.147	4850
869.278	4797
869.408	4668
869.539	4672
869.669	4755
869.799	4698
869.929	4805
870.06	4755
870.19	5014
870.32	4938
870.45	4953
870.58	5033
870.71	5121
870.84	5109
870.97	5010
871.1	4930
871.23	5193
871.36	5155
871.489	5086
871.619	5117
871.749	5147
871.879	5162
872.008	5162
872.138	5105
872.267	5022
872.397	4885
872.526	4847
872.656	4763
872.785	4839
872.915	4957
873.044	5037
873.173	4976
873.303	5086
873.432	4938
873.561	5014
873.69	4877
873.819	4873
873.948	4965
874.077	4816
874.206	4782
874.335	4839
874.464	4984
874.593	5121
874.722	5025
874.851	5128
874.979	5121
875.108	5060
875.237	4949
875.365	4889
875.494	4908
875.623	4984
875.751	4828
875.88	4934
876.008	5018
876.136	5132
876.265	5193
876.393	5349
876.521	5299
876.65	5231
876.778	5178
876.906	5102
877.034	5010
877.162	5098
877.29	5037
877.418	5090
877.546	5064
877.674	5071
877.802	5029
877.93	5075
878.058	4972
878.185	4896
878.313	5014
878.441	4999
878.568	4847
878.696	4915
878.824	4980
878.951	5045
879.079	5197
879.206	5326
879.333	5136
879.461	4991
879.588	5071
879.715	5124
879.842	5216
879.97	5003
880.097	4767
880.224	4782
880.351	4854
880.478	4847
880.605	4790
880.732	4820
880.859	5132
880.986	4911
881.112	4885
881.239	4831
881.366	4733
881.493	4649
881.619	4634
881.746	4672
881.872	4710
881.999	4660
882.125	4694
882.252	4839
882.378	4858
882.505	4972
882.631	4850
882.757	4717
882.883	4702
883.01	4729
883.136	4702
883.262	4596
883.388	4599
883.514	4854
883.64	4854
883.766	4816
883.892	4717
884.018	4736
884.143	4946
884.269	4995
884.395	4744
884.52	4634
884.646	4687
884.772	4626
884.897	4577
885.023	4668
885.148	4820
885.274	4809
885.399	4820
885.524	4694
885.65	4733
885.775	4733
885.9	4729
886.025	4877
886.15	4793
886.275	4691
886.4	4675
886.525	4740
886.65	4733
886.775	4698
886.9	4908
887.025	5022
887.149	4850
887.274	4691
887.399	4618
887.523	4588
887.648	4599
887.773	4653
887.897	4793
888.021	4835
888.146	4691
888.27	4816
888.395	4927
888.519	4805
888.643	4801
888.767	4850
888.891	4733
889.015	4584
889.139	4679
889.263	4626
889.387	4767
889.511	4854
889.635	4843
889.759	4702
889.883	4649
890.006	4767
890.13	4850
890.254	4630
890.377	4706
890.501	4542
890.624	4550
890.748	4615
890.871	4542
890.995	4428
891.118	4409
891.241	4565
891.364	4577
891.488	4679
891.611	4527
891.734	4550
891.857	4637
891.98	4546
892.103	4683
892.226	4592
892.349	4565
892.471	4455
892.594	4546
892.717	4607
892.839	4634
892.962	4634
893.085	4672
893.207	4599
893.33	4478
893.452	4573
893.575	4706
893.697	4615
893.819	4805
893.941	4778
894.064	4839
894.186	4634
894.308	4584
894.43	4786
894.552	4881
894.674	4725
894.796	4577
894.918	4630
895.04	4584
895.161	4774
895.283	4656
895.405	4607
895.526	4641
895.648	4702
895.769	4733
895.891	4736
896.012	4744
896.134	4694
896.255	4672
896.376	4622
896.498	4596
896.619	4675
896.74	4641
896.861	4668
896.982	4930
897.103	5113
897.224	4824
897.345	4736
897.466	4706
897.587	4763
897.708	4835
897.828	4805
897.949	4664
898.07	4565
898.19	4679
898.311	4828
898.431	4691
898.552	4774
898.672	4835
898.792	4805
898.913	4782
899.033	4592
899.153	4542
899.273	4478
899.393	4538
899.513	4535
899.633	4519
899.753	4561
899.873	4561
899.993	4615
900.113	4584
900.232	4645
900.352	4569
900.472	4508
900.591	4421
900.711	4573
900.83	4478
900.95	4626
901.069	4694
901.189	4573
901.308	4394
901.427	4333
901.546	4363
901.665	4527
901.784	4569
901.904	4409
902.023	4341
902.141	4188
902.26	4169
902.379	4322
902.498	4238
902.617	4238
902.735	4398
902.854	4421
902.973	4379
903.091	4257
903.21	4234
903.328	4356
903.446	4344
903.565	4227
903.683	4386
903.801	4299
903.919	4413
904.038	4421
904.156	4325
904.274	4443
904.392	4417
904.51	4459
904.627	4481
904.745	4554
904.863	4668
904.981	4447
905.098	4341
905.216	4341
905.334	4436
905.451	4428
905.569	4466
905.686	4546
905.803	4592
905.921	4466
906.038	4607
906.155	4527
906.272	4398
906.389	4462
906.506	4371
906.623	4356
906.74	4417
906.857	4337
906.974	4398
907.091	4546
907.208	4660
907.324	4641
907.441	4565
907.557	4325
907.674	4325
907.79	4337
907.907	4394
908.023	4478
908.139	4523
908.256	4459
908.372	4470
908.488	4470
908.604	4383
908.72	4360
908.836	4398
908.952	4367
909.068	4478
909.184	4573
909.3	4527
909.415	4622
909.531	4554
909.647	4356
909.762	4348
909.878	4375
909.993	4470
910.108	4451
910.224	4417
910.339	4455
910.454	4417
910.57	4413
910.685	4375
910.8	4687
910.915	4580
911.03	4481
911.145	4363
911.259	4325
911.374	4360
911.489	4280
911.604	4295
911.718	4204
911.833	4265
911.947	4071
912.062	4029
912.176	4223
912.291	4234
912.405	4276
912.519	4519
912.633	4489
912.748	4379
912.862	4356
912.976	4242
913.09	4116
913.204	4200
913.318	4257
913.431	4394
913.545	4363
913.659	4440
913.772	4424
913.886	4261
914	4196
914.113	4333
914.226	4440
914.34	4390
914.453	4249
914.566	4424
914.68	4325
914.793	4337
914.906	4162
915.019	4169
915.132	4097
915.245	4223
915.358	4219
915.47	4249
915.583	4284
915.696	4363
915.809	4485
915.921	4451
916.034	4280
916.146	4276
916.259	4284
916.371	4428
916.483	4390
916.595	4253
916.708	4322
916.82	4322
916.932	4348
917.044	4356
917.156	4356
917.268	4227
917.38	4318
917.491	4284
917.603	4352
917.715	4402
917.826	4493
917.938	4367
918.049	4242
918.161	4428
918.272	4550
918.384	4531
918.495	4428
918.606	4299
918.717	4227
918.828	4314
918.939	4363
919.05	4291
919.161	4341
919.272	4158
919.383	4242
919.494	4500
919.604	4630
919.715	4424
919.826	4322
919.936	4421
920.047	4538
920.157	4508
920.267	4702
920.378	4569
920.488	4512
920.598	4744
920.708	4889
920.818	4790
920.928	4736
921.038	4957
921.148	4938
921.258	4664
921.368	4569
921.477	4512
921.587	4470
921.697	4375
921.806	4558
921.916	4402
922.025	4303
922.134	4306
922.244	4223
922.353	4325
922.462	4166
922.571	4150
922.68	4017
922.789	3983
922.898	4013
923.007	3991
923.116	4112
923.224	4086
923.333	4044
923.442	4025
923.55	3934
923.659	4036
923.767	4074
923.876	3987
923.984	4150
924.092	3983
924.201	4059
924.309	4124
924.417	4150
924.525	4059
924.633	4139
924.741	5048
924.849	3930
924.956	4116
925.064	4002
925.172	3873
925.279	3975
925.387	4074
925.494	4063
925.602	4192
925.709	4211
925.816	4055
925.924	4150
926.031	4192
926.138	4173
926.245	4204
926.352	4097
926.459	4238
926.566	4325
926.673	4150
926.779	4090
926.886	4120
926.993	4006
927.099	3937
927.206	3960
927.312	3899
927.419	4040
927.525	4074
927.631	4128
927.737	3979
927.843	3937
927.95	3846
928.056	3960
928.162	4002
928.267	4055
928.373	4599
928.479	4128
928.585	3827
928.69	4002
928.796	4067
928.901	3991
929.007	3884
929.112	4029
929.218	3998
929.323	3915
929.428	3945
929.533	4078
929.638	3922
929.743	3987
929.848	4029
929.953	4048
930.058	3934
930.163	3755
930.267	3827
930.372	4029
930.477	3800
930.581	4101
930.685	3937
930.79	3800
930.894	3896
930.998	3857
931.103	3994
931.207	3686
931.311	3736
931.415	3698
931.519	3526
931.623	3564
