Data from test_V78500241_156.txt Node
Date: Fri Mar 25 16:50:05 CST 2022
User: usil
Spectrometer: V785-0024
Trigger mode: 0
Integration Time (sec): 4.000000E-1
Scans to average: 1
Nonlinearity correction enabled: false
Boxcar width: 0
Storing dark spectrum: false
XAxis mode: Wavelengths
Number of Pixels in Spectrum: 1024
>>>>>Begin Spectral Data<<<<<
801.071	8119
801.214	8039
801.356	7856
801.499	7856
801.641	7841
801.783	7913
801.926	8062
802.068	8024
802.211	8016
802.353	8016
802.496	7921
802.638	7978
802.78	8016
802.923	7959
803.065	7932
803.208	7887
803.35	8005
803.492	8062
803.635	8157
803.777	7997
803.919	8084
804.061	8465
804.204	8111
804.346	8096
804.488	7947
804.63	8084
804.773	8031
804.915	8145
805.057	8320
805.199	8176
805.341	8225
805.483	8389
805.626	8252
805.768	8164
805.91	8191
806.052	8214
806.194	8126
806.336	8309
806.478	8103
806.62	8107
806.762	8142
806.904	8267
807.046	8423
807.188	8320
807.33	8298
807.472	8339
807.614	8225
807.756	8225
807.898	8020
808.04	7928
808.182	7932
808.324	7883
808.465	7993
808.607	8073
808.749	8119
808.891	8317
809.033	8400
809.174	8225
809.316	8111
809.458	8130
809.6	7993
809.741	8100
809.883	8096
810.025	8126
810.166	8103
810.308	8031
810.45	8031
810.591	7928
810.733	7841
810.875	7753
811.016	7537
811.158	7529
811.299	7639
811.441	7795
811.582	7731
811.724	7651
811.865	7601
812.007	7655
812.148	7613
812.29	7738
812.431	7868
812.573	7989
812.714	8035
812.855	8252
812.997	8279
813.138	8465
813.279	8290
813.421	8195
813.562	8161
813.703	7902
813.845	7753
813.986	7544
814.127	7354
814.268	7297
814.41	7316
814.551	7266
814.692	7190
814.833	7187
814.974	7209
815.115	7168
815.256	7099
815.397	6989
815.539	7004
815.68	6867
815.821	6863
815.962	6901
816.103	6844
816.244	6753
816.385	6692
816.526	6665
816.666	6585
816.807	6357
816.948	6475
817.089	6513
817.23	6502
817.371	6467
817.512	6483
817.653	6456
817.793	6452
817.934	6467
818.075	6547
818.216	6475
818.356	6486
818.497	6273
818.638	6129
818.778	6167
818.919	6167
819.06	6186
819.2	6346
819.341	6388
819.481	6388
819.622	6551
819.762	6802
819.903	6711
820.043	6578
820.184	6547
820.324	6608
820.465	6703
820.605	6749
820.746	6688
820.886	6570
821.026	6707
821.167	6757
821.307	6814
821.447	6852
821.588	6703
821.728	6627
821.868	6551
822.008	6365
822.149	6388
822.289	6369
822.429	6216
822.569	6117
822.709	6159
822.849	5920
822.99	5969
823.13	5984
823.27	5931
823.41	5794
823.55	5805
823.69	5870
823.83	5824
823.97	5722
824.11	5619
824.25	5604
824.389	5581
824.529	5623
824.669	5589
824.809	5699
824.949	5752
825.089	5668
825.228	5581
825.368	5436
825.508	5433
825.648	5368
825.787	5425
825.927	5364
826.067	5326
826.206	5337
826.346	5391
826.485	5395
826.625	5482
826.765	5585
826.904	5512
827.044	5258
827.183	5318
827.323	5208
827.462	5288
827.601	5181
827.741	5204
827.88	5273
828.02	5162
828.159	5326
828.298	5345
828.437	5414
828.577	5334
828.716	5497
828.855	5322
828.994	5208
829.134	5231
829.273	5250
829.412	5197
829.551	5193
829.69	5220
829.829	5273
829.968	5410
830.107	5360
830.246	5299
830.385	5197
830.524	5208
830.663	5128
830.802	4999
830.941	4946
831.08	4900
831.219	5045
831.357	5006
831.496	5220
831.635	4965
831.774	4919
831.913	4839
832.051	4755
832.19	4839
832.329	4828
832.467	4729
832.606	4668
832.744	4809
832.883	4782
833.022	4733
833.16	4797
833.299	4858
833.437	4847
833.576	4854
833.714	4915
833.852	4877
833.991	4961
834.129	4972
834.267	5010
834.406	4930
834.544	5041
834.682	4991
834.821	5006
834.959	5166
835.097	5029
835.235	5136
835.373	5098
835.511	5185
835.65	5090
835.788	5067
835.926	4965
836.064	4911
836.202	4927
836.34	5189
836.478	5261
836.615	5159
836.753	5216
836.891	5349
837.029	5303
837.167	5246
837.305	5242
837.443	5193
837.58	5079
837.718	5254
837.856	5193
837.993	5105
838.131	5288
838.269	5311
838.406	5269
838.544	5235
838.681	5090
838.819	5064
838.956	4892
839.094	4892
839.231	5010
839.369	5181
839.506	5452
839.643	5273
839.781	5075
839.918	5064
840.055	5151
840.193	5083
840.33	5155
840.467	5178
840.604	5178
840.742	5493
840.879	5109
841.016	5113
841.153	5147
841.29	5376
841.427	5395
841.564	5353
841.701	5387
841.838	5318
841.975	5277
842.112	5311
842.249	5201
842.385	5124
842.522	5368
842.659	5223
842.796	5235
842.933	5269
843.069	5189
843.206	5174
843.343	5337
843.479	5216
843.616	5311
843.752	5128
843.889	5045
844.025	5220
844.162	5014
844.298	5242
844.435	5132
844.571	5109
844.708	5197
844.844	5345
844.98	5315
845.117	5349
845.253	5159
845.389	5109
845.525	5181
845.661	5155
845.798	5014
845.934	5166
846.07	5075
846.206	5261
846.342	5307
846.478	5212
846.614	5067
846.75	5006
846.886	5022
847.022	5170
847.158	5041
847.294	5048
847.429	5109
847.565	5098
847.701	5387
847.837	4904
847.972	4850
848.108	4949
848.244	5003
848.379	4831
848.515	4710
848.65	4748
848.786	4786
848.921	4816
849.057	4896
849.192	4904
849.328	4892
849.463	4877
849.598	4793
849.734	4786
849.869	4717
850.004	4702
850.14	4729
850.275	4645
850.41	4577
850.545	4611
850.68	4679
850.815	4626
850.95	4660
851.085	4858
851.22	4771
851.355	4694
851.49	4694
851.625	4649
851.76	4698
851.895	4580
852.03	4569
852.165	4641
852.299	4801
852.434	4786
852.569	4755
852.703	4767
852.838	4873
852.973	4965
853.107	4965
853.242	4710
853.376	4672
853.511	4561
853.645	4634
853.78	4885
853.914	4729
854.048	4725
854.183	4660
854.317	4782
854.451	4881
854.585	4733
854.72	4687
854.854	4752
854.988	4607
855.122	4653
855.256	4554
855.39	4702
855.524	4797
855.658	4778
855.792	4752
855.926	4759
856.06	4782
856.194	4831
856.327	4748
856.461	4611
856.595	4580
856.729	4645
856.862	4790
856.996	4698
857.13	4744
857.263	4778
857.397	4854
857.53	4721
857.664	4721
857.797	4816
857.931	4816
858.064	4725
858.197	4820
858.331	4687
858.464	4645
858.597	4535
858.731	4702
858.864	4641
858.997	4653
859.13	4664
859.263	4717
859.396	4733
859.529	4634
859.662	4645
859.795	4588
859.928	4645
860.061	4771
860.194	4820
860.327	4596
860.46	4580
860.592	4725
860.725	4778
860.858	4763
860.99	4637
861.123	4603
861.256	4569
861.388	4656
861.521	5459
861.653	4531
861.786	4417
861.918	4462
862.05	4558
862.183	4592
862.315	4637
862.447	4733
862.58	4554
862.712	4379
862.844	4371
862.976	4478
863.108	4508
863.24	4927
863.372	4363
863.504	4440
863.636	4402
863.768	4500
863.9	4493
864.032	4421
864.164	4440
864.296	4489
864.428	4569
864.559	4580
864.691	4531
864.823	4554
864.954	4527
865.086	4538
865.217	4455
865.349	4474
865.48	4443
865.612	4519
865.743	4656
865.875	4508
866.006	4493
866.137	4485
866.269	4443
866.4	4459
866.531	4470
866.662	4383
866.793	4379
866.924	4462
867.055	4561
867.186	4447
867.317	4436
867.448	4375
867.579	4421
867.71	4428
867.841	4398
867.972	4436
868.103	4432
868.233	4470
868.364	4493
868.495	4497
868.625	4656
868.756	4721
868.886	4584
869.017	4675
869.147	4809
869.278	4778
869.408	4653
869.539	4611
869.669	4710
869.799	4664
869.929	4759
870.06	4797
870.19	5006
870.32	4946
870.45	4965
870.58	5025
870.71	5113
870.84	5105
870.97	4995
871.1	4934
871.23	5174
871.36	5098
871.489	5033
871.619	5067
871.749	5117
871.879	5178
872.008	5193
872.138	5056
872.267	5033
872.397	4915
872.526	4816
872.656	4763
872.785	4850
872.915	4942
873.044	5022
873.173	4915
873.303	4957
873.432	4942
873.561	4968
873.69	4904
873.819	4908
873.948	4942
874.077	4805
874.206	4797
874.335	4816
874.464	4934
874.593	5079
874.722	4991
874.851	5064
874.979	5143
875.108	5041
875.237	4908
875.365	4919
875.494	4938
875.623	5003
875.751	4870
875.88	4858
876.008	4976
876.136	5033
876.265	5239
876.393	5334
876.521	5231
876.65	5269
876.778	5208
876.906	5071
877.034	5033
877.162	5098
877.29	5033
877.418	5098
877.546	5079
877.674	5041
877.802	5071
877.93	5029
878.058	4987
878.185	4949
878.313	4984
878.441	4972
878.568	4812
878.696	4942
878.824	4999
878.951	5045
879.079	5178
879.206	5296
879.333	5113
879.461	5006
879.588	5060
879.715	5132
879.842	5261
879.97	5060
880.097	4862
880.224	4759
880.351	4862
880.478	4831
880.605	4801
880.732	4801
880.859	5159
880.986	4896
881.112	4911
881.239	4801
881.366	4675
881.493	4653
881.619	4637
881.746	4630
881.872	4668
881.999	4672
882.125	4725
882.252	4782
882.378	4866
882.505	5018
882.631	4820
882.757	4714
882.883	4736
883.01	4748
883.136	4668
883.262	4611
883.388	4653
883.514	4790
883.64	4919
883.766	4820
883.892	4626
884.018	4725
884.143	4953
884.269	4965
884.395	4710
884.52	4668
884.646	4653
884.772	4626
884.897	4527
885.023	4672
885.148	4786
885.274	4881
885.399	4828
885.524	4675
885.65	4733
885.775	4759
885.9	4717
886.025	4782
886.15	4767
886.275	4744
886.4	4603
886.525	4797
886.65	4733
886.775	4702
886.9	4911
887.025	5033
887.149	4843
887.274	4675
887.399	4554
887.523	4607
887.648	4630
887.773	4615
887.897	4820
888.021	4847
888.146	4740
888.27	4828
888.395	4949
888.519	4847
888.643	4812
888.767	4885
888.891	4710
889.015	4630
889.139	4675
889.263	4645
889.387	4763
889.511	4877
889.635	4816
889.759	4573
889.883	4641
890.006	4725
890.13	4873
890.254	4607
890.377	4748
890.501	4626
890.624	4538
890.748	4706
890.871	4550
890.995	4440
891.118	4398
891.241	4573
891.364	4535
891.488	4706
891.611	4485
891.734	4554
891.857	4603
891.98	4538
892.103	4656
892.226	4645
892.349	4519
892.471	4413
892.594	4546
892.717	4603
892.839	4565
892.962	4569
893.085	4660
893.207	4626
893.33	4519
893.452	4569
893.575	4675
893.697	4584
893.819	4778
893.941	4870
894.064	4831
894.186	4599
894.308	4542
894.43	4748
894.552	4809
894.674	4771
894.796	4584
894.918	4687
895.04	4641
895.161	4736
895.283	4691
895.405	4599
895.526	4656
895.648	4752
895.769	4679
895.891	4748
896.012	4755
896.134	4774
896.255	4675
896.376	4641
896.498	4656
896.619	4729
896.74	4641
896.861	4672
896.982	4972
897.103	5098
897.224	4831
897.345	4763
897.466	4679
897.587	4752
897.708	4877
897.828	4809
897.949	4687
898.07	4535
898.19	4656
898.311	4831
898.431	4672
898.552	4725
898.672	4862
898.792	4839
898.913	4687
899.033	4615
899.153	4523
899.273	4489
899.393	4481
899.513	4558
899.633	4531
899.753	4580
899.873	4512
899.993	4630
900.113	4508
900.232	4603
900.352	4538
900.472	4474
900.591	4447
900.711	4531
900.83	4512
900.95	4603
901.069	4656
901.189	4550
901.308	4348
901.427	4386
901.546	4409
901.665	4500
901.784	4523
901.904	4417
902.023	4329
902.141	4169
902.26	4207
902.379	4329
902.498	4265
902.617	4280
902.735	4394
902.854	4394
902.973	4386
903.091	4276
903.21	4242
903.328	4303
903.446	4272
903.565	4272
903.683	4379
903.801	4249
903.919	4405
904.038	4462
904.156	4325
904.274	4428
904.392	4447
904.51	4462
904.627	4470
904.745	4588
904.863	4683
904.981	4394
905.098	4348
905.216	4341
905.334	4398
905.451	4417
905.569	4466
905.686	4603
905.803	4596
905.921	4413
906.038	4573
906.155	4455
906.272	4409
906.389	4466
906.506	4383
906.623	4394
906.74	4394
906.857	4295
906.974	4402
907.091	4611
907.208	4702
907.324	4626
907.441	4527
907.557	4348
907.674	4337
907.79	4352
907.907	4383
908.023	4512
908.139	4470
908.256	4466
908.372	4478
908.488	4466
908.604	4402
908.72	4356
908.836	4405
908.952	4386
909.068	4459
909.184	4573
909.3	4497
909.415	4626
909.531	4535
909.647	4371
909.762	4405
909.878	4333
909.993	4447
910.108	4421
910.224	4402
910.339	4485
910.454	4424
910.57	4383
910.685	4333
910.8	4714
910.915	4561
911.03	4508
911.145	4360
911.259	4356
911.374	4383
911.489	4291
911.604	4280
911.718	4162
911.833	4192
911.947	4147
912.062	4036
912.176	4257
912.291	4253
912.405	4230
912.519	4432
912.633	4550
912.748	4360
912.862	4291
912.976	4188
913.09	4143
913.204	4219
913.318	4265
913.431	4356
913.545	4329
913.659	4474
913.772	4360
913.886	4261
914	4295
914.113	4383
914.226	4462
914.34	4402
914.453	4268
914.566	4470
914.68	4318
914.793	4348
914.906	4207
915.019	4131
915.132	4093
915.245	4192
915.358	4261
915.47	4325
915.583	4276
915.696	4325
915.809	4470
915.921	4478
916.034	4238
916.146	4261
916.259	4223
916.371	4417
916.483	4379
916.595	4306
916.708	4360
916.82	4318
916.932	4394
917.044	4329
917.156	4314
917.268	4253
917.38	4322
917.491	4276
917.603	4383
917.715	4466
917.826	4462
917.938	4337
918.049	4238
918.161	4405
918.272	4512
918.384	4622
918.495	4459
918.606	4318
918.717	4272
918.828	4333
918.939	4405
919.05	4303
919.161	4344
919.272	4154
919.383	4249
919.494	4447
919.604	4645
919.715	4478
919.826	4383
919.936	4405
920.047	4542
920.157	4508
920.267	4687
920.378	4573
920.488	4519
920.598	4759
920.708	4892
920.818	4748
920.928	4778
921.038	4976
921.148	4968
921.258	4622
921.368	4565
921.477	4489
921.587	4451
921.697	4390
921.806	4516
921.916	4417
922.025	4314
922.134	4227
922.244	4223
922.353	4398
922.462	4196
922.571	4150
922.68	4032
922.789	3960
922.898	4078
923.007	3972
923.116	4105
923.224	4097
923.333	4051
923.442	3968
923.55	3991
923.659	4067
923.767	4112
923.876	4040
923.984	4150
924.092	4032
924.201	4112
924.309	4093
924.417	4177
924.525	4067
924.633	4147
924.741	4881
924.849	3937
924.956	4166
925.064	3994
925.172	3949
925.279	3991
925.387	4051
925.494	4063
925.602	4246
925.709	4196
925.816	4044
925.924	4120
926.031	4257
926.138	4196
926.245	4211
926.352	4090
926.459	4242
926.566	4371
926.673	4166
926.779	4090
926.886	4097
926.993	3998
927.099	3968
927.206	3983
927.312	3949
927.419	4044
927.525	4090
927.631	4109
927.737	3983
927.843	3899
927.95	3861
928.056	3987
928.162	4032
928.267	4013
928.373	4736
928.479	4124
928.585	3896
928.69	4071
928.796	4128
928.901	3956
929.007	3819
929.112	4017
929.218	3956
929.323	3972
929.428	3915
929.533	4120
929.638	3907
929.743	3983
929.848	4051
929.953	4017
930.058	3972
930.163	3819
930.267	3854
930.372	3983
930.477	3804
930.581	4128
930.685	3949
930.79	3846
930.894	3873
930.998	3869
931.103	4082
931.207	3713
931.311	3728
931.415	3671
931.519	3572
931.623	3553
