Data from test_V78500241_352.txt Node
Date: Fri Mar 25 16:51:27 CST 2022
User: usil
Spectrometer: V785-0024
Trigger mode: 0
Integration Time (sec): 4.000000E-1
Scans to average: 1
Nonlinearity correction enabled: false
Boxcar width: 0
Storing dark spectrum: false
XAxis mode: Wavelengths
Number of Pixels in Spectrum: 1024
>>>>>Begin Spectral Data<<<<<
801.071	8027
801.214	8126
801.356	7925
801.499	7955
801.641	7841
801.783	7841
801.926	8039
802.068	7963
802.211	8027
802.353	8020
802.496	7894
802.638	7932
802.78	7989
802.923	8001
803.065	7913
803.208	7890
803.35	7967
803.492	8081
803.635	8176
803.777	8069
803.919	8142
804.061	8488
804.204	8225
804.346	8039
804.488	8008
804.63	8073
804.773	8035
804.915	8107
805.057	8275
805.199	8168
805.341	8252
805.483	8339
805.626	8237
805.768	8020
805.91	8142
806.052	8229
806.194	8164
806.336	8343
806.478	8123
806.62	8119
806.762	8183
806.904	8279
807.046	8446
807.188	8358
807.33	8259
807.472	8381
807.614	8157
807.756	8199
807.898	8046
808.04	7906
808.182	8005
808.324	7921
808.465	7959
808.607	8168
808.749	8126
808.891	8221
809.033	8336
809.174	8206
809.316	8134
809.458	8077
809.6	8054
809.741	7993
809.883	8008
810.025	8183
810.166	8149
810.308	8077
810.45	7982
810.591	7932
810.733	7833
810.875	7575
811.016	7483
811.158	7495
811.299	7674
811.441	7807
811.582	7772
811.724	7613
811.865	7632
812.007	7597
812.148	7647
812.29	7662
812.431	7818
812.573	7856
812.714	7967
812.855	8187
812.997	8233
813.138	8298
813.279	8206
813.421	8172
813.562	8043
813.703	7883
813.845	7765
813.986	7529
814.127	7289
814.268	7278
814.41	7217
814.551	7217
814.692	7247
814.833	7110
814.974	7076
815.115	7168
815.256	6996
815.397	6970
815.539	6981
815.68	6783
815.821	6764
815.962	6875
816.103	6867
816.244	6764
816.385	6616
816.526	6646
816.666	6494
816.807	6308
816.948	6445
817.089	6448
817.23	6490
817.371	6464
817.512	6441
817.653	6365
817.793	6403
817.934	6460
818.075	6445
818.216	6479
818.356	6410
818.497	6266
818.638	6076
818.778	6152
818.919	6186
819.06	6152
819.2	6300
819.341	6334
819.481	6395
819.622	6532
819.762	6806
819.903	6703
820.043	6616
820.184	6608
820.324	6593
820.465	6715
820.605	6703
820.746	6559
820.886	6589
821.026	6665
821.167	6719
821.307	6814
821.447	6806
821.588	6707
821.728	6597
821.868	6525
822.008	6342
822.149	6384
822.289	6376
822.429	6129
822.569	6190
822.709	6110
822.849	5942
822.99	5935
823.13	5935
823.27	5927
823.41	5786
823.55	5863
823.69	5813
823.83	5809
823.97	5699
824.11	5608
824.25	5532
824.389	5604
824.529	5646
824.669	5619
824.809	5665
824.949	5680
825.089	5745
825.228	5592
825.368	5410
825.508	5425
825.648	5379
825.787	5455
825.927	5387
826.067	5299
826.206	5349
826.346	5414
826.485	5467
826.625	5512
826.765	5619
826.904	5551
827.044	5292
827.183	5277
827.323	5204
827.462	5261
827.601	5212
827.741	5254
827.88	5280
828.02	5151
828.159	5288
828.298	5368
828.437	5463
828.577	5307
828.716	5600
828.855	5402
828.994	5204
829.134	5250
829.273	5261
829.412	5204
829.551	5204
829.69	5174
829.829	5296
829.968	5417
830.107	5284
830.246	5364
830.385	5216
830.524	5185
830.663	5113
830.802	4980
830.941	4908
831.08	4972
831.219	5045
831.357	5014
831.496	5216
831.635	4904
831.774	4900
831.913	4881
832.051	4786
832.19	4782
832.329	4904
832.467	4755
832.606	4660
832.744	4759
832.883	4805
833.022	4767
833.16	4873
833.299	4877
833.437	4835
833.576	4862
833.714	4911
833.852	4881
833.991	4911
834.129	5045
834.267	4957
834.406	4965
834.544	5018
834.682	4976
834.821	5022
834.959	5216
835.097	5037
835.235	5208
835.373	5117
835.511	5162
835.65	5109
835.788	5056
835.926	4930
836.064	4927
836.202	4965
836.34	5201
836.478	5193
836.615	5189
836.753	5223
836.891	5349
837.029	5280
837.167	5280
837.305	5178
837.443	5246
837.58	5143
837.718	5376
837.856	5254
837.993	5212
838.131	5284
838.269	5299
838.406	5311
838.544	5223
838.681	5083
838.819	5060
838.956	4972
839.094	4942
839.231	5010
839.369	5121
839.506	5463
839.643	5311
839.781	5136
839.918	5060
840.055	5181
840.193	5143
840.33	5143
840.467	5128
840.604	5212
840.742	5497
840.879	5102
841.016	5151
841.153	5197
841.29	5398
841.427	5376
841.564	5379
841.701	5379
841.838	5341
841.975	5242
842.112	5269
842.249	5166
842.385	5155
842.522	5360
842.659	5216
842.796	5201
842.933	5235
843.069	5193
843.206	5204
843.343	5360
843.479	5288
843.616	5341
843.752	5010
843.889	5056
844.025	5288
844.162	5098
844.298	5231
844.435	5083
844.571	5117
844.708	5208
844.844	5383
844.98	5368
845.117	5288
845.253	5201
845.389	5094
845.525	5201
845.661	5159
845.798	5117
845.934	5162
846.07	5147
846.206	5216
846.342	5277
846.478	5147
846.614	5079
846.75	4972
846.886	4995
847.022	5201
847.158	5064
847.294	5083
847.429	5113
847.565	5124
847.701	5398
847.837	4915
847.972	4828
848.108	4972
848.244	4953
848.379	4839
848.515	4774
848.65	4759
848.786	4774
848.921	4824
849.057	4942
849.192	4980
849.328	4870
849.463	4881
849.598	4824
849.734	4831
849.869	4702
850.004	4672
850.14	4675
850.275	4649
850.41	4603
850.545	4618
850.68	4653
850.815	4653
850.95	4668
851.085	4896
851.22	4767
851.355	4714
851.49	4615
851.625	4668
851.76	4645
851.895	4618
852.03	4550
852.165	4725
852.299	4790
852.434	4831
852.569	4767
852.703	4816
852.838	4923
852.973	4965
853.107	4984
853.242	4767
853.376	4683
853.511	4565
853.645	4664
853.78	4877
853.914	4752
854.048	4740
854.183	4694
854.317	4736
854.451	4820
854.585	4721
854.72	4649
854.854	4824
854.988	4653
855.122	4702
855.256	4558
855.39	4717
855.524	4793
855.658	4786
855.792	4725
855.926	4729
856.06	4793
856.194	4892
856.327	4710
856.461	4698
856.595	4637
856.729	4687
856.862	4824
856.996	4771
857.13	4771
857.263	4805
857.397	4835
857.53	4675
857.664	4778
857.797	4805
857.931	4831
858.064	4710
858.197	4774
858.331	4675
858.464	4668
858.597	4577
858.731	4664
858.864	4660
858.997	4656
859.13	4694
859.263	4706
859.396	4744
859.529	4618
859.662	4634
859.795	4538
859.928	4679
860.061	4812
860.194	4809
860.327	4626
860.46	4561
860.592	4729
860.725	4740
860.858	4778
860.99	4637
861.123	4565
861.256	4596
861.388	4603
861.521	5417
861.653	4504
861.786	4478
861.918	4485
862.05	4561
862.183	4607
862.315	4698
862.447	4668
862.58	4577
862.712	4436
862.844	4329
862.976	4523
863.108	4516
863.24	4831
863.372	4363
863.504	4474
863.636	4447
863.768	4523
863.9	4462
864.032	4421
864.164	4466
864.296	4504
864.428	4592
864.559	4592
864.691	4584
864.823	4599
864.954	4550
865.086	4512
865.217	4466
865.349	4459
865.48	4489
865.612	4516
865.743	4645
865.875	4508
866.006	4466
866.137	4516
866.269	4500
866.4	4474
866.531	4478
866.662	4421
866.793	4470
866.924	4474
867.055	4512
867.186	4485
867.317	4440
867.448	4424
867.579	4440
867.71	4451
867.841	4405
867.972	4519
868.103	4485
868.233	4500
868.364	4504
868.495	4516
868.625	4687
868.756	4763
868.886	4569
869.017	4668
869.147	4790
869.278	4786
869.408	4683
869.539	4702
869.669	4759
869.799	4714
869.929	4740
870.06	4733
870.19	5006
870.32	4984
870.45	4972
870.58	5029
870.71	5189
870.84	5128
870.97	5014
871.1	4927
871.23	5181
871.36	5174
871.489	5098
871.619	5083
871.749	5109
871.879	5155
872.008	5216
872.138	5033
872.267	5018
872.397	4850
872.526	4839
872.656	4759
872.785	4793
872.915	5025
873.044	4999
873.173	4953
873.303	4953
873.432	4984
873.561	5006
873.69	4923
873.819	4927
873.948	4965
874.077	4839
874.206	4774
874.335	4847
874.464	4976
874.593	5086
874.722	4987
874.851	5094
874.979	5052
875.108	5060
875.237	4984
875.365	4896
875.494	4934
875.623	4987
875.751	4850
875.88	4896
876.008	4972
876.136	5109
876.265	5223
876.393	5383
876.521	5326
876.65	5299
876.778	5189
876.906	5056
877.034	5052
877.162	5083
877.29	4968
877.418	5094
877.546	5052
877.674	5086
877.802	5102
877.93	5041
878.058	4942
878.185	4892
878.313	4957
878.441	4953
878.568	4828
878.696	4870
878.824	4987
878.951	5037
879.079	5170
879.206	5330
879.333	5143
879.461	4976
879.588	4984
879.715	5159
879.842	5254
879.97	4995
880.097	4786
880.224	4759
880.351	4881
880.478	4854
880.605	4793
880.732	4831
880.859	5105
880.986	4915
881.112	4915
881.239	4824
881.366	4706
881.493	4668
881.619	4641
881.746	4645
881.872	4672
881.999	4691
882.125	4744
882.252	4854
882.378	4854
882.505	4999
882.631	4816
882.757	4725
882.883	4767
883.01	4740
883.136	4706
883.262	4664
883.388	4634
883.514	4824
883.64	4881
883.766	4831
883.892	4729
884.018	4752
884.143	4900
884.269	5029
884.395	4710
884.52	4641
884.646	4668
884.772	4611
884.897	4584
885.023	4710
885.148	4843
885.274	4870
885.399	4835
885.524	4771
885.65	4736
885.775	4782
885.9	4786
886.025	4877
886.15	4873
886.275	4706
886.4	4740
886.525	4714
886.65	4729
886.775	4710
886.9	4930
887.025	5090
887.149	4850
887.274	4694
887.399	4599
887.523	4653
887.648	4618
887.773	4630
887.897	4824
888.021	4774
888.146	4706
888.27	4831
888.395	4923
888.519	4797
888.643	4858
888.767	4835
888.891	4759
889.015	4615
889.139	4656
889.263	4637
889.387	4782
889.511	4877
889.635	4805
889.759	4611
889.883	4683
890.006	4767
890.13	4858
890.254	4675
890.377	4797
890.501	4573
890.624	4550
890.748	4664
890.871	4527
890.995	4462
891.118	4428
891.241	4554
891.364	4565
891.488	4637
891.611	4565
891.734	4523
891.857	4615
891.98	4550
892.103	4683
892.226	4618
892.349	4584
892.471	4519
892.594	4577
892.717	4588
892.839	4599
892.962	4626
893.085	4725
893.207	4603
893.33	4481
893.452	4573
893.575	4710
893.697	4615
893.819	4835
893.941	4885
894.064	4767
894.186	4615
894.308	4565
894.43	4759
894.552	4790
894.674	4831
894.796	4588
894.918	4592
895.04	4565
895.161	4725
895.283	4683
895.405	4649
895.526	4675
895.648	4771
895.769	4706
895.891	4729
896.012	4721
896.134	4793
896.255	4645
896.376	4611
896.498	4618
896.619	4706
896.74	4615
896.861	4668
896.982	4949
897.103	5098
897.224	4793
897.345	4752
897.466	4714
897.587	4714
897.708	4908
897.828	4725
897.949	4725
898.07	4607
898.19	4691
898.311	4870
898.431	4706
898.552	4774
898.672	4866
898.792	4797
898.913	4733
899.033	4615
899.153	4519
899.273	4421
899.393	4538
899.513	4519
899.633	4558
899.753	4527
899.873	4508
899.993	4615
900.113	4516
900.232	4607
900.352	4588
900.472	4497
900.591	4432
900.711	4508
900.83	4451
900.95	4622
901.069	4691
901.189	4607
901.308	4390
901.427	4344
901.546	4405
901.665	4485
901.784	4516
901.904	4394
902.023	4356
902.141	4249
902.26	4177
902.379	4322
902.498	4284
902.617	4246
902.735	4409
902.854	4394
902.973	4390
903.091	4223
903.21	4246
903.328	4306
903.446	4287
903.565	4257
903.683	4341
903.801	4257
903.919	4421
904.038	4428
904.156	4325
904.274	4481
904.392	4363
904.51	4504
904.627	4485
904.745	4596
904.863	4675
904.981	4398
905.098	4341
905.216	4363
905.334	4455
905.451	4432
905.569	4436
905.686	4584
905.803	4588
905.921	4432
906.038	4523
906.155	4561
906.272	4428
906.389	4497
906.506	4398
906.623	4379
906.74	4394
906.857	4337
906.974	4417
907.091	4599
907.208	4706
907.324	4577
907.441	4500
907.557	4356
907.674	4390
907.79	4322
907.907	4440
908.023	4500
908.139	4489
908.256	4462
908.372	4462
908.488	4428
908.604	4375
908.72	4337
908.836	4394
908.952	4363
909.068	4481
909.184	4569
909.3	4493
909.415	4588
909.531	4527
909.647	4383
909.762	4333
909.878	4333
909.993	4478
910.108	4432
910.224	4405
910.339	4493
910.454	4402
910.57	4363
910.685	4318
910.8	4694
910.915	4607
911.03	4519
911.145	4291
911.259	4371
911.374	4325
911.489	4318
911.604	4367
911.718	4230
911.833	4215
911.947	4097
912.062	4063
912.176	4196
912.291	4257
912.405	4227
912.519	4500
912.633	4500
912.748	4363
912.862	4348
912.976	4181
913.09	4101
913.204	4196
913.318	4257
913.431	4428
913.545	4402
913.659	4489
913.772	4394
913.886	4280
914	4268
914.113	4383
914.226	4413
914.34	4383
914.453	4265
914.566	4432
914.68	4314
914.793	4344
914.906	4185
915.019	4162
915.132	4128
915.245	4200
915.358	4238
915.47	4299
915.583	4265
915.696	4257
915.809	4440
915.921	4421
916.034	4249
916.146	4272
916.259	4253
916.371	4405
916.483	4371
916.595	4287
916.708	4333
916.82	4360
916.932	4310
917.044	4363
917.156	4348
917.268	4192
917.38	4268
917.491	4310
917.603	4386
917.715	4451
917.826	4386
917.938	4341
918.049	4272
918.161	4409
918.272	4577
918.384	4546
918.495	4462
918.606	4253
918.717	4261
918.828	4344
918.939	4428
919.05	4257
919.161	4295
919.272	4177
919.383	4249
919.494	4424
919.604	4660
919.715	4451
919.826	4341
919.936	4413
920.047	4580
920.157	4531
920.267	4744
920.378	4596
920.488	4470
920.598	4748
920.708	4892
920.818	4763
920.928	4782
921.038	5003
921.148	4927
921.258	4626
921.368	4577
921.477	4523
921.587	4424
921.697	4367
921.806	4542
921.916	4478
922.025	4242
922.134	4299
922.244	4207
922.353	4383
922.462	4169
922.571	4196
922.68	4006
922.789	3998
922.898	4067
923.007	4040
923.116	4154
923.224	4086
923.333	4082
923.442	3998
923.55	3994
923.659	4021
923.767	4150
923.876	4017
923.984	4120
924.092	4017
924.201	4055
924.309	4128
924.417	4139
924.525	4105
924.633	4116
924.741	4885
924.849	3915
924.956	4147
925.064	3998
925.172	3926
925.279	3983
925.387	4074
925.494	4078
925.602	4223
925.709	4169
925.816	4055
925.924	4109
926.031	4280
926.138	4169
926.245	4223
926.352	4071
926.459	4242
926.566	4348
926.673	4192
926.779	4124
926.886	4090
926.993	4010
927.099	3960
927.206	3945
927.312	3960
927.419	4051
927.525	4032
927.631	4074
927.737	3991
927.843	3998
927.95	3873
928.056	3934
928.162	4013
928.267	4044
928.373	4660
928.479	4139
928.585	3831
928.69	4040
928.796	4093
928.901	3994
929.007	3865
929.112	4006
929.218	4002
929.323	3945
929.428	3983
929.533	4116
929.638	3907
929.743	3964
929.848	4074
929.953	4048
930.058	3956
930.163	3793
930.267	3842
930.372	3979
930.477	3857
930.581	4090
930.685	3949
930.79	3865
930.894	3873
930.998	3823
931.103	4059
931.207	3728
931.311	3690
931.415	3679
931.519	3519
931.623	3545
