Data from test_V78500241_216.txt Node
Date: Fri Mar 25 16:50:30 CST 2022
User: usil
Spectrometer: V785-0024
Trigger mode: 0
Integration Time (sec): 4.000000E-1
Scans to average: 1
Nonlinearity correction enabled: false
Boxcar width: 0
Storing dark spectrum: false
XAxis mode: Wavelengths
Number of Pixels in Spectrum: 1024
>>>>>Begin Spectral Data<<<<<
801.071	8062
801.214	8111
801.356	7902
801.499	7894
801.641	7799
801.783	7921
801.926	8084
802.068	7974
802.211	8058
802.353	8058
802.496	7963
802.638	7955
802.78	8050
802.923	7993
803.065	7890
803.208	7856
803.35	8031
803.492	8210
803.635	8107
803.777	8039
803.919	8123
804.061	8476
804.204	8149
804.346	8031
804.488	7986
804.63	8065
804.773	8054
804.915	8107
805.057	8267
805.199	8180
805.341	8183
805.483	8252
805.626	8221
805.768	8119
805.91	8221
806.052	8176
806.194	8103
806.336	8309
806.478	8134
806.62	8065
806.762	8149
806.904	8206
807.046	8427
807.188	8370
807.33	8298
807.472	8290
807.614	8134
807.756	8161
807.898	8016
808.04	7940
808.182	7959
808.324	7906
808.465	7928
808.607	8081
808.749	8138
808.891	8206
809.033	8313
809.174	8282
809.316	8092
809.458	8107
809.6	8039
809.741	8005
809.883	8058
810.025	8138
810.166	8077
810.308	8016
810.45	8031
810.591	7849
810.733	7753
810.875	7670
811.016	7537
811.158	7476
811.299	7662
811.441	7750
811.582	7658
811.724	7632
811.865	7544
812.007	7571
812.148	7563
812.29	7628
812.431	7772
812.573	7925
812.714	8043
812.855	8237
812.997	8259
813.138	8347
813.279	8221
813.421	8107
813.562	8054
813.703	7845
813.845	7772
813.986	7449
814.127	7282
814.268	7259
814.41	7259
814.551	7206
814.692	7198
814.833	7194
814.974	7110
815.115	7137
815.256	6958
815.397	6951
815.539	7015
815.68	6894
815.821	6821
815.962	6859
816.103	6814
816.244	6734
816.385	6677
816.526	6681
816.666	6563
816.807	6388
816.948	6498
817.089	6471
817.23	6494
817.371	6384
817.512	6388
817.653	6353
817.793	6403
817.934	6403
818.075	6441
818.216	6456
818.356	6437
818.497	6289
818.638	6136
818.778	6155
818.919	6232
819.06	6144
819.2	6304
819.341	6338
819.481	6429
819.622	6570
819.762	6745
819.903	6662
820.043	6597
820.184	6585
820.324	6540
820.465	6703
820.605	6665
820.746	6684
820.886	6559
821.026	6700
821.167	6665
821.307	6802
821.447	6844
821.588	6677
821.728	6593
821.868	6509
822.008	6388
822.149	6376
822.289	6372
822.429	6159
822.569	6106
822.709	6186
822.849	5935
822.99	5889
823.13	5950
823.27	5897
823.41	5878
823.55	5844
823.69	5832
823.83	5824
823.97	5684
824.11	5558
824.25	5562
824.389	5554
824.529	5642
824.669	5524
824.809	5623
824.949	5783
825.089	5585
825.228	5509
825.368	5376
825.508	5318
825.648	5349
825.787	5455
825.927	5398
826.067	5330
826.206	5349
826.346	5395
826.485	5417
826.625	5414
826.765	5596
826.904	5551
827.044	5265
827.183	5269
827.323	5185
827.462	5216
827.601	5181
827.741	5223
827.88	5265
828.02	5140
828.159	5269
828.298	5322
828.437	5433
828.577	5318
828.716	5490
828.855	5383
828.994	5162
829.134	5204
829.273	5265
829.412	5197
829.551	5181
829.69	5189
829.829	5258
829.968	5406
830.107	5303
830.246	5220
830.385	5197
830.524	5105
830.663	5140
830.802	4961
830.941	4892
831.08	4919
831.219	4995
831.357	4984
831.496	5162
831.635	4957
831.774	4896
831.913	4896
832.051	4752
832.19	4740
832.329	4862
832.467	4729
832.606	4698
832.744	4736
832.883	4767
833.022	4733
833.16	4797
833.299	4850
833.437	4835
833.576	4854
833.714	4911
833.852	4911
833.991	4927
834.129	4972
834.267	4995
834.406	4889
834.544	4957
834.682	4953
834.821	4961
834.959	5216
835.097	5014
835.235	5201
835.373	5079
835.511	5159
835.65	5090
835.788	5048
835.926	4885
836.064	4934
836.202	4953
836.34	5178
836.478	5242
836.615	5178
836.753	5220
836.891	5315
837.029	5299
837.167	5185
837.305	5201
837.443	5113
837.58	5083
837.718	5254
837.856	5216
837.993	5159
838.131	5318
838.269	5239
838.406	5250
838.544	5258
838.681	5071
838.819	5121
838.956	4896
839.094	4919
839.231	5014
839.369	5094
839.506	5452
839.643	5277
839.781	5109
839.918	5052
840.055	5136
840.193	5132
840.33	5117
840.467	5151
840.604	5181
840.742	5459
840.879	5124
841.016	5102
841.153	5220
841.29	5436
841.427	5337
841.564	5337
841.701	5387
841.838	5303
841.975	5250
842.112	5292
842.249	5147
842.385	5117
842.522	5330
842.659	5185
842.796	5174
842.933	5204
843.069	5159
843.206	5102
843.343	5345
843.479	5273
843.616	5265
843.752	5067
843.889	5083
844.025	5261
844.162	5056
844.298	5227
844.435	5071
844.571	5079
844.708	5178
844.844	5322
844.98	5318
845.117	5307
845.253	5140
845.389	5060
845.525	5098
845.661	5124
845.798	5029
845.934	5143
846.07	5064
846.206	5235
846.342	5246
846.478	5254
846.614	4976
846.75	5006
846.886	4987
847.022	5132
847.158	5029
847.294	5102
847.429	5136
847.565	5079
847.701	5387
847.837	4927
847.972	4824
848.108	5033
848.244	4965
848.379	4797
848.515	4782
848.65	4717
848.786	4778
848.921	4824
849.057	4908
849.192	4915
849.328	4816
849.463	4877
849.598	4824
849.734	4801
849.869	4714
850.004	4653
850.14	4668
850.275	4637
850.41	4561
850.545	4596
850.68	4615
850.815	4645
850.95	4656
851.085	4858
851.22	4778
851.355	4714
851.49	4645
851.625	4615
851.76	4641
851.895	4561
852.03	4519
852.165	4599
852.299	4755
852.434	4801
852.569	4748
852.703	4782
852.838	4938
852.973	4965
853.107	4911
853.242	4771
853.376	4622
853.511	4618
853.645	4622
853.78	4858
853.914	4626
854.048	4683
854.183	4668
854.317	4729
854.451	4824
854.585	4694
854.72	4660
854.854	4755
854.988	4668
855.122	4698
855.256	4561
855.39	4725
855.524	4816
855.658	4698
855.792	4702
855.926	4748
856.06	4786
856.194	4801
856.327	4752
856.461	4603
856.595	4656
856.729	4630
856.862	4797
856.996	4714
857.13	4702
857.263	4767
857.397	4771
857.53	4672
857.664	4778
857.797	4824
857.931	4759
858.064	4706
858.197	4759
858.331	4672
858.464	4592
858.597	4523
858.731	4664
858.864	4649
858.997	4634
859.13	4714
859.263	4664
859.396	4740
859.529	4599
859.662	4577
859.795	4573
859.928	4649
860.061	4786
860.194	4805
860.327	4641
860.46	4561
860.592	4759
860.725	4778
860.858	4729
860.99	4626
861.123	4504
861.256	4554
861.388	4622
861.521	5269
861.653	4554
861.786	4447
861.918	4535
862.05	4550
862.183	4603
862.315	4634
862.447	4672
862.58	4542
862.712	4413
862.844	4333
862.976	4493
863.108	4466
863.24	4885
863.372	4325
863.504	4402
863.636	4447
863.768	4497
863.9	4523
864.032	4352
864.164	4436
864.296	4512
864.428	4558
864.559	4611
864.691	4538
864.823	4546
864.954	4516
865.086	4535
865.217	4481
865.349	4398
865.48	4481
865.612	4531
865.743	4645
865.875	4470
866.006	4394
866.137	4497
866.269	4459
866.4	4436
866.531	4443
866.662	4432
866.793	4432
866.924	4451
867.055	4546
867.186	4409
867.317	4417
867.448	4402
867.579	4409
867.71	4402
867.841	4409
867.972	4485
868.103	4493
868.233	4459
868.364	4466
868.495	4504
868.625	4660
868.756	4744
868.886	4603
869.017	4668
869.147	4790
869.278	4828
869.408	4668
869.539	4656
869.669	4729
869.799	4736
869.929	4767
870.06	4710
870.19	5018
870.32	4919
870.45	4968
870.58	5025
870.71	5159
870.84	5098
870.97	4965
871.1	4984
871.23	5143
871.36	5151
871.489	5033
871.619	5105
871.749	5086
871.879	5166
872.008	5181
872.138	5090
872.267	5033
872.397	4847
872.526	4847
872.656	4729
872.785	4812
872.915	4923
873.044	5014
873.173	4942
873.303	4976
873.432	5010
873.561	4984
873.69	4923
873.819	4911
873.948	4927
874.077	4873
874.206	4782
874.335	4782
874.464	4965
874.593	5037
874.722	4961
874.851	5151
874.979	5094
875.108	5075
875.237	4900
875.365	4881
875.494	4900
875.623	4972
875.751	4797
875.88	4870
876.008	4968
876.136	5056
876.265	5288
876.393	5383
876.521	5284
876.65	5197
876.778	5155
876.906	5098
877.034	4984
877.162	5075
877.29	5006
877.418	5090
877.546	5090
877.674	5037
877.802	5025
877.93	5029
878.058	4938
878.185	4881
878.313	4911
878.441	4938
878.568	4797
878.696	4847
878.824	4995
878.951	5006
879.079	5136
879.206	5376
879.333	5117
879.461	5006
879.588	4999
879.715	5143
879.842	5242
879.97	5022
880.097	4812
880.224	4729
880.351	4839
880.478	4881
880.605	4782
880.732	4839
880.859	5086
880.986	4934
881.112	4927
881.239	4793
881.366	4744
881.493	4596
881.619	4611
881.746	4675
881.872	4653
881.999	4626
882.125	4672
882.252	4805
882.378	4831
882.505	4953
882.631	4790
882.757	4691
882.883	4717
883.01	4694
883.136	4687
883.262	4641
883.388	4634
883.514	4790
883.64	4870
883.766	4755
883.892	4687
884.018	4759
884.143	4877
884.269	5083
884.395	4702
884.52	4641
884.646	4656
884.772	4618
884.897	4558
885.023	4672
885.148	4870
885.274	4862
885.399	4809
885.524	4714
885.65	4698
885.775	4717
885.9	4725
886.025	4889
886.15	4809
886.275	4786
886.4	4706
886.525	4721
886.65	4710
886.775	4683
886.9	4923
887.025	5010
887.149	4809
887.274	4641
887.399	4599
887.523	4622
887.648	4611
887.773	4596
887.897	4763
888.021	4774
888.146	4691
888.27	4816
888.395	4908
888.519	4778
888.643	4873
888.767	4835
888.891	4683
889.015	4611
889.139	4656
889.263	4630
889.387	4733
889.511	4870
889.635	4790
889.759	4637
889.883	4660
890.006	4816
890.13	4885
890.254	4641
890.377	4634
890.501	4569
890.624	4550
890.748	4618
890.871	4512
890.995	4440
891.118	4409
891.241	4508
891.364	4561
891.488	4656
891.611	4542
891.734	4550
891.857	4615
891.98	4584
892.103	4691
892.226	4649
892.349	4550
892.471	4428
892.594	4565
892.717	4618
892.839	4584
892.962	4599
893.085	4672
893.207	4603
893.33	4474
893.452	4550
893.575	4687
893.697	4577
893.819	4809
893.941	4809
894.064	4763
894.186	4622
894.308	4577
894.43	4733
894.552	4831
894.674	4725
894.796	4558
894.918	4561
895.04	4554
895.161	4691
895.283	4660
895.405	4592
895.526	4660
895.648	4717
895.769	4691
895.891	4763
896.012	4759
896.134	4755
896.255	4736
896.376	4596
896.498	4630
896.619	4694
896.74	4592
896.861	4668
896.982	4980
897.103	5071
897.224	4820
897.345	4767
897.466	4649
897.587	4729
897.708	4809
897.828	4778
897.949	4660
898.07	4584
898.19	4618
898.311	4885
898.431	4656
898.552	4759
898.672	4809
898.792	4759
898.913	4721
899.033	4599
899.153	4500
899.273	4440
899.393	4519
899.513	4481
899.633	4561
899.753	4569
899.873	4478
899.993	4645
900.113	4546
900.232	4592
900.352	4565
900.472	4466
900.591	4371
900.711	4481
900.83	4451
900.95	4615
901.069	4634
901.189	4596
901.308	4352
901.427	4314
901.546	4413
901.665	4493
901.784	4558
901.904	4375
902.023	4352
902.141	4185
902.26	4211
902.379	4303
902.498	4238
902.617	4253
902.735	4367
902.854	4371
902.973	4360
903.091	4246
903.21	4185
903.328	4314
903.446	4314
903.565	4310
903.683	4329
903.801	4306
903.919	4405
904.038	4436
904.156	4303
904.274	4409
904.392	4371
904.51	4436
904.627	4497
904.745	4596
904.863	4607
904.981	4379
905.098	4318
905.216	4360
905.334	4409
905.451	4424
905.569	4421
905.686	4561
905.803	4588
905.921	4413
906.038	4577
906.155	4504
906.272	4379
906.389	4432
906.506	4341
906.623	4394
906.74	4402
906.857	4337
906.974	4394
907.091	4607
907.208	4653
907.324	4615
907.441	4504
907.557	4356
907.674	4314
907.79	4329
907.907	4405
908.023	4485
908.139	4519
908.256	4462
908.372	4485
908.488	4417
908.604	4356
908.72	4360
908.836	4417
908.952	4379
909.068	4417
909.184	4508
909.3	4519
909.415	4580
909.531	4531
909.647	4367
909.762	4356
909.878	4371
909.993	4470
910.108	4413
910.224	4413
910.339	4474
910.454	4394
910.57	4379
910.685	4276
910.8	4687
910.915	4641
911.03	4561
911.145	4322
911.259	4333
911.374	4360
911.489	4314
911.604	4287
911.718	4169
911.833	4166
911.947	4086
912.062	4002
912.176	4249
912.291	4242
912.405	4238
912.519	4493
912.633	4558
912.748	4386
912.862	4333
912.976	4196
913.09	4109
913.204	4196
913.318	4219
913.431	4379
913.545	4409
913.659	4417
913.772	4409
913.886	4257
914	4234
914.113	4398
914.226	4428
914.34	4409
914.453	4265
914.566	4440
914.68	4280
914.793	4310
914.906	4139
915.019	4158
915.132	4093
915.245	4158
915.358	4242
915.47	4261
915.583	4261
915.696	4341
915.809	4390
915.921	4455
916.034	4276
916.146	4246
916.259	4223
916.371	4402
916.483	4344
916.595	4284
916.708	4341
916.82	4333
916.932	4344
917.044	4341
917.156	4341
917.268	4265
917.38	4280
917.491	4257
917.603	4337
917.715	4424
917.826	4474
917.938	4402
918.049	4230
918.161	4398
918.272	4489
918.384	4546
918.495	4474
918.606	4314
918.717	4257
918.828	4276
918.939	4371
919.05	4261
919.161	4310
919.272	4120
919.383	4238
919.494	4470
919.604	4615
919.715	4421
919.826	4360
919.936	4371
920.047	4523
920.157	4485
920.267	4702
920.378	4546
920.488	4577
920.598	4733
920.708	4831
920.818	4759
920.928	4740
921.038	4919
921.148	4908
921.258	4618
921.368	4546
921.477	4512
921.587	4424
921.697	4356
921.806	4588
921.916	4417
922.025	4249
922.134	4280
922.244	4188
922.353	4341
922.462	4166
922.571	4158
922.68	4002
922.789	3964
922.898	4025
923.007	4032
923.116	4105
923.224	4063
923.333	4036
923.442	3953
923.55	3983
923.659	4040
923.767	4097
923.876	4002
923.984	4143
924.092	3987
924.201	4086
924.309	4071
924.417	4147
924.525	4059
924.633	4169
924.741	5003
924.849	3945
924.956	4166
925.064	3937
925.172	3892
925.279	3964
925.387	4040
925.494	4101
925.602	4268
925.709	4166
925.816	4040
925.924	4143
926.031	4227
926.138	4192
926.245	4234
926.352	4101
926.459	4238
926.566	4299
926.673	4143
926.779	4063
926.886	4071
926.993	3991
927.099	3998
927.206	3896
927.312	3972
927.419	4044
927.525	4051
927.631	4097
927.737	3994
927.843	3987
927.95	3880
928.056	3991
928.162	3968
928.267	4051
928.373	4672
928.479	4128
928.585	3873
928.69	4040
928.796	4128
928.901	4010
929.007	3926
929.112	3994
929.218	3987
929.323	3968
929.428	3934
929.533	4109
929.638	3869
929.743	3945
929.848	4010
929.953	4025
930.058	3865
930.163	3759
930.267	3857
930.372	3964
930.477	3835
930.581	4051
930.685	3998
930.79	3842
930.894	3876
930.998	3823
931.103	4074
931.207	3694
931.311	3686
931.415	3660
931.519	3545
931.623	3511
