Data from test_V78500241_1047.txt Node
Date: Fri Mar 25 16:56:16 CST 2022
User: usil
Spectrometer: V785-0024
Trigger mode: 0
Integration Time (sec): 4.000000E-1
Scans to average: 1
Nonlinearity correction enabled: false
Boxcar width: 0
Storing dark spectrum: false
XAxis mode: Wavelengths
Number of Pixels in Spectrum: 1024
>>>>>Begin Spectral Data<<<<<
801.071	8073
801.214	8020
801.356	7909
801.499	7875
801.641	7814
801.783	7811
801.926	7913
802.068	7940
802.211	7970
802.353	7898
802.496	7803
802.638	7860
802.78	7898
802.923	7883
803.065	7913
803.208	7898
803.35	8024
803.492	8138
803.635	8157
803.777	7982
803.919	8088
804.061	8446
804.204	8195
804.346	8005
804.488	7967
804.63	8084
804.773	8065
804.915	8084
805.057	8271
805.199	8134
805.341	8191
805.483	8252
805.626	8142
805.768	8134
805.91	8130
806.052	8176
806.194	8046
806.336	8286
806.478	8069
806.62	8069
806.762	8096
806.904	8202
807.046	8457
807.188	8313
807.33	8282
807.472	8339
807.614	8202
807.756	8115
807.898	7967
808.04	7932
808.182	7913
808.324	7906
808.465	7906
808.607	8054
808.749	8084
808.891	8157
809.033	8286
809.174	8115
809.316	8008
809.458	8020
809.6	8005
809.741	8008
809.883	7997
810.025	8069
810.166	8058
810.308	7982
810.45	7947
810.591	7944
810.733	7647
810.875	7616
811.016	7521
811.158	7491
811.299	7567
811.441	7662
811.582	7708
811.724	7502
811.865	7487
812.007	7586
812.148	7502
812.29	7670
812.431	7750
812.573	7818
812.714	8008
812.855	8115
812.997	8153
813.138	8271
813.279	8206
813.421	8103
813.562	8005
813.703	7833
813.845	7765
813.986	7487
814.127	7217
814.268	7175
814.41	7175
814.551	7133
814.692	7198
814.833	7034
814.974	7053
815.115	7114
815.256	6932
815.397	6886
815.539	6935
815.68	6798
815.821	6753
815.962	6852
816.103	6757
816.244	6726
816.385	6658
816.526	6646
816.666	6532
816.807	6262
816.948	6372
817.089	6452
817.23	6433
817.371	6384
817.512	6384
817.653	6403
817.793	6334
817.934	6395
818.075	6414
818.216	6361
818.356	6376
818.497	6148
818.638	6140
818.778	6133
818.919	6163
819.06	6152
819.2	6281
819.341	6292
819.481	6353
819.622	6563
819.762	6711
819.903	6688
820.043	6604
820.184	6532
820.324	6578
820.465	6688
820.605	6654
820.746	6570
820.886	6509
821.026	6589
821.167	6681
821.307	6741
821.447	6711
821.588	6654
821.728	6582
821.868	6528
822.008	6315
822.149	6365
822.289	6350
822.429	6114
822.569	6068
822.709	6117
822.849	5958
822.99	5908
823.13	5950
823.27	5851
823.41	5771
823.55	5802
823.69	5748
823.83	5760
823.97	5688
824.11	5512
824.25	5474
824.389	5532
824.529	5520
824.669	5471
824.809	5634
824.949	5668
825.089	5634
825.228	5611
825.368	5395
825.508	5296
825.648	5334
825.787	5414
825.927	5318
826.067	5303
826.206	5299
826.346	5364
826.485	5353
826.625	5425
826.765	5573
826.904	5493
827.044	5254
827.183	5208
827.323	5098
827.462	5223
827.601	5143
827.741	5159
827.88	5220
828.02	5094
828.159	5250
828.298	5265
828.437	5368
828.577	5246
828.716	5433
828.855	5311
828.994	5140
829.134	5136
829.273	5162
829.412	5094
829.551	5094
829.69	5105
829.829	5242
829.968	5364
830.107	5269
830.246	5265
830.385	5189
830.524	5132
830.663	5041
830.802	4961
830.941	4923
831.08	4847
831.219	4999
831.357	4984
831.496	5136
831.635	4927
831.774	4831
831.913	4812
832.051	4698
832.19	4714
832.329	4824
832.467	4653
832.606	4615
832.744	4687
832.883	4702
833.022	4740
833.16	4740
833.299	4786
833.437	4771
833.576	4847
833.714	4873
833.852	4786
833.991	4911
834.129	4911
834.267	4953
834.406	4908
834.544	4984
834.682	4927
834.821	4953
834.959	5098
835.097	4965
835.235	5128
835.373	5064
835.511	5102
835.65	4980
835.788	5033
835.926	4885
836.064	4850
836.202	4904
836.34	5166
836.478	5181
836.615	5102
836.753	5185
836.891	5250
837.029	5208
837.167	5155
837.305	5155
837.443	5117
837.58	5071
837.718	5250
837.856	5201
837.993	5102
838.131	5204
838.269	5166
838.406	5197
838.544	5151
838.681	5014
838.819	4930
838.956	4850
839.094	4847
839.231	4987
839.369	5037
839.506	5414
839.643	5220
839.781	5037
839.918	4972
840.055	5105
840.193	5083
840.33	5079
840.467	5105
840.604	5174
840.742	5395
840.879	5086
841.016	5079
841.153	5143
841.29	5337
841.427	5265
841.564	5311
841.701	5345
841.838	5197
841.975	5220
842.112	5231
842.249	5132
842.385	5052
842.522	5292
842.659	5155
842.796	5132
842.933	5212
843.069	5170
843.206	5136
843.343	5322
843.479	5174
843.616	5246
843.752	5060
843.889	4965
844.025	5170
844.162	4999
844.298	5162
844.435	5048
844.571	4980
844.708	5109
844.844	5250
844.98	5284
845.117	5227
845.253	5136
845.389	5071
845.525	5128
845.661	5064
845.798	5071
845.934	5132
846.07	5025
846.206	5208
846.342	5265
846.478	5208
846.614	5022
846.75	4919
846.886	4961
847.022	5121
847.158	4987
847.294	5014
847.429	5109
847.565	5018
847.701	5235
847.837	4816
847.972	4778
848.108	4968
848.244	4900
848.379	4774
848.515	4767
848.65	4698
848.786	4679
848.921	4744
849.057	4873
849.192	4881
849.328	4771
849.463	4790
849.598	4748
849.734	4744
849.869	4645
850.004	4584
850.14	4626
850.275	4584
850.41	4443
850.545	4527
850.68	4588
850.815	4569
850.95	4569
851.085	4793
851.22	4725
851.355	4641
851.49	4558
851.625	4611
851.76	4569
851.895	4523
852.03	4516
852.165	4656
852.299	4683
852.434	4828
852.569	4729
852.703	4763
852.838	4862
852.973	4900
853.107	4904
853.242	4763
853.376	4710
853.511	4561
853.645	4592
853.78	4812
853.914	4683
854.048	4687
854.183	4641
854.317	4672
854.451	4835
854.585	4729
854.72	4641
854.854	4706
854.988	4634
855.122	4664
855.256	4569
855.39	4683
855.524	4778
855.658	4744
855.792	4698
855.926	4736
856.06	4774
856.194	4812
856.327	4694
856.461	4634
856.595	4603
856.729	4645
856.862	4786
856.996	4721
857.13	4710
857.263	4744
857.397	4793
857.53	4637
857.664	4733
857.797	4771
857.931	4866
858.064	4687
858.197	4771
858.331	4634
858.464	4596
858.597	4554
858.731	4653
858.864	4675
858.997	4641
859.13	4691
859.263	4759
859.396	4714
859.529	4611
859.662	4607
859.795	4508
859.928	4656
860.061	4786
860.194	4778
860.327	4656
860.46	4611
860.592	4668
860.725	4691
860.858	4759
860.99	4649
861.123	4565
861.256	4561
861.388	4645
861.521	5322
861.653	4504
861.786	4455
861.918	4527
862.05	4538
862.183	4645
862.315	4618
862.447	4637
862.58	4561
862.712	4440
862.844	4344
862.976	4546
863.108	4523
863.24	4908
863.372	4352
863.504	4443
863.636	4451
863.768	4516
863.9	4443
864.032	4383
864.164	4447
864.296	4470
864.428	4554
864.559	4592
864.691	4561
864.823	4580
864.954	4542
865.086	4497
865.217	4512
865.349	4459
865.48	4474
865.612	4512
865.743	4637
865.875	4500
866.006	4470
866.137	4489
866.269	4459
866.4	4470
866.531	4508
866.662	4470
866.793	4440
866.924	4440
867.055	4516
867.186	4500
867.317	4455
867.448	4375
867.579	4432
867.71	4409
867.841	4398
867.972	4489
868.103	4455
868.233	4485
868.364	4478
868.495	4516
868.625	4653
868.756	4801
868.886	4615
869.017	4615
869.147	4759
869.278	4786
869.408	4656
869.539	4698
869.669	4725
869.799	4668
869.929	4793
870.06	4740
870.19	4957
870.32	4972
870.45	4999
870.58	4995
870.71	5109
870.84	5056
870.97	4961
871.1	4942
871.23	5170
871.36	5181
871.489	4995
871.619	5117
871.749	5098
871.879	5121
872.008	5216
872.138	5140
872.267	4984
872.397	4809
872.526	4908
872.656	4744
872.785	4831
872.915	4976
873.044	5048
873.173	4991
873.303	4953
873.432	4976
873.561	4942
873.69	4919
873.819	4908
873.948	4927
874.077	4866
874.206	4771
874.335	4809
874.464	4976
874.593	5079
874.722	4991
874.851	5162
874.979	5037
875.108	5075
875.237	4980
875.365	4942
875.494	4927
875.623	5006
875.751	4824
875.88	4915
876.008	5037
876.136	5060
876.265	5178
876.393	5353
876.521	5261
876.65	5239
876.778	5277
876.906	5102
877.034	5067
877.162	5113
877.29	4968
877.418	5056
877.546	5064
877.674	5037
877.802	5045
877.93	5041
878.058	4930
878.185	4908
878.313	4961
878.441	4927
878.568	4786
878.696	4877
878.824	4953
878.951	5025
879.079	5159
879.206	5318
879.333	5143
879.461	5025
879.588	5025
879.715	5113
879.842	5246
879.97	4991
880.097	4801
880.224	4774
880.351	4870
880.478	4862
880.605	4873
880.732	4782
880.859	5094
880.986	4911
881.112	4965
881.239	4824
881.366	4710
881.493	4649
881.619	4637
881.746	4653
881.872	4683
881.999	4679
882.125	4702
882.252	4771
882.378	4854
882.505	4999
882.631	4801
882.757	4733
882.883	4797
883.01	4706
883.136	4649
883.262	4611
883.388	4675
883.514	4862
883.64	4847
883.766	4778
883.892	4721
884.018	4744
884.143	4930
884.269	5018
884.395	4691
884.52	4634
884.646	4694
884.772	4573
884.897	4588
885.023	4679
885.148	4801
885.274	4900
885.399	4839
885.524	4774
885.65	4706
885.775	4790
885.9	4778
886.025	4866
886.15	4801
886.275	4740
886.4	4656
886.525	4767
886.65	4733
886.775	4748
886.9	4923
887.025	5064
887.149	4850
887.274	4675
887.399	4622
887.523	4626
887.648	4641
887.773	4664
887.897	4782
888.021	4786
888.146	4649
888.27	4790
888.395	4949
888.519	4790
888.643	4797
888.767	4877
888.891	4694
889.015	4607
889.139	4634
889.263	4618
889.387	4816
889.511	4881
889.635	4828
889.759	4702
889.883	4645
890.006	4725
890.13	4862
890.254	4634
890.377	4668
890.501	4569
890.624	4558
890.748	4691
890.871	4497
890.995	4440
891.118	4375
891.241	4516
891.364	4588
891.488	4626
891.611	4554
891.734	4565
891.857	4653
891.98	4588
892.103	4653
892.226	4603
892.349	4580
892.471	4474
892.594	4527
892.717	4611
892.839	4630
892.962	4641
893.085	4649
893.207	4653
893.33	4489
893.452	4504
893.575	4649
893.697	4634
893.819	4809
893.941	4786
894.064	4748
894.186	4599
894.308	4611
894.43	4801
894.552	4854
894.674	4778
894.796	4580
894.918	4596
895.04	4588
895.161	4748
895.283	4687
895.405	4645
895.526	4668
895.648	4672
895.769	4717
895.891	4752
896.012	4782
896.134	4725
896.255	4702
896.376	4664
896.498	4645
896.619	4702
896.74	4637
896.861	4641
896.982	4904
897.103	5037
897.224	4820
897.345	4771
897.466	4634
897.587	4706
897.708	4866
897.828	4790
897.949	4683
898.07	4546
898.19	4683
898.311	4847
898.431	4683
898.552	4805
898.672	4824
898.792	4805
898.913	4782
899.033	4641
899.153	4512
899.273	4432
899.393	4523
899.513	4607
899.633	4504
899.753	4615
899.873	4497
899.993	4637
900.113	4493
900.232	4607
900.352	4535
900.472	4535
900.591	4462
900.711	4485
900.83	4417
900.95	4596
901.069	4710
901.189	4573
901.308	4409
901.427	4341
901.546	4371
901.665	4474
901.784	4527
901.904	4398
902.023	4329
902.141	4215
902.26	4158
902.379	4295
902.498	4257
902.617	4238
902.735	4440
902.854	4344
902.973	4356
903.091	4246
903.21	4230
903.328	4333
903.446	4268
903.565	4276
903.683	4367
903.801	4268
903.919	4417
904.038	4478
904.156	4306
904.274	4394
904.392	4421
904.51	4447
904.627	4440
904.745	4584
904.863	4611
904.981	4356
905.098	4337
905.216	4367
905.334	4428
905.451	4421
905.569	4527
905.686	4588
905.803	4542
905.921	4405
906.038	4561
906.155	4550
906.272	4375
906.389	4440
906.506	4341
906.623	4375
906.74	4394
906.857	4306
906.974	4356
907.091	4603
907.208	4698
907.324	4622
907.441	4508
907.557	4352
907.674	4386
907.79	4341
907.907	4371
908.023	4455
908.139	4508
908.256	4459
908.372	4497
908.488	4478
908.604	4360
908.72	4352
908.836	4363
908.952	4367
909.068	4462
909.184	4577
909.3	4527
909.415	4565
909.531	4584
909.647	4356
909.762	4344
909.878	4352
909.993	4447
910.108	4405
910.224	4379
910.339	4462
910.454	4424
910.57	4421
910.685	4325
910.8	4683
910.915	4637
911.03	4497
911.145	4325
911.259	4333
911.374	4386
911.489	4333
911.604	4287
911.718	4154
911.833	4192
911.947	4032
912.062	3994
912.176	4219
912.291	4192
912.405	4253
912.519	4432
912.633	4542
912.748	4379
912.862	4291
912.976	4223
913.09	4112
913.204	4177
913.318	4204
913.431	4356
913.545	4341
913.659	4462
913.772	4386
913.886	4249
914	4284
914.113	4379
914.226	4447
914.34	4398
914.453	4230
914.566	4462
914.68	4329
914.793	4325
914.906	4147
915.019	4101
915.132	4116
915.245	4200
915.358	4234
915.47	4192
915.583	4276
915.696	4333
915.809	4424
915.921	4436
916.034	4246
916.146	4227
916.259	4230
916.371	4348
916.483	4356
916.595	4246
916.708	4268
916.82	4356
916.932	4333
917.044	4310
917.156	4287
917.268	4249
917.38	4299
917.491	4276
917.603	4352
917.715	4451
917.826	4466
917.938	4375
918.049	4257
918.161	4402
918.272	4561
918.384	4577
918.495	4455
918.606	4318
918.717	4207
918.828	4310
918.939	4379
919.05	4246
919.161	4337
919.272	4147
919.383	4188
919.494	4443
919.604	4660
919.715	4413
919.826	4375
919.936	4421
920.047	4565
920.157	4493
920.267	4668
920.378	4546
920.488	4512
920.598	4721
920.708	4835
920.818	4736
920.928	4790
921.038	4938
921.148	4873
921.258	4599
921.368	4554
921.477	4535
921.587	4443
921.697	4386
921.806	4592
921.916	4432
922.025	4314
922.134	4344
922.244	4253
922.353	4333
922.462	4181
922.571	4181
922.68	3983
922.789	4017
922.898	4063
923.007	3987
923.116	4124
923.224	4074
923.333	4169
923.442	4063
923.55	4074
923.659	4063
923.767	4177
923.876	4071
923.984	4150
924.092	4010
924.201	4143
924.309	4135
924.417	4124
924.525	4097
924.633	4143
924.741	5086
924.849	3979
924.956	4112
925.064	4040
925.172	3972
925.279	3968
925.387	4074
925.494	4063
925.602	4249
925.709	4169
925.816	4078
925.924	4150
926.031	4265
926.138	4192
926.245	4211
926.352	4185
926.459	4299
926.566	4325
926.673	4166
926.779	4143
926.886	4116
926.993	4025
927.099	3987
927.206	3953
927.312	3983
927.419	4071
927.525	4082
927.631	4086
927.737	3956
927.843	4017
927.95	3892
928.056	3994
928.162	4036
928.267	4082
928.373	4717
928.479	4158
928.585	3880
928.69	4013
928.796	4147
928.901	4021
929.007	3899
929.112	4055
929.218	4006
929.323	3998
929.428	3964
929.533	4158
929.638	3941
929.743	3953
929.848	4090
929.953	4051
930.058	3975
930.163	3835
930.267	3880
930.372	4013
930.477	3861
930.581	4139
930.685	3975
930.79	3804
930.894	3941
930.998	3884
931.103	4055
931.207	3724
931.311	3747
931.415	3709
931.519	3568
931.623	3595
