Data from test_V78500241_178.txt Node
Date: Fri Mar 25 16:50:14 CST 2022
User: usil
Spectrometer: V785-0024
Trigger mode: 0
Integration Time (sec): 4.000000E-1
Scans to average: 1
Nonlinearity correction enabled: false
Boxcar width: 0
Storing dark spectrum: false
XAxis mode: Wavelengths
Number of Pixels in Spectrum: 1024
>>>>>Begin Spectral Data<<<<<
801.071	7974
801.214	7989
801.356	7883
801.499	7807
801.641	7818
801.783	7917
801.926	8024
802.068	8058
802.211	7997
802.353	7986
802.496	7875
802.638	7890
802.78	7902
802.923	7879
803.065	7818
803.208	7875
803.35	7955
803.492	8054
803.635	8115
803.777	7951
803.919	8050
804.061	8412
804.204	8088
804.346	7993
804.488	7982
804.63	8069
804.773	7955
804.915	8062
805.057	8290
805.199	8153
805.341	8202
805.483	8233
805.626	8221
805.768	8043
805.91	8180
806.052	8214
806.194	8115
806.336	8282
806.478	8119
806.62	8088
806.762	8153
806.904	8229
807.046	8389
807.188	8305
807.33	8279
807.472	8351
807.614	8084
807.756	8130
807.898	8145
808.04	7898
808.182	7982
808.324	7970
808.465	7951
808.607	8054
808.749	8077
808.891	8248
809.033	8366
809.174	8279
809.316	8081
809.458	8142
809.6	7978
809.741	8100
809.883	8088
810.025	8142
810.166	8153
810.308	8062
810.45	8050
810.591	7902
810.733	7803
810.875	7780
811.016	7582
811.158	7537
811.299	7636
811.441	7788
811.582	7708
811.724	7533
811.865	7609
812.007	7647
812.148	7655
812.29	7674
812.431	7795
812.573	8005
812.714	8058
812.855	8248
812.997	8324
813.138	8351
813.279	8202
813.421	8172
813.562	8119
813.703	7928
813.845	7830
813.986	7548
814.127	7289
814.268	7259
814.41	7312
814.551	7209
814.692	7232
814.833	7091
814.974	7164
815.115	7183
815.256	6996
815.397	6920
815.539	6977
815.68	6848
815.821	6844
815.962	6928
816.103	6905
816.244	6776
816.385	6707
816.526	6688
816.666	6593
816.807	6369
816.948	6551
817.089	6536
817.23	6475
817.371	6433
817.512	6429
817.653	6452
817.793	6460
817.934	6395
818.075	6509
818.216	6494
818.356	6437
818.497	6277
818.638	6155
818.778	6205
818.919	6155
819.06	6270
819.2	6346
819.341	6384
819.481	6445
819.622	6578
819.762	6700
819.903	6700
820.043	6627
820.184	6612
820.324	6601
820.465	6715
820.605	6703
820.746	6764
820.886	6566
821.026	6711
821.167	6707
821.307	6798
821.447	6768
821.588	6688
821.728	6627
821.868	6566
822.008	6342
822.149	6429
822.289	6376
822.429	6258
822.569	6140
822.709	6152
822.849	5958
822.99	5980
823.13	5935
823.27	5935
823.41	5813
823.55	5844
823.69	5832
823.83	5824
823.97	5668
824.11	5581
824.25	5547
824.389	5615
824.529	5642
824.669	5566
824.809	5627
824.949	5703
825.089	5691
825.228	5562
825.368	5391
825.508	5410
825.648	5395
825.787	5433
825.927	5410
826.067	5337
826.206	5326
826.346	5387
826.485	5448
826.625	5433
826.765	5558
826.904	5486
827.044	5296
827.183	5258
827.323	5121
827.462	5330
827.601	5178
827.741	5258
827.88	5265
828.02	5204
828.159	5311
828.298	5303
828.437	5410
828.577	5299
828.716	5558
828.855	5330
828.994	5223
829.134	5178
829.273	5242
829.412	5204
829.551	5159
829.69	5220
829.829	5337
829.968	5387
830.107	5246
830.246	5303
830.385	5174
830.524	5159
830.663	5117
830.802	4999
830.941	4900
831.08	4877
831.219	5014
831.357	4995
831.496	5208
831.635	4957
831.774	4881
831.913	4866
832.051	4744
832.19	4729
832.329	4877
832.467	4721
832.606	4668
832.744	4733
832.883	4752
833.022	4778
833.16	4820
833.299	4793
833.437	4873
833.576	4850
833.714	4904
833.852	4850
833.991	4938
834.129	4968
834.267	4919
834.406	4900
834.544	4999
834.682	5014
834.821	4984
834.959	5216
835.097	5060
835.235	5181
835.373	5113
835.511	5098
835.65	5071
835.788	5029
835.926	4904
836.064	4953
836.202	4919
836.34	5239
836.478	5220
836.615	5151
836.753	5193
836.891	5334
837.029	5246
837.167	5216
837.305	5212
837.443	5159
837.58	5136
837.718	5269
837.856	5265
837.993	5170
838.131	5311
838.269	5299
838.406	5235
838.544	5223
838.681	5033
838.819	5045
838.956	4972
839.094	4919
839.231	5010
839.369	5113
839.506	5486
839.643	5307
839.781	5109
839.918	5022
840.055	5121
840.193	5105
840.33	5121
840.467	5151
840.604	5220
840.742	5421
840.879	5098
841.016	5109
841.153	5204
841.29	5452
841.427	5364
841.564	5337
841.701	5406
841.838	5292
841.975	5296
842.112	5303
842.249	5159
842.385	5147
842.522	5402
842.659	5208
842.796	5197
842.933	5288
843.069	5223
843.206	5197
843.343	5311
843.479	5288
843.616	5296
843.752	5105
843.889	5067
844.025	5254
844.162	5060
844.298	5201
844.435	5083
844.571	5086
844.708	5273
844.844	5349
844.98	5433
845.117	5334
845.253	5174
845.389	5117
845.525	5197
845.661	5155
845.798	5086
845.934	5151
846.07	5083
846.206	5204
846.342	5296
846.478	5204
846.614	5014
846.75	5033
846.886	4942
847.022	5178
847.158	5056
847.294	5083
847.429	5121
847.565	5109
847.701	5360
847.837	4843
847.972	4812
848.108	4946
848.244	4953
848.379	4839
848.515	4767
848.65	4744
848.786	4793
848.921	4809
849.057	4850
849.192	4976
849.328	4843
849.463	4873
849.598	4809
849.734	4774
849.869	4721
850.004	4668
850.14	4710
850.275	4714
850.41	4584
850.545	4596
850.68	4611
850.815	4653
850.95	4675
851.085	4885
851.22	4805
851.355	4733
851.49	4675
851.625	4645
851.76	4691
851.895	4615
852.03	4603
852.165	4691
852.299	4782
852.434	4816
852.569	4752
852.703	4793
852.838	4911
852.973	4991
853.107	4946
853.242	4755
853.376	4763
853.511	4603
853.645	4637
853.78	4797
853.914	4729
854.048	4683
854.183	4694
854.317	4717
854.451	4847
854.585	4729
854.72	4668
854.854	4755
854.988	4645
855.122	4645
855.256	4577
855.39	4714
855.524	4786
855.658	4809
855.792	4744
855.926	4740
856.06	4763
856.194	4820
856.327	4717
856.461	4672
856.595	4645
856.729	4649
856.862	4831
856.996	4702
857.13	4774
857.263	4748
857.397	4850
857.53	4630
857.664	4755
857.797	4801
857.931	4835
858.064	4771
858.197	4771
858.331	4672
858.464	4656
858.597	4516
858.731	4611
858.864	4694
858.997	4622
859.13	4691
859.263	4668
859.396	4729
859.529	4637
859.662	4580
859.795	4554
859.928	4596
860.061	4790
860.194	4793
860.327	4618
860.46	4577
860.592	4698
860.725	4771
860.858	4725
860.99	4603
861.123	4542
861.256	4546
861.388	4622
861.521	5433
861.653	4542
861.786	4470
861.918	4542
862.05	4508
862.183	4569
862.315	4618
862.447	4637
862.58	4546
862.712	4402
862.844	4352
862.976	4500
863.108	4459
863.24	4923
863.372	4348
863.504	4455
863.636	4417
863.768	4535
863.9	4478
864.032	4371
864.164	4432
864.296	4497
864.428	4565
864.559	4580
864.691	4535
864.823	4561
864.954	4485
865.086	4523
865.217	4478
865.349	4428
865.48	4512
865.612	4485
865.743	4668
865.875	4504
866.006	4428
866.137	4508
866.269	4508
866.4	4455
866.531	4447
866.662	4413
866.793	4481
866.924	4440
867.055	4508
867.186	4504
867.317	4443
867.448	4417
867.579	4443
867.71	4398
867.841	4398
867.972	4497
868.103	4466
868.233	4466
868.364	4432
868.495	4554
868.625	4664
868.756	4790
868.886	4538
869.017	4653
869.147	4801
869.278	4831
869.408	4675
869.539	4687
869.669	4778
869.799	4706
869.929	4782
870.06	4812
870.19	4965
870.32	4946
870.45	4984
870.58	5022
870.71	5143
870.84	5166
870.97	4984
871.1	4911
871.23	5136
871.36	5128
871.489	5045
871.619	5067
871.749	5094
871.879	5151
872.008	5166
872.138	5128
872.267	5006
872.397	4923
872.526	4809
872.656	4736
872.785	4793
872.915	4995
873.044	5083
873.173	4949
873.303	4984
873.432	4911
873.561	4968
873.69	4908
873.819	4858
873.948	4923
874.077	4809
874.206	4752
874.335	4790
874.464	4968
874.593	5086
874.722	4987
874.851	5105
874.979	5037
875.108	5033
875.237	4942
875.365	4908
875.494	4915
875.623	5010
875.751	4850
875.88	4892
876.008	4987
876.136	5064
876.265	5223
876.393	5406
876.521	5231
876.65	5208
876.778	5193
876.906	5094
877.034	5041
877.162	5041
877.29	5033
877.418	5109
877.546	5060
877.674	5105
877.802	5033
877.93	5064
878.058	4938
878.185	4881
878.313	4946
878.441	4949
878.568	4793
878.696	4919
878.824	4972
878.951	5018
879.079	5174
879.206	5318
879.333	5132
879.461	4942
879.588	5033
879.715	5102
879.842	5208
879.97	5067
880.097	4820
880.224	4797
880.351	4793
880.478	4839
880.605	4790
880.732	4782
880.859	5098
880.986	4911
881.112	4949
881.239	4763
881.366	4702
881.493	4618
881.619	4603
881.746	4653
881.872	4664
881.999	4668
882.125	4767
882.252	4812
882.378	4763
882.505	4995
882.631	4790
882.757	4740
882.883	4755
883.01	4706
883.136	4649
883.262	4596
883.388	4618
883.514	4816
883.64	4877
883.766	4809
883.892	4721
884.018	4736
884.143	4850
884.269	5056
884.395	4729
884.52	4637
884.646	4683
884.772	4607
884.897	4596
885.023	4710
885.148	4809
885.274	4892
885.399	4828
885.524	4748
885.65	4683
885.775	4733
885.9	4710
886.025	4881
886.15	4816
886.275	4721
886.4	4679
886.525	4774
886.65	4729
886.775	4714
886.9	4915
887.025	5064
887.149	4820
887.274	4622
887.399	4569
887.523	4615
887.648	4546
887.773	4603
887.897	4782
888.021	4786
888.146	4683
888.27	4866
888.395	4976
888.519	4797
888.643	4820
888.767	4877
888.891	4683
889.015	4603
889.139	4698
889.263	4592
889.387	4752
889.511	4934
889.635	4835
889.759	4714
889.883	4687
890.006	4729
890.13	4824
890.254	4660
890.377	4683
890.501	4542
890.624	4527
890.748	4672
890.871	4497
890.995	4474
891.118	4417
891.241	4538
891.364	4592
891.488	4630
891.611	4485
891.734	4546
891.857	4641
891.98	4569
892.103	4672
892.226	4561
892.349	4500
892.471	4398
892.594	4527
892.717	4641
892.839	4607
892.962	4569
893.085	4683
893.207	4653
893.33	4519
893.452	4493
893.575	4721
893.697	4580
893.819	4801
893.941	4877
894.064	4786
894.186	4573
894.308	4561
894.43	4759
894.552	4854
894.674	4816
894.796	4592
894.918	4596
895.04	4588
895.161	4694
895.283	4649
895.405	4630
895.526	4672
895.648	4740
895.769	4698
895.891	4717
896.012	4809
896.134	4714
896.255	4725
896.376	4630
896.498	4656
896.619	4687
896.74	4588
896.861	4691
896.982	4976
897.103	5071
897.224	4862
897.345	4759
897.466	4653
897.587	4725
897.708	4843
897.828	4797
897.949	4714
898.07	4527
898.19	4641
898.311	4873
898.431	4660
898.552	4763
898.672	4824
898.792	4858
898.913	4763
899.033	4675
899.153	4516
899.273	4432
899.393	4512
899.513	4504
899.633	4516
899.753	4516
899.873	4558
899.993	4592
900.113	4519
900.232	4660
900.352	4527
900.472	4470
900.591	4485
900.711	4508
900.83	4474
900.95	4664
901.069	4717
901.189	4573
901.308	4367
901.427	4379
901.546	4379
901.665	4512
901.784	4489
901.904	4432
902.023	4310
902.141	4230
902.26	4150
902.379	4299
902.498	4276
902.617	4257
902.735	4409
902.854	4413
902.973	4409
903.091	4207
903.21	4200
903.328	4291
903.446	4310
903.565	4299
903.683	4379
903.801	4344
903.919	4413
904.038	4424
904.156	4348
904.274	4466
904.392	4386
904.51	4443
904.627	4436
904.745	4592
904.863	4641
904.981	4428
905.098	4344
905.216	4386
905.334	4424
905.451	4421
905.569	4523
905.686	4611
905.803	4592
905.921	4432
906.038	4596
906.155	4470
906.272	4421
906.389	4485
906.506	4390
906.623	4462
906.74	4440
906.857	4306
906.974	4383
907.091	4550
907.208	4706
907.324	4573
907.441	4504
907.557	4348
907.674	4367
907.79	4360
907.907	4432
908.023	4504
908.139	4485
908.256	4402
908.372	4455
908.488	4516
908.604	4409
908.72	4352
908.836	4344
908.952	4405
909.068	4447
909.184	4611
909.3	4478
909.415	4615
909.531	4558
909.647	4417
909.762	4360
909.878	4333
909.993	4409
910.108	4436
910.224	4409
910.339	4489
910.454	4436
910.57	4394
910.685	4356
910.8	4687
910.915	4607
911.03	4481
911.145	4344
911.259	4363
911.374	4383
911.489	4284
911.604	4341
911.718	4143
911.833	4249
911.947	4112
912.062	4063
912.176	4219
912.291	4272
912.405	4291
912.519	4512
912.633	4516
912.748	4337
912.862	4310
912.976	4169
913.09	4124
913.204	4196
913.318	4280
913.431	4409
913.545	4386
913.659	4432
913.772	4356
913.886	4257
914	4227
914.113	4405
914.226	4417
914.34	4394
914.453	4227
914.566	4451
914.68	4352
914.793	4367
914.906	4169
915.019	4154
915.132	4071
915.245	4173
915.358	4249
915.47	4238
915.583	4280
915.696	4306
915.809	4474
915.921	4455
916.034	4268
916.146	4268
916.259	4185
916.371	4398
916.483	4398
916.595	4234
916.708	4333
916.82	4329
916.932	4402
917.044	4356
917.156	4325
917.268	4230
917.38	4314
917.491	4299
917.603	4337
917.715	4489
917.826	4417
917.938	4394
918.049	4253
918.161	4413
918.272	4580
918.384	4558
918.495	4474
918.606	4322
918.717	4249
918.828	4287
918.939	4375
919.05	4295
919.161	4375
919.272	4169
919.383	4268
919.494	4474
919.604	4683
919.715	4459
919.826	4341
919.936	4432
920.047	4538
920.157	4512
920.267	4668
920.378	4538
920.488	4500
920.598	4710
920.708	4870
920.818	4752
920.928	4786
921.038	4968
921.148	4881
921.258	4630
921.368	4569
921.477	4478
921.587	4493
921.697	4405
921.806	4565
921.916	4432
922.025	4257
922.134	4272
922.244	4261
922.353	4337
922.462	4196
922.571	4150
922.68	4055
922.789	3994
922.898	4036
923.007	4029
923.116	4097
923.224	4067
923.333	4067
923.442	4006
923.55	3975
923.659	4025
923.767	4116
923.876	3937
923.984	4135
924.092	4010
924.201	4109
924.309	4082
924.417	4147
924.525	4048
924.633	4109
924.741	4866
924.849	3926
924.956	4147
925.064	3998
925.172	3899
925.279	3953
925.387	4082
925.494	4063
925.602	4234
925.709	4196
925.816	4055
925.924	4185
926.031	4227
926.138	4158
926.245	4200
926.352	4116
926.459	4223
926.566	4314
926.673	4238
926.779	4055
926.886	4063
926.993	3987
927.099	3960
927.206	3960
927.312	3979
927.419	4090
927.525	4063
927.631	4124
927.737	4017
927.843	3956
927.95	3884
928.056	3968
928.162	4036
928.267	4044
928.373	4653
928.479	4116
928.585	3911
928.69	4010
928.796	4059
928.901	4010
929.007	3831
929.112	4048
929.218	3983
929.323	3991
929.428	3945
929.533	4086
929.638	3922
929.743	3956
929.848	4074
929.953	4074
930.058	3956
930.163	3793
930.267	3819
930.372	3991
930.477	3804
930.581	4112
930.685	3934
930.79	3816
930.894	3903
930.998	3835
931.103	4055
931.207	3762
931.311	3694
931.415	3701
931.519	3485
931.623	3545
