Data from test_V78500241_918.txt Node
Date: Fri Mar 25 16:55:23 CST 2022
User: usil
Spectrometer: V785-0024
Trigger mode: 0
Integration Time (sec): 4.000000E-1
Scans to average: 1
Nonlinearity correction enabled: false
Boxcar width: 0
Storing dark spectrum: false
XAxis mode: Wavelengths
Number of Pixels in Spectrum: 1024
>>>>>Begin Spectral Data<<<<<
801.071	7970
801.214	7978
801.356	7864
801.499	7822
801.641	7818
801.783	7883
801.926	7947
802.068	7913
802.211	7978
802.353	7978
802.496	7845
802.638	7833
802.78	7936
802.923	7894
803.065	7864
803.208	7864
803.35	8008
803.492	8199
803.635	8176
803.777	7986
803.919	8084
804.061	8412
804.204	8103
804.346	7978
804.488	7974
804.63	8187
804.773	8031
804.915	8103
805.057	8237
805.199	8123
805.341	8244
805.483	8237
805.626	8168
805.768	8103
805.91	8187
806.052	8229
806.194	8138
806.336	8301
806.478	8096
806.62	7947
806.762	8062
806.904	8339
807.046	8446
807.188	8389
807.33	8351
807.472	8320
807.614	8149
807.756	8161
807.898	8008
808.04	7887
808.182	7887
808.324	7890
808.465	7807
808.607	8092
808.749	8088
808.891	8218
809.033	8294
809.174	8221
809.316	8115
809.458	7974
809.6	7959
809.741	8024
809.883	8024
810.025	8073
810.166	8058
810.308	7978
810.45	8001
810.591	7894
810.733	7772
810.875	7655
811.016	7510
811.158	7407
811.299	7556
811.441	7670
811.582	7693
811.724	7601
811.865	7521
812.007	7540
812.148	7540
812.29	7563
812.431	7753
812.573	7868
812.714	7951
812.855	8062
812.997	8206
813.138	8259
813.279	8210
813.421	8111
813.562	8005
813.703	7852
813.845	7750
813.986	7449
814.127	7297
814.268	7247
814.41	7217
814.551	7076
814.692	7168
814.833	7023
814.974	7034
815.115	7103
815.256	6897
815.397	6852
815.539	6977
815.68	6787
815.821	6779
815.962	6856
816.103	6783
816.244	6677
816.385	6688
816.526	6631
816.666	6486
816.807	6262
816.948	6384
817.089	6475
817.23	6429
817.371	6395
817.512	6391
817.653	6372
817.793	6414
817.934	6388
818.075	6471
818.216	6448
818.356	6376
818.497	6228
818.638	6110
818.778	6034
818.919	6083
819.06	6155
819.2	6315
819.341	6357
819.481	6380
819.622	6486
819.762	6681
819.903	6722
820.043	6604
820.184	6582
820.324	6582
820.465	6700
820.605	6604
820.746	6593
820.886	6517
821.026	6616
821.167	6703
821.307	6802
821.447	6772
821.588	6665
821.728	6559
821.868	6513
822.008	6315
822.149	6369
822.289	6372
822.429	6163
822.569	6057
822.709	6148
822.849	5935
822.99	5935
823.13	5889
823.27	5882
823.41	5729
823.55	5821
823.69	5752
823.83	5775
823.97	5668
824.11	5558
824.25	5436
824.389	5570
824.529	5543
824.669	5501
824.809	5600
824.949	5608
825.089	5566
825.228	5592
825.368	5406
825.508	5318
825.648	5315
825.787	5353
825.927	5334
826.067	5261
826.206	5277
826.346	5402
826.485	5357
826.625	5368
826.765	5528
826.904	5478
827.044	5220
827.183	5212
827.323	5109
827.462	5254
827.601	5178
827.741	5166
827.88	5204
828.02	5128
828.159	5280
828.298	5280
828.437	5383
828.577	5227
828.716	5512
828.855	5292
828.994	5124
829.134	5098
829.273	5147
829.412	5121
829.551	5113
829.69	5132
829.829	5212
829.968	5330
830.107	5250
830.246	5227
830.385	5185
830.524	5204
830.663	5048
830.802	4995
830.941	4877
831.08	4885
831.219	4999
831.357	4908
831.496	5170
831.635	4949
831.774	4839
831.913	4835
832.051	4740
832.19	4752
832.329	4858
832.467	4687
832.606	4618
832.744	4733
832.883	4702
833.022	4706
833.16	4786
833.299	4831
833.437	4805
833.576	4786
833.714	4831
833.852	4835
833.991	4870
834.129	4934
834.267	4957
834.406	4896
834.544	4946
834.682	4972
834.821	4942
834.959	5136
835.097	4976
835.235	5117
835.373	5060
835.511	5083
835.65	4972
835.788	5033
835.926	4900
836.064	4824
836.202	4858
836.34	5147
836.478	5223
836.615	5083
836.753	5178
836.891	5258
837.029	5193
837.167	5220
837.305	5124
837.443	5136
837.58	5022
837.718	5273
837.856	5181
837.993	5086
838.131	5216
838.269	5159
838.406	5121
838.544	5208
838.681	5052
838.819	4987
838.956	4904
839.094	4919
839.231	4991
839.369	5056
839.506	5406
839.643	5239
839.781	5075
839.918	5014
840.055	5071
840.193	5071
840.33	5109
840.467	5132
840.604	5166
840.742	5379
840.879	5041
841.016	5132
841.153	5136
841.29	5330
841.427	5311
841.564	5315
841.701	5303
841.838	5242
841.975	5193
842.112	5250
842.249	5140
842.385	5071
842.522	5292
842.659	5109
842.796	5143
842.933	5189
843.069	5136
843.206	5121
843.343	5265
843.479	5193
843.616	5197
843.752	5041
843.889	5010
844.025	5223
844.162	5003
844.298	5170
844.435	5105
844.571	5048
844.708	5193
844.844	5311
844.98	5360
845.117	5303
845.253	5121
845.389	5067
845.525	5048
845.661	5147
845.798	5014
845.934	5174
846.07	4991
846.206	5212
846.342	5220
846.478	5140
846.614	5025
846.75	5010
846.886	4938
847.022	5151
847.158	5006
847.294	5045
847.429	5102
847.565	5056
847.701	5269
847.837	4854
847.972	4755
848.108	4949
848.244	4889
848.379	4744
848.515	4691
848.65	4710
848.786	4649
848.921	4771
849.057	4839
849.192	4877
849.328	4801
849.463	4797
849.598	4812
849.734	4759
849.869	4672
850.004	4637
850.14	4588
850.275	4569
850.41	4535
850.545	4535
850.68	4618
850.815	4592
850.95	4641
851.085	4797
851.22	4687
851.355	4698
851.49	4542
851.625	4615
851.76	4637
851.895	4550
852.03	4474
852.165	4634
852.299	4733
852.434	4774
852.569	4733
852.703	4809
852.838	4847
852.973	4911
853.107	4904
853.242	4710
853.376	4634
853.511	4588
853.645	4577
853.78	4755
853.914	4706
854.048	4637
854.183	4634
854.317	4679
854.451	4828
854.585	4710
854.72	4607
854.854	4763
854.988	4554
855.122	4592
855.256	4478
855.39	4615
855.524	4763
855.658	4706
855.792	4675
855.926	4733
856.06	4729
856.194	4744
856.327	4698
856.461	4618
856.595	4573
856.729	4588
856.862	4714
856.996	4687
857.13	4675
857.263	4683
857.397	4774
857.53	4641
857.664	4714
857.797	4740
857.931	4763
858.064	4645
858.197	4714
858.331	4622
858.464	4584
858.597	4493
858.731	4607
858.864	4577
858.997	4577
859.13	4641
859.263	4672
859.396	4721
859.529	4546
859.662	4546
859.795	4493
859.928	4596
860.061	4752
860.194	4774
860.327	4603
860.46	4573
860.592	4717
860.725	4687
860.858	4721
860.99	4580
861.123	4493
861.256	4478
861.388	4561
861.521	5109
861.653	4459
861.786	4455
861.918	4402
862.05	4493
862.183	4542
862.315	4607
862.447	4649
862.58	4523
862.712	4306
862.844	4268
862.976	4447
863.108	4424
863.24	4759
863.372	4310
863.504	4440
863.636	4375
863.768	4447
863.9	4413
864.032	4310
864.164	4413
864.296	4447
864.428	4497
864.559	4512
864.691	4542
864.823	4485
864.954	4428
865.086	4459
865.217	4417
865.349	4417
865.48	4451
865.612	4478
865.743	4592
865.875	4440
866.006	4383
866.137	4474
866.269	4417
866.4	4451
866.531	4383
866.662	4379
866.793	4394
866.924	4405
867.055	4500
867.186	4478
867.317	4432
867.448	4318
867.579	4352
867.71	4394
867.841	4409
867.972	4424
868.103	4432
868.233	4462
868.364	4436
868.495	4497
868.625	4672
868.756	4759
868.886	4538
869.017	4664
869.147	4759
869.278	4748
869.408	4679
869.539	4637
869.669	4725
869.799	4626
869.929	4771
870.06	4797
870.19	5006
870.32	4942
870.45	4961
870.58	5014
870.71	5094
870.84	5113
870.97	4987
871.1	4911
871.23	5140
871.36	5174
871.489	5022
871.619	5124
871.749	5143
871.879	5162
872.008	5189
872.138	5045
872.267	4976
872.397	4881
872.526	4824
872.656	4759
872.785	4809
872.915	5018
873.044	5022
873.173	4934
873.303	4991
873.432	4946
873.561	4984
873.69	4923
873.819	4881
873.948	4938
874.077	4847
874.206	4793
874.335	4812
874.464	4953
874.593	5083
874.722	4984
874.851	5155
874.979	5075
875.108	5010
875.237	4957
875.365	4847
875.494	4919
875.623	5006
875.751	4896
875.88	4911
876.008	4991
876.136	5086
876.265	5231
876.393	5368
876.521	5277
876.65	5269
876.778	5174
876.906	5117
877.034	5048
877.162	5090
877.29	4961
877.418	5052
877.546	5045
877.674	5079
877.802	5048
877.93	5041
878.058	4923
878.185	4930
878.313	4987
878.441	4923
878.568	4820
878.696	4892
878.824	4987
878.951	5010
879.079	5170
879.206	5280
879.333	5155
879.461	5033
879.588	5006
879.715	5140
879.842	5239
879.97	4995
880.097	4835
880.224	4752
880.351	4831
880.478	4850
880.605	4801
880.732	4828
880.859	5113
880.986	4938
881.112	4915
881.239	4801
881.366	4637
881.493	4645
881.619	4611
881.746	4710
881.872	4679
881.999	4679
882.125	4691
882.252	4790
882.378	4843
882.505	4919
882.631	4824
882.757	4675
882.883	4755
883.01	4782
883.136	4698
883.262	4649
883.388	4645
883.514	4858
883.64	4900
883.766	4820
883.892	4702
884.018	4744
884.143	4938
884.269	5056
884.395	4683
884.52	4649
884.646	4656
884.772	4599
884.897	4558
885.023	4683
885.148	4824
885.274	4854
885.399	4797
885.524	4755
885.65	4755
885.775	4759
885.9	4714
886.025	4881
886.15	4771
886.275	4717
886.4	4702
886.525	4748
886.65	4679
886.775	4702
886.9	4896
887.025	5033
887.149	4847
887.274	4687
887.399	4622
887.523	4561
887.648	4577
887.773	4630
887.897	4809
888.021	4801
888.146	4706
888.27	4839
888.395	4946
888.519	4793
888.643	4835
888.767	4839
888.891	4706
889.015	4634
889.139	4668
889.263	4649
889.387	4828
889.511	4850
889.635	4831
889.759	4634
889.883	4710
890.006	4748
890.13	4850
890.254	4626
890.377	4691
890.501	4577
890.624	4504
890.748	4656
890.871	4546
890.995	4478
891.118	4432
891.241	4516
891.364	4546
891.488	4660
891.611	4504
891.734	4607
891.857	4641
891.98	4538
892.103	4687
892.226	4588
892.349	4558
892.471	4485
892.594	4577
892.717	4611
892.839	4596
892.962	4626
893.085	4687
893.207	4668
893.33	4512
893.452	4561
893.575	4649
893.697	4584
893.819	4801
893.941	4809
894.064	4790
894.186	4592
894.308	4584
894.43	4793
894.552	4831
894.674	4763
894.796	4554
894.918	4599
895.04	4542
895.161	4729
895.283	4698
895.405	4588
895.526	4683
895.648	4683
895.769	4733
895.891	4763
896.012	4767
896.134	4725
896.255	4706
896.376	4691
896.498	4611
896.619	4672
896.74	4641
896.861	4679
896.982	4968
897.103	5086
897.224	4877
897.345	4771
897.466	4698
897.587	4721
897.708	4862
897.828	4790
897.949	4706
898.07	4611
898.19	4653
898.311	4877
898.431	4717
898.552	4759
898.672	4831
898.792	4870
898.913	4816
899.033	4656
899.153	4599
899.273	4421
899.393	4512
899.513	4565
899.633	4546
899.753	4599
899.873	4538
899.993	4611
900.113	4592
900.232	4622
900.352	4561
900.472	4493
900.591	4417
900.711	4512
900.83	4443
900.95	4649
901.069	4759
901.189	4580
901.308	4363
901.427	4348
901.546	4398
901.665	4478
901.784	4519
901.904	4394
902.023	4280
902.141	4192
902.26	4166
902.379	4341
902.498	4272
902.617	4272
902.735	4390
902.854	4394
902.973	4402
903.091	4257
903.21	4242
903.328	4280
903.446	4268
903.565	4295
903.683	4379
903.801	4272
903.919	4402
904.038	4432
904.156	4360
904.274	4474
904.392	4402
904.51	4443
904.627	4443
904.745	4569
904.863	4637
904.981	4394
905.098	4299
905.216	4421
905.334	4455
905.451	4459
905.569	4443
905.686	4588
905.803	4615
905.921	4447
906.038	4531
906.155	4504
906.272	4428
906.389	4508
906.506	4360
906.623	4402
906.74	4470
906.857	4299
906.974	4390
907.091	4493
907.208	4702
907.324	4584
907.441	4512
907.557	4367
907.674	4398
907.79	4352
907.907	4375
908.023	4478
908.139	4470
908.256	4485
908.372	4466
908.488	4474
908.604	4402
908.72	4363
908.836	4424
908.952	4386
909.068	4436
909.184	4546
909.3	4470
909.415	4558
909.531	4569
909.647	4341
909.762	4413
909.878	4386
909.993	4481
910.108	4459
910.224	4455
910.339	4447
910.454	4443
910.57	4379
910.685	4306
910.8	4656
910.915	4607
911.03	4554
911.145	4356
911.259	4333
911.374	4367
911.489	4299
911.604	4272
911.718	4207
911.833	4238
911.947	4150
912.062	4025
912.176	4200
912.291	4291
912.405	4219
912.519	4504
912.633	4561
912.748	4413
912.862	4310
912.976	4211
913.09	4139
913.204	4227
913.318	4280
913.431	4375
913.545	4371
913.659	4462
913.772	4398
913.886	4230
914	4234
914.113	4432
914.226	4478
914.34	4428
914.453	4211
914.566	4436
914.68	4337
914.793	4363
914.906	4173
915.019	4128
915.132	4109
915.245	4223
915.358	4215
915.47	4257
915.583	4291
915.696	4276
915.809	4383
915.921	4344
916.034	4265
916.146	4268
916.259	4219
916.371	4424
916.483	4363
916.595	4291
916.708	4310
916.82	4333
916.932	4318
917.044	4337
917.156	4295
917.268	4257
917.38	4276
917.491	4261
917.603	4352
917.715	4394
917.826	4436
917.938	4352
918.049	4234
918.161	4375
918.272	4538
918.384	4535
918.495	4470
918.606	4337
918.717	4265
918.828	4310
918.939	4360
919.05	4314
919.161	4325
919.272	4181
919.383	4272
919.494	4432
919.604	4645
919.715	4405
919.826	4375
919.936	4363
920.047	4512
920.157	4466
920.267	4725
920.378	4558
920.488	4542
920.598	4736
920.708	4850
920.818	4812
920.928	4790
921.038	4923
921.148	4927
921.258	4637
921.368	4561
921.477	4500
921.587	4462
921.697	4341
921.806	4573
921.916	4470
922.025	4284
922.134	4291
922.244	4295
922.353	4329
922.462	4185
922.571	4158
922.68	3987
922.789	3964
922.898	4044
923.007	4006
923.116	4112
923.224	4082
923.333	4078
923.442	3983
923.55	4021
923.659	4044
923.767	4112
923.876	4036
923.984	4124
924.092	4010
924.201	4059
924.309	4063
924.417	4135
924.525	4090
924.633	4128
924.741	4862
924.849	3918
924.956	4097
925.064	3960
925.172	3915
925.279	3941
925.387	4109
925.494	4036
925.602	4219
925.709	4192
925.816	4017
925.924	4162
926.031	4253
926.138	4196
926.245	4242
926.352	4093
926.459	4280
926.566	4325
926.673	4181
926.779	4071
926.886	4071
926.993	4029
927.099	3983
927.206	3953
927.312	3930
927.419	4006
927.525	4048
927.631	4105
927.737	3998
927.843	3930
927.95	3873
928.056	3918
928.162	3960
928.267	4048
928.373	4558
928.479	4105
928.585	3869
928.69	4025
928.796	4074
928.901	3975
929.007	3819
929.112	3994
929.218	4017
929.323	3896
929.428	3975
929.533	4044
929.638	3892
929.743	3998
929.848	4029
929.953	4010
930.058	3949
930.163	3743
930.267	3861
930.372	4002
930.477	3819
930.581	4078
930.685	3911
930.79	3827
930.894	3876
930.998	3838
931.103	4044
931.207	3679
931.311	3701
931.415	3705
931.519	3530
931.623	3538
