Data from test_V78500241_526.txt Node
Date: Fri Mar 25 16:52:39 CST 2022
User: usil
Spectrometer: V785-0024
Trigger mode: 0
Integration Time (sec): 4.000000E-1
Scans to average: 1
Nonlinearity correction enabled: false
Boxcar width: 0
Storing dark spectrum: false
XAxis mode: Wavelengths
Number of Pixels in Spectrum: 1024
>>>>>Begin Spectral Data<<<<<
801.071	8039
801.214	7947
801.356	7826
801.499	7788
801.641	7792
801.783	7860
801.926	8035
802.068	7986
802.211	8016
802.353	8031
802.496	7860
802.638	7860
802.78	7955
802.923	7902
803.065	7830
803.208	7902
803.35	7906
803.492	8092
803.635	8115
803.777	7963
803.919	8092
804.061	8419
804.204	8107
804.346	8008
804.488	7902
804.63	8058
804.773	8001
804.915	8035
805.057	8210
805.199	8138
805.341	8237
805.483	8275
805.626	8183
805.768	8069
805.91	8206
806.052	8126
806.194	8134
806.336	8275
806.478	8103
806.62	8119
806.762	8119
806.904	8313
807.046	8419
807.188	8240
807.33	8164
807.472	8218
807.614	8180
807.756	8073
807.898	7906
808.04	7883
808.182	8005
808.324	7803
808.465	7826
808.607	8005
808.749	8111
808.891	8168
809.033	8279
809.174	8206
809.316	7997
809.458	8046
809.6	7944
809.741	8046
809.883	7986
810.025	8111
810.166	8024
810.308	8012
810.45	8008
810.591	7928
810.733	7712
810.875	7643
811.016	7563
811.158	7472
811.299	7636
811.441	7696
811.582	7700
811.724	7624
811.865	7609
812.007	7605
812.148	7556
812.29	7636
812.431	7750
812.573	7902
812.714	8001
812.855	8069
812.997	8267
813.138	8339
813.279	8210
813.421	8153
813.562	8065
813.703	7906
813.845	7772
813.986	7460
814.127	7339
814.268	7324
814.41	7187
814.551	7187
814.692	7190
814.833	7103
814.974	7076
815.115	7145
815.256	6951
815.397	6901
815.539	6939
815.68	6844
815.821	6821
815.962	6821
816.103	6814
816.244	6692
816.385	6612
816.526	6597
816.666	6498
816.807	6239
816.948	6403
817.089	6414
817.23	6452
817.371	6388
817.512	6334
817.653	6323
817.793	6414
817.934	6391
818.075	6391
818.216	6483
818.356	6353
818.497	6201
818.638	6095
818.778	6209
818.919	6155
819.06	6186
819.2	6319
819.341	6327
819.481	6323
819.622	6486
819.762	6707
819.903	6688
820.043	6547
820.184	6509
820.324	6597
820.465	6658
820.605	6585
820.746	6627
820.886	6486
821.026	6555
821.167	6700
821.307	6734
821.447	6753
821.588	6700
821.728	6532
821.868	6460
822.008	6334
822.149	6338
822.289	6365
822.429	6175
822.569	6106
822.709	6117
822.849	5931
822.99	5889
823.13	5908
823.27	5882
823.41	5748
823.55	5790
823.69	5779
823.83	5737
823.97	5688
824.11	5554
824.25	5547
824.389	5516
824.529	5539
824.669	5532
824.809	5646
824.949	5604
825.089	5570
825.228	5520
825.368	5376
825.508	5368
825.648	5395
825.787	5364
825.927	5387
826.067	5326
826.206	5273
826.346	5360
826.485	5368
826.625	5406
826.765	5547
826.904	5474
827.044	5239
827.183	5170
827.323	5166
827.462	5223
827.601	5197
827.741	5166
827.88	5239
828.02	5132
828.159	5170
828.298	5277
828.437	5337
828.577	5292
828.716	5459
828.855	5299
828.994	5170
829.134	5159
829.273	5181
829.412	5124
829.551	5124
829.69	5178
829.829	5204
829.968	5353
830.107	5280
830.246	5299
830.385	5121
830.524	5162
830.663	5083
830.802	4968
830.941	4885
831.08	4881
831.219	4946
831.357	4915
831.496	5113
831.635	4896
831.774	4847
831.913	4812
832.051	4668
832.19	4687
832.329	4850
832.467	4710
832.606	4641
832.744	4672
832.883	4668
833.022	4706
833.16	4763
833.299	4854
833.437	4835
833.576	4831
833.714	4870
833.852	4850
833.991	4873
834.129	4923
834.267	4995
834.406	4927
834.544	4904
834.682	4953
834.821	4934
834.959	5208
835.097	5010
835.235	5185
835.373	5052
835.511	5071
835.65	5022
835.788	5018
835.926	4900
836.064	4854
836.202	4908
836.34	5136
836.478	5185
836.615	5128
836.753	5162
836.891	5235
837.029	5246
837.167	5140
837.305	5174
837.443	5098
837.58	5045
837.718	5235
837.856	5155
837.993	5181
838.131	5216
838.269	5166
838.406	5136
838.544	5170
838.681	5056
838.819	4957
838.956	4934
839.094	4900
839.231	4987
839.369	5071
839.506	5448
839.643	5261
839.781	5037
839.918	4987
840.055	5132
840.193	5098
840.33	5086
840.467	5147
840.604	5208
840.742	5398
840.879	5121
841.016	5086
841.153	5162
841.29	5337
841.427	5303
841.564	5280
841.701	5311
841.838	5261
841.975	5227
842.112	5223
842.249	5117
842.385	5121
842.522	5337
842.659	5140
842.796	5075
842.933	5212
843.069	5166
843.206	5079
843.343	5261
843.479	5242
843.616	5261
843.752	5025
843.889	5014
844.025	5155
844.162	4976
844.298	5178
844.435	5128
844.571	5006
844.708	5193
844.844	5265
844.98	5280
845.117	5269
845.253	5117
845.389	5060
845.525	5220
845.661	5151
845.798	5048
845.934	5105
846.07	5033
846.206	5223
846.342	5261
846.478	5204
846.614	5045
846.75	4968
846.886	4930
847.022	5208
847.158	4984
847.294	5094
847.429	5117
847.565	5010
847.701	5345
847.837	4900
847.972	4797
848.108	4991
848.244	4976
848.379	4759
848.515	4717
848.65	4668
848.786	4774
848.921	4752
849.057	4870
849.192	4881
849.328	4801
849.463	4854
849.598	4805
849.734	4782
849.869	4660
850.004	4664
850.14	4672
850.275	4645
850.41	4474
850.545	4596
850.68	4603
850.815	4618
850.95	4603
851.085	4786
851.22	4717
851.355	4649
851.49	4630
851.625	4641
851.76	4599
851.895	4459
852.03	4538
852.165	4683
852.299	4694
852.434	4763
852.569	4733
852.703	4744
852.838	4812
852.973	4965
853.107	4892
853.242	4725
853.376	4687
853.511	4508
853.645	4584
853.78	4790
853.914	4698
854.048	4641
854.183	4645
854.317	4675
854.451	4885
854.585	4698
854.72	4641
854.854	4725
854.988	4607
855.122	4634
855.256	4573
855.39	4649
855.524	4748
855.658	4687
855.792	4748
855.926	4714
856.06	4755
856.194	4774
856.327	4706
856.461	4573
856.595	4645
856.729	4634
856.862	4790
856.996	4721
857.13	4714
857.263	4763
857.397	4824
857.53	4672
857.664	4679
857.797	4786
857.931	4771
858.064	4668
858.197	4729
858.331	4645
858.464	4561
858.597	4554
858.731	4641
858.864	4656
858.997	4603
859.13	4607
859.263	4675
859.396	4656
859.529	4531
859.662	4550
859.795	4519
859.928	4569
860.061	4809
860.194	4748
860.327	4611
860.46	4573
860.592	4668
860.725	4717
860.858	4744
860.99	4512
861.123	4565
861.256	4550
861.388	4592
861.521	5444
861.653	4447
861.786	4455
861.918	4466
862.05	4489
862.183	4535
862.315	4622
862.447	4672
862.58	4531
862.712	4417
862.844	4333
862.976	4436
863.108	4466
863.24	4870
863.372	4363
863.504	4424
863.636	4394
863.768	4462
863.9	4451
864.032	4360
864.164	4383
864.296	4504
864.428	4542
864.559	4596
864.691	4485
864.823	4538
864.954	4504
865.086	4497
865.217	4379
865.349	4466
865.48	4424
865.612	4512
865.743	4645
865.875	4481
866.006	4398
866.137	4481
866.269	4440
866.4	4455
866.531	4409
866.662	4409
866.793	4413
866.924	4440
867.055	4516
867.186	4443
867.317	4440
867.448	4341
867.579	4394
867.71	4352
867.841	4337
867.972	4424
868.103	4497
868.233	4440
868.364	4474
868.495	4474
868.625	4698
868.756	4706
868.886	4565
869.017	4641
869.147	4771
869.278	4782
869.408	4637
869.539	4630
869.669	4714
869.799	4645
869.929	4725
870.06	4668
870.19	4946
870.32	4896
870.45	4923
870.58	5029
870.71	5132
870.84	5079
870.97	4915
871.1	4904
871.23	5113
871.36	5147
871.489	5025
871.619	5090
871.749	5121
871.879	5136
872.008	5162
872.138	5071
872.267	4961
872.397	4839
872.526	4820
872.656	4729
872.785	4809
872.915	4949
873.044	5056
873.173	4987
873.303	4957
873.432	4980
873.561	4976
873.69	4835
873.819	4828
873.948	4946
874.077	4854
874.206	4729
874.335	4801
874.464	4934
874.593	5048
874.722	4934
874.851	5086
874.979	5052
875.108	5025
875.237	4911
875.365	4911
875.494	4873
875.623	4965
875.751	4820
875.88	4854
876.008	5041
876.136	5075
876.265	5193
876.393	5345
876.521	5250
876.65	5246
876.778	5178
876.906	5018
877.034	5033
877.162	5045
877.29	5018
877.418	5052
877.546	4999
877.674	5022
877.802	5003
877.93	5041
878.058	4938
878.185	4824
878.313	4923
878.441	4961
878.568	4797
878.696	4908
878.824	4957
878.951	5018
879.079	5105
879.206	5235
879.333	5067
879.461	4995
879.588	4999
879.715	5071
879.842	5227
879.97	5022
880.097	4797
880.224	4729
880.351	4805
880.478	4790
880.605	4820
880.732	4824
880.859	5105
880.986	4904
881.112	4908
881.239	4740
881.366	4702
881.493	4599
881.619	4554
881.746	4645
881.872	4694
881.999	4637
882.125	4660
882.252	4767
882.378	4870
882.505	5018
882.631	4793
882.757	4626
882.883	4759
883.01	4759
883.136	4637
883.262	4584
883.388	4573
883.514	4831
883.64	4850
883.766	4812
883.892	4637
884.018	4691
884.143	4915
884.269	5022
884.395	4660
884.52	4565
884.646	4672
884.772	4558
884.897	4592
885.023	4649
885.148	4752
885.274	4854
885.399	4774
885.524	4698
885.65	4736
885.775	4714
885.9	4717
886.025	4870
886.15	4816
886.275	4702
886.4	4626
886.525	4733
886.65	4706
886.775	4679
886.9	4911
887.025	5022
887.149	4835
887.274	4645
887.399	4615
887.523	4588
887.648	4596
887.773	4592
887.897	4752
888.021	4778
888.146	4664
888.27	4847
888.395	4885
888.519	4759
888.643	4820
888.767	4812
888.891	4729
889.015	4645
889.139	4641
889.263	4626
889.387	4729
889.511	4866
889.635	4805
889.759	4622
889.883	4618
890.006	4729
890.13	4839
890.254	4569
890.377	4664
890.501	4561
890.624	4481
890.748	4580
890.871	4527
890.995	4459
891.118	4363
891.241	4531
891.364	4550
891.488	4653
891.611	4485
891.734	4588
891.857	4573
891.98	4558
892.103	4630
892.226	4584
892.349	4512
892.471	4428
892.594	4607
892.717	4615
892.839	4561
892.962	4634
893.085	4706
893.207	4603
893.33	4459
893.452	4519
893.575	4656
893.697	4577
893.819	4820
893.941	4854
894.064	4790
894.186	4588
894.308	4599
894.43	4683
894.552	4835
894.674	4790
894.796	4538
894.918	4618
895.04	4550
895.161	4702
895.283	4679
895.405	4607
895.526	4618
895.648	4706
895.769	4649
895.891	4714
896.012	4782
896.134	4710
896.255	4664
896.376	4622
896.498	4596
896.619	4649
896.74	4645
896.861	4618
896.982	4934
897.103	5140
897.224	4858
897.345	4717
897.466	4645
897.587	4771
897.708	4801
897.828	4744
897.949	4641
898.07	4573
898.19	4672
898.311	4824
898.431	4656
898.552	4721
898.672	4816
898.792	4763
898.913	4725
899.033	4630
899.153	4455
899.273	4424
899.393	4455
899.513	4497
899.633	4508
899.753	4542
899.873	4516
899.993	4592
900.113	4504
900.232	4630
900.352	4508
900.472	4523
900.591	4428
900.711	4500
900.83	4440
900.95	4584
901.069	4683
901.189	4542
901.308	4386
901.427	4291
901.546	4402
901.665	4424
901.784	4531
901.904	4394
902.023	4325
902.141	4162
902.26	4154
902.379	4318
902.498	4246
902.617	4234
902.735	4394
902.854	4390
902.973	4333
903.091	4234
903.21	4223
903.328	4276
903.446	4284
903.565	4325
903.683	4337
903.801	4291
903.919	4440
904.038	4390
904.156	4329
904.274	4421
904.392	4424
904.51	4459
904.627	4523
904.745	4580
904.863	4596
904.981	4409
905.098	4325
905.216	4386
905.334	4424
905.451	4409
905.569	4428
905.686	4538
905.803	4565
905.921	4432
906.038	4546
906.155	4538
906.272	4333
906.389	4432
906.506	4352
906.623	4371
906.74	4402
906.857	4291
906.974	4371
907.091	4519
907.208	4611
907.324	4607
907.441	4516
907.557	4356
907.674	4390
907.79	4329
907.907	4375
908.023	4512
908.139	4493
908.256	4455
908.372	4470
908.488	4459
908.604	4329
908.72	4314
908.836	4371
908.952	4329
909.068	4409
909.184	4542
909.3	4462
909.415	4588
909.531	4542
909.647	4341
909.762	4390
909.878	4348
909.993	4409
910.108	4421
910.224	4402
910.339	4455
910.454	4440
910.57	4352
910.685	4284
910.8	4653
910.915	4592
911.03	4535
911.145	4356
911.259	4352
911.374	4394
911.489	4337
911.604	4253
911.718	4211
911.833	4242
911.947	4116
912.062	4071
912.176	4215
912.291	4249
912.405	4223
912.519	4489
912.633	4459
912.748	4360
912.862	4371
912.976	4234
913.09	4093
913.204	4124
913.318	4261
913.431	4303
913.545	4356
913.659	4436
913.772	4383
913.886	4249
914	4219
914.113	4405
914.226	4421
914.34	4394
914.453	4284
914.566	4436
914.68	4314
914.793	4333
914.906	4207
915.019	4105
915.132	4093
915.245	4215
915.358	4227
915.47	4272
915.583	4249
915.696	4325
915.809	4383
915.921	4485
916.034	4287
916.146	4242
916.259	4215
916.371	4337
916.483	4371
916.595	4211
916.708	4341
916.82	4341
916.932	4299
917.044	4322
917.156	4344
917.268	4253
917.38	4329
917.491	4306
917.603	4329
917.715	4398
917.826	4428
917.938	4318
918.049	4257
918.161	4367
918.272	4512
918.384	4512
918.495	4481
918.606	4276
918.717	4295
918.828	4333
918.939	4386
919.05	4219
919.161	4329
919.272	4143
919.383	4253
919.494	4466
919.604	4637
919.715	4440
919.826	4386
919.936	4371
920.047	4527
920.157	4500
920.267	4683
920.378	4550
920.488	4508
920.598	4733
920.708	4854
920.818	4767
920.928	4710
921.038	4915
921.148	4946
921.258	4630
921.368	4565
921.477	4447
921.587	4455
921.697	4394
921.806	4538
921.916	4390
922.025	4219
922.134	4246
922.244	4223
922.353	4287
922.462	4211
922.571	4147
922.68	3983
922.789	3956
922.898	4010
923.007	3998
923.116	4112
923.224	4055
923.333	4116
923.442	4021
923.55	3956
923.659	4051
923.767	4074
923.876	4055
923.984	4158
924.092	4025
924.201	4105
924.309	4067
924.417	4059
924.525	4071
924.633	4105
924.741	5022
924.849	3926
924.956	4154
925.064	3972
925.172	3903
925.279	3930
925.387	4078
925.494	4036
925.602	4265
925.709	4196
925.816	4078
925.924	4143
926.031	4211
926.138	4177
926.245	4173
926.352	4120
926.459	4291
926.566	4322
926.673	4131
926.779	4044
926.886	4086
926.993	3960
927.099	3941
927.206	3956
927.312	3941
927.419	4074
927.525	4025
927.631	4124
927.737	3972
927.843	3975
927.95	3835
928.056	3964
928.162	3937
928.267	4044
928.373	4694
928.479	4135
928.585	3850
928.69	4013
928.796	4082
928.901	4006
929.007	3846
929.112	4017
929.218	4013
929.323	3960
929.428	3945
929.533	4128
929.638	3915
929.743	3975
929.848	4067
929.953	3994
930.058	3960
930.163	3789
930.267	3857
930.372	3975
930.477	3793
930.581	4109
930.685	3956
930.79	3800
930.894	3926
930.998	3850
931.103	4029
931.207	3682
931.311	3698
931.415	3698
931.519	3530
931.623	3564
