Data from test_V78500241_3.txt Node
Date: Fri Mar 25 16:49:01 CST 2022
User: usil
Spectrometer: V785-0024
Trigger mode: 0
Integration Time (sec): 4.000000E-1
Scans to average: 1
Nonlinearity correction enabled: false
Boxcar width: 0
Storing dark spectrum: false
XAxis mode: Wavelengths
Number of Pixels in Spectrum: 1024
>>>>>Begin Spectral Data<<<<<
801.071	8100
801.214	8103
801.356	7944
801.499	7932
801.641	7887
801.783	7936
801.926	8073
802.068	8046
802.211	8043
802.353	8119
802.496	7951
802.638	7982
802.78	7993
802.923	7993
803.065	7947
803.208	7898
803.35	8065
803.492	8202
803.635	8237
803.777	8077
803.919	8176
804.061	8545
804.204	8256
804.346	8111
804.488	8103
804.63	8107
804.773	8005
804.915	8123
805.057	8317
805.199	8256
805.341	8309
805.483	8328
805.626	8309
805.768	8157
805.91	8271
806.052	8313
806.194	8153
806.336	8263
806.478	8210
806.62	8119
806.762	8206
806.904	8381
807.046	8469
807.188	8400
807.33	8358
807.472	8339
807.614	8191
807.756	8248
807.898	8062
808.04	7993
808.182	8001
808.324	7967
808.465	7947
808.607	8077
808.749	8145
808.891	8123
809.033	8317
809.174	8290
809.316	8130
809.458	8130
809.6	8001
809.741	8111
809.883	7989
810.025	8161
810.166	8024
810.308	8111
810.45	8073
810.591	7944
810.733	7818
810.875	7803
811.016	7643
811.158	7571
811.299	7700
811.441	7784
811.582	7811
811.724	7613
811.865	7643
812.007	7636
812.148	7651
812.29	7674
812.431	7772
812.573	7940
812.714	8081
812.855	8218
812.997	8286
813.138	8412
813.279	8256
813.421	8180
813.562	8111
813.703	7963
813.845	7837
813.986	7518
814.127	7305
814.268	7285
814.41	7251
814.551	7285
814.692	7293
814.833	7122
814.974	7023
815.115	7164
815.256	6993
815.397	6924
815.539	6928
815.68	6818
815.821	6798
815.962	6871
816.103	6875
816.244	6802
816.385	6700
816.526	6639
816.666	6582
816.807	6391
816.948	6506
817.089	6475
817.23	6471
817.371	6403
817.512	6311
817.653	6433
817.793	6380
817.934	6422
818.075	6528
818.216	6528
818.356	6445
818.497	6319
818.638	6213
818.778	6209
818.919	6209
819.06	6232
819.2	6334
819.341	6353
819.481	6422
819.622	6665
819.762	6772
819.903	6787
820.043	6677
820.184	6650
820.324	6665
820.465	6776
820.605	6757
820.746	6684
820.886	6597
821.026	6791
821.167	6833
821.307	6871
821.447	6821
821.588	6738
821.728	6582
821.868	6559
822.008	6357
822.149	6448
822.289	6437
822.429	6197
822.569	6106
822.709	6182
822.849	5942
822.99	5889
823.13	5965
823.27	5969
823.41	5824
823.55	5794
823.69	5882
823.83	5882
823.97	5752
824.11	5615
824.25	5589
824.389	5570
824.529	5684
824.669	5596
824.809	5726
824.949	5741
825.089	5676
825.228	5661
825.368	5478
825.508	5452
825.648	5440
825.787	5433
825.927	5471
826.067	5395
826.206	5353
826.346	5440
826.485	5444
826.625	5474
826.765	5623
826.904	5554
827.044	5254
827.183	5242
827.323	5208
827.462	5288
827.601	5242
827.741	5189
827.88	5326
828.02	5174
828.159	5288
828.298	5448
828.437	5414
828.577	5311
828.716	5539
828.855	5372
828.994	5250
829.134	5181
829.273	5277
829.412	5166
829.551	5239
829.69	5220
829.829	5311
829.968	5395
830.107	5273
830.246	5318
830.385	5216
830.524	5143
830.663	5174
830.802	5048
830.941	4934
831.08	4923
831.219	5033
831.357	5037
831.496	5261
831.635	5006
831.774	4877
831.913	4968
832.051	4801
832.19	4805
832.329	4870
832.467	4740
832.606	4664
832.744	4793
832.883	4771
833.022	4767
833.16	4812
833.299	4904
833.437	4892
833.576	4854
833.714	4866
833.852	4889
833.991	4942
834.129	5018
834.267	5010
834.406	4896
834.544	5048
834.682	5048
834.821	5067
834.959	5223
835.097	4968
835.235	5181
835.373	5174
835.511	5162
835.65	5086
835.788	5041
835.926	4972
836.064	4972
836.202	4968
836.34	5212
836.478	5284
836.615	5193
836.753	5288
836.891	5421
837.029	5280
837.167	5239
837.305	5242
837.443	5178
837.58	5102
837.718	5303
837.856	5277
837.993	5174
838.131	5330
838.269	5258
838.406	5273
838.544	5250
838.681	5045
838.819	5060
838.956	4965
839.094	4972
839.231	5037
839.369	5162
839.506	5471
839.643	5318
839.781	5105
839.918	5052
840.055	5155
840.193	5132
840.33	5170
840.467	5212
840.604	5220
840.742	5490
840.879	5075
841.016	5220
841.153	5216
841.29	5455
841.427	5429
841.564	5326
841.701	5391
841.838	5280
841.975	5341
842.112	5315
842.249	5174
842.385	5140
842.522	5383
842.659	5181
842.796	5197
842.933	5178
843.069	5265
843.206	5193
843.343	5330
843.479	5280
843.616	5326
843.752	5098
843.889	5079
844.025	5307
844.162	5083
844.298	5204
844.435	5174
844.571	5048
844.708	5269
844.844	5372
844.98	5410
845.117	5341
845.253	5185
845.389	5159
845.525	5178
845.661	5231
845.798	5075
845.934	5178
846.07	5075
846.206	5250
846.342	5353
846.478	5174
846.614	5052
846.75	5037
846.886	5025
847.022	5197
847.158	5071
847.294	5151
847.429	5208
847.565	5132
847.701	5376
847.837	4866
847.972	4904
848.108	4987
848.244	4923
848.379	4889
848.515	4790
848.65	4748
848.786	4809
848.921	4835
849.057	4953
849.192	4923
849.328	4831
849.463	4873
849.598	4866
849.734	4805
849.869	4736
850.004	4664
850.14	4759
850.275	4622
850.41	4569
850.545	4653
850.68	4634
850.815	4675
850.95	4679
851.085	4915
851.22	4835
851.355	4733
851.49	4714
851.625	4645
851.76	4664
851.895	4641
852.03	4596
852.165	4714
852.299	4790
852.434	4824
852.569	4812
852.703	4801
852.838	4930
852.973	5029
853.107	4953
853.242	4835
853.376	4721
853.511	4588
853.645	4660
853.78	4858
853.914	4759
854.048	4736
854.183	4683
854.317	4805
854.451	4919
854.585	4782
854.72	4679
854.854	4816
854.988	4672
855.122	4672
855.256	4580
855.39	4736
855.524	4839
855.658	4790
855.792	4740
855.926	4763
856.06	4767
856.194	4889
856.327	4710
856.461	4641
856.595	4679
856.729	4668
856.862	4790
856.996	4725
857.13	4805
857.263	4820
857.397	4839
857.53	4679
857.664	4729
857.797	4862
857.931	4854
858.064	4767
858.197	4801
858.331	4706
858.464	4687
858.597	4596
858.731	4668
858.864	4733
858.997	4599
859.13	4679
859.263	4759
859.396	4721
859.529	4641
859.662	4653
859.795	4554
859.928	4660
860.061	4774
860.194	4771
860.327	4721
860.46	4603
860.592	4786
860.725	4782
860.858	4778
860.99	4634
861.123	4569
861.256	4527
861.388	4660
861.521	5391
861.653	4527
861.786	4474
861.918	4516
862.05	4535
862.183	4516
862.315	4645
862.447	4767
862.58	4611
862.712	4478
862.844	4367
862.976	4558
863.108	4535
863.24	4980
863.372	4375
863.504	4367
863.636	4459
863.768	4512
863.9	4497
864.032	4413
864.164	4474
864.296	4493
864.428	4569
864.559	4622
864.691	4561
864.823	4577
864.954	4546
865.086	4542
865.217	4516
865.349	4478
865.48	4489
865.612	4504
865.743	4721
865.875	4455
866.006	4485
866.137	4538
866.269	4485
866.4	4478
866.531	4500
866.662	4413
866.793	4459
866.924	4474
867.055	4508
867.186	4508
867.317	4481
867.448	4436
867.579	4451
867.71	4405
867.841	4436
867.972	4531
868.103	4504
868.233	4546
868.364	4500
868.495	4584
868.625	4675
868.756	4816
868.886	4622
869.017	4672
869.147	4828
869.278	4809
869.408	4736
869.539	4698
869.669	4782
869.799	4706
869.929	4831
870.06	4801
870.19	4972
870.32	4942
870.45	4987
870.58	5086
870.71	5105
870.84	5178
870.97	4976
871.1	4938
871.23	5242
871.36	5189
871.489	5109
871.619	5170
871.749	5151
871.879	5181
872.008	5277
872.138	5140
872.267	5067
872.397	4934
872.526	4858
872.656	4790
872.785	4896
872.915	4965
873.044	5060
873.173	4999
873.303	5086
873.432	5041
873.561	5029
873.69	4942
873.819	4911
873.948	4984
874.077	4862
874.206	4820
874.335	4828
874.464	4984
874.593	5098
874.722	5045
874.851	5124
874.979	5113
875.108	5105
875.237	4957
875.365	4934
875.494	4957
875.623	5029
875.751	4908
875.88	4904
876.008	5045
876.136	5117
876.265	5220
876.393	5406
876.521	5341
876.65	5326
876.778	5208
876.906	5113
877.034	5060
877.162	5079
877.29	5025
877.418	5102
877.546	5124
877.674	5064
877.802	5090
877.93	5079
878.058	4968
878.185	4889
878.313	5052
878.441	4987
878.568	4812
878.696	4984
878.824	5018
878.951	4984
879.079	5166
879.206	5337
879.333	5181
879.461	5075
879.588	5052
879.715	5147
879.842	5280
879.97	5071
880.097	4767
880.224	4790
880.351	4858
880.478	4908
880.605	4847
880.732	4847
880.859	5170
880.986	4972
881.112	4976
881.239	4843
881.366	4744
881.493	4618
881.619	4615
881.746	4672
881.872	4710
881.999	4691
882.125	4763
882.252	4839
882.378	4908
882.505	5010
882.631	4850
882.757	4778
882.883	4767
883.01	4839
883.136	4694
883.262	4649
883.388	4668
883.514	4828
883.64	4904
883.766	4812
883.892	4721
884.018	4797
884.143	4942
884.269	5075
884.395	4710
884.52	4656
884.646	4736
884.772	4649
884.897	4622
885.023	4740
885.148	4797
885.274	4957
885.399	4870
885.524	4793
885.65	4816
885.775	4771
885.9	4778
886.025	4896
886.15	4835
886.275	4778
886.4	4702
886.525	4748
886.65	4755
886.775	4763
886.9	5014
887.025	5071
887.149	4889
887.274	4706
887.399	4622
887.523	4645
887.648	4653
887.773	4622
887.897	4809
888.021	4816
888.146	4752
888.27	4904
888.395	4949
888.519	4873
888.643	4858
888.767	4877
888.891	4721
889.015	4653
889.139	4675
889.263	4687
889.387	4786
889.511	4915
889.635	4835
889.759	4672
889.883	4698
890.006	4717
890.13	4896
890.254	4683
890.377	4725
890.501	4588
890.624	4599
890.748	4698
890.871	4561
890.995	4459
891.118	4443
891.241	4599
891.364	4592
891.488	4634
891.611	4538
891.734	4592
891.857	4687
891.98	4596
892.103	4691
892.226	4649
892.349	4558
892.471	4440
892.594	4584
892.717	4611
892.839	4664
892.962	4653
893.085	4740
893.207	4706
893.33	4512
893.452	4516
893.575	4698
893.697	4634
893.819	4889
893.941	4870
894.064	4790
894.186	4615
894.308	4615
894.43	4778
894.552	4881
894.674	4866
894.796	4618
894.918	4596
895.04	4565
895.161	4771
895.283	4725
895.405	4641
895.526	4729
895.648	4748
895.769	4714
895.891	4805
896.012	4744
896.134	4797
896.255	4748
896.376	4653
896.498	4634
896.619	4736
896.74	4634
896.861	4733
896.982	4957
897.103	5132
897.224	4881
897.345	4797
897.466	4740
897.587	4767
897.708	4927
897.828	4839
897.949	4721
898.07	4630
898.19	4725
898.311	4881
898.431	4729
898.552	4809
898.672	4915
898.792	4854
898.913	4790
899.033	4694
899.153	4508
899.273	4493
899.393	4569
899.513	4599
899.633	4596
899.753	4599
899.873	4577
899.993	4641
900.113	4580
900.232	4622
900.352	4565
900.472	4527
900.591	4485
900.711	4535
900.83	4481
900.95	4679
901.069	4748
901.189	4622
901.308	4421
901.427	4356
901.546	4421
901.665	4500
901.784	4565
901.904	4443
902.023	4375
902.141	4211
902.26	4215
902.379	4363
902.498	4310
902.617	4265
902.735	4383
902.854	4451
902.973	4394
903.091	4223
903.21	4310
903.328	4367
903.446	4329
903.565	4287
903.683	4398
903.801	4352
903.919	4466
904.038	4493
904.156	4367
904.274	4485
904.392	4474
904.51	4462
904.627	4527
904.745	4611
904.863	4721
904.981	4455
905.098	4352
905.216	4440
905.334	4508
905.451	4451
905.569	4497
905.686	4622
905.803	4634
905.921	4455
906.038	4634
906.155	4542
906.272	4432
906.389	4519
906.506	4402
906.623	4462
906.74	4493
906.857	4280
906.974	4443
907.091	4577
907.208	4714
907.324	4599
907.441	4512
907.557	4383
907.674	4394
907.79	4348
907.907	4428
908.023	4558
908.139	4512
908.256	4474
908.372	4500
908.488	4519
908.604	4413
908.72	4379
908.836	4386
908.952	4466
909.068	4459
909.184	4622
909.3	4500
909.415	4611
909.531	4573
909.647	4394
909.762	4402
909.878	4398
909.993	4474
910.108	4455
910.224	4432
910.339	4527
910.454	4489
910.57	4436
910.685	4348
910.8	4710
910.915	4637
911.03	4569
911.145	4390
911.259	4348
911.374	4394
911.489	4337
911.604	4344
911.718	4261
911.833	4280
911.947	4128
912.062	4082
912.176	4230
912.291	4268
912.405	4291
912.519	4535
912.633	4538
912.748	4474
912.862	4367
912.976	4242
913.09	4173
913.204	4230
913.318	4299
913.431	4405
913.545	4424
913.659	4508
913.772	4352
913.886	4268
914	4322
914.113	4451
914.226	4489
914.34	4459
914.453	4265
914.566	4500
914.68	4337
914.793	4348
914.906	4238
915.019	4135
915.132	4150
915.245	4234
915.358	4272
915.47	4284
915.583	4299
915.696	4333
915.809	4440
915.921	4478
916.034	4333
916.146	4341
916.259	4272
916.371	4481
916.483	4432
916.595	4322
916.708	4402
916.82	4341
916.932	4352
917.044	4341
917.156	4402
917.268	4272
917.38	4303
917.491	4291
917.603	4333
917.715	4485
917.826	4512
917.938	4440
918.049	4280
918.161	4485
918.272	4599
918.384	4558
918.495	4523
918.606	4333
918.717	4261
918.828	4390
918.939	4405
919.05	4310
919.161	4413
919.272	4204
919.383	4253
919.494	4485
919.604	4653
919.715	4504
919.826	4432
919.936	4424
920.047	4607
920.157	4561
920.267	4805
920.378	4622
920.488	4531
920.598	4744
920.708	4930
920.818	4831
920.928	4862
921.038	5037
921.148	5022
921.258	4656
921.368	4588
921.477	4580
921.587	4538
921.697	4421
921.806	4626
921.916	4451
922.025	4348
922.134	4272
922.244	4303
922.353	4386
922.462	4230
922.571	4169
922.68	4067
922.789	4036
922.898	4086
923.007	4029
923.116	4120
923.224	4112
923.333	4124
923.442	4055
923.55	4021
923.659	4131
923.767	4185
923.876	4086
923.984	4173
924.092	4044
924.201	4120
924.309	4128
924.417	4181
924.525	4105
924.633	4112
924.741	5143
924.849	3975
924.956	4166
925.064	4055
925.172	3956
925.279	4010
925.387	4059
925.494	4067
925.602	4265
925.709	4215
925.816	4109
925.924	4234
926.031	4242
926.138	4196
926.245	4230
926.352	4139
926.459	4299
926.566	4344
926.673	4246
926.779	4112
926.886	4120
926.993	4010
927.099	3975
927.206	3975
927.312	3972
927.419	4082
927.525	4093
927.631	4173
927.737	4021
927.843	4002
927.95	3884
928.056	3987
928.162	4002
928.267	4135
928.373	4721
928.479	4181
928.585	3915
928.69	4074
928.796	4139
928.901	3998
929.007	3903
929.112	4025
929.218	4067
929.323	3987
929.428	4032
929.533	4135
929.638	4006
929.743	4002
929.848	4131
929.953	4067
930.058	3964
930.163	3812
930.267	3918
930.372	4040
930.477	3869
930.581	4147
930.685	4029
930.79	3892
930.894	3911
930.998	3937
931.103	4059
931.207	3766
931.311	3713
931.415	3705
931.519	3584
931.623	3614
