Data from test_V78500241_711.txt Node
Date: Fri Mar 25 16:53:56 CST 2022
User: usil
Spectrometer: V785-0024
Trigger mode: 0
Integration Time (sec): 4.000000E-1
Scans to average: 1
Nonlinearity correction enabled: false
Boxcar width: 0
Storing dark spectrum: false
XAxis mode: Wavelengths
Number of Pixels in Spectrum: 1024
>>>>>Begin Spectral Data<<<<<
801.071	7959
801.214	8027
801.356	7944
801.499	7849
801.641	7795
801.783	7833
801.926	7978
802.068	7868
802.211	7883
802.353	7921
802.496	7849
802.638	7894
802.78	7917
802.923	7909
803.065	7849
803.208	7864
803.35	7955
803.492	8100
803.635	8145
803.777	7997
803.919	8031
804.061	8408
804.204	8054
804.346	8062
804.488	7868
804.63	8142
804.773	8069
804.915	8138
805.057	8237
805.199	8138
805.341	8244
805.483	8282
805.626	8172
805.768	8050
805.91	8138
806.052	8180
806.194	8115
806.336	8301
806.478	8073
806.62	8046
806.762	8180
806.904	8256
807.046	8434
807.188	8343
807.33	8267
807.472	8301
807.614	8134
807.756	8054
807.898	7951
808.04	7849
808.182	7837
808.324	7906
808.465	7871
808.607	7978
808.749	8164
808.891	8180
809.033	8206
809.174	8218
809.316	8065
809.458	8077
809.6	7986
809.741	8043
809.883	8031
810.025	8142
810.166	8115
810.308	8069
810.45	7997
810.591	7871
810.733	7693
810.875	7700
811.016	7510
811.158	7502
811.299	7616
811.441	7674
811.582	7613
811.724	7548
811.865	7476
812.007	7616
812.148	7502
812.29	7540
812.431	7658
812.573	7799
812.714	7955
812.855	8050
812.997	8191
813.138	8267
813.279	8164
813.421	8043
813.562	7986
813.703	7845
813.845	7731
813.986	7521
814.127	7270
814.268	7240
814.41	7187
814.551	7099
814.692	7110
814.833	6962
814.974	7015
815.115	7103
815.256	6928
815.397	6894
815.539	6973
815.68	6810
815.821	6783
815.962	6840
816.103	6795
816.244	6665
816.385	6654
816.526	6627
816.666	6521
816.807	6273
816.948	6372
817.089	6471
817.23	6388
817.371	6422
817.512	6410
817.653	6296
817.793	6388
817.934	6407
818.075	6410
818.216	6353
818.356	6365
818.497	6197
818.638	6136
818.778	6163
818.919	6148
819.06	6125
819.2	6239
819.341	6308
819.481	6319
819.622	6521
819.762	6673
819.903	6692
820.043	6589
820.184	6585
820.324	6536
820.465	6688
820.605	6650
820.746	6578
820.886	6509
821.026	6711
821.167	6696
821.307	6764
821.447	6677
821.588	6582
821.728	6532
821.868	6418
822.008	6273
822.149	6388
822.289	6338
822.429	6114
822.569	6079
822.709	6114
822.849	5904
822.99	5912
823.13	5893
823.27	5893
823.41	5767
823.55	5745
823.69	5756
823.83	5764
823.97	5661
824.11	5558
824.25	5474
824.389	5493
824.529	5585
824.669	5493
824.809	5596
824.949	5634
825.089	5589
825.228	5509
825.368	5364
825.508	5307
825.648	5318
825.787	5360
825.927	5372
826.067	5326
826.206	5311
826.346	5360
826.485	5379
826.625	5391
826.765	5535
826.904	5452
827.044	5246
827.183	5166
827.323	5109
827.462	5258
827.601	5132
827.741	5193
827.88	5151
828.02	5079
828.159	5204
828.298	5250
828.437	5326
828.577	5273
828.716	5429
828.855	5292
828.994	5166
829.134	5189
829.273	5181
829.412	5086
829.551	5136
829.69	5143
829.829	5208
829.968	5364
830.107	5273
830.246	5227
830.385	5147
830.524	5132
830.663	5033
830.802	4987
830.941	4866
831.08	4908
831.219	4987
831.357	4972
831.496	5216
831.635	4908
831.774	4862
831.913	4824
832.051	4675
832.19	4759
832.329	4809
832.467	4710
832.606	4596
832.744	4706
832.883	4691
833.022	4729
833.16	4835
833.299	4828
833.437	4820
833.576	4828
833.714	4843
833.852	4870
833.991	4854
834.129	4915
834.267	4930
834.406	4904
834.544	5025
834.682	4995
834.821	4972
834.959	5094
835.097	4930
835.235	5136
835.373	5037
835.511	5071
835.65	4965
835.788	5052
835.926	4873
836.064	4892
836.202	4889
836.34	5178
836.478	5227
836.615	5064
836.753	5181
836.891	5239
837.029	5254
837.167	5159
837.305	5113
837.443	5185
837.58	5094
837.718	5216
837.856	5216
837.993	5170
838.131	5227
838.269	5212
838.406	5242
838.544	5166
838.681	5045
838.819	5006
838.956	4896
839.094	4877
839.231	5022
839.369	5067
839.506	5379
839.643	5273
839.781	5086
839.918	5010
840.055	5121
840.193	5064
840.33	5090
840.467	5143
840.604	5223
840.742	5406
840.879	5056
841.016	5064
841.153	5121
841.29	5322
841.427	5315
841.564	5307
841.701	5360
841.838	5246
841.975	5208
842.112	5337
842.249	5113
842.385	5071
842.522	5349
842.659	5174
842.796	5140
842.933	5197
843.069	5109
843.206	5166
843.343	5250
843.479	5242
843.616	5269
843.752	5014
843.889	5006
844.025	5246
844.162	5025
844.298	5216
844.435	5041
844.571	4995
844.708	5181
844.844	5231
844.98	5326
845.117	5242
845.253	5105
845.389	5117
845.525	5128
845.661	5132
845.798	5014
845.934	5124
846.07	5075
846.206	5143
846.342	5307
846.478	5140
846.614	4995
846.75	5006
846.886	4892
847.022	5109
847.158	5029
847.294	5060
847.429	5124
847.565	5056
847.701	5239
847.837	4809
847.972	4793
848.108	4927
848.244	4934
848.379	4801
848.515	4706
848.65	4675
848.786	4717
848.921	4767
849.057	4870
849.192	4911
849.328	4729
849.463	4850
849.598	4812
849.734	4733
849.869	4626
850.004	4573
850.14	4649
850.275	4615
850.41	4504
850.545	4538
850.68	4615
850.815	4641
850.95	4615
851.085	4831
851.22	4721
851.355	4672
851.49	4611
851.625	4626
851.76	4626
851.895	4527
852.03	4538
852.165	4653
852.299	4702
852.434	4759
852.569	4702
852.703	4736
852.838	4801
852.973	4923
853.107	4889
853.242	4702
853.376	4630
853.511	4565
853.645	4592
853.78	4786
853.914	4679
854.048	4649
854.183	4641
854.317	4729
854.451	4866
854.585	4626
854.72	4649
854.854	4790
854.988	4577
855.122	4649
855.256	4504
855.39	4641
855.524	4790
855.658	4725
855.792	4664
855.926	4710
856.06	4752
856.194	4774
856.327	4714
856.461	4630
856.595	4596
856.729	4592
856.862	4721
856.996	4702
857.13	4740
857.263	4710
857.397	4797
857.53	4679
857.664	4694
857.797	4733
857.931	4786
858.064	4653
858.197	4729
858.331	4618
858.464	4626
858.597	4508
858.731	4641
858.864	4641
858.997	4592
859.13	4607
859.263	4664
859.396	4717
859.529	4527
859.662	4569
859.795	4607
859.928	4641
860.061	4748
860.194	4714
860.327	4649
860.46	4538
860.592	4717
860.725	4725
860.858	4733
860.99	4535
861.123	4554
861.256	4523
861.388	4577
861.521	5364
861.653	4481
861.786	4424
861.918	4402
862.05	4535
862.183	4577
862.315	4573
862.447	4698
862.58	4565
862.712	4371
862.844	4363
862.976	4451
863.108	4466
863.24	4908
863.372	4303
863.504	4447
863.636	4428
863.768	4466
863.9	4436
864.032	4375
864.164	4432
864.296	4497
864.428	4527
864.559	4519
864.691	4523
864.823	4519
864.954	4519
865.086	4497
865.217	4512
865.349	4428
865.48	4478
865.612	4466
865.743	4626
865.875	4470
866.006	4398
866.137	4470
866.269	4405
866.4	4443
866.531	4405
866.662	4375
866.793	4398
866.924	4413
867.055	4508
867.186	4466
867.317	4386
867.448	4344
867.579	4348
867.71	4383
867.841	4379
867.972	4447
868.103	4421
868.233	4421
868.364	4455
868.495	4451
868.625	4653
868.756	4725
868.886	4542
869.017	4637
869.147	4767
869.278	4774
869.408	4656
869.539	4637
869.669	4702
869.799	4653
869.929	4736
870.06	4782
870.19	4915
870.32	4900
870.45	4915
870.58	5010
870.71	5098
870.84	5067
870.97	4919
871.1	4862
871.23	5170
871.36	5086
871.489	5041
871.619	5052
871.749	5075
871.879	5109
872.008	5132
872.138	5006
872.267	4980
872.397	4828
872.526	4809
872.656	4748
872.785	4816
872.915	5003
873.044	5014
873.173	4961
873.303	4911
873.432	5006
873.561	4972
873.69	4911
873.819	4835
873.948	4908
874.077	4793
874.206	4748
874.335	4774
874.464	4881
874.593	5086
874.722	4938
874.851	5090
874.979	5064
875.108	4987
875.237	4915
875.365	4881
875.494	4850
875.623	4957
875.751	4801
875.88	4885
876.008	4980
876.136	5003
876.265	5124
876.393	5307
876.521	5254
876.65	5212
876.778	5147
876.906	5067
877.034	5003
877.162	5022
877.29	4972
877.418	5056
877.546	5041
877.674	5064
877.802	5045
877.93	5045
878.058	4934
878.185	4873
878.313	4957
878.441	4976
878.568	4793
878.696	4885
878.824	4915
878.951	5033
879.079	5128
879.206	5303
879.333	5102
879.461	4927
879.588	5010
879.715	5086
879.842	5254
879.97	5014
880.097	4782
880.224	4710
880.351	4805
880.478	4752
880.605	4797
880.732	4790
880.859	5064
880.986	4870
881.112	4889
881.239	4805
881.366	4637
881.493	4580
881.619	4588
881.746	4565
881.872	4649
881.999	4618
882.125	4717
882.252	4778
882.378	4820
882.505	4957
882.631	4797
882.757	4717
882.883	4721
883.01	4714
883.136	4664
883.262	4569
883.388	4615
883.514	4729
883.64	4892
883.766	4774
883.892	4618
884.018	4771
884.143	4915
884.269	4968
884.395	4664
884.52	4664
884.646	4637
884.772	4596
884.897	4519
885.023	4653
885.148	4782
885.274	4877
885.399	4759
885.524	4694
885.65	4698
885.775	4786
885.9	4736
886.025	4854
886.15	4839
886.275	4736
886.4	4656
886.525	4736
886.65	4721
886.775	4634
886.9	4850
887.025	5041
887.149	4850
887.274	4649
887.399	4561
887.523	4615
887.648	4588
887.773	4592
887.897	4786
888.021	4786
888.146	4694
888.27	4782
888.395	4847
888.519	4790
888.643	4816
888.767	4835
888.891	4630
889.015	4596
889.139	4675
889.263	4569
889.387	4694
889.511	4896
889.635	4816
889.759	4634
889.883	4660
890.006	4702
890.13	4801
890.254	4660
890.377	4679
890.501	4485
890.624	4489
890.748	4634
890.871	4500
890.995	4379
891.118	4348
891.241	4538
891.364	4561
891.488	4622
891.611	4493
891.734	4554
891.857	4596
891.98	4527
892.103	4637
892.226	4615
892.349	4504
892.471	4402
892.594	4573
892.717	4603
892.839	4554
892.962	4558
893.085	4656
893.207	4630
893.33	4462
893.452	4481
893.575	4603
893.697	4538
893.819	4786
893.941	4835
894.064	4725
894.186	4584
894.308	4580
894.43	4717
894.552	4812
894.674	4714
894.796	4565
894.918	4588
895.04	4554
895.161	4691
895.283	4641
895.405	4550
895.526	4656
895.648	4683
895.769	4729
895.891	4736
896.012	4668
896.134	4725
896.255	4641
896.376	4630
896.498	4599
896.619	4687
896.74	4580
896.861	4664
896.982	4911
897.103	5071
897.224	4824
897.345	4725
897.466	4656
897.587	4721
897.708	4870
897.828	4786
897.949	4694
898.07	4580
898.19	4622
898.311	4820
898.431	4706
898.552	4752
898.672	4839
898.792	4801
898.913	4748
899.033	4611
899.153	4519
899.273	4413
899.393	4481
899.513	4504
899.633	4493
899.753	4535
899.873	4523
899.993	4546
900.113	4542
900.232	4580
900.352	4542
900.472	4493
900.591	4413
900.711	4497
900.83	4470
900.95	4573
901.069	4733
901.189	4535
901.308	4363
901.427	4344
901.546	4383
901.665	4497
901.784	4538
901.904	4398
902.023	4344
902.141	4219
902.26	4162
902.379	4280
902.498	4211
902.617	4204
902.735	4341
902.854	4394
902.973	4360
903.091	4200
903.21	4200
903.328	4322
903.446	4242
903.565	4303
903.683	4329
903.801	4280
903.919	4394
904.038	4417
904.156	4310
904.274	4459
904.392	4367
904.51	4455
904.627	4466
904.745	4603
904.863	4603
904.981	4402
905.098	4303
905.216	4341
905.334	4402
905.451	4398
905.569	4428
905.686	4558
905.803	4577
905.921	4409
906.038	4611
906.155	4504
906.272	4451
906.389	4451
906.506	4363
906.623	4375
906.74	4367
906.857	4310
906.974	4398
907.091	4546
907.208	4653
907.324	4546
907.441	4561
907.557	4291
907.674	4371
907.79	4299
907.907	4360
908.023	4478
908.139	4478
908.256	4417
908.372	4497
908.488	4451
908.604	4318
908.72	4295
908.836	4325
908.952	4371
909.068	4451
909.184	4569
909.3	4500
909.415	4546
909.531	4550
909.647	4375
909.762	4390
909.878	4284
909.993	4413
910.108	4402
910.224	4402
910.339	4504
910.454	4402
910.57	4322
910.685	4306
910.8	4672
910.915	4561
911.03	4535
911.145	4306
911.259	4344
911.374	4341
911.489	4318
911.604	4257
911.718	4166
911.833	4242
911.947	4006
912.062	3998
912.176	4234
912.291	4257
912.405	4196
912.519	4481
912.633	4417
912.748	4371
912.862	4314
912.976	4215
913.09	4082
913.204	4185
913.318	4238
913.431	4379
913.545	4337
913.659	4409
913.772	4383
913.886	4249
914	4207
914.113	4333
914.226	4455
914.34	4424
914.453	4227
914.566	4443
914.68	4299
914.793	4318
914.906	4158
915.019	4112
915.132	4036
915.245	4166
915.358	4238
915.47	4246
915.583	4246
915.696	4287
915.809	4428
915.921	4413
916.034	4253
916.146	4295
916.259	4227
916.371	4356
916.483	4322
916.595	4280
916.708	4295
916.82	4295
916.932	4284
917.044	4280
917.156	4303
917.268	4253
917.38	4227
917.491	4287
917.603	4348
917.715	4447
917.826	4440
917.938	4352
918.049	4246
918.161	4375
918.272	4561
918.384	4558
918.495	4451
918.606	4291
918.717	4227
918.828	4295
918.939	4333
919.05	4196
919.161	4310
919.272	4154
919.383	4230
919.494	4363
919.604	4580
919.715	4421
919.826	4371
919.936	4424
920.047	4504
920.157	4508
920.267	4656
920.378	4519
920.488	4466
920.598	4687
920.708	4873
920.818	4717
920.928	4744
921.038	4927
921.148	4885
921.258	4660
921.368	4531
921.477	4481
921.587	4466
921.697	4348
921.806	4538
921.916	4428
922.025	4249
922.134	4284
922.244	4211
922.353	4322
922.462	4200
922.571	4139
922.68	4021
922.789	3983
922.898	4032
923.007	3991
923.116	4059
923.224	4025
923.333	4093
923.442	3972
923.55	3998
923.659	4063
923.767	4086
923.876	3972
923.984	4166
924.092	3960
924.201	4055
924.309	4078
924.417	4143
924.525	4036
924.633	4105
924.741	5052
924.849	3941
924.956	4101
925.064	3934
925.172	3949
925.279	3941
925.387	4044
925.494	4013
925.602	4177
925.709	4105
925.816	4082
925.924	4082
926.031	4211
926.138	4109
926.245	4227
926.352	4082
926.459	4276
926.566	4318
926.673	4173
926.779	4059
926.886	4071
926.993	3960
927.099	3960
927.206	3953
927.312	3915
927.419	4071
927.525	4036
927.631	4086
927.737	3964
927.843	3922
927.95	3812
928.056	3964
928.162	4021
928.267	4017
928.373	4679
928.479	4097
928.585	3857
928.69	3975
928.796	4040
928.901	3945
929.007	3892
929.112	3991
929.218	3956
929.323	3892
929.428	3983
929.533	4082
929.638	3899
929.743	3956
929.848	4074
929.953	3968
930.058	3934
930.163	3781
930.267	3838
930.372	3998
930.477	3785
930.581	4082
930.685	3937
930.79	3804
930.894	3926
930.998	3850
931.103	4059
931.207	3667
931.311	3679
931.415	3682
931.519	3534
931.623	3500
