Data from test_V78500241_124.txt Node
Date: Fri Mar 25 16:49:51 CST 2022
User: usil
Spectrometer: V785-0024
Trigger mode: 0
Integration Time (sec): 4.000000E-1
Scans to average: 1
Nonlinearity correction enabled: false
Boxcar width: 0
Storing dark spectrum: false
XAxis mode: Wavelengths
Number of Pixels in Spectrum: 1024
>>>>>Begin Spectral Data<<<<<
801.071	7982
801.214	8103
801.356	7898
801.499	7830
801.641	7909
801.783	7898
801.926	8130
802.068	8050
802.211	8001
802.353	8027
802.496	7902
802.638	7959
802.78	7986
802.923	8024
803.065	7871
803.208	7761
803.35	8035
803.492	8084
803.635	8145
803.777	8005
803.919	8081
804.061	8339
804.204	8088
804.346	8031
804.488	7913
804.63	8081
804.773	8012
804.915	8096
805.057	8240
805.199	8183
805.341	8214
805.483	8263
805.626	8267
805.768	8115
805.91	8115
806.052	8210
806.194	8164
806.336	8298
806.478	8077
806.62	8100
806.762	8153
806.904	8279
807.046	8476
807.188	8336
807.33	8271
807.472	8343
807.614	8142
807.756	8191
807.898	8031
808.04	7898
808.182	7906
808.324	7860
808.465	8012
808.607	8145
808.749	8119
808.891	8233
809.033	8332
809.174	8225
809.316	8035
809.458	8115
809.6	8020
809.741	8027
809.883	8043
810.025	8153
810.166	8115
810.308	7993
810.45	8054
810.591	7959
810.733	7784
810.875	7780
811.016	7563
811.158	7548
811.299	7590
811.441	7761
811.582	7723
811.724	7620
811.865	7658
812.007	7738
812.148	7693
812.29	7731
812.431	7837
812.573	8005
812.714	8050
812.855	8229
812.997	8370
813.138	8442
813.279	8240
813.421	8187
813.562	8092
813.703	7917
813.845	7784
813.986	7472
814.127	7324
814.268	7266
814.41	7263
814.551	7183
814.692	7293
814.833	7168
814.974	7183
815.115	7228
815.256	7008
815.397	6996
815.539	7015
815.68	6856
815.821	6791
815.962	6859
816.103	6886
816.244	6818
816.385	6703
816.526	6662
816.666	6544
816.807	6353
816.948	6502
817.089	6456
817.23	6456
817.371	6399
817.512	6456
817.653	6433
817.793	6418
817.934	6467
818.075	6445
818.216	6410
818.356	6441
818.497	6273
818.638	6148
818.778	6194
818.919	6186
819.06	6152
819.2	6395
819.341	6338
819.481	6399
819.622	6570
819.762	6795
819.903	6696
820.043	6582
820.184	6585
820.324	6612
820.465	6688
820.605	6692
820.746	6757
820.886	6547
821.026	6707
821.167	6677
821.307	6859
821.447	6776
821.588	6673
821.728	6574
821.868	6555
822.008	6380
822.149	6399
822.289	6445
822.429	6144
822.569	6079
822.709	6159
822.849	5904
822.99	5901
823.13	5908
823.27	5973
823.41	5809
823.55	5745
823.69	5828
823.83	5847
823.97	5699
824.11	5596
824.25	5577
824.389	5611
824.529	5562
824.669	5581
824.809	5661
824.949	5680
825.089	5649
825.228	5577
825.368	5444
825.508	5433
825.648	5341
825.787	5341
825.927	5410
826.067	5376
826.206	5360
826.346	5414
826.485	5387
826.625	5429
826.765	5562
826.904	5482
827.044	5330
827.183	5204
827.323	5159
827.462	5239
827.601	5258
827.741	5258
827.88	5273
828.02	5178
828.159	5315
828.298	5296
828.437	5364
828.577	5296
828.716	5547
828.855	5364
828.994	5170
829.134	5170
829.273	5231
829.412	5151
829.551	5128
829.69	5170
829.829	5303
829.968	5372
830.107	5326
830.246	5307
830.385	5151
830.524	5151
830.663	5086
830.802	5014
830.941	4900
831.08	4919
831.219	5014
831.357	4980
831.496	5178
831.635	4904
831.774	4881
831.913	4809
832.051	4805
832.19	4752
832.329	4850
832.467	4687
832.606	4656
832.744	4736
832.883	4748
833.022	4801
833.16	4824
833.299	4843
833.437	4858
833.576	4866
833.714	4839
833.852	4885
833.991	4911
834.129	4972
834.267	5006
834.406	4938
834.544	4995
834.682	5014
834.821	4972
834.959	5201
835.097	5014
835.235	5189
835.373	5086
835.511	5193
835.65	5075
835.788	5052
835.926	4942
836.064	4923
836.202	4991
836.34	5239
836.478	5292
836.615	5155
836.753	5254
836.891	5311
837.029	5288
837.167	5204
837.305	5113
837.443	5193
837.58	5083
837.718	5299
837.856	5159
837.993	5185
838.131	5269
838.269	5231
838.406	5227
838.544	5239
838.681	5071
838.819	5033
838.956	4957
839.094	4957
839.231	5086
839.369	5071
839.506	5455
839.643	5315
839.781	5113
839.918	5041
840.055	5086
840.193	5090
840.33	5113
840.467	5231
840.604	5208
840.742	5425
840.879	5083
841.016	5109
841.153	5162
841.29	5414
841.427	5330
841.564	5337
841.701	5406
841.838	5288
841.975	5254
842.112	5292
842.249	5155
842.385	5098
842.522	5315
842.659	5246
842.796	5132
842.933	5250
843.069	5181
843.206	5159
843.343	5357
843.479	5258
843.616	5284
843.752	5048
843.889	4999
844.025	5220
844.162	5052
844.298	5201
844.435	5090
844.571	5071
844.708	5227
844.844	5296
844.98	5398
845.117	5318
845.253	5162
845.389	5105
845.525	5208
845.661	5143
845.798	5083
845.934	5170
846.07	5064
846.206	5193
846.342	5250
846.478	5189
846.614	5056
846.75	4972
846.886	4949
847.022	5178
847.158	5060
847.294	5056
847.429	5136
847.565	5128
847.701	5334
847.837	4854
847.972	4881
848.108	4999
848.244	4930
848.379	4831
848.515	4755
848.65	4733
848.786	4790
848.921	4812
849.057	4877
849.192	4854
849.328	4858
849.463	4839
849.598	4839
849.734	4816
849.869	4710
850.004	4626
850.14	4702
850.275	4569
850.41	4558
850.545	4554
850.68	4622
850.815	4645
850.95	4618
851.085	4831
851.22	4805
851.355	4706
851.49	4660
851.625	4679
851.76	4721
851.895	4584
852.03	4558
852.165	4752
852.299	4706
852.434	4801
852.569	4771
852.703	4793
852.838	4843
852.973	4965
853.107	4930
853.242	4786
853.376	4725
853.511	4523
853.645	4611
853.78	4778
853.914	4748
854.048	4729
854.183	4656
854.317	4698
854.451	4778
854.585	4721
854.72	4668
854.854	4782
854.988	4618
855.122	4641
855.256	4569
855.39	4664
855.524	4797
855.658	4755
855.792	4691
855.926	4801
856.06	4767
856.194	4850
856.327	4664
856.461	4656
856.595	4656
856.729	4622
856.862	4740
856.996	4767
857.13	4687
857.263	4748
857.397	4812
857.53	4668
857.664	4759
857.797	4771
857.931	4820
858.064	4691
858.197	4801
858.331	4668
858.464	4637
858.597	4554
858.731	4626
858.864	4664
858.997	4634
859.13	4717
859.263	4687
859.396	4736
859.529	4618
859.662	4569
859.795	4577
859.928	4634
860.061	4782
860.194	4816
860.327	4626
860.46	4626
860.592	4733
860.725	4687
860.858	4774
860.99	4611
861.123	4554
861.256	4516
861.388	4615
861.521	5402
861.653	4542
861.786	4459
861.918	4516
862.05	4535
862.183	4577
862.315	4672
862.447	4683
862.58	4573
862.712	4440
862.844	4291
862.976	4531
863.108	4474
863.24	4885
863.372	4325
863.504	4424
863.636	4413
863.768	4493
863.9	4428
864.032	4405
864.164	4421
864.296	4493
864.428	4561
864.559	4542
864.691	4546
864.823	4554
864.954	4512
865.086	4565
865.217	4485
865.349	4440
865.48	4489
865.612	4504
865.743	4603
865.875	4489
866.006	4481
866.137	4481
866.269	4451
866.4	4447
866.531	4447
866.662	4417
866.793	4417
866.924	4402
867.055	4497
867.186	4413
867.317	4421
867.448	4379
867.579	4360
867.71	4424
867.841	4379
867.972	4481
868.103	4538
868.233	4455
868.364	4474
868.495	4500
868.625	4672
868.756	4801
868.886	4577
869.017	4660
869.147	4767
869.278	4748
869.408	4706
869.539	4691
869.669	4752
869.799	4653
869.929	4809
870.06	4771
870.19	4991
870.32	4927
870.45	4949
870.58	5079
870.71	5147
870.84	5109
870.97	4991
871.1	4908
871.23	5151
871.36	5147
871.489	5037
871.619	5155
871.749	5136
871.879	5147
872.008	5193
872.138	5071
872.267	4976
872.397	4911
872.526	4809
872.656	4736
872.785	4797
872.915	4938
873.044	5025
873.173	4919
873.303	4904
873.432	4957
873.561	5045
873.69	4946
873.819	4885
873.948	4877
874.077	4820
874.206	4774
874.335	4831
874.464	4976
874.593	5083
874.722	4961
874.851	5147
874.979	5083
875.108	5094
875.237	4934
875.365	4828
875.494	4900
875.623	4957
875.751	4847
875.88	4938
876.008	4976
876.136	5003
876.265	5299
876.393	5345
876.521	5307
876.65	5250
876.778	5178
876.906	5121
877.034	5064
877.162	5064
877.29	5048
877.418	5090
877.546	5071
877.674	5075
877.802	5022
877.93	5033
878.058	4949
878.185	4839
878.313	4984
878.441	4946
878.568	4854
878.696	4896
878.824	4976
878.951	4949
879.079	5128
879.206	5334
879.333	5105
879.461	5025
879.588	5033
879.715	5117
879.842	5227
879.97	5045
880.097	4824
880.224	4824
880.351	4828
880.478	4877
880.605	4820
880.732	4774
880.859	5140
880.986	4923
881.112	4915
881.239	4805
881.366	4691
881.493	4607
881.619	4603
881.746	4622
881.872	4683
881.999	4660
882.125	4702
882.252	4771
882.378	4805
882.505	4972
882.631	4843
882.757	4675
882.883	4759
883.01	4793
883.136	4668
883.262	4580
883.388	4611
883.514	4862
883.64	4847
883.766	4843
883.892	4683
884.018	4710
884.143	4889
884.269	5052
884.395	4645
884.52	4675
884.646	4588
884.772	4584
884.897	4603
885.023	4740
885.148	4778
885.274	4908
885.399	4812
885.524	4763
885.65	4710
885.775	4744
885.9	4710
886.025	4911
886.15	4812
886.275	4763
886.4	4656
886.525	4733
886.65	4706
886.775	4755
886.9	4957
887.025	5033
887.149	4877
887.274	4721
887.399	4630
887.523	4603
887.648	4607
887.773	4588
887.897	4767
888.021	4763
888.146	4630
888.27	4881
888.395	4938
888.519	4812
888.643	4801
888.767	4835
888.891	4679
889.015	4641
889.139	4664
889.263	4630
889.387	4812
889.511	4866
889.635	4790
889.759	4698
889.883	4656
890.006	4740
890.13	4854
890.254	4634
890.377	4691
890.501	4519
890.624	4550
890.748	4668
890.871	4558
890.995	4394
891.118	4386
891.241	4508
891.364	4550
891.488	4656
891.611	4542
891.734	4542
891.857	4641
891.98	4550
892.103	4672
892.226	4622
892.349	4519
892.471	4424
892.594	4531
892.717	4637
892.839	4618
892.962	4626
893.085	4687
893.207	4630
893.33	4470
893.452	4478
893.575	4675
893.697	4607
893.819	4839
893.941	4816
894.064	4812
894.186	4599
894.308	4573
894.43	4778
894.552	4847
894.674	4740
894.796	4569
894.918	4634
895.04	4599
895.161	4721
895.283	4710
895.405	4615
895.526	4630
895.648	4702
895.769	4660
895.891	4748
896.012	4778
896.134	4729
896.255	4710
896.376	4672
896.498	4592
896.619	4717
896.74	4637
896.861	4683
896.982	4915
897.103	5075
897.224	4896
897.345	4771
897.466	4683
897.587	4744
897.708	4927
897.828	4782
897.949	4694
898.07	4618
898.19	4637
898.311	4850
898.431	4702
898.552	4763
898.672	4835
898.792	4831
898.913	4744
899.033	4653
899.153	4508
899.273	4405
899.393	4508
899.513	4523
899.633	4546
899.753	4565
899.873	4535
899.993	4584
900.113	4577
900.232	4645
900.352	4580
900.472	4512
900.591	4424
900.711	4504
900.83	4500
900.95	4649
901.069	4717
901.189	4550
901.308	4398
901.427	4352
901.546	4443
901.665	4485
901.784	4546
901.904	4405
902.023	4337
902.141	4204
902.26	4196
902.379	4356
902.498	4272
902.617	4227
902.735	4405
902.854	4386
902.973	4424
903.091	4261
903.21	4249
903.328	4348
903.446	4268
903.565	4268
903.683	4383
903.801	4310
903.919	4409
904.038	4451
904.156	4379
904.274	4474
904.392	4394
904.51	4436
904.627	4470
904.745	4626
904.863	4630
904.981	4398
905.098	4356
905.216	4402
905.334	4451
905.451	4432
905.569	4451
905.686	4535
905.803	4630
905.921	4402
906.038	4561
906.155	4531
906.272	4409
906.389	4466
906.506	4356
906.623	4405
906.74	4451
906.857	4337
906.974	4394
907.091	4626
907.208	4698
907.324	4599
907.441	4512
907.557	4367
907.674	4440
907.79	4333
907.907	4409
908.023	4519
908.139	4531
908.256	4413
908.372	4523
908.488	4462
908.604	4356
908.72	4363
908.836	4428
908.952	4447
909.068	4428
909.184	4561
909.3	4554
909.415	4588
909.531	4584
909.647	4386
909.762	4386
909.878	4360
909.993	4455
910.108	4424
910.224	4413
910.339	4512
910.454	4344
910.57	4409
910.685	4333
910.8	4653
910.915	4561
911.03	4527
911.145	4333
911.259	4314
911.374	4348
911.489	4276
911.604	4291
911.718	4215
911.833	4238
911.947	4181
912.062	4071
912.176	4261
912.291	4261
912.405	4284
912.519	4447
912.633	4462
912.748	4383
912.862	4318
912.976	4219
913.09	4105
913.204	4207
913.318	4268
913.431	4348
913.545	4344
913.659	4451
913.772	4443
913.886	4265
914	4272
914.113	4398
914.226	4493
914.34	4440
914.453	4268
914.566	4432
914.68	4306
914.793	4390
914.906	4181
915.019	4147
915.132	4105
915.245	4227
915.358	4265
915.47	4272
915.583	4318
915.696	4360
915.809	4379
915.921	4500
916.034	4257
916.146	4310
916.259	4253
916.371	4409
916.483	4390
916.595	4261
916.708	4367
916.82	4341
916.932	4371
917.044	4314
917.156	4371
917.268	4295
917.38	4303
917.491	4344
917.603	4352
917.715	4428
917.826	4466
917.938	4405
918.049	4291
918.161	4398
918.272	4538
918.384	4599
918.495	4481
918.606	4287
918.717	4227
918.828	4360
918.939	4344
919.05	4299
919.161	4303
919.272	4166
919.383	4223
919.494	4466
919.604	4634
919.715	4455
919.826	4402
919.936	4424
920.047	4481
920.157	4497
920.267	4694
920.378	4561
920.488	4538
920.598	4714
920.708	4896
920.818	4824
920.928	4774
921.038	4904
921.148	4942
921.258	4653
921.368	4577
921.477	4512
921.587	4474
921.697	4360
921.806	4618
921.916	4481
922.025	4295
922.134	4249
922.244	4230
922.353	4325
922.462	4181
922.571	4162
922.68	4036
922.789	3998
922.898	4036
923.007	4040
923.116	4078
923.224	4120
923.333	4086
923.442	3994
923.55	4013
923.659	4082
923.767	4120
923.876	3991
923.984	4139
924.092	4029
924.201	4120
924.309	4139
924.417	4124
924.525	4082
924.633	4124
924.741	4866
924.849	3949
924.956	4162
925.064	3987
925.172	3934
925.279	3945
925.387	4116
925.494	4078
925.602	4223
925.709	4215
925.816	4078
925.924	4093
926.031	4211
926.138	4223
926.245	4204
926.352	4109
926.459	4238
926.566	4371
926.673	4177
926.779	4120
926.886	4105
926.993	3994
927.099	3983
927.206	3968
927.312	3926
927.419	4093
927.525	4055
927.631	4078
927.737	4002
927.843	3972
927.95	3831
928.056	4002
928.162	3987
928.267	4067
928.373	4588
928.479	4124
928.585	3888
928.69	4025
928.796	4090
928.901	3930
929.007	3850
929.112	4040
929.218	3991
929.323	3975
929.428	3964
929.533	4090
929.638	3915
929.743	3979
929.848	4097
929.953	4032
930.058	3960
930.163	3823
930.267	3819
930.372	3998
930.477	3842
930.581	4120
930.685	3956
930.79	3816
930.894	3896
930.998	3865
931.103	4044
931.207	3747
931.311	3743
931.415	3717
931.519	3549
931.623	3584
