Data from test_V78500241_701.txt Node
Date: Fri Mar 25 16:53:52 CST 2022
User: usil
Spectrometer: V785-0024
Trigger mode: 0
Integration Time (sec): 4.000000E-1
Scans to average: 1
Nonlinearity correction enabled: false
Boxcar width: 0
Storing dark spectrum: false
XAxis mode: Wavelengths
Number of Pixels in Spectrum: 1024
>>>>>Begin Spectral Data<<<<<
801.071	8035
801.214	8027
801.356	7940
801.499	7875
801.641	7814
801.783	7837
801.926	8062
802.068	7993
802.211	7986
802.353	7986
802.496	7875
802.638	7951
802.78	7951
802.923	7921
803.065	7856
803.208	7883
803.35	8035
803.492	8081
803.635	8172
803.777	8084
803.919	8157
804.061	8404
804.204	8126
804.346	8058
804.488	7993
804.63	8046
804.773	8046
804.915	8225
805.057	8214
805.199	8164
805.341	8259
805.483	8355
805.626	8256
805.768	8115
805.91	8221
806.052	8240
806.194	8157
806.336	8343
806.478	8096
806.62	8126
806.762	8202
806.904	8298
807.046	8522
807.188	8400
807.33	8328
807.472	8343
807.614	8187
807.756	8157
807.898	7967
808.04	7856
808.182	7887
808.324	7932
808.465	7936
808.607	8164
808.749	8054
808.891	8202
809.033	8259
809.174	8138
809.316	8088
809.458	8035
809.6	8001
809.741	8054
809.883	8069
810.025	8081
810.166	8138
810.308	8054
810.45	8077
810.591	7856
810.733	7814
810.875	7708
811.016	7457
811.158	7590
811.299	7575
811.441	7776
811.582	7708
811.724	7628
811.865	7544
812.007	7571
812.148	7597
812.29	7628
812.431	7674
812.573	7871
812.714	7940
812.855	8153
812.997	8191
813.138	8240
813.279	8218
813.421	8103
813.562	8065
813.703	7898
813.845	7772
813.986	7449
814.127	7282
814.268	7259
814.41	7244
814.551	7164
814.692	7168
814.833	7046
814.974	7065
815.115	7145
815.256	6909
815.397	6943
815.539	7008
815.68	6844
815.821	6848
815.962	6856
816.103	6859
816.244	6692
816.385	6639
816.526	6665
816.666	6490
816.807	6334
816.948	6490
817.089	6475
817.23	6376
817.371	6422
817.512	6399
817.653	6467
817.793	6399
817.934	6414
818.075	6448
818.216	6407
818.356	6429
818.497	6262
818.638	6148
818.778	6136
818.919	6114
819.06	6121
819.2	6365
819.341	6258
819.481	6346
819.622	6540
819.762	6741
819.903	6703
820.043	6642
820.184	6490
820.324	6616
820.465	6719
820.605	6688
820.746	6574
820.886	6509
821.026	6646
821.167	6722
821.307	6821
821.447	6768
821.588	6604
821.728	6566
821.868	6498
822.008	6353
822.149	6357
822.289	6327
822.429	6152
822.569	6095
822.709	6060
822.849	5855
822.99	5927
823.13	5920
823.27	5920
823.41	5805
823.55	5783
823.69	5752
823.83	5821
823.97	5627
824.11	5493
824.25	5539
824.389	5547
824.529	5585
824.669	5497
824.809	5661
824.949	5653
825.089	5653
825.228	5592
825.368	5376
825.508	5357
825.648	5395
825.787	5353
825.927	5368
826.067	5326
826.206	5299
826.346	5433
826.485	5391
826.625	5360
826.765	5611
826.904	5444
827.044	5261
827.183	5242
827.323	5105
827.462	5311
827.601	5235
827.741	5189
827.88	5284
828.02	5102
828.159	5277
828.298	5284
828.437	5349
828.577	5223
828.716	5516
828.855	5299
828.994	5193
829.134	5147
829.273	5178
829.412	5178
829.551	5124
829.69	5170
829.829	5212
829.968	5395
830.107	5292
830.246	5269
830.385	5140
830.524	5124
830.663	5075
830.802	4976
830.941	4900
831.08	4873
831.219	5025
831.357	4965
831.496	5178
831.635	4919
831.774	4820
831.913	4843
832.051	4767
832.19	4782
832.329	4862
832.467	4736
832.606	4641
832.744	4744
832.883	4717
833.022	4740
833.16	4774
833.299	4828
833.437	4843
833.576	4790
833.714	4847
833.852	4820
833.991	4854
834.129	4980
834.267	5003
834.406	4946
834.544	4980
834.682	5022
834.821	4957
834.959	5143
835.097	4934
835.235	5128
835.373	5064
835.511	5094
835.65	5048
835.788	4987
835.926	4908
836.064	4889
836.202	4915
836.34	5181
836.478	5201
836.615	5159
836.753	5170
836.891	5254
837.029	5273
837.167	5208
837.305	5151
837.443	5124
837.58	5109
837.718	5235
837.856	5220
837.993	5140
838.131	5227
838.269	5250
838.406	5227
838.544	5201
838.681	5041
838.819	5025
838.956	4946
839.094	4938
839.231	5003
839.369	5086
839.506	5421
839.643	5307
839.781	5014
839.918	5025
840.055	5124
840.193	5102
840.33	5067
840.467	5132
840.604	5220
840.742	5467
840.879	5083
841.016	5109
841.153	5094
841.29	5337
841.427	5341
841.564	5345
841.701	5353
841.838	5284
841.975	5246
842.112	5258
842.249	5102
842.385	5105
842.522	5250
842.659	5132
842.796	5151
842.933	5223
843.069	5159
843.206	5132
843.343	5307
843.479	5261
843.616	5299
843.752	5029
843.889	5033
844.025	5246
844.162	5022
844.298	5193
844.435	5090
844.571	4995
844.708	5185
844.844	5337
844.98	5303
845.117	5280
845.253	5121
845.389	5098
845.525	5151
845.661	5197
845.798	5029
845.934	5147
846.07	5025
846.206	5189
846.342	5254
846.478	5227
846.614	5041
846.75	5025
846.886	4927
847.022	5151
847.158	5014
847.294	5109
847.429	5094
847.565	5083
847.701	5341
847.837	4885
847.972	4801
848.108	4938
848.244	4942
848.379	4763
848.515	4774
848.65	4759
848.786	4755
848.921	4831
849.057	4877
849.192	4877
849.328	4816
849.463	4870
849.598	4778
849.734	4824
849.869	4668
850.004	4615
850.14	4691
850.275	4634
850.41	4497
850.545	4584
850.68	4607
850.815	4592
850.95	4637
851.085	4877
851.22	4725
851.355	4717
851.49	4615
851.625	4691
851.76	4645
851.895	4538
852.03	4546
852.165	4611
852.299	4759
852.434	4790
852.569	4736
852.703	4809
852.838	4816
852.973	4972
853.107	4850
853.242	4740
853.376	4653
853.511	4527
853.645	4599
853.78	4790
853.914	4687
854.048	4649
854.183	4675
854.317	4664
854.451	4866
854.585	4634
854.72	4649
854.854	4752
854.988	4607
855.122	4634
855.256	4485
855.39	4691
855.524	4759
855.658	4771
855.792	4672
855.926	4786
856.06	4752
856.194	4824
856.327	4774
856.461	4607
856.595	4618
856.729	4649
856.862	4752
856.996	4717
857.13	4744
857.263	4729
857.397	4812
857.53	4706
857.664	4702
857.797	4786
857.931	4790
858.064	4729
858.197	4725
858.331	4672
858.464	4668
858.597	4523
858.731	4596
858.864	4626
858.997	4577
859.13	4641
859.263	4706
859.396	4660
859.529	4577
859.662	4580
859.795	4512
859.928	4535
860.061	4786
860.194	4801
860.327	4615
860.46	4618
860.592	4702
860.725	4683
860.858	4740
860.99	4618
861.123	4489
861.256	4569
861.388	4664
861.521	5372
861.653	4455
861.786	4432
861.918	4462
862.05	4535
862.183	4550
862.315	4596
862.447	4603
862.58	4546
862.712	4440
862.844	4352
862.976	4516
863.108	4462
863.24	4870
863.372	4329
863.504	4405
863.636	4402
863.768	4497
863.9	4440
864.032	4405
864.164	4344
864.296	4474
864.428	4569
864.559	4565
864.691	4558
864.823	4485
864.954	4516
865.086	4527
865.217	4478
865.349	4417
865.48	4443
865.612	4493
865.743	4622
865.875	4459
866.006	4424
866.137	4474
866.269	4398
866.4	4470
866.531	4398
866.662	4409
866.793	4440
866.924	4451
867.055	4519
867.186	4447
867.317	4421
867.448	4360
867.579	4379
867.71	4409
867.841	4344
867.972	4443
868.103	4478
868.233	4451
868.364	4462
868.495	4489
868.625	4656
868.756	4755
868.886	4561
869.017	4603
869.147	4790
869.278	4755
869.408	4653
869.539	4641
869.669	4672
869.799	4656
869.929	4786
870.06	4733
870.19	4930
870.32	4889
870.45	4911
870.58	5010
870.71	5075
870.84	5052
870.97	4961
871.1	4900
871.23	5113
871.36	5124
871.489	5037
871.619	5121
871.749	5045
871.879	5105
872.008	5151
872.138	5113
872.267	4968
872.397	4835
872.526	4805
872.656	4774
872.785	4774
872.915	4942
873.044	5006
873.173	4942
873.303	4972
873.432	4927
873.561	4991
873.69	4900
873.819	4904
873.948	4942
874.077	4809
874.206	4717
874.335	4828
874.464	4843
874.593	5018
874.722	4984
874.851	5140
874.979	5037
875.108	4984
875.237	4923
875.365	4870
875.494	4854
875.623	4919
875.751	4820
875.88	4866
876.008	4934
876.136	5048
876.265	5174
876.393	5307
876.521	5277
876.65	5216
876.778	5121
876.906	5075
877.034	4987
877.162	5045
877.29	4946
877.418	4999
877.546	5064
877.674	5056
877.802	5010
877.93	4984
878.058	4968
878.185	4900
878.313	4972
878.441	4976
878.568	4782
878.696	4881
878.824	4934
878.951	4968
879.079	5105
879.206	5345
879.333	5136
879.461	4946
879.588	5064
879.715	5117
879.842	5193
879.97	5033
880.097	4755
880.224	4786
880.351	4828
880.478	4896
880.605	4850
880.732	4774
880.859	5121
880.986	4908
881.112	4919
881.239	4790
881.366	4653
881.493	4588
881.619	4531
881.746	4622
881.872	4641
881.999	4660
882.125	4679
882.252	4831
882.378	4824
882.505	4957
882.631	4839
882.757	4626
882.883	4725
883.01	4717
883.136	4649
883.262	4626
883.388	4618
883.514	4763
883.64	4847
883.766	4774
883.892	4664
884.018	4736
884.143	4892
884.269	5037
884.395	4698
884.52	4672
884.646	4645
884.772	4558
884.897	4561
885.023	4634
885.148	4790
885.274	4824
885.399	4824
885.524	4714
885.65	4660
885.775	4778
885.9	4694
886.025	4847
886.15	4774
886.275	4744
886.4	4649
886.525	4736
886.65	4637
886.775	4717
886.9	4896
887.025	5010
887.149	4816
887.274	4588
887.399	4599
887.523	4580
887.648	4599
887.773	4599
887.897	4759
888.021	4782
888.146	4687
888.27	4782
888.395	4885
888.519	4774
888.643	4820
888.767	4831
888.891	4637
889.015	4611
889.139	4645
889.263	4603
889.387	4763
889.511	4812
889.635	4782
889.759	4588
889.883	4607
890.006	4725
890.13	4805
890.254	4580
890.377	4683
890.501	4516
890.624	4485
890.748	4626
890.871	4527
890.995	4421
891.118	4356
891.241	4504
891.364	4535
891.488	4603
891.611	4535
891.734	4561
891.857	4580
891.98	4577
892.103	4698
892.226	4577
892.349	4565
892.471	4428
892.594	4561
892.717	4569
892.839	4512
892.962	4622
893.085	4683
893.207	4592
893.33	4459
893.452	4516
893.575	4630
893.697	4569
893.819	4809
893.941	4839
894.064	4759
894.186	4519
894.308	4558
894.43	4767
894.552	4831
894.674	4687
894.796	4573
894.918	4641
895.04	4649
895.161	4675
895.283	4656
895.405	4523
895.526	4656
895.648	4664
895.769	4656
895.891	4691
896.012	4714
896.134	4740
896.255	4656
896.376	4615
896.498	4615
896.619	4641
896.74	4653
896.861	4599
896.982	4877
897.103	5090
897.224	4816
897.345	4744
897.466	4706
897.587	4744
897.708	4866
897.828	4767
897.949	4691
898.07	4535
898.19	4660
898.311	4816
898.431	4653
898.552	4714
898.672	4809
898.792	4801
898.913	4725
899.033	4668
899.153	4500
899.273	4371
899.393	4478
899.513	4497
899.633	4512
899.753	4611
899.873	4481
899.993	4592
900.113	4523
900.232	4561
900.352	4561
900.472	4466
900.591	4398
900.711	4474
900.83	4462
900.95	4580
901.069	4668
901.189	4527
901.308	4375
901.427	4322
901.546	4394
901.665	4478
901.784	4554
901.904	4409
902.023	4314
902.141	4150
902.26	4177
902.379	4310
902.498	4272
902.617	4223
902.735	4344
902.854	4367
902.973	4386
903.091	4242
903.21	4192
903.328	4291
903.446	4234
903.565	4310
903.683	4325
903.801	4295
903.919	4390
904.038	4428
904.156	4352
904.274	4440
904.392	4341
904.51	4424
904.627	4474
904.745	4611
904.863	4592
904.981	4375
905.098	4322
905.216	4379
905.334	4417
905.451	4436
905.569	4417
905.686	4512
905.803	4580
905.921	4409
906.038	4546
906.155	4462
906.272	4440
906.389	4470
906.506	4322
906.623	4386
906.74	4386
906.857	4322
906.974	4390
907.091	4542
907.208	4702
907.324	4626
907.441	4508
907.557	4337
907.674	4356
907.79	4299
907.907	4360
908.023	4474
908.139	4519
908.256	4432
908.372	4455
908.488	4470
908.604	4371
908.72	4318
908.836	4409
908.952	4356
909.068	4424
909.184	4603
909.3	4462
909.415	4607
909.531	4531
909.647	4329
909.762	4379
909.878	4352
909.993	4424
910.108	4421
910.224	4386
910.339	4455
910.454	4409
910.57	4341
910.685	4276
910.8	4618
910.915	4607
911.03	4432
911.145	4303
911.259	4329
911.374	4394
911.489	4303
911.604	4238
911.718	4185
911.833	4150
911.947	4044
912.062	4032
912.176	4223
912.291	4265
912.405	4230
912.519	4493
912.633	4546
912.748	4352
912.862	4318
912.976	4158
913.09	4147
913.204	4192
913.318	4261
913.431	4390
913.545	4379
913.659	4432
913.772	4379
913.886	4230
914	4238
914.113	4371
914.226	4451
914.34	4371
914.453	4215
914.566	4386
914.68	4299
914.793	4360
914.906	4181
915.019	4139
915.132	4097
915.245	4177
915.358	4192
915.47	4253
915.583	4287
915.696	4329
915.809	4443
915.921	4398
916.034	4257
916.146	4238
916.259	4238
916.371	4329
916.483	4325
916.595	4272
916.708	4268
916.82	4295
916.932	4299
917.044	4287
917.156	4318
917.268	4196
917.38	4265
917.491	4284
917.603	4344
917.715	4436
917.826	4405
917.938	4363
918.049	4230
918.161	4367
918.272	4500
918.384	4527
918.495	4500
918.606	4303
918.717	4242
918.828	4344
918.939	4405
919.05	4242
919.161	4325
919.272	4150
919.383	4249
919.494	4493
919.604	4630
919.715	4436
919.826	4314
919.936	4383
920.047	4462
920.157	4523
920.267	4649
920.378	4546
920.488	4500
920.598	4717
920.708	4866
920.818	4767
920.928	4797
921.038	4904
921.148	4877
921.258	4641
921.368	4508
921.477	4504
921.587	4478
921.697	4390
921.806	4516
921.916	4432
922.025	4204
922.134	4276
922.244	4234
922.353	4348
922.462	4150
922.571	4090
922.68	4040
922.789	3972
922.898	4055
923.007	4010
923.116	4154
923.224	4059
923.333	4074
923.442	4013
923.55	4006
923.659	4048
923.767	4097
923.876	3998
923.984	4120
924.092	3960
924.201	4086
924.309	4143
924.417	4139
924.525	4090
924.633	4128
924.741	5083
924.849	3960
924.956	4150
925.064	3937
925.172	3907
925.279	3945
925.387	4067
925.494	4044
925.602	4211
925.709	4128
925.816	4051
925.924	4147
926.031	4211
926.138	4188
926.245	4181
926.352	4086
926.459	4246
926.566	4261
926.673	4147
926.779	4040
926.886	4059
926.993	3975
927.099	3934
927.206	3956
927.312	3934
927.419	4025
927.525	3998
927.631	4071
927.737	3968
927.843	3937
927.95	3876
928.056	3960
928.162	3979
928.267	4059
928.373	4702
928.479	4101
928.585	3846
928.69	4032
928.796	4082
928.901	3953
929.007	3827
929.112	3994
929.218	4006
929.323	3930
929.428	3911
929.533	4086
929.638	3964
929.743	3979
929.848	4025
929.953	4025
930.058	3960
930.163	3827
930.267	3823
930.372	3960
930.477	3781
930.581	4086
930.685	3926
930.79	3778
930.894	3880
930.998	3880
931.103	4013
931.207	3747
931.311	3675
931.415	3663
931.519	3542
931.623	3534
