Data from test_V78500241_2483.txt Node
Date: Fri Mar 25 17:06:16 CST 2022
User: usil
Spectrometer: V785-0024
Trigger mode: 0
Integration Time (sec): 4.000000E-1
Scans to average: 1
Nonlinearity correction enabled: false
Boxcar width: 0
Storing dark spectrum: false
XAxis mode: Wavelengths
Number of Pixels in Spectrum: 1024
>>>>>Begin Spectral Data<<<<<
801.071	8035
801.214	8069
801.356	7898
801.499	7845
801.641	7769
801.783	7841
801.926	8005
802.068	7921
802.211	8027
802.353	8001
802.496	7875
802.638	7860
802.78	7959
802.923	7902
803.065	7852
803.208	7788
803.35	8005
803.492	8134
803.635	8134
803.777	8145
803.919	8176
804.061	8461
804.204	8206
804.346	8077
804.488	7951
804.63	8096
804.773	8016
804.915	8153
805.057	8336
805.199	8157
805.341	8259
805.483	8317
805.626	8252
805.768	8256
805.91	8180
806.052	8206
806.194	8103
806.336	8320
806.478	8092
806.62	8103
806.762	8149
806.904	8263
807.046	8541
807.188	8427
807.33	8362
807.472	8339
807.614	8195
807.756	8157
807.898	8016
808.04	7917
808.182	7967
808.324	7875
808.465	7906
808.607	8024
808.749	8065
808.891	8218
809.033	8332
809.174	8218
809.316	8115
809.458	8130
809.6	8043
809.741	8054
809.883	7993
810.025	8138
810.166	8138
810.308	8073
810.45	8024
810.591	7875
810.733	7826
810.875	7700
811.016	7655
811.158	7495
811.299	7597
811.441	7769
811.582	7776
811.724	7658
811.865	7609
812.007	7605
812.148	7639
812.29	7594
812.431	7731
812.573	7864
812.714	7997
812.855	8161
812.997	8191
813.138	8358
813.279	8206
813.421	8096
813.562	7993
813.703	7879
813.845	7750
813.986	7514
814.127	7274
814.268	7278
814.41	7247
814.551	7221
814.692	7221
814.833	7141
814.974	7107
815.115	7137
815.256	7034
815.397	6954
815.539	6996
815.68	6882
815.821	6772
815.962	6913
816.103	6886
816.244	6726
816.385	6669
816.526	6673
816.666	6566
816.807	6380
816.948	6483
817.089	6551
817.23	6445
817.371	6445
817.512	6350
817.653	6445
817.793	6346
817.934	6475
818.075	6509
818.216	6483
818.356	6418
818.497	6266
818.638	6110
818.778	6167
818.919	6209
819.06	6224
819.2	6395
819.341	6327
819.481	6353
819.622	6570
819.762	6726
819.903	6776
820.043	6654
820.184	6635
820.324	6654
820.465	6795
820.605	6711
820.746	6703
820.886	6612
821.026	6700
821.167	6722
821.307	6840
821.447	6795
821.588	6719
821.728	6574
821.868	6559
822.008	6350
822.149	6433
822.289	6422
822.429	6167
822.569	6182
822.709	6163
822.849	5977
822.99	5939
823.13	6034
823.27	5939
823.41	5817
823.55	5771
823.69	5855
823.83	5805
823.97	5691
824.11	5577
824.25	5512
824.389	5581
824.529	5592
824.669	5524
824.809	5619
824.949	5684
825.089	5608
825.228	5596
825.368	5436
825.508	5406
825.648	5402
825.787	5414
825.927	5436
826.067	5315
826.206	5353
826.346	5391
826.485	5478
826.625	5387
826.765	5551
826.904	5505
827.044	5269
827.183	5242
827.323	5121
827.462	5261
827.601	5193
827.741	5185
827.88	5239
828.02	5140
828.159	5280
828.298	5318
828.437	5379
828.577	5307
828.716	5532
828.855	5299
828.994	5178
829.134	5155
829.273	5208
829.412	5185
829.551	5124
829.69	5159
829.829	5292
829.968	5414
830.107	5292
830.246	5322
830.385	5254
830.524	5201
830.663	5113
830.802	4984
830.941	4866
831.08	4862
831.219	5003
831.357	5010
831.496	5216
831.635	4999
831.774	4900
831.913	4915
832.051	4793
832.19	4790
832.329	4892
832.467	4725
832.606	4698
832.744	4736
832.883	4717
833.022	4778
833.16	4828
833.299	4881
833.437	4877
833.576	4858
833.714	4927
833.852	4915
833.991	4908
834.129	4999
834.267	5006
834.406	4927
834.544	5037
834.682	4938
834.821	4957
834.959	5227
835.097	4987
835.235	5216
835.373	5121
835.511	5140
835.65	5060
835.788	5060
835.926	4915
836.064	4923
836.202	4953
836.34	5166
836.478	5292
836.615	5155
836.753	5208
836.891	5296
837.029	5280
837.167	5303
837.305	5223
837.443	5208
837.58	5071
837.718	5322
837.856	5208
837.993	5181
838.131	5280
838.269	5242
838.406	5239
838.544	5216
838.681	4999
838.819	5048
838.956	4949
839.094	4942
839.231	4957
839.369	5083
839.506	5467
839.643	5288
839.781	5113
839.918	5010
840.055	5079
840.193	5140
840.33	5124
840.467	5079
840.604	5159
840.742	5463
840.879	5155
841.016	5151
841.153	5185
841.29	5337
841.427	5318
841.564	5364
841.701	5410
841.838	5254
841.975	5246
842.112	5303
842.249	5147
842.385	5166
842.522	5326
842.659	5147
842.796	5227
842.933	5197
843.069	5174
843.206	5147
843.343	5318
843.479	5254
843.616	5280
843.752	5056
843.889	5018
844.025	5208
844.162	5083
844.298	5197
844.435	5121
844.571	5071
844.708	5220
844.844	5246
844.98	5383
845.117	5318
845.253	5166
845.389	5056
845.525	5193
845.661	5143
845.798	5056
845.934	5136
846.07	5064
846.206	5277
846.342	5296
846.478	5174
846.614	5041
846.75	5018
846.886	4927
847.022	5166
847.158	4995
847.294	5109
847.429	5143
847.565	5067
847.701	5334
847.837	4873
847.972	4881
848.108	4957
848.244	4953
848.379	4801
848.515	4721
848.65	4767
848.786	4706
848.921	4759
849.057	4877
849.192	4885
849.328	4744
849.463	4831
849.598	4839
849.734	4793
849.869	4763
850.004	4653
850.14	4733
850.275	4607
850.41	4538
850.545	4596
850.68	4645
850.815	4656
850.95	4672
851.085	4812
851.22	4782
851.355	4694
851.49	4615
851.625	4645
851.76	4683
851.895	4558
852.03	4535
852.165	4675
852.299	4714
852.434	4812
852.569	4759
852.703	4831
852.838	4847
852.973	4911
853.107	4949
853.242	4717
853.376	4679
853.511	4554
853.645	4664
853.78	4835
853.914	4725
854.048	4687
854.183	4672
854.317	4706
854.451	4847
854.585	4683
854.72	4649
854.854	4736
854.988	4607
855.122	4653
855.256	4542
855.39	4702
855.524	4801
855.658	4763
855.792	4755
855.926	4744
856.06	4759
856.194	4843
856.327	4668
856.461	4622
856.595	4626
856.729	4675
856.862	4740
856.996	4767
857.13	4759
857.263	4786
857.397	4812
857.53	4694
857.664	4763
857.797	4782
857.931	4828
858.064	4698
858.197	4763
858.331	4691
858.464	4630
858.597	4519
858.731	4691
858.864	4660
858.997	4626
859.13	4649
859.263	4729
859.396	4740
859.529	4626
859.662	4580
859.795	4577
859.928	4637
860.061	4733
860.194	4755
860.327	4683
860.46	4580
860.592	4710
860.725	4763
860.858	4733
860.99	4603
861.123	4554
861.256	4546
861.388	4565
861.521	5208
861.653	4462
861.786	4459
861.918	4497
862.05	4542
862.183	4569
862.315	4599
862.447	4645
862.58	4558
862.712	4428
862.844	4325
862.976	4440
863.108	4428
863.24	4934
863.372	4318
863.504	4447
863.636	4447
863.768	4504
863.9	4459
864.032	4421
864.164	4402
864.296	4481
864.428	4516
864.559	4592
864.691	4561
864.823	4577
864.954	4466
865.086	4489
865.217	4459
865.349	4436
865.48	4504
865.612	4523
865.743	4611
865.875	4447
866.006	4481
866.137	4504
866.269	4443
866.4	4440
866.531	4405
866.662	4428
866.793	4398
866.924	4390
867.055	4493
867.186	4497
867.317	4432
867.448	4390
867.579	4386
867.71	4421
867.841	4405
867.972	4500
868.103	4436
868.233	4481
868.364	4485
868.495	4504
868.625	4656
868.756	4767
868.886	4565
869.017	4618
869.147	4763
869.278	4744
869.408	4615
869.539	4672
869.669	4717
869.799	4694
869.929	4748
870.06	4748
870.19	4968
870.32	4938
870.45	4949
870.58	5025
870.71	5060
870.84	5079
870.97	4923
871.1	4892
871.23	5189
871.36	5136
871.489	5022
871.619	5128
871.749	5113
871.879	5136
872.008	5193
872.138	5045
872.267	4991
872.397	4892
872.526	4778
872.656	4744
872.785	4801
872.915	4965
873.044	5014
873.173	4965
873.303	4987
873.432	5010
873.561	4942
873.69	4892
873.819	4847
873.948	4877
874.077	4816
874.206	4767
874.335	4778
874.464	4930
874.593	5102
874.722	4980
874.851	5174
874.979	5094
875.108	5121
875.237	4908
875.365	4881
875.494	4870
875.623	4980
875.751	4862
875.88	4873
876.008	4999
876.136	5033
876.265	5170
876.393	5307
876.521	5284
876.65	5231
876.778	5124
876.906	5064
877.034	5086
877.162	5128
877.29	4961
877.418	5094
877.546	5071
877.674	5079
877.802	5048
877.93	5067
878.058	4942
878.185	4866
878.313	4987
878.441	5010
878.568	4835
878.696	4873
878.824	4991
878.951	5022
879.079	5155
879.206	5326
879.333	5166
879.461	4984
879.588	4987
879.715	5143
879.842	5212
879.97	4995
880.097	4828
880.224	4748
880.351	4850
880.478	4820
880.605	4797
880.732	4805
880.859	5117
880.986	4866
881.112	4938
881.239	4755
881.366	4694
881.493	4615
881.619	4565
881.746	4679
881.872	4675
881.999	4649
882.125	4637
882.252	4812
882.378	4877
882.505	4957
882.631	4831
882.757	4649
882.883	4706
883.01	4683
883.136	4706
883.262	4607
883.388	4637
883.514	4816
883.64	4892
883.766	4797
883.892	4660
884.018	4710
884.143	4904
884.269	4987
884.395	4641
884.52	4634
884.646	4634
884.772	4588
884.897	4561
885.023	4660
885.148	4843
885.274	4862
885.399	4831
885.524	4721
885.65	4679
885.775	4767
885.9	4733
886.025	4854
886.15	4824
886.275	4721
886.4	4660
886.525	4748
886.65	4702
886.775	4717
886.9	4870
887.025	5003
887.149	4843
887.274	4630
887.399	4565
887.523	4611
887.648	4554
887.773	4618
887.897	4820
888.021	4774
888.146	4698
888.27	4793
888.395	4870
888.519	4771
888.643	4809
888.767	4816
888.891	4645
889.015	4565
889.139	4656
889.263	4626
889.387	4793
889.511	4885
889.635	4812
889.759	4649
889.883	4630
890.006	4748
890.13	4847
890.254	4615
890.377	4656
890.501	4554
890.624	4546
890.748	4599
890.871	4531
890.995	4409
891.118	4367
891.241	4485
891.364	4558
891.488	4645
891.611	4485
891.734	4516
891.857	4622
891.98	4580
892.103	4626
892.226	4565
892.349	4584
892.471	4428
892.594	4569
892.717	4683
892.839	4615
892.962	4573
893.085	4694
893.207	4630
893.33	4481
893.452	4508
893.575	4679
893.697	4550
893.819	4774
893.941	4820
894.064	4828
894.186	4550
894.308	4512
894.43	4710
894.552	4820
894.674	4763
894.796	4527
894.918	4618
895.04	4546
895.161	4687
895.283	4683
895.405	4561
895.526	4649
895.648	4710
895.769	4710
895.891	4714
896.012	4736
896.134	4702
896.255	4691
896.376	4645
896.498	4580
896.619	4675
896.74	4660
896.861	4672
896.982	4930
897.103	5109
897.224	4828
897.345	4744
897.466	4725
897.587	4740
897.708	4873
897.828	4740
897.949	4637
898.07	4550
898.19	4672
898.311	4835
898.431	4668
898.552	4763
898.672	4801
898.792	4790
898.913	4740
899.033	4641
899.153	4459
899.273	4417
899.393	4504
899.513	4550
899.633	4519
899.753	4584
899.873	4516
899.993	4550
900.113	4538
900.232	4603
900.352	4596
900.472	4497
900.591	4363
900.711	4443
900.83	4451
900.95	4626
901.069	4641
901.189	4546
901.308	4367
901.427	4306
901.546	4405
901.665	4497
901.784	4462
901.904	4409
902.023	4318
902.141	4204
902.26	4188
902.379	4299
902.498	4253
902.617	4219
902.735	4432
902.854	4379
902.973	4333
903.091	4230
903.21	4230
903.328	4348
903.446	4291
903.565	4265
903.683	4325
903.801	4257
903.919	4421
904.038	4451
904.156	4303
904.274	4436
904.392	4394
904.51	4386
904.627	4470
904.745	4599
904.863	4618
904.981	4363
905.098	4325
905.216	4356
905.334	4421
905.451	4436
905.569	4421
905.686	4561
905.803	4558
905.921	4417
906.038	4542
906.155	4489
906.272	4421
906.389	4440
906.506	4333
906.623	4417
906.74	4405
906.857	4333
906.974	4375
907.091	4603
907.208	4691
907.324	4603
907.441	4478
907.557	4344
907.674	4367
907.79	4333
907.907	4440
908.023	4447
908.139	4428
908.256	4447
908.372	4443
908.488	4436
908.604	4360
908.72	4322
908.836	4383
908.952	4363
909.068	4390
909.184	4535
909.3	4489
909.415	4630
909.531	4622
909.647	4341
909.762	4371
909.878	4356
909.993	4447
910.108	4390
910.224	4386
910.339	4466
910.454	4432
910.57	4337
910.685	4322
910.8	4683
910.915	4649
911.03	4459
911.145	4333
911.259	4356
911.374	4344
911.489	4291
911.604	4261
911.718	4223
911.833	4166
911.947	4051
912.062	3960
912.176	4169
912.291	4230
912.405	4242
912.519	4451
912.633	4516
912.748	4352
912.862	4303
912.976	4215
913.09	4093
913.204	4150
913.318	4249
913.431	4303
913.545	4375
913.659	4447
913.772	4360
913.886	4246
914	4211
914.113	4379
914.226	4459
914.34	4390
914.453	4230
914.566	4402
914.68	4306
914.793	4306
914.906	4177
915.019	4093
915.132	4082
915.245	4185
915.358	4215
915.47	4249
915.583	4257
915.696	4276
915.809	4417
915.921	4443
916.034	4246
916.146	4276
916.259	4207
916.371	4360
916.483	4379
916.595	4291
916.708	4284
916.82	4356
916.932	4284
917.044	4352
917.156	4318
917.268	4253
917.38	4287
917.491	4276
917.603	4299
917.715	4428
917.826	4474
917.938	4367
918.049	4211
918.161	4363
918.272	4546
918.384	4500
918.495	4421
918.606	4268
918.717	4268
918.828	4318
918.939	4379
919.05	4230
919.161	4348
919.272	4128
919.383	4249
919.494	4455
919.604	4637
919.715	4398
919.826	4352
919.936	4455
920.047	4516
920.157	4512
920.267	4706
920.378	4596
920.488	4508
920.598	4748
920.708	4850
920.818	4778
920.928	4733
921.038	4953
921.148	4972
921.258	4569
921.368	4565
921.477	4485
921.587	4481
921.697	4398
921.806	4535
921.916	4436
922.025	4325
922.134	4265
922.244	4242
922.353	4325
922.462	4131
922.571	4154
922.68	4013
922.789	3983
922.898	4036
923.007	4025
923.116	4063
923.224	4109
923.333	4067
923.442	4029
923.55	3975
923.659	4025
923.767	4147
923.876	4013
923.984	4147
924.092	3934
924.201	4093
924.309	4116
924.417	4158
924.525	4048
924.633	4093
924.741	4934
924.849	3934
924.956	4143
925.064	3956
925.172	3880
925.279	3991
925.387	4025
925.494	4040
925.602	4185
925.709	4192
925.816	4074
925.924	4097
926.031	4230
926.138	4150
926.245	4238
926.352	4048
926.459	4234
926.566	4341
926.673	4162
926.779	4078
926.886	4082
926.993	3953
927.099	3945
927.206	3884
927.312	3896
927.419	4071
927.525	4040
927.631	4093
927.737	3991
927.843	3896
927.95	3827
928.056	3975
928.162	4006
928.267	4048
928.373	4725
928.479	4097
928.585	3884
928.69	4048
928.796	4048
928.901	4017
929.007	3827
929.112	3953
929.218	3979
929.323	3937
929.428	3926
929.533	4139
929.638	3915
929.743	3926
929.848	4044
929.953	3979
930.058	3975
930.163	3759
930.267	3816
930.372	3945
930.477	3816
930.581	4059
930.685	3972
930.79	3804
930.894	3899
930.998	3873
931.103	4044
931.207	3682
931.311	3701
931.415	3633
931.519	3523
931.623	3564
