Data from test_V78500241_1440.txt Node
Date: Fri Mar 25 16:59:00 CST 2022
User: usil
Spectrometer: V785-0024
Trigger mode: 0
Integration Time (sec): 4.000000E-1
Scans to average: 1
Nonlinearity correction enabled: false
Boxcar width: 0
Storing dark spectrum: false
XAxis mode: Wavelengths
Number of Pixels in Spectrum: 1024
>>>>>Begin Spectral Data<<<<<
801.071	8001
801.214	7955
801.356	7909
801.499	7856
801.641	7780
801.783	7757
801.926	7940
802.068	7970
802.211	7925
802.353	7986
802.496	7818
802.638	7830
802.78	7906
802.923	7936
803.065	7868
803.208	7906
803.35	7921
803.492	8081
803.635	8210
803.777	8020
803.919	8111
804.061	8396
804.204	8149
804.346	8035
804.488	7917
804.63	8145
804.773	8027
804.915	8149
805.057	8263
805.199	8183
805.341	8145
805.483	8172
805.626	8168
805.768	8138
805.91	8210
806.052	8183
806.194	8130
806.336	8347
806.478	8096
806.62	8103
806.762	8081
806.904	8248
807.046	8431
807.188	8324
807.33	8328
807.472	8290
807.614	8164
807.756	8111
807.898	7982
808.04	7925
808.182	7883
808.324	7887
808.465	7894
808.607	8092
808.749	8092
808.891	8218
809.033	8244
809.174	8195
809.316	8005
809.458	8065
809.6	7974
809.741	8088
809.883	7982
810.025	8081
810.166	8062
810.308	8031
810.45	8020
810.591	7849
810.733	7719
810.875	7689
811.016	7521
811.158	7514
811.299	7586
811.441	7757
811.582	7655
811.724	7628
811.865	7514
812.007	7544
812.148	7613
812.29	7628
812.431	7792
812.573	7875
812.714	7993
812.855	8092
812.997	8248
813.138	8301
813.279	8218
813.421	8077
813.562	7940
813.703	7811
813.845	7750
813.986	7441
814.127	7240
814.268	7198
814.41	7213
814.551	7190
814.692	7232
814.833	7091
814.974	7160
815.115	7107
815.256	6970
815.397	6901
815.539	6909
815.68	6852
815.821	6764
815.962	6844
816.103	6783
816.244	6688
816.385	6631
816.526	6601
816.666	6475
816.807	6296
816.948	6391
817.089	6464
817.23	6460
817.371	6380
817.512	6403
817.653	6376
817.793	6399
817.934	6407
818.075	6471
818.216	6426
818.356	6369
818.497	6194
818.638	6091
818.778	6159
818.919	6076
819.06	6194
819.2	6323
819.341	6334
819.481	6319
819.622	6532
819.762	6715
819.903	6658
820.043	6608
820.184	6570
820.324	6566
820.465	6688
820.605	6696
820.746	6627
820.886	6502
821.026	6623
821.167	6738
821.307	6791
821.447	6757
821.588	6662
821.728	6566
821.868	6464
822.008	6296
822.149	6395
822.289	6338
822.429	6087
822.569	6053
822.709	6095
822.849	5901
822.99	5920
823.13	5946
823.27	5931
823.41	5779
823.55	5779
823.69	5821
823.83	5760
823.97	5642
824.11	5524
824.25	5547
824.389	5520
824.529	5543
824.669	5501
824.809	5661
824.949	5611
825.089	5554
825.228	5505
825.368	5349
825.508	5337
825.648	5315
825.787	5398
825.927	5315
826.067	5311
826.206	5288
826.346	5334
826.485	5425
826.625	5429
826.765	5520
826.904	5501
827.044	5250
827.183	5162
827.323	5086
827.462	5258
827.601	5151
827.741	5204
827.88	5197
828.02	5090
828.159	5231
828.298	5280
828.437	5334
828.577	5242
828.716	5497
828.855	5311
828.994	5178
829.134	5105
829.273	5117
829.412	5189
829.551	5162
829.69	5166
829.829	5242
829.968	5322
830.107	5269
830.246	5288
830.385	5162
830.524	5166
830.663	5029
830.802	4995
830.941	4850
831.08	4862
831.219	5022
831.357	4976
831.496	5124
831.635	4942
831.774	4820
831.913	4793
832.051	4721
832.19	4698
832.329	4824
832.467	4694
832.606	4660
832.744	4687
832.883	4736
833.022	4664
833.16	4812
833.299	4793
833.437	4790
833.576	4820
833.714	4782
833.852	4805
833.991	4828
834.129	4949
834.267	4953
834.406	4858
834.544	5010
834.682	5014
834.821	4999
834.959	5132
835.097	4942
835.235	5113
835.373	5094
835.511	5075
835.65	5060
835.788	5056
835.926	4885
836.064	4877
836.202	4911
836.34	5204
836.478	5235
836.615	5086
836.753	5220
836.891	5258
837.029	5250
837.167	5208
837.305	5162
837.443	5128
837.58	5018
837.718	5212
837.856	5193
837.993	5105
838.131	5273
838.269	5212
838.406	5193
838.544	5178
838.681	5064
838.819	4980
838.956	4908
839.094	4881
839.231	5010
839.369	5079
839.506	5391
839.643	5246
839.781	5140
839.918	5010
840.055	5117
840.193	5083
840.33	5102
840.467	5136
840.604	5193
840.742	5414
840.879	5060
841.016	5071
841.153	5193
841.29	5318
841.427	5368
841.564	5307
841.701	5353
841.838	5250
841.975	5254
842.112	5280
842.249	5140
842.385	5071
842.522	5311
842.659	5170
842.796	5128
842.933	5178
843.069	5151
843.206	5166
843.343	5337
843.479	5258
843.616	5231
843.752	5083
843.889	4976
844.025	5227
844.162	5060
844.298	5166
844.435	5075
844.571	4995
844.708	5193
844.844	5258
844.98	5364
845.117	5299
845.253	5094
845.389	5117
845.525	5113
845.661	5124
845.798	4995
845.934	5121
846.07	5048
846.206	5181
846.342	5216
846.478	5121
846.614	5022
846.75	4991
846.886	4949
847.022	5181
847.158	4995
847.294	5018
847.429	5075
847.565	5113
847.701	5322
847.837	4831
847.972	4782
848.108	4923
848.244	4946
848.379	4793
848.515	4729
848.65	4694
848.786	4740
848.921	4767
849.057	4828
849.192	4873
849.328	4786
849.463	4843
849.598	4759
849.734	4725
849.869	4702
850.004	4615
850.14	4634
850.275	4618
850.41	4489
850.545	4561
850.68	4603
850.815	4592
850.95	4588
851.085	4797
851.22	4774
851.355	4675
851.49	4599
851.625	4592
851.76	4603
851.895	4558
852.03	4565
852.165	4672
852.299	4771
852.434	4793
852.569	4752
852.703	4725
852.838	4797
852.973	4911
853.107	4862
853.242	4717
853.376	4672
853.511	4538
853.645	4599
853.78	4824
853.914	4664
854.048	4668
854.183	4607
854.317	4744
854.451	4782
854.585	4702
854.72	4649
854.854	4790
854.988	4588
855.122	4573
855.256	4531
855.39	4603
855.524	4748
855.658	4706
855.792	4687
855.926	4694
856.06	4759
856.194	4782
856.327	4702
856.461	4618
856.595	4611
856.729	4645
856.862	4763
856.996	4675
857.13	4687
857.263	4725
857.397	4774
857.53	4664
857.664	4748
857.797	4793
857.931	4782
858.064	4668
858.197	4740
858.331	4634
858.464	4622
858.597	4542
858.731	4637
858.864	4672
858.997	4599
859.13	4649
859.263	4660
859.396	4653
859.529	4573
859.662	4603
859.795	4485
859.928	4618
860.061	4755
860.194	4763
860.327	4573
860.46	4546
860.592	4698
860.725	4698
860.858	4672
860.99	4554
861.123	4500
861.256	4542
861.388	4596
861.521	5410
861.653	4474
861.786	4436
861.918	4424
862.05	4493
862.183	4592
862.315	4523
862.447	4691
862.58	4535
862.712	4383
862.844	4314
862.976	4478
863.108	4455
863.24	4885
863.372	4352
863.504	4413
863.636	4424
863.768	4417
863.9	4432
864.032	4337
864.164	4363
864.296	4493
864.428	4569
864.559	4558
864.691	4542
864.823	4508
864.954	4455
865.086	4531
865.217	4462
865.349	4421
865.48	4455
865.612	4516
865.743	4611
865.875	4432
866.006	4428
866.137	4478
866.269	4402
866.4	4424
866.531	4447
866.662	4348
866.793	4424
866.924	4428
867.055	4462
867.186	4440
867.317	4402
867.448	4398
867.579	4405
867.71	4402
867.841	4360
867.972	4451
868.103	4440
868.233	4405
868.364	4440
868.495	4474
868.625	4603
868.756	4763
868.886	4561
869.017	4618
869.147	4740
869.278	4717
869.408	4637
869.539	4660
869.669	4702
869.799	4607
869.929	4706
870.06	4725
870.19	4908
870.32	4911
870.45	4946
870.58	4946
870.71	5098
870.84	5067
870.97	4908
871.1	4889
871.23	5128
871.36	5151
871.489	4972
871.619	5075
871.749	5052
871.879	5128
872.008	5189
872.138	5048
872.267	4965
872.397	4862
872.526	4752
872.656	4687
872.785	4805
872.915	4980
873.044	5029
873.173	4900
873.303	4930
873.432	4930
873.561	4961
873.69	4866
873.819	4824
873.948	4919
874.077	4862
874.206	4736
874.335	4824
874.464	4927
874.593	5014
874.722	4957
874.851	5117
874.979	5052
875.108	5014
875.237	4911
875.365	4862
875.494	4873
875.623	4953
875.751	4820
875.88	4858
876.008	4968
876.136	5037
876.265	5170
876.393	5261
876.521	5288
876.65	5208
876.778	5170
876.906	5045
877.034	5048
877.162	5045
877.29	4965
877.418	5029
877.546	5006
877.674	5018
877.802	5067
877.93	5003
878.058	4946
878.185	4885
878.313	4942
878.441	4934
878.568	4759
878.696	4824
878.824	4961
878.951	4976
879.079	5083
879.206	5296
879.333	5094
879.461	4934
879.588	4972
879.715	5064
879.842	5204
879.97	5010
880.097	4771
880.224	4729
880.351	4774
880.478	4793
880.605	4786
880.732	4774
880.859	5037
880.986	4881
881.112	4896
881.239	4801
881.366	4672
881.493	4584
881.619	4550
881.746	4622
881.872	4653
881.999	4649
882.125	4672
882.252	4786
882.378	4831
882.505	4934
882.631	4843
882.757	4675
882.883	4740
883.01	4694
883.136	4675
883.262	4653
883.388	4611
883.514	4774
883.64	4850
883.766	4752
883.892	4679
884.018	4729
884.143	4847
884.269	4949
884.395	4653
884.52	4660
884.646	4573
884.772	4588
884.897	4569
885.023	4660
885.148	4729
885.274	4854
885.399	4774
885.524	4675
885.65	4679
885.775	4778
885.9	4668
886.025	4850
886.15	4778
886.275	4691
886.4	4668
886.525	4744
886.65	4694
886.775	4714
886.9	4934
887.025	5041
887.149	4862
887.274	4691
887.399	4565
887.523	4588
887.648	4565
887.773	4607
887.897	4759
888.021	4778
888.146	4626
888.27	4835
888.395	4881
888.519	4771
888.643	4767
888.767	4797
888.891	4698
889.015	4588
889.139	4691
889.263	4626
889.387	4752
889.511	4850
889.635	4759
889.759	4653
889.883	4634
890.006	4679
890.13	4828
890.254	4615
890.377	4733
890.501	4516
890.624	4538
890.748	4668
890.871	4497
890.995	4447
891.118	4344
891.241	4489
891.364	4516
891.488	4649
891.611	4459
891.734	4577
891.857	4584
891.98	4584
892.103	4649
892.226	4596
892.349	4489
892.471	4436
892.594	4558
892.717	4573
892.839	4558
892.962	4527
893.085	4687
893.207	4592
893.33	4432
893.452	4481
893.575	4660
893.697	4550
893.819	4763
893.941	4828
894.064	4767
894.186	4588
894.308	4577
894.43	4721
894.552	4835
894.674	4733
894.796	4599
894.918	4580
895.04	4565
895.161	4710
895.283	4649
895.405	4577
895.526	4599
895.648	4664
895.769	4683
895.891	4664
896.012	4729
896.134	4679
896.255	4725
896.376	4630
896.498	4668
896.619	4645
896.74	4599
896.861	4588
896.982	4930
897.103	5090
897.224	4812
897.345	4752
897.466	4710
897.587	4771
897.708	4854
897.828	4801
897.949	4645
898.07	4542
898.19	4649
898.311	4812
898.431	4664
898.552	4748
898.672	4839
898.792	4786
898.913	4714
899.033	4618
899.153	4516
899.273	4405
899.393	4470
899.513	4554
899.633	4493
899.753	4550
899.873	4527
899.993	4580
900.113	4481
900.232	4558
900.352	4558
900.472	4459
900.591	4424
900.711	4497
900.83	4428
900.95	4592
901.069	4596
901.189	4546
901.308	4348
901.427	4314
901.546	4360
901.665	4481
901.784	4535
901.904	4333
902.023	4310
902.141	4169
902.26	4112
902.379	4303
902.498	4230
902.617	4188
902.735	4443
902.854	4348
902.973	4322
903.091	4246
903.21	4238
903.328	4295
903.446	4261
903.565	4249
903.683	4363
903.801	4272
903.919	4451
904.038	4360
904.156	4310
904.274	4436
904.392	4424
904.51	4424
904.627	4493
904.745	4554
904.863	4653
904.981	4383
905.098	4325
905.216	4337
905.334	4428
905.451	4398
905.569	4455
905.686	4493
905.803	4580
905.921	4394
906.038	4561
906.155	4466
906.272	4356
906.389	4424
906.506	4371
906.623	4383
906.74	4394
906.857	4295
906.974	4413
907.091	4584
907.208	4645
907.324	4558
907.441	4474
907.557	4322
907.674	4318
907.79	4318
907.907	4360
908.023	4493
908.139	4455
908.256	4451
908.372	4485
908.488	4413
908.604	4363
908.72	4318
908.836	4325
908.952	4367
909.068	4447
909.184	4626
909.3	4493
909.415	4554
909.531	4569
909.647	4390
909.762	4348
909.878	4303
909.993	4443
910.108	4390
910.224	4386
910.339	4481
910.454	4493
910.57	4371
910.685	4318
910.8	4645
910.915	4615
911.03	4428
911.145	4318
911.259	4337
911.374	4337
911.489	4284
911.604	4280
911.718	4177
911.833	4200
911.947	4071
912.062	4006
912.176	4181
912.291	4242
912.405	4257
912.519	4478
912.633	4462
912.748	4352
912.862	4303
912.976	4154
913.09	4090
913.204	4139
913.318	4219
913.431	4352
913.545	4322
913.659	4402
913.772	4352
913.886	4188
914	4204
914.113	4371
914.226	4424
914.34	4398
914.453	4219
914.566	4405
914.68	4295
914.793	4329
914.906	4131
915.019	4147
915.132	4120
915.245	4181
915.358	4211
915.47	4215
915.583	4276
915.696	4284
915.809	4352
915.921	4402
916.034	4238
916.146	4280
916.259	4227
916.371	4386
916.483	4344
916.595	4223
916.708	4322
916.82	4299
916.932	4325
917.044	4344
917.156	4322
917.268	4223
917.38	4234
917.491	4284
917.603	4360
917.715	4379
917.826	4436
917.938	4341
918.049	4234
918.161	4383
918.272	4577
918.384	4523
918.495	4470
918.606	4337
918.717	4291
918.828	4314
918.939	4386
919.05	4280
919.161	4310
919.272	4173
919.383	4200
919.494	4409
919.604	4641
919.715	4432
919.826	4299
919.936	4405
920.047	4500
920.157	4466
920.267	4698
920.378	4527
920.488	4508
920.598	4706
920.708	4889
920.818	4763
920.928	4763
921.038	4938
921.148	4927
921.258	4615
921.368	4519
921.477	4500
921.587	4474
921.697	4409
921.806	4538
921.916	4447
922.025	4303
922.134	4291
922.244	4215
922.353	4325
922.462	4131
922.571	4112
922.68	4006
922.789	4002
922.898	4032
923.007	4013
923.116	4135
923.224	4124
923.333	4101
923.442	3960
923.55	3975
923.659	3998
923.767	4082
923.876	3991
923.984	4112
924.092	3968
924.201	4055
924.309	4090
924.417	4101
924.525	4036
924.633	4135
924.741	5048
924.849	3918
924.956	4105
925.064	3979
925.172	3911
925.279	3930
925.387	4082
925.494	4010
925.602	4249
925.709	4188
925.816	4013
925.924	4128
926.031	4280
926.138	4188
926.245	4204
926.352	4071
926.459	4238
926.566	4322
926.673	4154
926.779	4071
926.886	4051
926.993	4029
927.099	3991
927.206	3907
927.312	3998
927.419	4044
927.525	4040
927.631	4120
927.737	3987
927.843	3903
927.95	3869
928.056	3941
928.162	4002
928.267	4055
928.373	4580
928.479	4135
928.585	3835
928.69	4032
928.796	3994
928.901	3975
929.007	3846
929.112	4013
929.218	4006
929.323	3937
929.428	3922
929.533	4112
929.638	3934
929.743	3937
929.848	4074
929.953	4017
930.058	3907
930.163	3770
930.267	3846
930.372	3983
930.477	3827
930.581	4078
930.685	3945
930.79	3800
930.894	3896
930.998	3823
931.103	4021
931.207	3701
931.311	3766
931.415	3671
931.519	3557
931.623	3584
