Data from test_V78500241_2138.txt Node
Date: Fri Mar 25 17:03:52 CST 2022
User: usil
Spectrometer: V785-0024
Trigger mode: 0
Integration Time (sec): 4.000000E-1
Scans to average: 1
Nonlinearity correction enabled: false
Boxcar width: 0
Storing dark spectrum: false
XAxis mode: Wavelengths
Number of Pixels in Spectrum: 1024
>>>>>Begin Spectral Data<<<<<
801.071	7982
801.214	7913
801.356	7871
801.499	7833
801.641	7830
801.783	7841
801.926	8001
802.068	7921
802.211	7944
802.353	7989
802.496	7837
802.638	7898
802.78	7887
802.923	7906
803.065	7902
803.208	7898
803.35	7986
803.492	8024
803.635	8187
803.777	8065
803.919	8088
804.061	8438
804.204	8176
804.346	8012
804.488	7993
804.63	8096
804.773	7989
804.915	8107
805.057	8237
805.199	8229
805.341	8176
805.483	8263
805.626	8233
805.768	8134
805.91	8187
806.052	8240
806.194	8123
806.336	8320
806.478	8161
806.62	8107
806.762	8100
806.904	8305
807.046	8492
807.188	8396
807.33	8313
807.472	8317
807.614	8153
807.756	8149
807.898	8001
808.04	7868
808.182	7826
808.324	7928
808.465	7894
808.607	7997
808.749	8187
808.891	8225
809.033	8351
809.174	8244
809.316	8050
809.458	8096
809.6	8096
809.741	8035
809.883	8012
810.025	8134
810.166	8100
810.308	8081
810.45	8027
810.591	7921
810.733	7761
810.875	7681
811.016	7575
811.158	7457
811.299	7597
811.441	7795
811.582	7742
811.724	7613
811.865	7521
812.007	7613
812.148	7601
812.29	7674
812.431	7879
812.573	7906
812.714	8016
812.855	8187
812.997	8240
813.138	8279
813.279	8218
813.421	8081
813.562	7944
813.703	7871
813.845	7704
813.986	7472
814.127	7236
814.268	7198
814.41	7225
814.551	7179
814.692	7217
814.833	7069
814.974	7137
815.115	7194
815.256	7053
815.397	7000
815.539	6966
815.68	6840
815.821	6825
815.962	6886
816.103	6844
816.244	6745
816.385	6604
816.526	6665
816.666	6559
816.807	6311
816.948	6498
817.089	6460
817.23	6498
817.371	6369
817.512	6445
817.653	6414
817.793	6391
817.934	6452
818.075	6525
818.216	6410
818.356	6448
818.497	6270
818.638	6159
818.778	6232
818.919	6167
819.06	6175
819.2	6414
819.341	6395
819.481	6464
819.622	6620
819.762	6726
819.903	6673
820.043	6620
820.184	6646
820.324	6608
820.465	6730
820.605	6673
820.746	6623
820.886	6627
821.026	6741
821.167	6776
821.307	6859
821.447	6829
821.588	6669
821.728	6597
821.868	6566
822.008	6281
822.149	6380
822.289	6338
822.429	6266
822.569	6098
822.709	6117
822.849	5954
822.99	5942
823.13	5984
823.27	5923
823.41	5859
823.55	5794
823.69	5779
823.83	5813
823.97	5695
824.11	5532
824.25	5482
824.389	5630
824.529	5642
824.669	5554
824.809	5661
824.949	5684
825.089	5619
825.228	5581
825.368	5410
825.508	5379
825.648	5391
825.787	5414
825.927	5410
826.067	5326
826.206	5318
826.346	5410
826.485	5376
826.625	5425
826.765	5554
826.904	5490
827.044	5254
827.183	5227
827.323	5132
827.462	5265
827.601	5189
827.741	5269
827.88	5220
828.02	5124
828.159	5265
828.298	5341
828.437	5376
828.577	5326
828.716	5459
828.855	5360
828.994	5235
829.134	5204
829.273	5216
829.412	5212
829.551	5159
829.69	5185
829.829	5292
829.968	5398
830.107	5299
830.246	5299
830.385	5223
830.524	5166
830.663	5094
830.802	5045
830.941	4896
831.08	4873
831.219	4995
831.357	4957
831.496	5193
831.635	4987
831.774	4877
831.913	4881
832.051	4790
832.19	4790
832.329	4858
832.467	4679
832.606	4656
832.744	4809
832.883	4721
833.022	4786
833.16	4778
833.299	4866
833.437	4908
833.576	4885
833.714	4870
833.852	4877
833.991	4946
834.129	4961
834.267	4927
834.406	4949
834.544	4972
834.682	5010
834.821	4991
834.959	5178
835.097	5045
835.235	5162
835.373	5109
835.511	5124
835.65	5052
835.788	5067
835.926	4889
836.064	4900
836.202	4991
836.34	5109
836.478	5220
836.615	5143
836.753	5223
836.891	5322
837.029	5254
837.167	5216
837.305	5136
837.443	5189
837.58	5117
837.718	5299
837.856	5193
837.993	5170
838.131	5246
838.269	5212
838.406	5235
838.544	5216
838.681	5071
838.819	5045
838.956	4930
839.094	4919
839.231	4995
839.369	5102
839.506	5417
839.643	5258
839.781	5086
839.918	5052
840.055	5128
840.193	5067
840.33	5113
840.467	5140
840.604	5166
840.742	5452
840.879	5086
841.016	5105
841.153	5189
841.29	5337
841.427	5376
841.564	5364
841.701	5398
841.838	5364
841.975	5223
842.112	5337
842.249	5155
842.385	5151
842.522	5357
842.659	5159
842.796	5212
842.933	5227
843.069	5166
843.206	5212
843.343	5368
843.479	5296
843.616	5315
843.752	5048
843.889	5037
844.025	5258
844.162	5060
844.298	5239
844.435	5121
844.571	5067
844.708	5246
844.844	5265
844.98	5368
845.117	5368
845.253	5143
845.389	5083
845.525	5227
845.661	5170
845.798	5117
845.934	5128
846.07	5094
846.206	5223
846.342	5265
846.478	5212
846.614	4984
846.75	4980
846.886	4900
847.022	5185
847.158	5037
847.294	5098
847.429	5102
847.565	5060
847.701	5391
847.837	4866
847.972	4790
848.108	4934
848.244	4930
848.379	4812
848.515	4755
848.65	4828
848.786	4755
848.921	4790
849.057	4877
849.192	4896
849.328	4824
849.463	4831
849.598	4835
849.734	4782
849.869	4774
850.004	4668
850.14	4691
850.275	4603
850.41	4561
850.545	4584
850.68	4630
850.815	4611
850.95	4656
851.085	4881
851.22	4767
851.355	4668
851.49	4649
851.625	4634
851.76	4675
851.895	4569
852.03	4478
852.165	4672
852.299	4725
852.434	4812
852.569	4752
852.703	4805
852.838	4831
852.973	4991
853.107	4908
853.242	4752
853.376	4672
853.511	4565
853.645	4656
853.78	4843
853.914	4706
854.048	4653
854.183	4694
854.317	4668
854.451	4828
854.585	4710
854.72	4630
854.854	4759
854.988	4558
855.122	4641
855.256	4546
855.39	4649
855.524	4790
855.658	4736
855.792	4641
855.926	4668
856.06	4759
856.194	4786
856.327	4698
856.461	4664
856.595	4611
856.729	4649
856.862	4740
856.996	4664
857.13	4706
857.263	4801
857.397	4843
857.53	4702
857.664	4748
857.797	4824
857.931	4797
858.064	4683
858.197	4752
858.331	4683
858.464	4599
858.597	4542
858.731	4668
858.864	4637
858.997	4634
859.13	4683
859.263	4626
859.396	4759
859.529	4634
859.662	4535
859.795	4527
859.928	4630
860.061	4790
860.194	4797
860.327	4596
860.46	4546
860.592	4675
860.725	4710
860.858	4683
860.99	4550
861.123	4554
861.256	4558
861.388	4592
861.521	5482
861.653	4497
861.786	4447
861.918	4485
862.05	4523
862.183	4569
862.315	4618
862.447	4706
862.58	4554
862.712	4459
862.844	4379
862.976	4459
863.108	4516
863.24	4748
863.372	4379
863.504	4432
863.636	4402
863.768	4447
863.9	4470
864.032	4417
864.164	4405
864.296	4497
864.428	4546
864.559	4588
864.691	4565
864.823	4592
864.954	4512
865.086	4485
865.217	4447
865.349	4402
865.48	4481
865.612	4451
865.743	4637
865.875	4481
866.006	4462
866.137	4508
866.269	4443
866.4	4402
866.531	4379
866.662	4405
866.793	4409
866.924	4459
867.055	4466
867.186	4466
867.317	4417
867.448	4310
867.579	4436
867.71	4398
867.841	4352
867.972	4481
868.103	4432
868.233	4462
868.364	4478
868.495	4538
868.625	4641
868.756	4752
868.886	4554
869.017	4599
869.147	4774
869.278	4774
869.408	4599
869.539	4675
869.669	4710
869.799	4668
869.929	4771
870.06	4721
870.19	4961
870.32	4915
870.45	4938
870.58	5018
870.71	5102
870.84	5090
870.97	4938
871.1	4873
871.23	5140
871.36	5170
871.489	5014
871.619	5102
871.749	5143
871.879	5147
872.008	5178
872.138	5071
872.267	4934
872.397	4854
872.526	4809
872.656	4729
872.785	4812
872.915	4999
873.044	5025
873.173	4934
873.303	4938
873.432	4942
873.561	4987
873.69	4904
873.819	4862
873.948	4885
874.077	4816
874.206	4748
874.335	4786
874.464	4911
874.593	5083
874.722	5022
874.851	5098
874.979	5086
875.108	5064
875.237	4862
875.365	4843
875.494	4858
875.623	4942
875.751	4847
875.88	4850
876.008	5025
876.136	5064
876.265	5216
876.393	5364
876.521	5269
876.65	5204
876.778	5155
876.906	5075
877.034	5014
877.162	5121
877.29	5003
877.418	5121
877.546	5022
877.674	5010
877.802	4980
877.93	4995
878.058	4968
878.185	4881
878.313	4934
878.441	4968
878.568	4805
878.696	4904
878.824	4930
878.951	4972
879.079	5128
879.206	5254
879.333	5162
879.461	5014
879.588	4984
879.715	5094
879.842	5254
879.97	5006
880.097	4786
880.224	4767
880.351	4790
880.478	4801
880.605	4801
880.732	4805
880.859	5052
880.986	4919
881.112	4927
881.239	4771
881.366	4618
881.493	4603
881.619	4611
881.746	4630
881.872	4660
881.999	4672
882.125	4717
882.252	4774
882.378	4843
882.505	4984
882.631	4858
882.757	4634
882.883	4733
883.01	4759
883.136	4675
883.262	4641
883.388	4634
883.514	4835
883.64	4870
883.766	4816
883.892	4645
884.018	4740
884.143	4915
884.269	4987
884.395	4714
884.52	4626
884.646	4694
884.772	4588
884.897	4504
885.023	4721
885.148	4736
885.274	4850
885.399	4805
885.524	4694
885.65	4694
885.775	4763
885.9	4721
886.025	4911
886.15	4782
886.275	4687
886.4	4645
886.525	4710
886.65	4672
886.775	4675
886.9	4896
887.025	4987
887.149	4790
887.274	4615
887.399	4577
887.523	4618
887.648	4626
887.773	4603
887.897	4733
888.021	4816
888.146	4698
888.27	4797
888.395	4915
888.519	4797
888.643	4831
888.767	4786
888.891	4702
889.015	4649
889.139	4679
889.263	4603
889.387	4717
889.511	4885
889.635	4835
889.759	4641
889.883	4599
890.006	4729
890.13	4824
890.254	4622
890.377	4656
890.501	4573
890.624	4523
890.748	4622
890.871	4470
890.995	4436
891.118	4390
891.241	4550
891.364	4561
891.488	4618
891.611	4527
891.734	4531
891.857	4577
891.98	4558
892.103	4664
892.226	4558
892.349	4546
892.471	4405
892.594	4535
892.717	4603
892.839	4573
892.962	4577
893.085	4660
893.207	4672
893.33	4455
893.452	4531
893.575	4691
893.697	4607
893.819	4805
893.941	4858
894.064	4752
894.186	4580
894.308	4580
894.43	4702
894.552	4809
894.674	4759
894.796	4546
894.918	4618
895.04	4535
895.161	4698
895.283	4664
895.405	4603
895.526	4649
895.648	4691
895.769	4698
895.891	4694
896.012	4733
896.134	4698
896.255	4622
896.376	4634
896.498	4611
896.619	4691
896.74	4607
896.861	4649
896.982	4957
897.103	5094
897.224	4828
897.345	4763
897.466	4683
897.587	4721
897.708	4870
897.828	4812
897.949	4687
898.07	4546
898.19	4649
898.311	4835
898.431	4683
898.552	4706
898.672	4839
898.792	4805
898.913	4706
899.033	4672
899.153	4497
899.273	4409
899.393	4508
899.513	4565
899.633	4516
899.753	4542
899.873	4500
899.993	4577
900.113	4580
900.232	4580
900.352	4538
900.472	4497
900.591	4398
900.711	4489
900.83	4402
900.95	4565
901.069	4679
901.189	4535
901.308	4322
901.427	4325
901.546	4413
901.665	4447
901.784	4493
901.904	4379
902.023	4371
902.141	4230
902.26	4162
902.379	4280
902.498	4219
902.617	4234
902.735	4402
902.854	4383
902.973	4348
903.091	4219
903.21	4287
903.328	4329
903.446	4284
903.565	4238
903.683	4352
903.801	4284
903.919	4417
904.038	4432
904.156	4272
904.274	4478
904.392	4371
904.51	4421
904.627	4478
904.745	4596
904.863	4656
904.981	4390
905.098	4303
905.216	4421
905.334	4459
905.451	4474
905.569	4432
905.686	4565
905.803	4554
905.921	4424
906.038	4538
906.155	4459
906.272	4398
906.389	4478
906.506	4348
906.623	4390
906.74	4417
906.857	4299
906.974	4386
907.091	4527
907.208	4679
907.324	4550
907.441	4481
907.557	4325
907.674	4363
907.79	4303
907.907	4394
908.023	4481
908.139	4485
908.256	4417
908.372	4455
908.488	4466
908.604	4348
908.72	4356
908.836	4344
908.952	4375
909.068	4447
909.184	4615
909.3	4489
909.415	4645
909.531	4542
909.647	4329
909.762	4379
909.878	4333
909.993	4417
910.108	4363
910.224	4371
910.339	4508
910.454	4352
910.57	4379
910.685	4310
910.8	4645
910.915	4584
911.03	4516
911.145	4265
911.259	4306
911.374	4352
911.489	4310
911.604	4299
911.718	4177
911.833	4166
911.947	4101
912.062	3994
912.176	4192
912.291	4219
912.405	4272
912.519	4424
912.633	4504
912.748	4386
912.862	4291
912.976	4204
913.09	4074
913.204	4211
913.318	4246
913.431	4360
913.545	4383
913.659	4394
913.772	4322
913.886	4230
914	4276
914.113	4371
914.226	4413
914.34	4383
914.453	4284
914.566	4421
914.68	4291
914.793	4333
914.906	4204
915.019	4177
915.132	4059
915.245	4227
915.358	4192
915.47	4246
915.583	4276
915.696	4284
915.809	4394
915.921	4421
916.034	4253
916.146	4261
916.259	4227
916.371	4394
916.483	4333
916.595	4268
916.708	4268
916.82	4348
916.932	4310
917.044	4310
917.156	4295
917.268	4238
917.38	4238
917.491	4303
917.603	4386
917.715	4428
917.826	4485
917.938	4333
918.049	4261
918.161	4402
918.272	4554
918.384	4527
918.495	4421
918.606	4299
918.717	4242
918.828	4337
918.939	4367
919.05	4257
919.161	4314
919.272	4158
919.383	4200
919.494	4459
919.604	4584
919.715	4470
919.826	4333
919.936	4428
920.047	4500
920.157	4470
920.267	4714
920.378	4569
920.488	4489
920.598	4679
920.708	4911
920.818	4740
920.928	4763
921.038	4938
921.148	4908
921.258	4615
921.368	4561
921.477	4470
921.587	4432
921.697	4329
921.806	4516
921.916	4413
922.025	4234
922.134	4306
922.244	4223
922.353	4325
922.462	4166
922.571	4101
922.68	4006
922.789	3949
922.898	4044
923.007	4006
923.116	4067
923.224	4086
923.333	4055
923.442	3972
923.55	3987
923.659	4032
923.767	4059
923.876	4006
923.984	4109
924.092	3983
924.201	4063
924.309	4051
924.417	4124
924.525	4074
924.633	4116
924.741	5071
924.849	3949
924.956	4135
925.064	3922
925.172	3899
925.279	3964
925.387	4078
925.494	4063
925.602	4177
925.709	4181
925.816	4067
925.924	4131
926.031	4223
926.138	4158
926.245	4192
926.352	4086
926.459	4246
926.566	4299
926.673	4158
926.779	4093
926.886	4074
926.993	3987
927.099	3949
927.206	3915
927.312	3937
927.419	4074
927.525	4063
927.631	4032
927.737	3968
927.843	3941
927.95	3869
928.056	3975
928.162	3987
928.267	4029
928.373	4573
928.479	4109
928.585	3922
928.69	4006
928.796	4044
928.901	4032
929.007	3838
929.112	4002
929.218	3979
929.323	3953
929.428	3922
929.533	4166
929.638	3896
929.743	3960
929.848	4029
929.953	3968
930.058	3888
930.163	3778
930.267	3827
930.372	3949
930.477	3827
930.581	4101
930.685	3945
930.79	3831
930.894	3907
930.998	3816
931.103	4002
931.207	3743
931.311	3717
931.415	3698
931.519	3477
931.623	3515
