Data from test_V78500241_2308.txt Node
Date: Fri Mar 25 17:05:03 CST 2022
User: usil
Spectrometer: V785-0024
Trigger mode: 0
Integration Time (sec): 4.000000E-1
Scans to average: 1
Nonlinearity correction enabled: false
Boxcar width: 0
Storing dark spectrum: false
XAxis mode: Wavelengths
Number of Pixels in Spectrum: 1024
>>>>>Begin Spectral Data<<<<<
801.071	8027
801.214	7963
801.356	7898
801.499	7849
801.641	7837
801.783	7909
801.926	7947
802.068	7898
802.211	8016
802.353	8046
802.496	7856
802.638	7936
802.78	7868
802.923	7917
803.065	7860
803.208	7898
803.35	8024
803.492	8111
803.635	8157
803.777	8077
803.919	8134
804.061	8404
804.204	8168
804.346	8058
804.488	7982
804.63	8024
804.773	7940
804.915	8142
805.057	8301
805.199	8202
805.341	8214
805.483	8225
805.626	8256
805.768	8149
805.91	8161
806.052	8240
806.194	8111
806.336	8275
806.478	8054
806.62	8024
806.762	8210
806.904	8229
807.046	8488
807.188	8381
807.33	8225
807.472	8332
807.614	8221
807.756	8199
807.898	8065
808.04	7902
808.182	7875
808.324	7887
808.465	7989
808.607	8096
808.749	8043
808.891	8229
809.033	8324
809.174	8176
809.316	8145
809.458	8050
809.6	8008
809.741	8062
809.883	8005
810.025	8172
810.166	8081
810.308	8058
810.45	7967
810.591	7913
810.733	7704
810.875	7689
811.016	7506
811.158	7464
811.299	7495
811.441	7738
811.582	7658
811.724	7559
811.865	7582
812.007	7540
812.148	7578
812.29	7601
812.431	7734
812.573	7917
812.714	7921
812.855	8088
812.997	8206
813.138	8263
813.279	8153
813.421	8077
813.562	7890
813.703	7837
813.845	7746
813.986	7434
814.127	7255
814.268	7206
814.41	7240
814.551	7190
814.692	7232
814.833	7091
814.974	7065
815.115	7110
815.256	6962
815.397	6882
815.539	6962
815.68	6814
815.821	6776
815.962	6833
816.103	6802
816.244	6684
816.385	6536
816.526	6627
816.666	6498
816.807	6342
816.948	6410
817.089	6467
817.23	6486
817.371	6369
817.512	6369
817.653	6369
817.793	6331
817.934	6395
818.075	6460
818.216	6460
818.356	6403
818.497	6194
818.638	6155
818.778	6182
818.919	6102
819.06	6144
819.2	6300
819.341	6331
819.481	6369
819.622	6547
819.762	6734
819.903	6700
820.043	6616
820.184	6646
820.324	6616
820.465	6715
820.605	6662
820.746	6631
820.886	6559
821.026	6681
821.167	6692
821.307	6821
821.447	6764
821.588	6719
821.728	6616
821.868	6536
822.008	6353
822.149	6346
822.289	6410
822.429	6239
822.569	6178
822.709	6129
822.849	5988
822.99	5927
823.13	5942
823.27	5965
823.41	5855
823.55	5885
823.69	5786
823.83	5783
823.97	5684
824.11	5604
824.25	5608
824.389	5566
824.529	5589
824.669	5528
824.809	5653
824.949	5707
825.089	5668
825.228	5608
825.368	5406
825.508	5417
825.648	5383
825.787	5395
825.927	5421
826.067	5334
826.206	5337
826.346	5387
826.485	5402
826.625	5425
826.765	5589
826.904	5524
827.044	5345
827.183	5242
827.323	5197
827.462	5284
827.601	5231
827.741	5235
827.88	5273
828.02	5185
828.159	5284
828.298	5376
828.437	5414
828.577	5330
828.716	5486
828.855	5364
828.994	5189
829.134	5181
829.273	5261
829.412	5201
829.551	5193
829.69	5235
829.829	5277
829.968	5364
830.107	5261
830.246	5284
830.385	5170
830.524	5189
830.663	5067
830.802	5003
830.941	4881
831.08	4904
831.219	4987
831.357	5010
831.496	5170
831.635	4976
831.774	4877
831.913	4889
832.051	4790
832.19	4774
832.329	4904
832.467	4721
832.606	4660
832.744	4774
832.883	4763
833.022	4748
833.16	4801
833.299	4858
833.437	4946
833.576	4892
833.714	4965
833.852	4873
833.991	4930
834.129	5006
834.267	5014
834.406	4915
834.544	4999
834.682	4999
834.821	5003
834.959	5166
835.097	5075
835.235	5174
835.373	5132
835.511	5189
835.65	5083
835.788	5071
835.926	4965
836.064	4961
836.202	4946
836.34	5258
836.478	5254
836.615	5170
836.753	5231
836.891	5368
837.029	5292
837.167	5277
837.305	5239
837.443	5220
837.58	5132
837.718	5307
837.856	5212
837.993	5155
838.131	5261
838.269	5261
838.406	5242
838.544	5174
838.681	5102
838.819	5010
838.956	4980
839.094	4911
839.231	4987
839.369	5128
839.506	5478
839.643	5345
839.781	5029
839.918	5098
840.055	5140
840.193	5090
840.33	5124
840.467	5155
840.604	5242
840.742	5543
840.879	5151
841.016	5090
841.153	5166
841.29	5376
841.427	5330
841.564	5357
841.701	5452
841.838	5292
841.975	5212
842.112	5277
842.249	5189
842.385	5201
842.522	5436
842.659	5212
842.796	5185
842.933	5246
843.069	5140
843.206	5185
843.343	5307
843.479	5296
843.616	5315
843.752	5086
843.889	5029
844.025	5231
844.162	5029
844.298	5265
844.435	5143
844.571	5067
844.708	5246
844.844	5357
844.98	5429
845.117	5368
845.253	5143
845.389	5132
845.525	5159
845.661	5174
845.798	5056
845.934	5162
846.07	5064
846.206	5220
846.342	5254
846.478	5174
846.614	5018
846.75	4995
846.886	4987
847.022	5109
847.158	5045
847.294	5121
847.429	5113
847.565	5094
847.701	5334
847.837	4892
847.972	4820
848.108	4965
848.244	4999
848.379	4778
848.515	4755
848.65	4809
848.786	4725
848.921	4797
849.057	4896
849.192	4949
849.328	4850
849.463	4858
849.598	4793
849.734	4767
849.869	4736
850.004	4649
850.14	4653
850.275	4584
850.41	4550
850.545	4592
850.68	4626
850.815	4622
850.95	4672
851.085	4847
851.22	4786
851.355	4694
851.49	4672
851.625	4656
851.76	4645
851.895	4611
852.03	4596
852.165	4706
852.299	4736
852.434	4816
852.569	4763
852.703	4812
852.838	4831
852.973	4976
853.107	4930
853.242	4755
853.376	4691
853.511	4577
853.645	4687
853.78	4805
853.914	4710
854.048	4717
854.183	4691
854.317	4710
854.451	4873
854.585	4656
854.72	4641
854.854	4767
854.988	4618
855.122	4687
855.256	4538
855.39	4687
855.524	4812
855.658	4793
855.792	4717
855.926	4714
856.06	4820
856.194	4828
856.327	4698
856.461	4611
856.595	4615
856.729	4656
856.862	4755
856.996	4706
857.13	4733
857.263	4729
857.397	4801
857.53	4668
857.664	4736
857.797	4763
857.931	4793
858.064	4698
858.197	4782
858.331	4675
858.464	4641
858.597	4550
858.731	4672
858.864	4668
858.997	4615
859.13	4721
859.263	4668
859.396	4672
859.529	4653
859.662	4527
859.795	4596
859.928	4668
860.061	4797
860.194	4774
860.327	4664
860.46	4573
860.592	4729
860.725	4729
860.858	4714
860.99	4558
861.123	4512
861.256	4561
861.388	4596
861.521	5239
861.653	4466
861.786	4489
861.918	4493
862.05	4531
862.183	4592
862.315	4588
862.447	4675
862.58	4546
862.712	4436
862.844	4363
862.976	4478
863.108	4466
863.24	4919
863.372	4360
863.504	4451
863.636	4428
863.768	4580
863.9	4443
864.032	4417
864.164	4447
864.296	4504
864.428	4554
864.559	4569
864.691	4573
864.823	4565
864.954	4554
865.086	4519
865.217	4489
865.349	4432
865.48	4554
865.612	4493
865.743	4622
865.875	4535
866.006	4432
866.137	4474
866.269	4451
866.4	4470
866.531	4447
866.662	4470
866.793	4405
866.924	4417
867.055	4493
867.186	4459
867.317	4436
867.448	4394
867.579	4379
867.71	4413
867.841	4383
867.972	4493
868.103	4451
868.233	4527
868.364	4447
868.495	4527
868.625	4611
868.756	4771
868.886	4580
869.017	4626
869.147	4816
869.278	4733
869.408	4687
869.539	4626
869.669	4771
869.799	4660
869.929	4774
870.06	4729
870.19	4987
870.32	4934
870.45	4942
870.58	5060
870.71	5113
870.84	5121
870.97	4995
871.1	4946
871.23	5151
871.36	5212
871.489	5071
871.619	5113
871.749	5060
871.879	5155
872.008	5201
872.138	5064
872.267	4995
872.397	4892
872.526	4786
872.656	4774
872.785	4801
872.915	4980
873.044	5056
873.173	4991
873.303	4984
873.432	4965
873.561	4987
873.69	4915
873.819	4862
873.948	4946
874.077	4824
874.206	4797
874.335	4831
874.464	4930
874.593	5067
874.722	5018
874.851	5121
874.979	5098
875.108	5014
875.237	4942
875.365	4858
875.494	4904
875.623	5025
875.751	4870
875.88	4862
876.008	4991
876.136	5048
876.265	5189
876.393	5368
876.521	5273
876.65	5280
876.778	5201
876.906	5064
877.034	5064
877.162	5060
877.29	5014
877.418	5048
877.546	5018
877.674	5052
877.802	5033
877.93	5006
878.058	4938
878.185	4908
878.313	4991
878.441	4938
878.568	4812
878.696	4881
878.824	5014
878.951	5056
879.079	5159
879.206	5334
879.333	5117
879.461	5014
879.588	5010
879.715	5147
879.842	5212
879.97	5022
880.097	4843
880.224	4809
880.351	4835
880.478	4820
880.605	4805
880.732	4797
880.859	5079
880.986	4915
881.112	4934
881.239	4774
881.366	4660
881.493	4630
881.619	4546
881.746	4664
881.872	4649
881.999	4664
882.125	4710
882.252	4824
882.378	4831
882.505	4968
882.631	4744
882.757	4679
882.883	4793
883.01	4721
883.136	4637
883.262	4603
883.388	4596
883.514	4843
883.64	4850
883.766	4816
883.892	4664
884.018	4721
884.143	4900
884.269	5025
884.395	4714
884.52	4656
884.646	4672
884.772	4618
884.897	4558
885.023	4691
885.148	4835
885.274	4904
885.399	4816
885.524	4687
885.65	4717
885.775	4793
885.9	4729
886.025	4847
886.15	4790
886.275	4691
886.4	4660
886.525	4714
886.65	4714
886.775	4687
886.9	4911
887.025	5056
887.149	4824
887.274	4679
887.399	4607
887.523	4622
887.648	4569
887.773	4603
887.897	4759
888.021	4824
888.146	4630
888.27	4831
888.395	4911
888.519	4774
888.643	4828
888.767	4858
888.891	4687
889.015	4615
889.139	4626
889.263	4645
889.387	4767
889.511	4862
889.635	4763
889.759	4626
889.883	4626
890.006	4752
890.13	4892
890.254	4622
890.377	4653
890.501	4554
890.624	4535
890.748	4634
890.871	4519
890.995	4413
891.118	4379
891.241	4516
891.364	4603
891.488	4664
891.611	4546
891.734	4523
891.857	4626
891.98	4599
892.103	4656
892.226	4580
892.349	4523
892.471	4455
892.594	4561
892.717	4573
892.839	4599
892.962	4588
893.085	4653
893.207	4588
893.33	4481
893.452	4516
893.575	4664
893.697	4615
893.819	4793
893.941	4866
894.064	4805
894.186	4599
894.308	4561
894.43	4752
894.552	4812
894.674	4740
894.796	4569
894.918	4592
895.04	4580
895.161	4752
895.283	4656
895.405	4599
895.526	4660
895.648	4725
895.769	4694
895.891	4733
896.012	4786
896.134	4698
896.255	4664
896.376	4615
896.498	4660
896.619	4721
896.74	4645
896.861	4618
896.982	4915
897.103	5067
897.224	4858
897.345	4736
897.466	4645
897.587	4752
897.708	4942
897.828	4763
897.949	4691
898.07	4577
898.19	4645
898.311	4847
898.431	4683
898.552	4752
898.672	4805
898.792	4774
898.913	4736
899.033	4656
899.153	4485
899.273	4474
899.393	4474
899.513	4508
899.633	4527
899.753	4535
899.873	4470
899.993	4607
900.113	4558
900.232	4561
900.352	4577
900.472	4432
900.591	4413
900.711	4527
900.83	4451
900.95	4630
901.069	4698
901.189	4550
901.308	4417
901.427	4337
901.546	4356
901.665	4466
901.784	4565
901.904	4341
902.023	4329
902.141	4173
902.26	4166
902.379	4318
902.498	4257
902.617	4219
902.735	4413
902.854	4390
902.973	4325
903.091	4253
903.21	4227
903.328	4280
903.446	4249
903.565	4268
903.683	4371
903.801	4322
903.919	4390
904.038	4470
904.156	4363
904.274	4379
904.392	4436
904.51	4459
904.627	4474
904.745	4561
904.863	4622
904.981	4394
905.098	4318
905.216	4375
905.334	4402
905.451	4421
905.569	4421
905.686	4554
905.803	4527
905.921	4398
906.038	4561
906.155	4447
906.272	4421
906.389	4443
906.506	4379
906.623	4417
906.74	4432
906.857	4280
906.974	4325
907.091	4577
907.208	4653
907.324	4584
907.441	4546
907.557	4360
907.674	4325
907.79	4325
907.907	4348
908.023	4523
908.139	4489
908.256	4421
908.372	4500
908.488	4409
908.604	4402
908.72	4363
908.836	4398
908.952	4402
909.068	4440
909.184	4603
909.3	4485
909.415	4561
909.531	4535
909.647	4386
909.762	4379
909.878	4318
909.993	4481
910.108	4421
910.224	4405
910.339	4447
910.454	4390
910.57	4371
910.685	4352
910.8	4660
910.915	4622
911.03	4455
911.145	4299
911.259	4352
911.374	4318
911.489	4337
911.604	4287
911.718	4181
911.833	4204
911.947	4131
912.062	4010
912.176	4196
912.291	4246
912.405	4249
912.519	4493
912.633	4523
912.748	4379
912.862	4299
912.976	4181
913.09	4105
913.204	4143
913.318	4246
913.431	4356
913.545	4398
913.659	4436
913.772	4348
913.886	4230
914	4265
914.113	4398
914.226	4417
914.34	4440
914.453	4276
914.566	4386
914.68	4299
914.793	4272
914.906	4150
915.019	4162
915.132	4071
915.245	4192
915.358	4207
915.47	4276
915.583	4249
915.696	4318
915.809	4383
915.921	4428
916.034	4249
916.146	4246
916.259	4204
916.371	4344
916.483	4333
916.595	4249
916.708	4333
916.82	4325
916.932	4352
917.044	4295
917.156	4329
917.268	4242
917.38	4295
917.491	4268
917.603	4398
917.715	4428
917.826	4440
917.938	4348
918.049	4223
918.161	4341
918.272	4500
918.384	4535
918.495	4443
918.606	4333
918.717	4196
918.828	4310
918.939	4402
919.05	4246
919.161	4341
919.272	4112
919.383	4215
919.494	4413
919.604	4618
919.715	4398
919.826	4356
919.936	4375
920.047	4455
920.157	4504
920.267	4717
920.378	4561
920.488	4508
920.598	4710
920.708	4896
920.818	4763
920.928	4748
921.038	4953
921.148	4900
921.258	4626
921.368	4615
921.477	4508
921.587	4447
921.697	4367
921.806	4527
921.916	4421
922.025	4242
922.134	4325
922.244	4223
922.353	4322
922.462	4181
922.571	4124
922.68	4002
922.789	4006
922.898	4055
923.007	3972
923.116	4071
923.224	4059
923.333	4071
923.442	4013
923.55	4002
923.659	3998
923.767	4074
923.876	4006
923.984	4143
924.092	3953
924.201	4051
924.309	4109
924.417	4074
924.525	4032
924.633	4078
924.741	5067
924.849	3884
924.956	4150
925.064	3911
925.172	3892
925.279	3918
925.387	4040
925.494	4032
925.602	4185
925.709	4181
925.816	4051
925.924	4105
926.031	4219
926.138	4143
926.245	4215
926.352	4067
926.459	4211
926.566	4329
926.673	4158
926.779	4097
926.886	4101
926.993	4017
927.099	3979
927.206	3922
927.312	3937
927.419	4017
927.525	4051
927.631	4120
927.737	3888
927.843	3918
927.95	3827
928.056	3922
928.162	4017
928.267	4090
928.373	4672
928.479	4090
928.585	3869
928.69	3991
928.796	4044
928.901	3979
929.007	3842
929.112	4044
929.218	3994
929.323	3960
929.428	3930
929.533	4112
929.638	3937
929.743	3945
929.848	4017
929.953	3972
930.058	3930
930.163	3740
930.267	3835
930.372	3991
930.477	3800
930.581	4097
930.685	3911
930.79	3846
930.894	3892
930.998	3854
931.103	4036
931.207	3724
931.311	3709
931.415	3717
931.519	3507
931.623	3568
