Data from test_V78500241_1164.txt Node
Date: Fri Mar 25 16:57:05 CST 2022
User: usil
Spectrometer: V785-0024
Trigger mode: 0
Integration Time (sec): 4.000000E-1
Scans to average: 1
Nonlinearity correction enabled: false
Boxcar width: 0
Storing dark spectrum: false
XAxis mode: Wavelengths
Number of Pixels in Spectrum: 1024
>>>>>Begin Spectral Data<<<<<
801.071	8065
801.214	8035
801.356	7921
801.499	7822
801.641	7765
801.783	7814
801.926	7921
802.068	7944
802.211	7970
802.353	7947
802.496	7868
802.638	7868
802.78	7944
802.923	7898
803.065	7917
803.208	7864
803.35	8008
803.492	8065
803.635	8134
803.777	7955
803.919	8138
804.061	8446
804.204	8096
804.346	8031
804.488	7982
804.63	8119
804.773	7967
804.915	8084
805.057	8305
805.199	8107
805.341	8221
805.483	8267
805.626	8202
805.768	8069
805.91	8259
806.052	8187
806.194	8081
806.336	8275
806.478	8065
806.62	8035
806.762	8176
806.904	8298
807.046	8454
807.188	8282
807.33	8267
807.472	8263
807.614	8168
807.756	8176
807.898	8005
808.04	7936
808.182	7887
808.324	7894
808.465	7947
808.607	8073
808.749	8126
808.891	8202
809.033	8267
809.174	8157
809.316	8100
809.458	7986
809.6	7928
809.741	8065
809.883	8031
810.025	8100
810.166	8062
810.308	7982
810.45	7959
810.591	7879
810.733	7689
810.875	7639
811.016	7468
811.158	7502
811.299	7624
811.441	7719
811.582	7719
811.724	7613
811.865	7514
812.007	7510
812.148	7624
812.29	7563
812.431	7719
812.573	7856
812.714	7970
812.855	8138
812.997	8183
813.138	8256
813.279	8221
813.421	8100
813.562	8001
813.703	7845
813.845	7723
813.986	7453
814.127	7312
814.268	7171
814.41	7198
814.551	7129
814.692	7171
814.833	7019
814.974	7084
815.115	7072
815.256	6909
815.397	6863
815.539	6947
815.68	6821
815.821	6787
815.962	6844
816.103	6825
816.244	6658
816.385	6612
816.526	6563
816.666	6464
816.807	6319
816.948	6380
817.089	6471
817.23	6464
817.371	6346
817.512	6399
817.653	6384
817.793	6372
817.934	6433
818.075	6452
818.216	6445
818.356	6391
818.497	6243
818.638	6091
818.778	6133
818.919	6148
819.06	6190
819.2	6308
819.341	6308
819.481	6380
819.622	6464
819.762	6757
819.903	6662
820.043	6578
820.184	6616
820.324	6563
820.465	6696
820.605	6658
820.746	6620
820.886	6532
821.026	6616
821.167	6665
821.307	6757
821.447	6715
821.588	6623
821.728	6555
821.868	6509
822.008	6277
822.149	6422
822.289	6380
822.429	6148
822.569	6064
822.709	6030
822.849	5931
822.99	5863
823.13	5908
823.27	5916
823.41	5805
823.55	5733
823.69	5741
823.83	5813
823.97	5596
824.11	5562
824.25	5512
824.389	5512
824.529	5573
824.669	5532
824.809	5589
824.949	5623
825.089	5573
825.228	5600
825.368	5376
825.508	5337
825.648	5379
825.787	5360
825.927	5330
826.067	5246
826.206	5311
826.346	5383
826.485	5402
826.625	5360
826.765	5512
826.904	5471
827.044	5212
827.183	5208
827.323	5128
827.462	5296
827.601	5162
827.741	5189
827.88	5242
828.02	5121
828.159	5250
828.298	5299
828.437	5299
828.577	5296
828.716	5512
828.855	5318
828.994	5105
829.134	5117
829.273	5151
829.412	5155
829.551	5185
829.69	5170
829.829	5181
829.968	5395
830.107	5250
830.246	5201
830.385	5162
830.524	5109
830.663	5033
830.802	4942
830.941	4835
831.08	4881
831.219	5029
831.357	5003
831.496	5147
831.635	4873
831.774	4816
831.913	4809
832.051	4691
832.19	4679
832.329	4896
832.467	4668
832.606	4611
832.744	4694
832.883	4748
833.022	4717
833.16	4809
833.299	4805
833.437	4793
833.576	4793
833.714	4812
833.852	4828
833.991	4881
834.129	4946
834.267	4927
834.406	4877
834.544	4965
834.682	4976
834.821	4984
834.959	5147
835.097	4976
835.235	5113
835.373	5052
835.511	5105
835.65	5003
835.788	5006
835.926	4900
836.064	4877
836.202	4896
836.34	5113
836.478	5185
836.615	5113
836.753	5189
836.891	5296
837.029	5261
837.167	5170
837.305	5124
837.443	5113
837.58	5067
837.718	5174
837.856	5208
837.993	5121
838.131	5223
838.269	5178
838.406	5212
838.544	5204
838.681	5048
838.819	4972
838.956	4900
839.094	4866
839.231	4987
839.369	5102
839.506	5406
839.643	5242
839.781	5025
839.918	5010
840.055	5045
840.193	5117
840.33	5025
840.467	5102
840.604	5143
840.742	5417
840.879	5079
841.016	5064
841.153	5174
841.29	5337
841.427	5326
841.564	5261
841.701	5337
841.838	5231
841.975	5185
842.112	5204
842.249	5166
842.385	5037
842.522	5322
842.659	5117
842.796	5109
842.933	5151
843.069	5071
843.206	5117
843.343	5337
843.479	5227
843.616	5242
843.752	5018
843.889	4987
844.025	5193
844.162	5064
844.298	5159
844.435	5067
844.571	5045
844.708	5162
844.844	5292
844.98	5330
845.117	5258
845.253	5086
845.389	5052
845.525	5121
845.661	5117
845.798	5029
845.934	5170
846.07	4968
846.206	5140
846.342	5288
846.478	5181
846.614	4991
846.75	4953
846.886	4919
847.022	5105
847.158	5014
847.294	5067
847.429	5056
847.565	4999
847.701	5330
847.837	4843
847.972	4793
848.108	4949
848.244	4911
848.379	4809
848.515	4694
848.65	4710
848.786	4733
848.921	4782
849.057	4820
849.192	4919
849.328	4763
849.463	4820
849.598	4786
849.734	4801
849.869	4664
850.004	4580
850.14	4664
850.275	4599
850.41	4428
850.545	4561
850.68	4622
850.815	4656
850.95	4630
851.085	4835
851.22	4740
851.355	4664
851.49	4580
851.625	4634
851.76	4649
851.895	4550
852.03	4497
852.165	4653
852.299	4679
852.434	4759
852.569	4691
852.703	4740
852.838	4805
852.973	4877
853.107	4877
853.242	4702
853.376	4672
853.511	4558
853.645	4592
853.78	4778
853.914	4694
854.048	4664
854.183	4637
854.317	4611
854.451	4843
854.585	4656
854.72	4592
854.854	4725
854.988	4596
855.122	4561
855.256	4535
855.39	4653
855.524	4755
855.658	4691
855.792	4691
855.926	4725
856.06	4694
856.194	4790
856.327	4683
856.461	4618
856.595	4596
856.729	4656
856.862	4763
856.996	4679
857.13	4687
857.263	4717
857.397	4763
857.53	4653
857.664	4698
857.797	4744
857.931	4694
858.064	4675
858.197	4740
858.331	4668
858.464	4577
858.597	4466
858.731	4615
858.864	4634
858.997	4599
859.13	4672
859.263	4691
859.396	4725
859.529	4596
859.662	4558
859.795	4516
859.928	4603
860.061	4763
860.194	4710
860.327	4584
860.46	4542
860.592	4687
860.725	4725
860.858	4687
860.99	4519
861.123	4500
861.256	4504
861.388	4599
861.521	5223
861.653	4493
861.786	4417
861.918	4485
862.05	4497
862.183	4531
862.315	4611
862.447	4634
862.58	4508
862.712	4360
862.844	4333
862.976	4459
863.108	4432
863.24	4896
863.372	4280
863.504	4356
863.636	4394
863.768	4459
863.9	4417
864.032	4337
864.164	4405
864.296	4440
864.428	4558
864.559	4531
864.691	4558
864.823	4478
864.954	4474
865.086	4558
865.217	4440
865.349	4363
865.48	4421
865.612	4432
865.743	4599
865.875	4447
866.006	4447
866.137	4421
866.269	4421
866.4	4459
866.531	4390
866.662	4409
866.793	4394
866.924	4455
867.055	4470
867.186	4478
867.317	4405
867.448	4325
867.579	4398
867.71	4405
867.841	4303
867.972	4485
868.103	4481
868.233	4436
868.364	4451
868.495	4462
868.625	4698
868.756	4736
868.886	4554
869.017	4626
869.147	4763
869.278	4755
869.408	4687
869.539	4584
869.669	4714
869.799	4653
869.929	4729
870.06	4660
870.19	4957
870.32	4854
870.45	4927
870.58	4991
870.71	5079
870.84	5018
870.97	4915
871.1	4889
871.23	5132
871.36	5105
871.489	4999
871.619	5056
871.749	5052
871.879	5102
872.008	5162
872.138	5014
872.267	4987
872.397	4824
872.526	4763
872.656	4774
872.785	4763
872.915	4915
873.044	5010
873.173	4904
873.303	4984
873.432	4919
873.561	4961
873.69	4828
873.819	4824
873.948	4927
874.077	4797
874.206	4755
874.335	4812
874.464	4923
874.593	5025
874.722	4923
874.851	5064
874.979	5029
875.108	4991
875.237	4877
875.365	4835
875.494	4862
875.623	4965
875.751	4847
875.88	4862
876.008	4965
876.136	4965
876.265	5201
876.393	5299
876.521	5223
876.65	5204
876.778	5132
876.906	5064
877.034	4999
877.162	5025
877.29	5014
877.418	5067
877.546	5033
877.674	5018
877.802	5025
877.93	4949
878.058	4892
878.185	4812
878.313	4930
878.441	4927
878.568	4812
878.696	4866
878.824	4949
878.951	4995
879.079	5109
879.206	5204
879.333	5083
879.461	5022
879.588	4995
879.715	5052
879.842	5208
879.97	4953
880.097	4782
880.224	4752
880.351	4763
880.478	4816
880.605	4793
880.732	4786
880.859	5056
880.986	4847
881.112	4900
881.239	4774
881.366	4630
881.493	4599
881.619	4603
881.746	4615
881.872	4626
881.999	4626
882.125	4649
882.252	4778
882.378	4763
882.505	4919
882.631	4809
882.757	4691
882.883	4733
883.01	4706
883.136	4618
883.262	4588
883.388	4592
883.514	4782
883.64	4870
883.766	4740
883.892	4637
884.018	4698
884.143	4847
884.269	5025
884.395	4710
884.52	4641
884.646	4645
884.772	4599
884.897	4516
885.023	4675
885.148	4767
885.274	4858
885.399	4786
885.524	4706
885.65	4660
885.775	4748
885.9	4729
886.025	4797
886.15	4752
886.275	4714
886.4	4603
886.525	4679
886.65	4672
886.775	4675
886.9	4881
887.025	5067
887.149	4873
887.274	4645
887.399	4588
887.523	4573
887.648	4573
887.773	4569
887.897	4786
888.021	4714
888.146	4653
888.27	4858
888.395	4930
888.519	4816
888.643	4812
888.767	4820
888.891	4649
889.015	4584
889.139	4622
889.263	4596
889.387	4767
889.511	4862
889.635	4778
889.759	4645
889.883	4653
890.006	4706
890.13	4812
890.254	4584
890.377	4607
890.501	4554
890.624	4519
890.748	4634
890.871	4489
890.995	4424
891.118	4394
891.241	4561
891.364	4531
891.488	4630
891.611	4478
891.734	4546
891.857	4615
891.98	4565
892.103	4618
892.226	4565
892.349	4500
892.471	4413
892.594	4550
892.717	4599
892.839	4573
892.962	4561
893.085	4641
893.207	4607
893.33	4451
893.452	4504
893.575	4675
893.697	4592
893.819	4782
893.941	4820
894.064	4767
894.186	4542
894.308	4558
894.43	4759
894.552	4797
894.674	4714
894.796	4558
894.918	4611
895.04	4577
895.161	4725
895.283	4660
895.405	4569
895.526	4626
895.648	4694
895.769	4649
895.891	4702
896.012	4706
896.134	4717
896.255	4660
896.376	4588
896.498	4580
896.619	4672
896.74	4592
896.861	4630
896.982	4835
897.103	5083
897.224	4793
897.345	4714
897.466	4668
897.587	4698
897.708	4877
897.828	4736
897.949	4615
898.07	4527
898.19	4622
898.311	4824
898.431	4683
898.552	4710
898.672	4782
898.792	4755
898.913	4725
899.033	4607
899.153	4485
899.273	4398
899.393	4489
899.513	4485
899.633	4512
899.753	4527
899.873	4523
899.993	4538
900.113	4516
900.232	4577
900.352	4508
900.472	4481
900.591	4383
900.711	4462
900.83	4421
900.95	4584
901.069	4653
901.189	4535
901.308	4424
901.427	4310
901.546	4318
901.665	4417
901.784	4485
901.904	4352
902.023	4344
902.141	4166
902.26	4147
902.379	4284
902.498	4242
902.617	4173
902.735	4344
902.854	4337
902.973	4356
903.091	4181
903.21	4204
903.328	4287
903.446	4265
903.565	4253
903.683	4344
903.801	4287
903.919	4417
904.038	4424
904.156	4318
904.274	4417
904.392	4386
904.51	4436
904.627	4516
904.745	4535
904.863	4656
904.981	4394
905.098	4310
905.216	4379
905.334	4436
905.451	4459
905.569	4383
905.686	4554
905.803	4630
905.921	4371
906.038	4580
906.155	4493
906.272	4417
906.389	4417
906.506	4390
906.623	4363
906.74	4402
906.857	4352
906.974	4417
907.091	4592
907.208	4721
907.324	4637
907.441	4554
907.557	4344
907.674	4436
907.79	4363
907.907	4432
908.023	4558
908.139	4516
908.256	4455
908.372	4489
908.488	4493
908.604	4367
908.72	4398
908.836	4383
908.952	4371
909.068	4459
909.184	4569
909.3	4497
909.415	4584
909.531	4558
909.647	4398
909.762	4432
909.878	4405
909.993	4424
910.108	4440
910.224	4405
910.339	4542
910.454	4485
910.57	4398
910.685	4310
910.8	4725
910.915	4649
911.03	4523
911.145	4367
911.259	4329
911.374	4405
911.489	4375
911.604	4329
911.718	4238
911.833	4219
911.947	4109
912.062	4071
912.176	4227
912.291	4253
912.405	4249
912.519	4519
912.633	4512
912.748	4402
912.862	4375
912.976	4246
913.09	4090
913.204	4211
913.318	4318
913.431	4379
913.545	4344
913.659	4462
913.772	4398
913.886	4306
914	4219
914.113	4443
914.226	4459
914.34	4405
914.453	4303
914.566	4413
914.68	4333
914.793	4363
914.906	4166
915.019	4150
915.132	4124
915.245	4211
915.358	4234
915.47	4287
915.583	4284
915.696	4322
915.809	4451
915.921	4485
916.034	4310
916.146	4284
916.259	4242
916.371	4421
916.483	4402
916.595	4246
916.708	4405
916.82	4386
916.932	4348
917.044	4344
917.156	4371
917.268	4272
917.38	4375
917.491	4299
917.603	4398
917.715	4481
917.826	4497
917.938	4329
918.049	4230
918.161	4428
918.272	4565
918.384	4565
918.495	4481
918.606	4322
918.717	4280
918.828	4333
918.939	4367
919.05	4284
919.161	4348
919.272	4173
919.383	4234
919.494	4432
919.604	4687
919.715	4436
919.826	4371
919.936	4443
920.047	4546
920.157	4497
920.267	4774
920.378	4554
920.488	4516
920.598	4774
920.708	4930
920.818	4774
920.928	4790
921.038	4946
921.148	4915
921.258	4645
921.368	4592
921.477	4504
921.587	4470
921.697	4417
921.806	4573
921.916	4478
922.025	4322
922.134	4310
922.244	4249
922.353	4348
922.462	4204
922.571	4154
922.68	3994
922.789	3945
922.898	4044
923.007	4036
923.116	4112
923.224	4025
923.333	4059
923.442	4036
923.55	4025
923.659	4067
923.767	4131
923.876	4006
923.984	4135
924.092	4013
924.201	4090
924.309	4124
924.417	4147
924.525	4086
924.633	4101
924.741	5102
924.849	3896
924.956	4181
925.064	3968
925.172	3930
925.279	4002
925.387	4082
925.494	4074
925.602	4234
925.709	4196
925.816	4055
925.924	4169
926.031	4257
926.138	4219
926.245	4185
926.352	4101
926.459	4276
926.566	4318
926.673	4185
926.779	4131
926.886	4139
926.993	3983
927.099	4010
927.206	3956
927.312	3975
927.419	4078
927.525	4063
927.631	4109
927.737	3979
927.843	3937
927.95	3850
928.056	3987
928.162	3998
928.267	4093
928.373	4717
928.479	4147
928.585	3888
928.69	4124
928.796	4120
928.901	3991
929.007	3880
929.112	4078
929.218	4017
929.323	3960
929.428	3922
929.533	4169
929.638	3892
929.743	3975
929.848	4074
929.953	4021
930.058	3972
930.163	3793
930.267	3789
930.372	3979
930.477	3827
930.581	4105
930.685	3987
930.79	3850
930.894	3911
930.998	3873
931.103	4063
931.207	3766
931.311	3720
931.415	3682
931.519	3519
931.623	3591
