Data from test_V78500241_1342.txt Node
Date: Fri Mar 25 16:58:19 CST 2022
User: usil
Spectrometer: V785-0024
Trigger mode: 0
Integration Time (sec): 4.000000E-1
Scans to average: 1
Nonlinearity correction enabled: false
Boxcar width: 0
Storing dark spectrum: false
XAxis mode: Wavelengths
Number of Pixels in Spectrum: 1024
>>>>>Begin Spectral Data<<<<<
801.071	7997
801.214	8001
801.356	7814
801.499	7837
801.641	7788
801.783	7830
801.926	7925
802.068	7951
802.211	7982
802.353	7989
802.496	7852
802.638	7849
802.78	7963
802.923	7921
803.065	7856
803.208	7795
803.35	7997
803.492	8050
803.635	8149
803.777	8016
803.919	8081
804.061	8423
804.204	8187
804.346	8103
804.488	7909
804.63	8039
804.773	8001
804.915	8115
805.057	8298
805.199	8199
805.341	8229
805.483	8218
805.626	8164
805.768	8073
805.91	8183
806.052	8202
806.194	8134
806.336	8286
806.478	8084
806.62	8054
806.762	8103
806.904	8328
807.046	8480
807.188	8347
807.33	8252
807.472	8347
807.614	8123
807.756	8149
807.898	7917
808.04	7944
808.182	7883
808.324	7913
808.465	7959
808.607	8062
808.749	8054
808.891	8153
809.033	8221
809.174	8202
809.316	8065
809.458	8012
809.6	7993
809.741	8001
809.883	7974
810.025	8020
810.166	8031
810.308	8096
810.45	8039
810.591	7864
810.733	7742
810.875	7647
811.016	7499
811.158	7487
811.299	7552
811.441	7753
811.582	7670
811.724	7563
811.865	7464
812.007	7586
812.148	7616
812.29	7616
812.431	7689
812.573	7871
812.714	7887
812.855	8065
812.997	8130
813.138	8305
813.279	8176
813.421	8069
813.562	8020
813.703	7814
813.845	7731
813.986	7422
814.127	7221
814.268	7160
814.41	7160
814.551	7110
814.692	7190
814.833	7057
814.974	7141
815.115	7107
815.256	6981
815.397	6958
815.539	6977
815.68	6768
815.821	6798
815.962	6875
816.103	6791
816.244	6722
816.385	6631
816.526	6654
816.666	6506
816.807	6300
816.948	6384
817.089	6441
817.23	6426
817.371	6388
817.512	6338
817.653	6407
817.793	6361
817.934	6452
818.075	6448
818.216	6414
818.356	6391
818.497	6209
818.638	6129
818.778	6068
818.919	6121
819.06	6186
819.2	6350
819.341	6224
819.481	6334
819.622	6536
819.762	6757
819.903	6658
820.043	6608
820.184	6525
820.324	6616
820.465	6707
820.605	6684
820.746	6604
820.886	6498
821.026	6631
821.167	6631
821.307	6798
821.447	6760
821.588	6658
821.728	6517
821.868	6486
822.008	6327
822.149	6369
822.289	6361
822.429	6121
822.569	6060
822.709	6152
822.849	5927
822.99	5878
823.13	5920
823.27	5840
823.41	5783
823.55	5748
823.69	5745
823.83	5824
823.97	5646
824.11	5459
824.25	5471
824.389	5562
824.529	5589
824.669	5520
824.809	5573
824.949	5615
825.089	5608
825.228	5562
825.368	5326
825.508	5341
825.648	5296
825.787	5357
825.927	5368
826.067	5288
826.206	5246
826.346	5353
826.485	5322
826.625	5341
826.765	5490
826.904	5421
827.044	5242
827.183	5166
827.323	5132
827.462	5235
827.601	5185
827.741	5147
827.88	5189
828.02	5094
828.159	5223
828.298	5284
828.437	5337
828.577	5273
828.716	5448
828.855	5296
828.994	5094
829.134	5121
829.273	5220
829.412	5102
829.551	5147
829.69	5216
829.829	5246
829.968	5345
830.107	5269
830.246	5246
830.385	5170
830.524	5140
830.663	5067
830.802	4980
830.941	4904
831.08	4919
831.219	4923
831.357	4927
831.496	5159
831.635	4934
831.774	4835
831.913	4828
832.051	4710
832.19	4736
832.329	4820
832.467	4653
832.606	4599
832.744	4702
832.883	4721
833.022	4672
833.16	4752
833.299	4782
833.437	4816
833.576	4847
833.714	4850
833.852	4870
833.991	4885
834.129	4949
834.267	4991
834.406	4934
834.544	4965
834.682	4942
834.821	4961
834.959	5113
835.097	4972
835.235	5098
835.373	4987
835.511	5071
835.65	4976
835.788	4957
835.926	4911
836.064	4828
836.202	4896
836.34	5124
836.478	5185
836.615	5159
836.753	5178
836.891	5250
837.029	5239
837.167	5174
837.305	5147
837.443	5159
837.58	5102
837.718	5201
837.856	5159
837.993	5109
838.131	5223
838.269	5250
838.406	5208
838.544	5102
838.681	5022
838.819	4976
838.956	4892
839.094	4904
839.231	4942
839.369	5052
839.506	5406
839.643	5261
839.781	5056
839.918	4995
840.055	5079
840.193	5086
840.33	5193
840.467	5159
840.604	5121
840.742	5463
840.879	5045
841.016	5075
841.153	5124
841.29	5322
841.427	5372
841.564	5307
841.701	5376
841.838	5273
841.975	5185
842.112	5265
842.249	5113
842.385	5121
842.522	5239
842.659	5151
842.796	5132
842.933	5227
843.069	5136
843.206	5155
843.343	5341
843.479	5216
843.616	5254
843.752	5086
843.889	4999
844.025	5181
844.162	4999
844.298	5193
844.435	5018
844.571	4984
844.708	5197
844.844	5246
844.98	5353
845.117	5254
845.253	5181
845.389	5018
845.525	5124
845.661	5155
845.798	5025
845.934	5132
846.07	5045
846.206	5220
846.342	5296
846.478	5204
846.614	4987
846.75	4923
846.886	4881
847.022	5105
847.158	5018
847.294	5033
847.429	5064
847.565	5014
847.701	5265
847.837	4812
847.972	4786
848.108	4957
848.244	4915
848.379	4790
848.515	4660
848.65	4694
848.786	4736
848.921	4755
849.057	4870
849.192	4866
849.328	4812
849.463	4854
849.598	4771
849.734	4725
849.869	4637
850.004	4641
850.14	4634
850.275	4641
850.41	4493
850.545	4527
850.68	4577
850.815	4573
850.95	4645
851.085	4812
851.22	4714
851.355	4656
851.49	4577
851.625	4611
851.76	4580
851.895	4554
852.03	4500
852.165	4626
852.299	4691
852.434	4778
852.569	4679
852.703	4752
852.838	4805
852.973	4904
853.107	4889
853.242	4714
853.376	4656
853.511	4538
853.645	4599
853.78	4744
853.914	4679
854.048	4664
854.183	4641
854.317	4702
854.451	4797
854.585	4683
854.72	4615
854.854	4725
854.988	4596
855.122	4637
855.256	4500
855.39	4649
855.524	4721
855.658	4691
855.792	4691
855.926	4664
856.06	4736
856.194	4824
856.327	4618
856.461	4611
856.595	4615
856.729	4554
856.862	4706
856.996	4694
857.13	4706
857.263	4736
857.397	4812
857.53	4607
857.664	4729
857.797	4660
857.931	4736
858.064	4664
858.197	4748
858.331	4580
858.464	4607
858.597	4485
858.731	4645
858.864	4596
858.997	4569
859.13	4634
859.263	4653
859.396	4710
859.529	4569
859.662	4519
859.795	4504
859.928	4630
860.061	4790
860.194	4752
860.327	4599
860.46	4542
860.592	4660
860.725	4664
860.858	4733
860.99	4580
861.123	4508
861.256	4478
861.388	4622
861.521	5299
861.653	4447
861.786	4451
861.918	4405
862.05	4470
862.183	4546
862.315	4618
862.447	4622
862.58	4523
862.712	4402
862.844	4318
862.976	4470
863.108	4424
863.24	4835
863.372	4310
863.504	4413
863.636	4379
863.768	4462
863.9	4402
864.032	4348
864.164	4432
864.296	4424
864.428	4497
864.559	4550
864.691	4561
864.823	4485
864.954	4481
865.086	4504
865.217	4428
865.349	4386
865.48	4417
865.612	4436
865.743	4542
865.875	4428
866.006	4421
866.137	4440
866.269	4409
866.4	4417
866.531	4405
866.662	4379
866.793	4371
866.924	4402
867.055	4455
867.186	4447
867.317	4352
867.448	4402
867.579	4344
867.71	4356
867.841	4325
867.972	4424
868.103	4428
868.233	4405
868.364	4417
868.495	4428
868.625	4641
868.756	4714
868.886	4531
869.017	4656
869.147	4759
869.278	4752
869.408	4656
869.539	4596
869.669	4733
869.799	4634
869.929	4710
870.06	4672
870.19	4946
870.32	4908
870.45	4923
870.58	5022
870.71	5098
870.84	5086
870.97	4927
871.1	4900
871.23	5121
871.36	5083
871.489	4991
871.619	5117
871.749	5155
871.879	5132
872.008	5136
872.138	5048
872.267	4995
872.397	4828
872.526	4793
872.656	4694
872.785	4809
872.915	4953
873.044	5071
873.173	4930
873.303	4968
873.432	4953
873.561	4965
873.69	4889
873.819	4873
873.948	4900
874.077	4812
874.206	4782
874.335	4820
874.464	4927
874.593	5086
874.722	5006
874.851	5121
874.979	5094
875.108	5041
875.237	4930
875.365	4949
875.494	4934
875.623	5045
875.751	4809
875.88	4968
876.008	5006
876.136	5090
876.265	5280
876.393	5383
876.521	5250
876.65	5216
876.778	5140
876.906	5128
877.034	5113
877.162	5045
877.29	5006
877.418	5086
877.546	5105
877.674	5128
877.802	5033
877.93	5075
878.058	4999
878.185	4927
878.313	4984
878.441	4980
878.568	4820
878.696	4923
878.824	5003
878.951	4999
879.079	5159
879.206	5330
879.333	5181
879.461	5045
879.588	5052
879.715	5124
879.842	5269
879.97	5037
880.097	4843
880.224	4782
880.351	4778
880.478	4850
880.605	4786
880.732	4828
880.859	5143
880.986	4953
881.112	4923
881.239	4763
881.366	4717
881.493	4622
881.619	4580
881.746	4603
881.872	4653
881.999	4672
882.125	4706
882.252	4850
882.378	4870
882.505	5014
882.631	4809
882.757	4706
882.883	4755
883.01	4740
883.136	4725
883.262	4653
883.388	4634
883.514	4858
883.64	4904
883.766	4801
883.892	4649
884.018	4736
884.143	4953
884.269	4999
884.395	4683
884.52	4660
884.646	4645
884.772	4626
884.897	4588
885.023	4748
885.148	4824
885.274	4892
885.399	4831
885.524	4774
885.65	4687
885.775	4771
885.9	4774
886.025	4904
886.15	4824
886.275	4790
886.4	4645
886.525	4736
886.65	4702
886.775	4714
886.9	4934
887.025	5022
887.149	4809
887.274	4702
887.399	4611
887.523	4649
887.648	4584
887.773	4653
887.897	4759
888.021	4828
888.146	4668
888.27	4816
888.395	4919
888.519	4866
888.643	4892
888.767	4824
888.891	4668
889.015	4607
889.139	4634
889.263	4615
889.387	4801
889.511	4889
889.635	4816
889.759	4588
889.883	4691
890.006	4729
890.13	4839
890.254	4615
890.377	4687
890.501	4565
890.624	4508
890.748	4656
890.871	4531
890.995	4474
891.118	4413
891.241	4504
891.364	4561
891.488	4618
891.611	4516
891.734	4565
891.857	4630
891.98	4554
892.103	4660
892.226	4649
892.349	4516
892.471	4443
892.594	4565
892.717	4611
892.839	4615
892.962	4611
893.085	4679
893.207	4634
893.33	4516
893.452	4546
893.575	4664
893.697	4603
893.819	4824
893.941	4873
894.064	4755
894.186	4588
894.308	4626
894.43	4771
894.552	4850
894.674	4850
894.796	4554
894.918	4634
895.04	4561
895.161	4702
895.283	4694
895.405	4596
895.526	4649
895.648	4733
895.769	4710
895.891	4774
896.012	4752
896.134	4767
896.255	4729
896.376	4649
896.498	4588
896.619	4725
896.74	4558
896.861	4622
896.982	4946
897.103	5121
897.224	4854
897.345	4744
897.466	4672
897.587	4752
897.708	4850
897.828	4812
897.949	4714
898.07	4603
898.19	4653
898.311	4847
898.431	4691
898.552	4752
898.672	4801
898.792	4843
898.913	4782
899.033	4717
899.153	4519
899.273	4447
899.393	4523
899.513	4542
899.633	4538
899.753	4508
899.873	4493
899.993	4679
900.113	4554
900.232	4569
900.352	4550
900.472	4538
900.591	4451
900.711	4523
900.83	4455
900.95	4653
901.069	4698
901.189	4561
901.308	4375
901.427	4379
901.546	4432
901.665	4478
901.784	4523
901.904	4409
902.023	4348
902.141	4246
902.26	4185
902.379	4356
902.498	4284
902.617	4280
902.735	4413
902.854	4440
902.973	4379
903.091	4227
903.21	4215
903.328	4299
903.446	4287
903.565	4291
903.683	4398
903.801	4310
903.919	4417
904.038	4466
904.156	4322
904.274	4421
904.392	4405
904.51	4409
904.627	4474
904.745	4645
904.863	4637
904.981	4386
905.098	4322
905.216	4341
905.334	4455
905.451	4493
905.569	4413
905.686	4588
905.803	4637
905.921	4436
906.038	4542
906.155	4462
906.272	4398
906.389	4470
906.506	4402
906.623	4383
906.74	4394
906.857	4379
906.974	4405
907.091	4618
907.208	4710
907.324	4588
907.441	4497
907.557	4314
907.674	4402
907.79	4352
907.907	4398
908.023	4519
908.139	4462
908.256	4443
908.372	4504
908.488	4466
908.604	4428
908.72	4322
908.836	4371
908.952	4424
909.068	4447
909.184	4577
909.3	4497
909.415	4577
909.531	4577
909.647	4383
909.762	4390
909.878	4352
909.993	4489
910.108	4436
910.224	4413
910.339	4493
910.454	4436
910.57	4383
910.685	4337
910.8	4687
910.915	4577
911.03	4531
911.145	4348
911.259	4344
911.374	4367
911.489	4333
911.604	4291
911.718	4188
911.833	4238
911.947	4105
912.062	4029
912.176	4227
912.291	4227
912.405	4215
912.519	4447
912.633	4542
912.748	4390
912.862	4352
912.976	4257
913.09	4109
913.204	4234
913.318	4234
913.431	4413
913.545	4428
913.659	4470
913.772	4390
913.886	4234
914	4249
914.113	4405
914.226	4455
914.34	4390
914.453	4219
914.566	4459
914.68	4363
914.793	4333
914.906	4169
915.019	4169
915.132	4074
915.245	4188
915.358	4166
915.47	4272
915.583	4272
915.696	4341
915.809	4432
915.921	4451
916.034	4284
916.146	4295
916.259	4223
916.371	4409
916.483	4322
916.595	4230
916.708	4333
916.82	4352
916.932	4322
917.044	4386
917.156	4337
917.268	4265
917.38	4299
917.491	4276
917.603	4341
917.715	4421
917.826	4417
917.938	4306
918.049	4238
918.161	4367
918.272	4558
918.384	4550
918.495	4478
918.606	4280
918.717	4268
918.828	4303
918.939	4375
919.05	4238
919.161	4337
919.272	4154
919.383	4287
919.494	4451
919.604	4668
919.715	4466
919.826	4375
919.936	4371
920.047	4569
920.157	4470
920.267	4714
920.378	4577
920.488	4485
920.598	4736
920.708	4877
920.818	4752
920.928	4797
921.038	4942
921.148	4968
921.258	4626
921.368	4527
921.477	4497
921.587	4474
921.697	4379
921.806	4546
921.916	4421
922.025	4303
922.134	4299
922.244	4219
922.353	4322
922.462	4192
922.571	4109
922.68	3994
922.789	4006
922.898	4090
923.007	3994
923.116	4147
923.224	4036
923.333	4071
923.442	4040
923.55	3972
923.659	4021
923.767	4124
923.876	4036
923.984	4124
924.092	3994
924.201	4090
924.309	4063
924.417	4124
924.525	4093
924.633	4112
924.741	5067
924.849	3937
924.956	4128
925.064	3960
925.172	3899
925.279	3953
925.387	4105
925.494	4051
925.602	4257
925.709	4173
925.816	4010
925.924	4120
926.031	4261
926.138	4177
926.245	4227
926.352	4093
926.459	4253
926.566	4284
926.673	4147
926.779	4071
926.886	4116
926.993	3987
927.099	3968
927.206	3941
927.312	3964
927.419	4063
927.525	4059
927.631	4109
927.737	3987
927.843	3968
927.95	3865
928.056	3956
928.162	4006
928.267	4093
928.373	4694
928.479	4150
928.585	3876
928.69	3991
928.796	4090
928.901	3975
929.007	3873
929.112	4002
929.218	4006
929.323	3972
929.428	3960
929.533	4116
929.638	3915
929.743	3979
929.848	4097
929.953	3979
930.058	3937
930.163	3781
930.267	3854
930.372	3991
930.477	3785
930.581	4097
930.685	3968
930.79	3819
930.894	3899
930.998	3941
931.103	4025
931.207	3713
931.311	3701
931.415	3679
931.519	3523
931.623	3549
