Data from test_V78500241_1042.txt Node
Date: Fri Mar 25 16:56:14 CST 2022
User: usil
Spectrometer: V785-0024
Trigger mode: 0
Integration Time (sec): 4.000000E-1
Scans to average: 1
Nonlinearity correction enabled: false
Boxcar width: 0
Storing dark spectrum: false
XAxis mode: Wavelengths
Number of Pixels in Spectrum: 1024
>>>>>Begin Spectral Data<<<<<
801.071	8027
801.214	8062
801.356	7833
801.499	7875
801.641	7696
801.783	7792
801.926	7902
802.068	7833
802.211	7982
802.353	7913
802.496	7788
802.638	7818
802.78	7894
802.923	7913
803.065	7868
803.208	7875
803.35	7997
803.492	8005
803.635	8084
803.777	8058
803.919	8168
804.061	8514
804.204	8161
804.346	8039
804.488	7951
804.63	8119
804.773	8005
804.915	8096
805.057	8320
805.199	8111
805.341	8240
805.483	8256
805.626	8195
805.768	8138
805.91	8221
806.052	8199
806.194	8084
806.336	8290
806.478	8111
806.62	8016
806.762	8164
806.904	8248
807.046	8514
807.188	8332
807.33	8309
807.472	8290
807.614	8164
807.756	8096
807.898	7902
808.04	7852
808.182	7868
808.324	7906
808.465	7940
808.607	8012
808.749	8069
808.891	8199
809.033	8282
809.174	8202
809.316	8062
809.458	8084
809.6	7951
809.741	8065
809.883	8077
810.025	8088
810.166	8062
810.308	8005
810.45	8058
810.591	7902
810.733	7715
810.875	7643
811.016	7476
811.158	7514
811.299	7559
811.441	7662
811.582	7674
811.724	7559
811.865	7578
812.007	7540
812.148	7552
812.29	7563
812.431	7670
812.573	7864
812.714	7959
812.855	8073
812.997	8237
813.138	8298
813.279	8199
813.421	8134
813.562	8050
813.703	7826
813.845	7772
813.986	7441
814.127	7278
814.268	7213
814.41	7217
814.551	7149
814.692	7126
814.833	7069
814.974	7164
815.115	7076
815.256	6962
815.397	6970
815.539	6882
815.68	6821
815.821	6768
815.962	6871
816.103	6814
816.244	6738
816.385	6646
816.526	6574
816.666	6452
816.807	6239
816.948	6399
817.089	6471
817.23	6490
817.371	6414
817.512	6403
817.653	6323
817.793	6376
817.934	6361
818.075	6384
818.216	6433
818.356	6410
818.497	6247
818.638	6117
818.778	6155
818.919	6140
819.06	6129
819.2	6372
819.341	6311
819.481	6441
819.622	6475
819.762	6722
819.903	6681
820.043	6635
820.184	6528
820.324	6620
820.465	6650
820.605	6692
820.746	6578
820.886	6460
821.026	6673
821.167	6707
821.307	6791
821.447	6772
821.588	6658
821.728	6566
821.868	6483
822.008	6334
822.149	6346
822.289	6346
822.429	6178
822.569	6121
822.709	6114
822.849	5965
822.99	5931
823.13	5916
823.27	5942
823.41	5798
823.55	5786
823.69	5802
823.83	5786
823.97	5657
824.11	5486
824.25	5516
824.389	5509
824.529	5592
824.669	5467
824.809	5634
824.949	5638
825.089	5604
825.228	5543
825.368	5448
825.508	5349
825.648	5357
825.787	5349
825.927	5379
826.067	5250
826.206	5261
826.346	5398
826.485	5383
826.625	5410
826.765	5558
826.904	5436
827.044	5235
827.183	5204
827.323	5121
827.462	5284
827.601	5155
827.741	5178
827.88	5201
828.02	5109
828.159	5242
828.298	5288
828.437	5364
828.577	5277
828.716	5524
828.855	5303
828.994	5170
829.134	5151
829.273	5227
829.412	5113
829.551	5060
829.69	5162
829.829	5265
829.968	5395
830.107	5235
830.246	5303
830.385	5143
830.524	5098
830.663	5086
830.802	4976
830.941	4854
831.08	4828
831.219	4965
831.357	5029
831.496	5090
831.635	4923
831.774	4854
831.913	4835
832.051	4767
832.19	4752
832.329	4835
832.467	4733
832.606	4637
832.744	4706
832.883	4759
833.022	4710
833.16	4767
833.299	4782
833.437	4843
833.576	4870
833.714	4839
833.852	4889
833.991	4820
834.129	4915
834.267	4942
834.406	4927
834.544	4923
834.682	4946
834.821	4968
834.959	5174
835.097	4934
835.235	5128
835.373	5041
835.511	5098
835.65	5018
835.788	5052
835.926	4889
836.064	4858
836.202	4854
836.34	5159
836.478	5193
836.615	5128
836.753	5181
836.891	5299
837.029	5204
837.167	5181
837.305	5189
837.443	5151
837.58	5121
837.718	5239
837.856	5151
837.993	5140
838.131	5227
838.269	5178
838.406	5181
838.544	5162
838.681	4972
838.819	5029
838.956	4866
839.094	4919
839.231	4976
839.369	5064
839.506	5440
839.643	5311
839.781	5075
839.918	5003
840.055	5098
840.193	5140
840.33	5128
840.467	5105
840.604	5166
840.742	5429
840.879	5090
841.016	5098
841.153	5128
841.29	5387
841.427	5349
841.564	5330
841.701	5357
841.838	5254
841.975	5223
842.112	5299
842.249	5109
842.385	5113
842.522	5284
842.659	5174
842.796	5140
842.933	5235
843.069	5098
843.206	5159
843.343	5273
843.479	5208
843.616	5261
843.752	5067
843.889	5010
844.025	5246
844.162	5018
844.298	5204
844.435	5071
844.571	5010
844.708	5178
844.844	5322
844.98	5334
845.117	5307
845.253	5105
845.389	5075
845.525	5121
845.661	5143
845.798	5006
845.934	5113
846.07	5071
846.206	5185
846.342	5242
846.478	5178
846.614	5018
846.75	4953
846.886	4927
847.022	5147
847.158	5010
847.294	5064
847.429	5086
847.565	5041
847.701	5284
847.837	4828
847.972	4793
848.108	4961
848.244	4953
848.379	4729
848.515	4778
848.65	4714
848.786	4721
848.921	4797
849.057	4828
849.192	4904
849.328	4801
849.463	4858
849.598	4793
849.734	4793
849.869	4668
850.004	4630
850.14	4660
850.275	4637
850.41	4546
850.545	4561
850.68	4626
850.815	4637
850.95	4596
851.085	4858
851.22	4748
851.355	4653
851.49	4596
851.625	4622
851.76	4618
851.895	4542
852.03	4519
852.165	4672
852.299	4694
852.434	4793
852.569	4706
852.703	4744
852.838	4843
852.973	4904
853.107	4946
853.242	4740
853.376	4729
853.511	4493
853.645	4618
853.78	4763
853.914	4675
854.048	4675
854.183	4672
854.317	4660
854.451	4843
854.585	4672
854.72	4649
854.854	4725
854.988	4622
855.122	4660
855.256	4508
855.39	4626
855.524	4759
855.658	4736
855.792	4721
855.926	4714
856.06	4801
856.194	4809
856.327	4679
856.461	4618
856.595	4561
856.729	4558
856.862	4767
856.996	4672
857.13	4733
857.263	4778
857.397	4828
857.53	4649
857.664	4687
857.797	4767
857.931	4797
858.064	4675
858.197	4702
858.331	4607
858.464	4656
858.597	4538
858.731	4618
858.864	4675
858.997	4561
859.13	4634
859.263	4634
859.396	4767
859.529	4558
859.662	4569
859.795	4554
859.928	4615
860.061	4668
860.194	4790
860.327	4584
860.46	4565
860.592	4717
860.725	4698
860.858	4710
860.99	4573
861.123	4523
861.256	4500
861.388	4588
861.521	5292
861.653	4451
861.786	4466
861.918	4497
862.05	4519
862.183	4531
862.315	4592
862.447	4615
862.58	4527
862.712	4360
862.844	4322
862.976	4451
863.108	4428
863.24	4850
863.372	4314
863.504	4413
863.636	4443
863.768	4459
863.9	4440
864.032	4348
864.164	4409
864.296	4500
864.428	4561
864.559	4504
864.691	4504
864.823	4512
864.954	4436
865.086	4508
865.217	4417
865.349	4371
865.48	4440
865.612	4428
865.743	4596
865.875	4447
866.006	4402
866.137	4466
866.269	4424
866.4	4462
866.531	4371
866.662	4398
866.793	4348
866.924	4367
867.055	4508
867.186	4421
867.317	4394
867.448	4398
867.579	4386
867.71	4394
867.841	4333
867.972	4421
868.103	4428
868.233	4466
868.364	4440
868.495	4451
868.625	4596
868.756	4767
868.886	4573
869.017	4615
869.147	4755
869.278	4759
869.408	4668
869.539	4679
869.669	4748
869.799	4664
869.929	4736
870.06	4725
870.19	4946
870.32	4957
870.45	4911
870.58	4984
870.71	5083
870.84	5151
870.97	4915
871.1	4850
871.23	5151
871.36	5079
871.489	4949
871.619	5067
871.749	5060
871.879	5132
872.008	5185
872.138	5056
872.267	4991
872.397	4850
872.526	4797
872.656	4706
872.785	4774
872.915	4904
873.044	4987
873.173	4934
873.303	4991
873.432	4953
873.561	4968
873.69	4908
873.819	4847
873.948	4900
874.077	4778
874.206	4778
874.335	4767
874.464	4934
874.593	5060
874.722	4942
874.851	5045
874.979	5010
875.108	5037
875.237	4904
875.365	4831
875.494	4881
875.623	4965
875.751	4778
875.88	4911
876.008	4885
876.136	4987
876.265	5189
876.393	5337
876.521	5277
876.65	5227
876.778	5155
876.906	5048
877.034	4972
877.162	5071
877.29	4934
877.418	5045
877.546	4980
877.674	5014
877.802	4991
877.93	5022
878.058	4923
878.185	4911
878.313	5025
878.441	4900
878.568	4805
878.696	4873
878.824	4957
878.951	4961
879.079	5071
879.206	5204
879.333	5052
879.461	5006
879.588	5006
879.715	5098
879.842	5181
879.97	4961
880.097	4752
880.224	4786
880.351	4805
880.478	4816
880.605	4759
880.732	4790
880.859	5071
880.986	4919
881.112	4904
881.239	4812
881.366	4706
881.493	4558
881.619	4580
881.746	4615
881.872	4672
881.999	4618
882.125	4622
882.252	4771
882.378	4763
882.505	4949
882.631	4782
882.757	4664
882.883	4721
883.01	4729
883.136	4603
883.262	4538
883.388	4691
883.514	4752
883.64	4858
883.766	4805
883.892	4672
884.018	4702
884.143	4885
884.269	4991
884.395	4630
884.52	4618
884.646	4611
884.772	4615
884.897	4596
885.023	4645
885.148	4790
885.274	4873
885.399	4835
885.524	4683
885.65	4714
885.775	4740
885.9	4717
886.025	4850
886.15	4812
886.275	4698
886.4	4672
886.525	4740
886.65	4702
886.775	4679
886.9	4873
887.025	4991
887.149	4797
887.274	4649
887.399	4596
887.523	4599
887.648	4546
887.773	4565
887.897	4748
888.021	4771
888.146	4664
888.27	4740
888.395	4889
888.519	4782
888.643	4782
888.767	4801
888.891	4694
889.015	4584
889.139	4649
889.263	4607
889.387	4706
889.511	4831
889.635	4797
889.759	4679
889.883	4626
890.006	4759
890.13	4850
890.254	4573
890.377	4710
890.501	4535
890.624	4504
890.748	4622
890.871	4478
890.995	4409
891.118	4383
891.241	4508
891.364	4542
891.488	4649
891.611	4527
891.734	4535
891.857	4596
891.98	4569
892.103	4694
892.226	4622
892.349	4504
892.471	4417
892.594	4542
892.717	4554
892.839	4577
892.962	4577
893.085	4668
893.207	4550
893.33	4470
893.452	4493
893.575	4622
893.697	4588
893.819	4733
893.941	4809
894.064	4740
894.186	4527
894.308	4546
894.43	4698
894.552	4824
894.674	4729
894.796	4538
894.918	4542
895.04	4592
895.161	4683
895.283	4653
895.405	4531
895.526	4637
895.648	4683
895.769	4698
895.891	4714
896.012	4748
896.134	4733
896.255	4626
896.376	4645
896.498	4611
896.619	4698
896.74	4634
896.861	4577
896.982	4923
897.103	5064
897.224	4824
897.345	4759
897.466	4637
897.587	4733
897.708	4847
897.828	4740
897.949	4698
898.07	4580
898.19	4618
898.311	4786
898.431	4672
898.552	4744
898.672	4820
898.792	4774
898.913	4733
899.033	4656
899.153	4516
899.273	4386
899.393	4485
899.513	4538
899.633	4523
899.753	4546
899.873	4504
899.993	4622
900.113	4519
900.232	4592
900.352	4561
900.472	4489
900.591	4363
900.711	4481
900.83	4462
900.95	4611
901.069	4698
901.189	4535
901.308	4371
901.427	4329
901.546	4379
901.665	4432
901.784	4478
901.904	4341
902.023	4341
902.141	4223
902.26	4192
902.379	4276
902.498	4223
902.617	4211
902.735	4337
902.854	4409
902.973	4337
903.091	4204
903.21	4230
903.328	4303
903.446	4219
903.565	4242
903.683	4383
903.801	4291
903.919	4360
904.038	4413
904.156	4303
904.274	4455
904.392	4421
904.51	4390
904.627	4478
904.745	4565
904.863	4592
904.981	4390
905.098	4299
905.216	4318
905.334	4398
905.451	4440
905.569	4417
905.686	4550
905.803	4626
905.921	4390
906.038	4580
906.155	4462
906.272	4348
906.389	4405
906.506	4341
906.623	4367
906.74	4413
906.857	4306
906.974	4367
907.091	4550
907.208	4660
907.324	4558
907.441	4497
907.557	4329
907.674	4322
907.79	4333
907.907	4360
908.023	4462
908.139	4462
908.256	4398
908.372	4436
908.488	4462
908.604	4367
908.72	4367
908.836	4379
908.952	4329
909.068	4383
909.184	4554
909.3	4451
909.415	4592
909.531	4550
909.647	4318
909.762	4390
909.878	4329
909.993	4379
910.108	4409
910.224	4432
910.339	4466
910.454	4436
910.57	4360
910.685	4322
910.8	4675
910.915	4580
911.03	4481
911.145	4287
911.259	4341
911.374	4348
911.489	4314
911.604	4238
911.718	4139
911.833	4154
911.947	4082
912.062	4048
912.176	4188
912.291	4219
912.405	4242
912.519	4459
912.633	4500
912.748	4360
912.862	4299
912.976	4196
913.09	4109
913.204	4166
913.318	4280
913.431	4383
913.545	4360
913.659	4398
913.772	4371
913.886	4204
914	4204
914.113	4352
914.226	4432
914.34	4363
914.453	4230
914.566	4413
914.68	4318
914.793	4325
914.906	4120
915.019	4071
915.132	4051
915.245	4135
915.358	4200
915.47	4230
915.583	4227
915.696	4287
915.809	4375
915.921	4405
916.034	4257
916.146	4192
916.259	4188
916.371	4352
916.483	4356
916.595	4261
916.708	4318
916.82	4284
916.932	4360
917.044	4306
917.156	4303
917.268	4257
917.38	4325
917.491	4253
917.603	4318
917.715	4421
917.826	4466
917.938	4352
918.049	4200
918.161	4386
918.272	4565
918.384	4470
918.495	4417
918.606	4325
918.717	4242
918.828	4322
918.939	4367
919.05	4253
919.161	4261
919.272	4116
919.383	4257
919.494	4432
919.604	4626
919.715	4432
919.826	4306
919.936	4398
920.047	4519
920.157	4489
920.267	4687
920.378	4580
920.488	4478
920.598	4702
920.708	4870
920.818	4744
920.928	4752
921.038	4892
921.148	4942
921.258	4588
921.368	4535
921.477	4462
921.587	4455
921.697	4367
921.806	4523
921.916	4398
922.025	4276
922.134	4287
922.244	4261
922.353	4367
922.462	4150
922.571	4105
922.68	3956
922.789	3915
922.898	4013
923.007	4002
923.116	4139
923.224	4055
923.333	4090
923.442	3968
923.55	3983
923.659	4029
923.767	4131
923.876	3994
923.984	4109
924.092	3968
924.201	4059
924.309	4051
924.417	4105
924.525	4078
924.633	4071
924.741	5052
924.849	3892
924.956	4097
925.064	3949
925.172	3884
925.279	3926
925.387	4002
925.494	4044
925.602	4215
925.709	4204
925.816	4055
925.924	4143
926.031	4242
926.138	4162
926.245	4173
926.352	4090
926.459	4223
926.566	4272
926.673	4139
926.779	4097
926.886	4124
926.993	3998
927.099	3968
927.206	3918
927.312	3968
927.419	4067
927.525	4032
927.631	4116
927.737	3934
927.843	3915
927.95	3926
928.056	3983
928.162	3987
928.267	4063
928.373	4675
928.479	4135
928.585	3857
928.69	3987
928.796	4036
928.901	3987
929.007	3831
929.112	3991
929.218	3956
929.323	3934
929.428	3979
929.533	4048
929.638	3899
929.743	3972
929.848	3987
929.953	3945
930.058	3884
930.163	3785
930.267	3808
930.372	3888
930.477	3793
930.581	4086
930.685	3964
930.79	3808
930.894	3956
930.998	3831
931.103	4010
931.207	3724
931.311	3698
931.415	3694
931.519	3481
931.623	3580
