Data from test_V78500241_90.txt Node
Date: Fri Mar 25 16:49:37 CST 2022
User: usil
Spectrometer: V785-0024
Trigger mode: 0
Integration Time (sec): 4.000000E-1
Scans to average: 1
Nonlinearity correction enabled: false
Boxcar width: 0
Storing dark spectrum: false
XAxis mode: Wavelengths
Number of Pixels in Spectrum: 1024
>>>>>Begin Spectral Data<<<<<
801.071	8096
801.214	8039
801.356	7978
801.499	7894
801.641	7864
801.783	7879
801.926	8050
802.068	8012
802.211	8001
802.353	8050
802.496	7951
802.638	7913
802.78	8008
802.923	7974
803.065	7913
803.208	7849
803.35	7997
803.492	8103
803.635	8168
803.777	8005
803.919	8107
804.061	8423
804.204	8084
804.346	8054
804.488	7982
804.63	8119
804.773	8065
804.915	8103
805.057	8256
805.199	8142
805.341	8256
805.483	8271
805.626	8240
805.768	8161
805.91	8142
806.052	8271
806.194	8115
806.336	8343
806.478	8123
806.62	8161
806.762	8191
806.904	8275
807.046	8514
807.188	8370
807.33	8358
807.472	8366
807.614	8195
807.756	8195
807.898	8008
808.04	7898
808.182	7913
808.324	7944
808.465	7883
808.607	8035
808.749	8096
808.891	8195
809.033	8282
809.174	8199
809.316	8115
809.458	8058
809.6	8008
809.741	8111
809.883	8069
810.025	8119
810.166	8046
810.308	8069
810.45	8012
810.591	7887
810.733	7792
810.875	7674
811.016	7533
811.158	7506
811.299	7590
811.441	7788
811.582	7674
811.724	7746
811.865	7616
812.007	7658
812.148	7666
812.29	7647
812.431	7845
812.573	7940
812.714	8016
812.855	8195
812.997	8279
813.138	8370
813.279	8229
813.421	8202
813.562	8065
813.703	7849
813.845	7799
813.986	7491
814.127	7350
814.268	7198
814.41	7263
814.551	7206
814.692	7308
814.833	7141
814.974	7160
815.115	7133
815.256	7065
815.397	6905
815.539	7004
815.68	6909
815.821	6787
815.962	6924
816.103	6882
816.244	6726
816.385	6665
816.526	6684
816.666	6547
816.807	6384
816.948	6486
817.089	6437
817.23	6498
817.371	6418
817.512	6372
817.653	6441
817.793	6369
817.934	6418
818.075	6475
818.216	6483
818.356	6433
818.497	6308
818.638	6239
818.778	6254
818.919	6232
819.06	6155
819.2	6372
819.341	6311
819.481	6399
819.622	6662
819.762	6818
819.903	6692
820.043	6654
820.184	6623
820.324	6627
820.465	6730
820.605	6703
820.746	6700
820.886	6582
821.026	6711
821.167	6749
821.307	6867
821.447	6814
821.588	6700
821.728	6654
821.868	6574
822.008	6357
822.149	6426
822.289	6407
822.429	6224
822.569	6155
822.709	6129
822.849	5965
822.99	5942
823.13	5912
823.27	5954
823.41	5893
823.55	5859
823.69	5817
823.83	5790
823.97	5775
824.11	5642
824.25	5581
824.389	5642
824.529	5630
824.669	5589
824.809	5665
824.949	5714
825.089	5627
825.228	5570
825.368	5395
825.508	5414
825.648	5406
825.787	5414
825.927	5414
826.067	5376
826.206	5345
826.346	5391
826.485	5421
826.625	5440
826.765	5558
826.904	5535
827.044	5250
827.183	5239
827.323	5143
827.462	5280
827.601	5189
827.741	5223
827.88	5239
828.02	5136
828.159	5239
828.298	5357
828.437	5410
828.577	5368
828.716	5558
828.855	5383
828.994	5189
829.134	5235
829.273	5250
829.412	5155
829.551	5147
829.69	5227
829.829	5254
829.968	5395
830.107	5269
830.246	5326
830.385	5201
830.524	5189
830.663	5147
830.802	5029
830.941	4904
831.08	4873
831.219	5014
831.357	4976
831.496	5162
831.635	4995
831.774	4885
831.913	4866
832.051	4740
832.19	4752
832.329	4889
832.467	4694
832.606	4664
832.744	4736
832.883	4778
833.022	4771
833.16	4824
833.299	4843
833.437	4850
833.576	4828
833.714	4885
833.852	4896
833.991	4934
834.129	5014
834.267	4999
834.406	4889
834.544	4980
834.682	5022
834.821	5022
834.959	5231
835.097	5018
835.235	5181
835.373	5094
835.511	5094
835.65	5121
835.788	5060
835.926	4942
836.064	4896
836.202	4911
836.34	5185
836.478	5239
836.615	5128
836.753	5201
836.891	5360
837.029	5284
837.167	5178
837.305	5231
837.443	5159
837.58	5090
837.718	5303
837.856	5212
837.993	5193
838.131	5246
838.269	5277
838.406	5185
838.544	5223
838.681	5090
838.819	5041
838.956	4892
839.094	4984
839.231	5018
839.369	5022
839.506	5478
839.643	5318
839.781	5083
839.918	5052
840.055	5090
840.193	5170
840.33	5113
840.467	5151
840.604	5204
840.742	5474
840.879	5079
841.016	5113
841.153	5208
841.29	5372
841.427	5322
841.564	5318
841.701	5376
841.838	5353
841.975	5265
842.112	5330
842.249	5159
842.385	5181
842.522	5307
842.659	5185
842.796	5105
842.933	5250
843.069	5231
843.206	5189
843.343	5322
843.479	5273
843.616	5280
843.752	5086
843.889	5033
844.025	5216
844.162	5083
844.298	5277
844.435	5128
844.571	5083
844.708	5170
844.844	5322
844.98	5364
845.117	5296
845.253	5246
845.389	5098
845.525	5193
845.661	5159
845.798	5090
845.934	5178
846.07	5064
846.206	5204
846.342	5353
846.478	5261
846.614	5075
846.75	5014
846.886	4991
847.022	5155
847.158	5067
847.294	5102
847.429	5128
847.565	5079
847.701	5357
847.837	4805
847.972	4801
848.108	4957
848.244	4934
848.379	4801
848.515	4774
848.65	4744
848.786	4790
848.921	4759
849.057	4892
849.192	4946
849.328	4847
849.463	4862
849.598	4835
849.734	4805
849.869	4740
850.004	4649
850.14	4683
850.275	4622
850.41	4577
850.545	4580
850.68	4630
850.815	4668
850.95	4618
851.085	4911
851.22	4820
851.355	4691
851.49	4645
851.625	4656
851.76	4641
851.895	4596
852.03	4580
852.165	4653
852.299	4778
852.434	4812
852.569	4793
852.703	4828
852.838	4862
852.973	4968
853.107	4957
853.242	4771
853.376	4748
853.511	4546
853.645	4641
853.78	4843
853.914	4679
854.048	4702
854.183	4687
854.317	4778
854.451	4930
854.585	4740
854.72	4634
854.854	4778
854.988	4649
855.122	4626
855.256	4554
855.39	4626
855.524	4828
855.658	4767
855.792	4717
855.926	4748
856.06	4782
856.194	4850
856.327	4698
856.461	4618
856.595	4630
856.729	4630
856.862	4782
856.996	4755
857.13	4771
857.263	4790
857.397	4805
857.53	4660
857.664	4733
857.797	4816
857.931	4824
858.064	4755
858.197	4755
858.331	4679
858.464	4618
858.597	4573
858.731	4668
858.864	4649
858.997	4618
859.13	4687
859.263	4706
859.396	4714
859.529	4592
859.662	4603
859.795	4561
859.928	4634
860.061	4790
860.194	4767
860.327	4584
860.46	4607
860.592	4744
860.725	4759
860.858	4759
860.99	4607
861.123	4504
861.256	4592
861.388	4653
861.521	5292
861.653	4527
861.786	4474
861.918	4481
862.05	4554
862.183	4573
862.315	4698
862.447	4706
862.58	4577
862.712	4455
862.844	4360
862.976	4462
863.108	4489
863.24	4904
863.372	4356
863.504	4432
863.636	4432
863.768	4512
863.9	4440
864.032	4436
864.164	4394
864.296	4481
864.428	4573
864.559	4588
864.691	4577
864.823	4569
864.954	4481
865.086	4531
865.217	4455
865.349	4485
865.48	4428
865.612	4535
865.743	4664
865.875	4485
866.006	4470
866.137	4512
866.269	4451
866.4	4466
866.531	4405
866.662	4409
866.793	4409
866.924	4459
867.055	4500
867.186	4535
867.317	4447
867.448	4375
867.579	4424
867.71	4466
867.841	4421
867.972	4459
868.103	4455
868.233	4462
868.364	4440
868.495	4531
868.625	4653
868.756	4721
868.886	4599
869.017	4656
869.147	4763
869.278	4771
869.408	4702
869.539	4649
869.669	4702
869.799	4736
869.929	4790
870.06	4763
870.19	4976
870.32	4949
870.45	4987
870.58	5052
870.71	5128
870.84	5155
870.97	4965
871.1	4968
871.23	5128
871.36	5162
871.489	5041
871.619	5121
871.749	5083
871.879	5113
872.008	5185
872.138	5098
872.267	5064
872.397	4885
872.526	4820
872.656	4790
872.785	4847
872.915	4987
873.044	5006
873.173	4980
873.303	4957
873.432	5010
873.561	4972
873.69	4877
873.819	4911
873.948	4965
874.077	4858
874.206	4763
874.335	4801
874.464	4965
874.593	5045
874.722	4934
874.851	5170
874.979	5041
875.108	5071
875.237	4934
875.365	4915
875.494	4885
875.623	5022
875.751	4862
875.88	4896
876.008	4999
876.136	4991
876.265	5216
876.393	5322
876.521	5254
876.65	5292
876.778	5201
876.906	5117
877.034	5048
877.162	5094
877.29	5010
877.418	5060
877.546	5086
877.674	5098
877.802	5128
877.93	5094
878.058	4949
878.185	4908
878.313	4946
878.441	5010
878.568	4835
878.696	4923
878.824	4999
878.951	5018
879.079	5151
879.206	5318
879.333	5086
879.461	4999
879.588	5018
879.715	5181
879.842	5197
879.97	4976
880.097	4774
880.224	4733
880.351	4786
880.478	4843
880.605	4820
880.732	4820
880.859	5083
880.986	4908
881.112	4972
881.239	4801
881.366	4706
881.493	4645
881.619	4618
881.746	4649
881.872	4672
881.999	4634
882.125	4717
882.252	4831
882.378	4850
882.505	4965
882.631	4805
882.757	4710
882.883	4763
883.01	4759
883.136	4702
883.262	4603
883.388	4649
883.514	4824
883.64	4927
883.766	4790
883.892	4649
884.018	4774
884.143	4942
884.269	5003
884.395	4675
884.52	4630
884.646	4714
884.772	4599
884.897	4626
885.023	4675
885.148	4797
885.274	4915
885.399	4831
885.524	4748
885.65	4744
885.775	4805
885.9	4790
886.025	4896
886.15	4774
886.275	4752
886.4	4698
886.525	4778
886.65	4740
886.775	4710
886.9	4949
887.025	5102
887.149	4858
887.274	4710
887.399	4592
887.523	4618
887.648	4542
887.773	4611
887.897	4801
888.021	4824
888.146	4725
888.27	4847
888.395	4919
888.519	4862
888.643	4847
888.767	4854
888.891	4710
889.015	4675
889.139	4653
889.263	4615
889.387	4820
889.511	4949
889.635	4831
889.759	4725
889.883	4729
890.006	4771
890.13	4858
890.254	4660
890.377	4702
890.501	4516
890.624	4573
890.748	4645
890.871	4558
890.995	4413
891.118	4394
891.241	4546
891.364	4546
891.488	4710
891.611	4508
891.734	4580
891.857	4592
891.98	4523
892.103	4660
892.226	4615
892.349	4531
892.471	4428
892.594	4584
892.717	4645
892.839	4588
892.962	4592
893.085	4653
893.207	4580
893.33	4538
893.452	4531
893.575	4679
893.697	4599
893.819	4820
893.941	4881
894.064	4850
894.186	4611
894.308	4630
894.43	4752
894.552	4816
894.674	4774
894.796	4592
894.918	4634
895.04	4577
895.161	4729
895.283	4725
895.405	4607
895.526	4668
895.648	4710
895.769	4725
895.891	4759
896.012	4736
896.134	4744
896.255	4679
896.376	4649
896.498	4637
896.619	4675
896.74	4641
896.861	4702
896.982	4949
897.103	5140
897.224	4786
897.345	4828
897.466	4710
897.587	4767
897.708	4934
897.828	4824
897.949	4653
898.07	4573
898.19	4702
898.311	4839
898.431	4702
898.552	4774
898.672	4843
898.792	4854
898.913	4820
899.033	4626
899.153	4577
899.273	4481
899.393	4516
899.513	4573
899.633	4565
899.753	4569
899.873	4535
899.993	4618
900.113	4569
900.232	4641
900.352	4611
900.472	4527
900.591	4417
900.711	4531
900.83	4459
900.95	4626
901.069	4702
901.189	4588
901.308	4367
901.427	4341
901.546	4386
901.665	4493
901.784	4584
901.904	4424
902.023	4360
902.141	4192
902.26	4211
902.379	4341
902.498	4246
902.617	4276
902.735	4405
902.854	4462
902.973	4386
903.091	4223
903.21	4310
903.328	4329
903.446	4291
903.565	4287
903.683	4360
903.801	4284
903.919	4440
904.038	4474
904.156	4360
904.274	4421
904.392	4413
904.51	4447
904.627	4436
904.745	4592
904.863	4656
904.981	4421
905.098	4337
905.216	4394
905.334	4421
905.451	4447
905.569	4470
905.686	4550
905.803	4603
905.921	4428
906.038	4538
906.155	4500
906.272	4386
906.389	4519
906.506	4363
906.623	4325
906.74	4402
906.857	4325
906.974	4436
907.091	4561
907.208	4717
907.324	4588
907.441	4542
907.557	4341
907.674	4306
907.79	4348
907.907	4432
908.023	4481
908.139	4474
908.256	4466
908.372	4462
908.488	4508
908.604	4383
908.72	4325
908.836	4424
908.952	4409
909.068	4459
909.184	4561
909.3	4485
909.415	4577
909.531	4580
909.647	4371
909.762	4383
909.878	4394
909.993	4466
910.108	4451
910.224	4440
910.339	4523
910.454	4405
910.57	4386
910.685	4310
910.8	4645
910.915	4592
911.03	4489
911.145	4337
911.259	4314
911.374	4344
911.489	4348
911.604	4360
911.718	4166
911.833	4219
911.947	4055
912.062	4071
912.176	4204
912.291	4295
912.405	4299
912.519	4493
912.633	4497
912.748	4367
912.862	4371
912.976	4257
913.09	4112
913.204	4223
913.318	4287
913.431	4371
913.545	4394
913.659	4497
913.772	4371
913.886	4242
914	4261
914.113	4383
914.226	4402
914.34	4394
914.453	4211
914.566	4451
914.68	4367
914.793	4325
914.906	4166
915.019	4166
915.132	4135
915.245	4219
915.358	4230
915.47	4261
915.583	4265
915.696	4318
915.809	4413
915.921	4451
916.034	4253
916.146	4280
916.259	4223
916.371	4363
916.483	4386
916.595	4287
916.708	4352
916.82	4287
916.932	4398
917.044	4352
917.156	4352
917.268	4310
917.38	4295
917.491	4318
917.603	4390
917.715	4485
917.826	4542
917.938	4405
918.049	4265
918.161	4402
918.272	4603
918.384	4573
918.495	4504
918.606	4322
918.717	4268
918.828	4363
918.939	4360
919.05	4310
919.161	4337
919.272	4109
919.383	4280
919.494	4470
919.604	4656
919.715	4443
919.826	4379
919.936	4455
920.047	4565
920.157	4481
920.267	4744
920.378	4542
920.488	4542
920.598	4729
920.708	4900
920.818	4755
920.928	4793
921.038	4953
921.148	4946
921.258	4611
921.368	4561
921.477	4558
921.587	4466
921.697	4383
921.806	4565
921.916	4428
922.025	4291
922.134	4337
922.244	4215
922.353	4329
922.462	4230
922.571	4135
922.68	4067
922.789	4032
922.898	4032
923.007	4055
923.116	4124
923.224	4055
923.333	4109
923.442	4025
923.55	3960
923.659	4055
923.767	4154
923.876	4021
923.984	4131
924.092	4025
924.201	4074
924.309	4158
924.417	4177
924.525	4093
924.633	4120
924.741	4908
924.849	3956
924.956	4173
925.064	3987
925.172	3926
925.279	4010
925.387	4040
925.494	4093
925.602	4272
925.709	4223
925.816	4071
925.924	4185
926.031	4272
926.138	4192
926.245	4227
926.352	4158
926.459	4314
926.566	4310
926.673	4166
926.779	4093
926.886	4109
926.993	3964
927.099	4017
927.206	3934
927.312	3979
927.419	4082
927.525	4090
927.631	4101
927.737	4006
927.843	3960
927.95	3865
928.056	3975
928.162	3998
928.267	4097
928.373	4611
928.479	4128
928.585	3896
928.69	4086
928.796	4071
928.901	3968
929.007	3865
929.112	4067
929.218	4025
929.323	3964
929.428	3960
929.533	4131
929.638	3949
929.743	3968
929.848	4071
929.953	4013
930.058	3953
930.163	3812
930.267	3838
930.372	4048
930.477	3770
930.581	4147
930.685	3949
930.79	3846
930.894	3941
930.998	3846
931.103	4082
931.207	3755
931.311	3713
931.415	3671
931.519	3530
931.623	3584
