Data from test_V78500241_501.txt Node
Date: Fri Mar 25 16:52:29 CST 2022
User: usil
Spectrometer: V785-0024
Trigger mode: 0
Integration Time (sec): 4.000000E-1
Scans to average: 1
Nonlinearity correction enabled: false
Boxcar width: 0
Storing dark spectrum: false
XAxis mode: Wavelengths
Number of Pixels in Spectrum: 1024
>>>>>Begin Spectral Data<<<<<
801.071	8046
801.214	8050
801.356	7890
801.499	7883
801.641	7826
801.783	7822
801.926	7986
802.068	8008
802.211	8027
802.353	7974
802.496	7913
802.638	7864
802.78	7959
802.923	7947
803.065	7902
803.208	7852
803.35	7967
803.492	8077
803.635	8233
803.777	7936
803.919	8115
804.061	8434
804.204	8084
804.346	8035
804.488	7986
804.63	8119
804.773	8027
804.915	8077
805.057	8320
805.199	8161
805.341	8320
805.483	8309
805.626	8229
805.768	8107
805.91	8081
806.052	8214
806.194	8081
806.336	8244
806.478	8107
806.62	8077
806.762	8119
806.904	8248
807.046	8404
807.188	8313
807.33	8221
807.472	8305
807.614	8130
807.756	8077
807.898	8020
808.04	7841
808.182	7925
808.324	7868
808.465	7833
808.607	8062
808.749	8119
808.891	8252
809.033	8317
809.174	8294
809.316	8035
809.458	8039
809.6	7978
809.741	8016
809.883	8065
810.025	8115
810.166	8008
810.308	8084
810.45	7917
810.591	7875
810.733	7655
810.875	7636
811.016	7529
811.158	7495
811.299	7632
811.441	7704
811.582	7693
811.724	7636
811.865	7586
812.007	7636
812.148	7613
812.29	7613
812.431	7731
812.573	7894
812.714	7997
812.855	8111
812.997	8275
813.138	8393
813.279	8279
813.421	8183
813.562	8050
813.703	7906
813.845	7753
813.986	7502
814.127	7343
814.268	7354
814.41	7282
814.551	7179
814.692	7194
814.833	7118
814.974	7072
815.115	7126
815.256	7050
815.397	6966
815.539	6935
815.68	6837
815.821	6848
815.962	6848
816.103	6886
816.244	6768
816.385	6635
816.526	6646
816.666	6570
816.807	6296
816.948	6494
817.089	6532
817.23	6429
817.371	6319
817.512	6391
817.653	6403
817.793	6380
817.934	6426
818.075	6509
818.216	6460
818.356	6407
818.497	6239
818.638	6117
818.778	6205
818.919	6098
819.06	6155
819.2	6350
819.341	6292
819.481	6376
819.622	6582
819.762	6684
819.903	6734
820.043	6536
820.184	6620
820.324	6582
820.465	6639
820.605	6669
820.746	6642
820.886	6513
821.026	6601
821.167	6700
821.307	6764
821.447	6783
821.588	6662
821.728	6593
821.868	6521
822.008	6353
822.149	6407
822.289	6365
822.429	6205
822.569	6049
822.709	6117
822.849	5961
822.99	5863
823.13	5916
823.27	5912
823.41	5779
823.55	5809
823.69	5733
823.83	5775
823.97	5676
824.11	5596
824.25	5524
824.389	5573
824.529	5615
824.669	5509
824.809	5615
824.949	5714
825.089	5608
825.228	5592
825.368	5349
825.508	5376
825.648	5334
825.787	5353
825.927	5410
826.067	5254
826.206	5311
826.346	5364
826.485	5406
826.625	5433
826.765	5547
826.904	5493
827.044	5284
827.183	5258
827.323	5147
827.462	5265
827.601	5178
827.741	5212
827.88	5201
828.02	5113
828.159	5246
828.298	5337
828.437	5345
828.577	5303
828.716	5452
828.855	5357
828.994	5185
829.134	5193
829.273	5197
829.412	5170
829.551	5159
829.69	5223
829.829	5227
829.968	5372
830.107	5326
830.246	5250
830.385	5181
830.524	5117
830.663	5086
830.802	4976
830.941	4900
831.08	4927
831.219	4987
831.357	4949
831.496	5105
831.635	4892
831.774	4858
831.913	4843
832.051	4755
832.19	4767
832.329	4942
832.467	4725
832.606	4641
832.744	4729
832.883	4771
833.022	4725
833.16	4843
833.299	4812
833.437	4805
833.576	4820
833.714	4858
833.852	4927
833.991	4858
834.129	4946
834.267	4987
834.406	4957
834.544	4934
834.682	4949
834.821	5003
834.959	5204
835.097	5014
835.235	5147
835.373	5124
835.511	5121
835.65	5022
835.788	5056
835.926	4889
836.064	4885
836.202	4965
836.34	5185
836.478	5261
836.615	5102
836.753	5212
836.891	5303
837.029	5258
837.167	5235
837.305	5128
837.443	5166
837.58	5056
837.718	5235
837.856	5174
837.993	5155
838.131	5216
838.269	5254
838.406	5201
838.544	5159
838.681	5025
838.819	5022
838.956	4877
839.094	4889
839.231	5014
839.369	5041
839.506	5440
839.643	5220
839.781	5045
839.918	5014
840.055	5102
840.193	5090
840.33	5098
840.467	5079
840.604	5197
840.742	5410
840.879	5147
841.016	5105
841.153	5178
841.29	5345
841.427	5357
841.564	5360
841.701	5410
841.838	5273
841.975	5284
842.112	5299
842.249	5166
842.385	5121
842.522	5322
842.659	5197
842.796	5136
842.933	5170
843.069	5140
843.206	5159
843.343	5330
843.479	5235
843.616	5334
843.752	5003
843.889	5037
844.025	5166
844.162	4995
844.298	5193
844.435	5079
844.571	5079
844.708	5159
844.844	5330
844.98	5353
845.117	5277
845.253	5147
845.389	5037
845.525	5178
845.661	5132
845.798	5037
845.934	5140
846.07	5067
846.206	5151
846.342	5341
846.478	5220
846.614	5029
846.75	4946
846.886	4908
847.022	5189
847.158	5056
847.294	5071
847.429	5113
847.565	5075
847.701	5292
847.837	4847
847.972	4843
848.108	4911
848.244	4953
848.379	4774
848.515	4725
848.65	4710
848.786	4809
848.921	4801
849.057	4900
849.192	4900
849.328	4816
849.463	4801
849.598	4797
849.734	4744
849.869	4687
850.004	4672
850.14	4656
850.275	4630
850.41	4550
850.545	4599
850.68	4592
850.815	4634
850.95	4634
851.085	4828
851.22	4771
851.355	4698
851.49	4660
851.625	4615
851.76	4649
851.895	4565
852.03	4538
852.165	4645
852.299	4729
852.434	4782
852.569	4736
852.703	4782
852.838	4847
852.973	4995
853.107	4923
853.242	4782
853.376	4645
853.511	4527
853.645	4558
853.78	4790
853.914	4698
854.048	4675
854.183	4637
854.317	4725
854.451	4866
854.585	4698
854.72	4687
854.854	4782
854.988	4607
855.122	4645
855.256	4546
855.39	4645
855.524	4824
855.658	4694
855.792	4714
855.926	4793
856.06	4740
856.194	4831
856.327	4679
856.461	4622
856.595	4626
856.729	4626
856.862	4767
856.996	4706
857.13	4729
857.263	4759
857.397	4854
857.53	4675
857.664	4744
857.797	4771
857.931	4755
858.064	4668
858.197	4729
858.331	4637
858.464	4592
858.597	4554
858.731	4622
858.864	4698
858.997	4592
859.13	4649
859.263	4687
859.396	4687
859.529	4637
859.662	4554
859.795	4538
859.928	4611
860.061	4763
860.194	4778
860.327	4611
860.46	4573
860.592	4721
860.725	4733
860.858	4656
860.99	4569
861.123	4504
861.256	4519
861.388	4599
861.521	5368
861.653	4489
861.786	4481
861.918	4500
862.05	4508
862.183	4558
862.315	4611
862.447	4679
862.58	4481
862.712	4432
862.844	4367
862.976	4497
863.108	4466
863.24	4778
863.372	4375
863.504	4428
863.636	4390
863.768	4500
863.9	4428
864.032	4333
864.164	4417
864.296	4462
864.428	4531
864.559	4569
864.691	4584
864.823	4516
864.954	4459
865.086	4531
865.217	4443
865.349	4402
865.48	4455
865.612	4481
865.743	4626
865.875	4474
866.006	4428
866.137	4459
866.269	4421
866.4	4451
866.531	4432
866.662	4409
866.793	4409
866.924	4440
867.055	4558
867.186	4478
867.317	4432
867.448	4386
867.579	4417
867.71	4379
867.841	4386
867.972	4478
868.103	4504
868.233	4451
868.364	4455
868.495	4554
868.625	4645
868.756	4774
868.886	4599
869.017	4637
869.147	4786
869.278	4740
869.408	4626
869.539	4660
869.669	4649
869.799	4645
869.929	4733
870.06	4755
870.19	4930
870.32	4908
870.45	4946
870.58	5029
870.71	5105
870.84	5109
870.97	4904
871.1	4911
871.23	5147
871.36	5151
871.489	5014
871.619	5105
871.749	5109
871.879	5124
872.008	5197
872.138	5067
872.267	4953
872.397	4831
872.526	4812
872.656	4714
872.785	4763
872.915	4923
873.044	4999
873.173	4911
873.303	4984
873.432	4949
873.561	4965
873.69	4881
873.819	4877
873.948	4904
874.077	4820
874.206	4740
874.335	4805
874.464	4927
874.593	5025
874.722	4881
874.851	5128
874.979	5079
875.108	5033
875.237	4908
875.365	4862
875.494	4911
875.623	4942
875.751	4850
875.88	4911
876.008	5006
876.136	4991
876.265	5170
876.393	5307
876.521	5220
876.65	5246
876.778	5155
876.906	5045
877.034	5056
877.162	5056
877.29	5003
877.418	5067
877.546	5060
877.674	5094
877.802	5052
877.93	4995
878.058	4942
878.185	4919
878.313	5014
878.441	4915
878.568	4812
878.696	4870
878.824	5014
878.951	4972
879.079	5132
879.206	5261
879.333	5159
879.461	4999
879.588	5045
879.715	5147
879.842	5178
879.97	4999
880.097	4763
880.224	4733
880.351	4793
880.478	4793
880.605	4797
880.732	4782
880.859	5090
880.986	4915
881.112	4953
881.239	4809
881.366	4687
881.493	4626
881.619	4573
881.746	4626
881.872	4656
881.999	4698
882.125	4656
882.252	4782
882.378	4843
882.505	4976
882.631	4866
882.757	4679
882.883	4698
883.01	4752
883.136	4653
883.262	4626
883.388	4569
883.514	4820
883.64	4816
883.766	4786
883.892	4668
884.018	4733
884.143	4892
884.269	5033
884.395	4691
884.52	4664
884.646	4668
884.772	4599
884.897	4573
885.023	4622
885.148	4744
885.274	4831
885.399	4843
885.524	4714
885.65	4694
885.775	4759
885.9	4714
886.025	4919
886.15	4831
886.275	4698
886.4	4656
886.525	4706
886.65	4675
886.775	4717
886.9	4938
887.025	5029
887.149	4801
887.274	4672
887.399	4607
887.523	4615
887.648	4546
887.773	4603
887.897	4763
888.021	4850
888.146	4653
888.27	4839
888.395	4923
888.519	4824
888.643	4835
888.767	4816
888.891	4702
889.015	4592
889.139	4660
889.263	4637
889.387	4744
889.511	4896
889.635	4809
889.759	4679
889.883	4637
890.006	4759
890.13	4854
890.254	4592
890.377	4691
890.501	4584
890.624	4512
890.748	4637
890.871	4508
890.995	4440
891.118	4386
891.241	4531
891.364	4558
891.488	4660
891.611	4519
891.734	4504
891.857	4592
891.98	4641
892.103	4656
892.226	4558
892.349	4546
892.471	4402
892.594	4577
892.717	4584
892.839	4599
892.962	4550
893.085	4645
893.207	4634
893.33	4470
893.452	4584
893.575	4656
893.697	4554
893.819	4812
893.941	4881
894.064	4755
894.186	4531
894.308	4538
894.43	4710
894.552	4816
894.674	4740
894.796	4504
894.918	4565
895.04	4592
895.161	4729
895.283	4664
895.405	4588
895.526	4649
895.648	4729
895.769	4672
895.891	4714
896.012	4694
896.134	4740
896.255	4694
896.376	4634
896.498	4611
896.619	4660
896.74	4577
896.861	4622
896.982	4953
897.103	5094
897.224	4831
897.345	4740
897.466	4698
897.587	4767
897.708	4877
897.828	4786
897.949	4740
898.07	4565
898.19	4596
898.311	4835
898.431	4660
898.552	4774
898.672	4850
898.792	4820
898.913	4767
899.033	4622
899.153	4512
899.273	4436
899.393	4493
899.513	4550
899.633	4493
899.753	4508
899.873	4459
899.993	4592
900.113	4565
900.232	4561
900.352	4485
900.472	4481
900.591	4379
900.711	4516
900.83	4436
900.95	4580
901.069	4698
901.189	4531
901.308	4356
901.427	4318
901.546	4363
901.665	4440
901.784	4523
901.904	4409
902.023	4325
902.141	4188
902.26	4173
902.379	4310
902.498	4238
902.617	4211
902.735	4383
902.854	4436
902.973	4341
903.091	4207
903.21	4219
903.328	4325
903.446	4276
903.565	4227
903.683	4322
903.801	4284
903.919	4371
904.038	4466
904.156	4287
904.274	4447
904.392	4394
904.51	4436
904.627	4519
904.745	4565
904.863	4626
904.981	4405
905.098	4329
905.216	4363
905.334	4443
905.451	4459
905.569	4440
905.686	4596
905.803	4561
905.921	4386
906.038	4508
906.155	4485
906.272	4375
906.389	4409
906.506	4360
906.623	4383
906.74	4451
906.857	4287
906.974	4383
907.091	4611
907.208	4683
907.324	4588
907.441	4508
907.557	4318
907.674	4329
907.79	4303
907.907	4413
908.023	4478
908.139	4478
908.256	4478
908.372	4481
908.488	4489
908.604	4360
908.72	4329
908.836	4375
908.952	4310
909.068	4436
909.184	4561
909.3	4459
909.415	4573
909.531	4546
909.647	4363
909.762	4333
909.878	4344
909.993	4417
910.108	4390
910.224	4440
910.339	4459
910.454	4447
910.57	4352
910.685	4348
910.8	4645
910.915	4622
911.03	4481
911.145	4303
911.259	4314
911.374	4386
911.489	4265
911.604	4261
911.718	4162
911.833	4219
911.947	4109
912.062	4029
912.176	4204
912.291	4238
912.405	4249
912.519	4443
912.633	4489
912.748	4367
912.862	4325
912.976	4192
913.09	4090
913.204	4181
913.318	4303
913.431	4402
913.545	4398
913.659	4470
913.772	4356
913.886	4223
914	4234
914.113	4360
914.226	4436
914.34	4417
914.453	4265
914.566	4421
914.68	4363
914.793	4363
914.906	4166
915.019	4139
915.132	4067
915.245	4196
915.358	4196
915.47	4268
915.583	4249
915.696	4287
915.809	4428
915.921	4470
916.034	4276
916.146	4276
916.259	4200
916.371	4383
916.483	4337
916.595	4253
916.708	4318
916.82	4287
916.932	4356
917.044	4333
917.156	4363
917.268	4207
917.38	4246
917.491	4253
917.603	4356
917.715	4428
917.826	4489
917.938	4325
918.049	4223
918.161	4363
918.272	4523
918.384	4497
918.495	4398
918.606	4322
918.717	4253
918.828	4310
918.939	4383
919.05	4265
919.161	4310
919.272	4120
919.383	4207
919.494	4428
919.604	4611
919.715	4485
919.826	4371
919.936	4413
920.047	4508
920.157	4516
920.267	4714
920.378	4489
920.488	4489
920.598	4725
920.708	4892
920.818	4721
920.928	4706
921.038	4934
921.148	4843
921.258	4634
921.368	4554
921.477	4462
921.587	4455
921.697	4371
921.806	4565
921.916	4413
922.025	4261
922.134	4268
922.244	4238
922.353	4306
922.462	4166
922.571	4162
922.68	4017
922.789	3987
922.898	3975
923.007	3983
923.116	4105
923.224	4055
923.333	4059
923.442	4002
923.55	4002
923.659	4032
923.767	4116
923.876	4032
923.984	4097
924.092	3964
924.201	4166
924.309	4078
924.417	4128
924.525	4006
924.633	4120
924.741	5083
924.849	3899
924.956	4128
925.064	3930
925.172	3903
925.279	3968
925.387	4055
925.494	4025
925.602	4253
925.709	4185
925.816	4074
925.924	4116
926.031	4188
926.138	4154
926.245	4249
926.352	4074
926.459	4219
926.566	4306
926.673	4158
926.779	4116
926.886	4071
926.993	3964
927.099	3926
927.206	3953
927.312	3960
927.419	4055
927.525	4067
927.631	4097
927.737	3975
927.843	3964
927.95	3876
928.056	3979
928.162	4006
928.267	4109
928.373	4706
928.479	4166
928.585	3850
928.69	4036
928.796	4090
928.901	3994
929.007	3831
929.112	4044
929.218	3994
929.323	3934
929.428	3937
929.533	4109
929.638	3915
929.743	3960
929.848	4002
929.953	4002
930.058	3903
930.163	3743
930.267	3869
930.372	3975
930.477	3808
930.581	4135
930.685	3979
930.79	3778
930.894	3953
930.998	3876
931.103	4029
931.207	3690
931.311	3713
931.415	3701
931.519	3504
931.623	3549
