Data from test_V78500241_470.txt Node
Date: Fri Mar 25 16:52:16 CST 2022
User: usil
Spectrometer: V785-0024
Trigger mode: 0
Integration Time (sec): 4.000000E-1
Scans to average: 1
Nonlinearity correction enabled: false
Boxcar width: 0
Storing dark spectrum: false
XAxis mode: Wavelengths
Number of Pixels in Spectrum: 1024
>>>>>Begin Spectral Data<<<<<
801.071	8062
801.214	8035
801.356	7868
801.499	7849
801.641	7879
801.783	7864
801.926	8062
802.068	8020
802.211	8035
802.353	8008
802.496	7936
802.638	7814
802.78	7894
802.923	7947
803.065	7799
803.208	7902
803.35	7940
803.492	8020
803.635	8103
803.777	7997
803.919	8035
804.061	8355
804.204	8134
804.346	8024
804.488	7913
804.63	8031
804.773	7959
804.915	8115
805.057	8252
805.199	8145
805.341	8240
805.483	8252
805.626	8092
805.768	8027
805.91	8134
806.052	8134
806.194	8092
806.336	8271
806.478	8157
806.62	8039
806.762	8111
806.904	8298
807.046	8492
807.188	8294
807.33	8180
807.472	8286
807.614	8134
807.756	8065
807.898	8008
808.04	7902
808.182	7986
808.324	7906
808.465	7909
808.607	8081
808.749	8077
808.891	8168
809.033	8275
809.174	8191
809.316	8062
809.458	8054
809.6	8043
809.741	8065
809.883	7978
810.025	8065
810.166	8088
810.308	8062
810.45	7978
810.591	7849
810.733	7693
810.875	7636
811.016	7544
811.158	7476
811.299	7666
811.441	7769
811.582	7700
811.724	7609
811.865	7563
812.007	7601
812.148	7590
812.29	7571
812.431	7792
812.573	7944
812.714	7974
812.855	8191
812.997	8195
813.138	8362
813.279	8210
813.421	8134
813.562	8012
813.703	7921
813.845	7792
813.986	7426
814.127	7384
814.268	7297
814.41	7221
814.551	7225
814.692	7225
814.833	7084
814.974	7053
815.115	7061
815.256	6970
815.397	6989
815.539	6913
815.68	6821
815.821	6806
815.962	6859
816.103	6829
816.244	6776
816.385	6631
816.526	6608
816.666	6471
816.807	6338
816.948	6479
817.089	6422
817.23	6407
817.371	6346
817.512	6353
817.653	6372
817.793	6346
817.934	6426
818.075	6460
818.216	6429
818.356	6388
818.497	6273
818.638	6117
818.778	6171
818.919	6114
819.06	6129
819.2	6292
819.341	6289
819.481	6289
819.622	6486
819.762	6707
819.903	6703
820.043	6582
820.184	6547
820.324	6555
820.465	6665
820.605	6677
820.746	6604
820.886	6513
821.026	6681
821.167	6722
821.307	6772
821.447	6798
821.588	6677
821.728	6525
821.868	6467
822.008	6331
822.149	6407
822.289	6342
822.429	6182
822.569	6091
822.709	6117
822.849	5893
822.99	5840
823.13	5897
823.27	5931
823.41	5786
823.55	5809
823.69	5786
823.83	5790
823.97	5722
824.11	5524
824.25	5535
824.389	5505
824.529	5611
824.669	5566
824.809	5627
824.949	5657
825.089	5623
825.228	5509
825.368	5360
825.508	5353
825.648	5322
825.787	5368
825.927	5387
826.067	5258
826.206	5349
826.346	5433
826.485	5410
826.625	5425
826.765	5551
826.904	5440
827.044	5235
827.183	5185
827.323	5174
827.462	5322
827.601	5178
827.741	5197
827.88	5246
828.02	5151
828.159	5216
828.298	5330
828.437	5376
828.577	5261
828.716	5474
828.855	5353
828.994	5170
829.134	5147
829.273	5181
829.412	5155
829.551	5197
829.69	5181
829.829	5269
829.968	5414
830.107	5261
830.246	5273
830.385	5193
830.524	5162
830.663	5033
830.802	4995
830.941	4877
831.08	4900
831.219	4984
831.357	4972
831.496	5181
831.635	4961
831.774	4816
831.913	4801
832.051	4736
832.19	4725
832.329	4870
832.467	4660
832.606	4607
832.744	4717
832.883	4729
833.022	4759
833.16	4797
833.299	4782
833.437	4835
833.576	4828
833.714	4911
833.852	4850
833.991	4843
834.129	4972
834.267	4968
834.406	4938
834.544	4987
834.682	4995
834.821	5010
834.959	5151
835.097	5006
835.235	5159
835.373	5071
835.511	5140
835.65	5037
835.788	5033
835.926	4866
836.064	4850
836.202	4934
836.34	5151
836.478	5216
836.615	5117
836.753	5220
836.891	5265
837.029	5246
837.167	5151
837.305	5155
837.443	5181
837.58	5102
837.718	5231
837.856	5204
837.993	5143
838.131	5239
838.269	5197
838.406	5143
838.544	5227
838.681	5045
838.819	5025
838.956	4885
839.094	4892
839.231	5018
839.369	5132
839.506	5360
839.643	5246
839.781	5045
839.918	4995
840.055	5105
840.193	5094
840.33	5132
840.467	5155
840.604	5151
840.742	5395
840.879	5045
841.016	5064
841.153	5185
841.29	5368
841.427	5334
841.564	5311
841.701	5334
841.838	5273
841.975	5216
842.112	5250
842.249	5170
842.385	5064
842.522	5246
842.659	5201
842.796	5155
842.933	5227
843.069	5132
843.206	5124
843.343	5277
843.479	5292
843.616	5261
843.752	5014
843.889	4984
844.025	5227
844.162	4980
844.298	5155
844.435	5060
844.571	5037
844.708	5185
844.844	5258
844.98	5322
845.117	5246
845.253	5174
845.389	5102
845.525	5193
845.661	5166
845.798	5052
845.934	5094
846.07	5022
846.206	5201
846.342	5258
846.478	5231
846.614	5022
846.75	4930
846.886	4980
847.022	5117
847.158	5014
847.294	5048
847.429	5098
847.565	5079
847.701	5330
847.837	4881
847.972	4793
848.108	4961
848.244	4942
848.379	4873
848.515	4721
848.65	4714
848.786	4725
848.921	4759
849.057	4870
849.192	4892
849.328	4835
849.463	4797
849.598	4782
849.734	4752
849.869	4668
850.004	4656
850.14	4656
850.275	4615
850.41	4474
850.545	4531
850.68	4626
850.815	4649
850.95	4630
851.085	4873
851.22	4729
851.355	4714
851.49	4634
851.625	4660
851.76	4679
851.895	4565
852.03	4523
852.165	4615
852.299	4717
852.434	4763
852.569	4748
852.703	4752
852.838	4843
852.973	4923
853.107	4908
853.242	4740
853.376	4691
853.511	4580
853.645	4607
853.78	4771
853.914	4698
854.048	4649
854.183	4645
854.317	4649
854.451	4877
854.585	4675
854.72	4664
854.854	4771
854.988	4615
855.122	4649
855.256	4489
855.39	4687
855.524	4805
855.658	4748
855.792	4698
855.926	4672
856.06	4740
856.194	4801
856.327	4687
856.461	4630
856.595	4611
856.729	4637
856.862	4733
856.996	4679
857.13	4687
857.263	4706
857.397	4793
857.53	4664
857.664	4729
857.797	4759
857.931	4809
858.064	4740
858.197	4744
858.331	4645
858.464	4580
858.597	4523
858.731	4622
858.864	4626
858.997	4569
859.13	4645
859.263	4672
859.396	4721
859.529	4554
859.662	4546
859.795	4519
859.928	4634
860.061	4828
860.194	4786
860.327	4622
860.46	4546
860.592	4721
860.725	4679
860.858	4717
860.99	4573
861.123	4497
861.256	4542
861.388	4550
861.521	5311
861.653	4478
861.786	4493
861.918	4447
862.05	4478
862.183	4569
862.315	4634
862.447	4634
862.58	4538
862.712	4421
862.844	4375
862.976	4462
863.108	4485
863.24	4786
863.372	4360
863.504	4432
863.636	4424
863.768	4489
863.9	4466
864.032	4375
864.164	4413
864.296	4481
864.428	4481
864.559	4577
864.691	4519
864.823	4542
864.954	4481
865.086	4554
865.217	4455
865.349	4394
865.48	4451
865.612	4497
865.743	4645
865.875	4462
866.006	4398
866.137	4447
866.269	4402
866.4	4455
866.531	4466
866.662	4352
866.793	4424
866.924	4421
867.055	4500
867.186	4523
867.317	4455
867.448	4421
867.579	4402
867.71	4360
867.841	4360
867.972	4481
868.103	4481
868.233	4447
868.364	4436
868.495	4478
868.625	4664
868.756	4748
868.886	4565
869.017	4653
869.147	4786
869.278	4809
869.408	4641
869.539	4649
869.669	4717
869.799	4675
869.929	4729
870.06	4740
870.19	4972
870.32	4881
870.45	4938
870.58	5006
870.71	5045
870.84	5083
870.97	4957
871.1	4881
871.23	5132
871.36	5113
871.489	5018
871.619	5037
871.749	5117
871.879	5178
872.008	5147
872.138	5083
872.267	5014
872.397	4847
872.526	4812
872.656	4752
872.785	4793
872.915	4965
873.044	5025
873.173	4968
873.303	5010
873.432	4957
873.561	4984
873.69	4850
873.819	4854
873.948	4885
874.077	4854
874.206	4721
874.335	4835
874.464	4843
874.593	5052
874.722	4927
874.851	5109
874.979	5113
875.108	5006
875.237	4911
875.365	4831
875.494	4885
875.623	4923
875.751	4805
875.88	4870
876.008	4968
876.136	5033
876.265	5178
876.393	5330
876.521	5246
876.65	5174
876.778	5231
876.906	5067
877.034	5052
877.162	5037
877.29	4949
877.418	5045
877.546	5003
877.674	5071
877.802	5045
877.93	4999
878.058	4938
878.185	4915
878.313	4991
878.441	5025
878.568	4774
878.696	4850
878.824	4919
878.951	5010
879.079	5162
879.206	5269
879.333	5109
879.461	4942
879.588	4961
879.715	5067
879.842	5185
879.97	4987
880.097	4771
880.224	4733
880.351	4771
880.478	4835
880.605	4850
880.732	4801
880.859	5086
880.986	4904
881.112	4938
881.239	4816
881.366	4683
881.493	4656
881.619	4580
881.746	4702
881.872	4592
881.999	4649
882.125	4660
882.252	4778
882.378	4809
882.505	4949
882.631	4835
882.757	4683
882.883	4694
883.01	4736
883.136	4660
883.262	4592
883.388	4630
883.514	4812
883.64	4812
883.766	4778
883.892	4668
884.018	4694
884.143	4881
884.269	4961
884.395	4683
884.52	4596
884.646	4660
884.772	4637
884.897	4558
885.023	4672
885.148	4824
885.274	4915
885.399	4778
885.524	4698
885.65	4698
885.775	4702
885.9	4698
886.025	4828
886.15	4797
886.275	4698
886.4	4615
886.525	4702
886.65	4694
886.775	4717
886.9	4889
887.025	5067
887.149	4809
887.274	4607
887.399	4592
887.523	4660
887.648	4565
887.773	4588
887.897	4759
888.021	4801
888.146	4725
888.27	4831
888.395	4942
888.519	4793
888.643	4850
888.767	4831
888.891	4679
889.015	4603
889.139	4691
889.263	4588
889.387	4729
889.511	4904
889.635	4816
889.759	4683
889.883	4729
890.006	4790
890.13	4839
890.254	4679
890.377	4736
890.501	4535
890.624	4588
890.748	4618
890.871	4523
890.995	4489
891.118	4428
891.241	4538
891.364	4569
891.488	4687
891.611	4558
891.734	4611
891.857	4656
891.98	4569
892.103	4679
892.226	4653
892.349	4550
892.471	4497
892.594	4569
892.717	4637
892.839	4656
892.962	4694
893.085	4721
893.207	4584
893.33	4478
893.452	4561
893.575	4725
893.697	4630
893.819	4843
893.941	4850
894.064	4831
894.186	4607
894.308	4592
894.43	4763
894.552	4858
894.674	4824
894.796	4599
894.918	4706
895.04	4607
895.161	4786
895.283	4645
895.405	4653
895.526	4679
895.648	4752
895.769	4725
895.891	4748
896.012	4790
896.134	4736
896.255	4759
896.376	4660
896.498	4649
896.619	4717
896.74	4618
896.861	4683
896.982	4972
897.103	5083
897.224	4900
897.345	4774
897.466	4736
897.587	4763
897.708	4900
897.828	4812
897.949	4687
898.07	4599
898.19	4691
898.311	4835
898.431	4721
898.552	4771
898.672	4881
898.792	4877
898.913	4820
899.033	4630
899.153	4542
899.273	4474
899.393	4538
899.513	4588
899.633	4580
899.753	4622
899.873	4584
899.993	4645
900.113	4569
900.232	4634
900.352	4603
900.472	4565
900.591	4478
900.711	4546
900.83	4512
900.95	4630
901.069	4733
901.189	4565
901.308	4383
901.427	4402
901.546	4462
901.665	4542
901.784	4542
901.904	4451
902.023	4363
902.141	4268
902.26	4215
902.379	4337
902.498	4249
902.617	4268
902.735	4428
902.854	4413
902.973	4363
903.091	4265
903.21	4280
903.328	4352
903.446	4341
903.565	4310
903.683	4383
903.801	4356
903.919	4451
904.038	4470
904.156	4337
904.274	4466
904.392	4478
904.51	4421
904.627	4519
904.745	4630
904.863	4626
904.981	4405
905.098	4367
905.216	4405
905.334	4497
905.451	4470
905.569	4485
905.686	4596
905.803	4615
905.921	4451
906.038	4580
906.155	4516
906.272	4443
906.389	4489
906.506	4405
906.623	4436
906.74	4402
906.857	4325
906.974	4409
907.091	4668
907.208	4748
907.324	4649
907.441	4561
907.557	4363
907.674	4417
907.79	4375
907.907	4417
908.023	4493
908.139	4508
908.256	4485
908.372	4516
908.488	4512
908.604	4409
908.72	4356
908.836	4417
908.952	4443
909.068	4443
909.184	4577
909.3	4546
909.415	4584
909.531	4615
909.647	4394
909.762	4390
909.878	4379
909.993	4447
910.108	4421
910.224	4447
910.339	4523
910.454	4516
910.57	4409
910.685	4402
910.8	4717
910.915	4683
911.03	4508
911.145	4344
911.259	4360
911.374	4371
911.489	4325
911.604	4344
911.718	4215
911.833	4253
911.947	4086
912.062	4093
912.176	4272
912.291	4310
912.405	4295
912.519	4542
912.633	4538
912.748	4413
912.862	4348
912.976	4215
913.09	4143
913.204	4280
913.318	4310
913.431	4394
913.545	4398
913.659	4459
913.772	4386
913.886	4303
914	4261
914.113	4421
914.226	4508
914.34	4440
914.453	4318
914.566	4470
914.68	4329
914.793	4314
914.906	4246
915.019	4131
915.132	4105
915.245	4234
915.358	4265
915.47	4265
915.583	4291
915.696	4299
915.809	4459
915.921	4459
916.034	4276
916.146	4310
916.259	4284
916.371	4440
916.483	4443
916.595	4295
916.708	4356
916.82	4318
916.932	4344
917.044	4306
917.156	4360
917.268	4234
917.38	4325
917.491	4299
917.603	4390
917.715	4470
917.826	4470
917.938	4402
918.049	4287
918.161	4443
918.272	4531
918.384	4546
918.495	4470
918.606	4344
918.717	4284
918.828	4348
918.939	4436
919.05	4268
919.161	4348
919.272	4169
919.383	4257
919.494	4470
919.604	4637
919.715	4409
919.826	4360
919.936	4470
920.047	4584
920.157	4474
920.267	4763
920.378	4622
920.488	4500
920.598	4786
920.708	4915
920.818	4778
920.928	4778
921.038	5010
921.148	4930
921.258	4687
921.368	4565
921.477	4504
921.587	4470
921.697	4367
921.806	4603
921.916	4474
922.025	4314
922.134	4341
922.244	4249
922.353	4352
922.462	4238
922.571	4177
922.68	4055
922.789	4032
922.898	4010
923.007	3991
923.116	4071
923.224	4093
923.333	4105
923.442	4040
923.55	4032
923.659	4029
923.767	4090
923.876	4017
923.984	4120
924.092	4074
924.201	4128
924.309	4128
924.417	4169
924.525	4090
924.633	4143
924.741	5132
924.849	3979
924.956	4143
925.064	3968
925.172	3930
925.279	4044
925.387	4067
925.494	4093
925.602	4223
925.709	4230
925.816	4078
925.924	4177
926.031	4265
926.138	4200
926.245	4227
926.352	4086
926.459	4276
926.566	4314
926.673	4200
926.779	4128
926.886	4105
926.993	3972
927.099	3930
927.206	3991
927.312	4002
927.419	4097
927.525	4067
927.631	4128
927.737	3956
927.843	3983
927.95	3865
928.056	3994
928.162	4055
928.267	4067
928.373	4698
928.479	4162
928.585	3888
928.69	4086
928.796	4124
928.901	4040
929.007	3926
929.112	4006
929.218	4063
929.323	4002
929.428	3956
929.533	4109
929.638	3934
929.743	3987
929.848	4063
929.953	4044
930.058	3945
930.163	3762
930.267	3838
930.372	4017
930.477	3831
930.581	4116
930.685	3949
930.79	3857
930.894	3915
930.998	3876
931.103	4032
931.207	3724
931.311	3728
931.415	3717
931.519	3538
931.623	3599
