Data from test_V78500241_1091.txt Node
Date: Fri Mar 25 16:56:35 CST 2022
User: usil
Spectrometer: V785-0024
Trigger mode: 0
Integration Time (sec): 4.000000E-1
Scans to average: 1
Nonlinearity correction enabled: false
Boxcar width: 0
Storing dark spectrum: false
XAxis mode: Wavelengths
Number of Pixels in Spectrum: 1024
>>>>>Begin Spectral Data<<<<<
801.071	8096
801.214	8050
801.356	7974
801.499	7894
801.641	7792
801.783	7845
801.926	7963
802.068	7928
802.211	7947
802.353	7970
802.496	7772
802.638	7894
802.78	7951
802.923	7902
803.065	7841
803.208	7856
803.35	8065
803.492	8077
803.635	8168
803.777	8001
803.919	8134
804.061	8511
804.204	8138
804.346	8035
804.488	8008
804.63	8157
804.773	8073
804.915	8111
805.057	8305
805.199	8172
805.341	8290
805.483	8282
805.626	8134
805.768	8134
805.91	8145
806.052	8199
806.194	8134
806.336	8301
806.478	8161
806.62	8050
806.762	8199
806.904	8267
807.046	8442
807.188	8347
807.33	8358
807.472	8305
807.614	8214
807.756	8031
807.898	8008
808.04	7887
808.182	7944
808.324	7871
808.465	7921
808.607	8024
808.749	8096
808.891	8176
809.033	8210
809.174	8202
809.316	8058
809.458	8020
809.6	8046
809.741	8039
809.883	8027
810.025	8119
810.166	8069
810.308	8111
810.45	8024
810.591	7925
810.733	7704
810.875	7674
811.016	7502
811.158	7510
811.299	7556
811.441	7651
811.582	7685
811.724	7613
811.865	7502
812.007	7518
812.148	7571
812.29	7658
812.431	7693
812.573	7871
812.714	7974
812.855	8142
812.997	8210
813.138	8336
813.279	8206
813.421	8145
813.562	7993
813.703	7906
813.845	7841
813.986	7495
814.127	7244
814.268	7171
814.41	7198
814.551	7118
814.692	7190
814.833	7053
814.974	7057
815.115	7057
815.256	6909
815.397	6909
815.539	7015
815.68	6909
815.821	6791
815.962	6886
816.103	6818
816.244	6753
816.385	6635
816.526	6620
816.666	6479
816.807	6304
816.948	6452
817.089	6509
817.23	6418
817.371	6365
817.512	6452
817.653	6403
817.793	6395
817.934	6410
818.075	6513
818.216	6498
818.356	6399
818.497	6304
818.638	6121
818.778	6167
818.919	6194
819.06	6136
819.2	6365
819.341	6346
819.481	6410
819.622	6559
819.762	6700
819.903	6692
820.043	6631
820.184	6601
820.324	6570
820.465	6601
820.605	6662
820.746	6589
820.886	6502
821.026	6654
821.167	6696
821.307	6818
821.447	6749
821.588	6662
821.728	6604
821.868	6547
822.008	6300
822.149	6372
822.289	6365
822.429	6155
822.569	6041
822.709	6114
822.849	5969
822.99	5920
823.13	5851
823.27	5954
823.41	5790
823.55	5786
823.69	5714
823.83	5813
823.97	5634
824.11	5509
824.25	5524
824.389	5554
824.529	5592
824.669	5497
824.809	5585
824.949	5634
825.089	5566
825.228	5528
825.368	5398
825.508	5349
825.648	5357
825.787	5425
825.927	5337
826.067	5280
826.206	5292
826.346	5410
826.485	5345
826.625	5414
826.765	5562
826.904	5425
827.044	5227
827.183	5220
827.323	5151
827.462	5239
827.601	5178
827.741	5185
827.88	5216
828.02	5090
828.159	5261
828.298	5292
828.437	5334
828.577	5307
828.716	5471
828.855	5292
828.994	5162
829.134	5193
829.273	5178
829.412	5159
829.551	5140
829.69	5159
829.829	5227
829.968	5341
830.107	5258
830.246	5311
830.385	5178
830.524	5132
830.663	5067
830.802	4953
830.941	4862
831.08	4843
831.219	5037
831.357	4984
831.496	5181
831.635	4946
831.774	4858
831.913	4805
832.051	4752
832.19	4797
832.329	4889
832.467	4698
832.606	4588
832.744	4683
832.883	4683
833.022	4702
833.16	4755
833.299	4828
833.437	4831
833.576	4797
833.714	4850
833.852	4930
833.991	4866
834.129	4957
834.267	4927
834.406	4904
834.544	4972
834.682	4953
834.821	4987
834.959	5155
835.097	5025
835.235	5136
835.373	5033
835.511	5124
835.65	4995
835.788	4968
835.926	4904
836.064	4885
836.202	4896
836.34	5197
836.478	5170
836.615	5132
836.753	5197
836.891	5318
837.029	5212
837.167	5189
837.305	5132
837.443	5128
837.58	5056
837.718	5322
837.856	5113
837.993	5151
838.131	5208
838.269	5201
838.406	5204
838.544	5170
838.681	5022
838.819	4995
838.956	4824
839.094	4923
839.231	4980
839.369	5067
839.506	5379
839.643	5227
839.781	5075
839.918	4965
840.055	5102
840.193	5056
840.33	5079
840.467	5155
840.604	5155
840.742	5398
840.879	5086
841.016	5075
841.153	5162
841.29	5417
841.427	5330
841.564	5277
841.701	5353
841.838	5311
841.975	5223
842.112	5280
842.249	5109
842.385	5079
842.522	5345
842.659	5162
842.796	5121
842.933	5155
843.069	5159
843.206	5151
843.343	5307
843.479	5189
843.616	5246
843.752	5018
843.889	5003
844.025	5235
844.162	5006
844.298	5174
844.435	5033
844.571	5048
844.708	5227
844.844	5311
844.98	5299
845.117	5254
845.253	5185
845.389	5075
845.525	5159
845.661	5113
845.798	4987
845.934	5121
846.07	5079
846.206	5124
846.342	5269
846.478	5193
846.614	4961
846.75	4991
846.886	4968
847.022	5166
847.158	4995
847.294	5056
847.429	5079
847.565	5052
847.701	5326
847.837	4858
847.972	4744
848.108	4953
848.244	4946
848.379	4786
848.515	4717
848.65	4691
848.786	4729
848.921	4790
849.057	4862
849.192	4885
849.328	4824
849.463	4835
849.598	4797
849.734	4786
849.869	4672
850.004	4645
850.14	4622
850.275	4634
850.41	4535
850.545	4580
850.68	4558
850.815	4599
850.95	4588
851.085	4870
851.22	4736
851.355	4607
851.49	4607
851.625	4637
851.76	4634
851.895	4516
852.03	4485
852.165	4637
852.299	4656
852.434	4767
852.569	4744
852.703	4793
852.838	4793
852.973	4919
853.107	4976
853.242	4694
853.376	4675
853.511	4531
853.645	4622
853.78	4797
853.914	4672
854.048	4649
854.183	4656
854.317	4687
854.451	4820
854.585	4664
854.72	4615
854.854	4774
854.988	4607
855.122	4592
855.256	4497
855.39	4668
855.524	4759
855.658	4683
855.792	4752
855.926	4691
856.06	4774
856.194	4839
856.327	4694
856.461	4615
856.595	4577
856.729	4618
856.862	4740
856.996	4679
857.13	4740
857.263	4725
857.397	4801
857.53	4607
857.664	4698
857.797	4797
857.931	4774
858.064	4656
858.197	4683
858.331	4675
858.464	4584
858.597	4546
858.731	4615
858.864	4611
858.997	4611
859.13	4675
859.263	4615
859.396	4698
859.529	4618
859.662	4512
859.795	4542
859.928	4584
860.061	4733
860.194	4778
860.327	4611
860.46	4596
860.592	4672
860.725	4717
860.858	4691
860.99	4550
861.123	4497
861.256	4481
861.388	4618
861.521	5315
861.653	4485
861.786	4466
861.918	4470
862.05	4504
862.183	4527
862.315	4584
862.447	4664
862.58	4527
862.712	4424
862.844	4325
862.976	4474
863.108	4451
863.24	4805
863.372	4333
863.504	4386
863.636	4363
863.768	4481
863.9	4424
864.032	4333
864.164	4421
864.296	4436
864.428	4573
864.559	4538
864.691	4573
864.823	4538
864.954	4466
865.086	4500
865.217	4409
865.349	4428
865.48	4432
865.612	4440
865.743	4580
865.875	4500
866.006	4424
866.137	4421
866.269	4424
866.4	4436
866.531	4421
866.662	4356
866.793	4421
866.924	4443
867.055	4489
867.186	4470
867.317	4367
867.448	4360
867.579	4421
867.71	4398
867.841	4379
867.972	4474
868.103	4500
868.233	4436
868.364	4466
868.495	4489
868.625	4675
868.756	4725
868.886	4546
869.017	4641
869.147	4767
869.278	4729
869.408	4691
869.539	4641
869.669	4702
869.799	4626
869.929	4710
870.06	4714
870.19	4927
870.32	4942
870.45	4957
870.58	4991
870.71	5041
870.84	5079
870.97	4915
871.1	4835
871.23	5174
871.36	5094
871.489	4999
871.619	5014
871.749	5067
871.879	5064
872.008	5193
872.138	5052
872.267	4946
872.397	4824
872.526	4847
872.656	4710
872.785	4805
872.915	5003
873.044	4984
873.173	4915
873.303	5003
873.432	4957
873.561	4949
873.69	4904
873.819	4839
873.948	4892
874.077	4812
874.206	4698
874.335	4812
874.464	4919
874.593	5045
874.722	4915
874.851	5067
874.979	5025
875.108	5025
875.237	4892
875.365	4870
875.494	4866
875.623	4968
875.751	4801
875.88	4904
876.008	4968
876.136	4987
876.265	5143
876.393	5307
876.521	5212
876.65	5201
876.778	5162
876.906	5117
877.034	5018
877.162	5018
877.29	4953
877.418	4984
877.546	5045
877.674	5014
877.802	4976
877.93	5003
878.058	4930
878.185	4908
878.313	4904
878.441	4927
878.568	4782
878.696	4885
878.824	4915
878.951	4980
879.079	5105
879.206	5227
879.333	5067
879.461	4930
879.588	4946
879.715	5086
879.842	5181
879.97	4999
880.097	4816
880.224	4763
880.351	4771
880.478	4824
880.605	4744
880.732	4801
880.859	5056
880.986	4862
881.112	4870
881.239	4755
881.366	4660
881.493	4641
881.619	4626
881.746	4641
881.872	4626
881.999	4656
882.125	4702
882.252	4786
882.378	4790
882.505	4934
882.631	4866
882.757	4729
882.883	4752
883.01	4710
883.136	4634
883.262	4561
883.388	4656
883.514	4786
883.64	4904
883.766	4782
883.892	4626
884.018	4683
884.143	4911
884.269	4987
884.395	4653
884.52	4645
884.646	4698
884.772	4599
884.897	4561
885.023	4626
885.148	4790
885.274	4850
885.399	4771
885.524	4664
885.65	4706
885.775	4702
885.9	4717
886.025	4824
886.15	4797
886.275	4714
886.4	4660
886.525	4714
886.65	4653
886.775	4748
886.9	4854
887.025	5037
887.149	4828
887.274	4641
887.399	4569
887.523	4558
887.648	4565
887.773	4569
887.897	4752
888.021	4748
888.146	4679
888.27	4778
888.395	4908
888.519	4793
888.643	4820
888.767	4850
888.891	4664
889.015	4645
889.139	4668
889.263	4569
889.387	4759
889.511	4881
889.635	4805
889.759	4626
889.883	4679
890.006	4706
890.13	4809
890.254	4630
890.377	4729
890.501	4550
890.624	4512
890.748	4656
890.871	4497
890.995	4459
891.118	4394
891.241	4474
891.364	4531
891.488	4668
891.611	4493
891.734	4508
891.857	4622
891.98	4519
892.103	4637
892.226	4592
892.349	4519
892.471	4432
892.594	4527
892.717	4573
892.839	4554
892.962	4580
893.085	4645
893.207	4592
893.33	4451
893.452	4504
893.575	4641
893.697	4565
893.819	4774
893.941	4786
894.064	4717
894.186	4516
894.308	4596
894.43	4683
894.552	4755
894.674	4797
894.796	4580
894.918	4592
895.04	4546
895.161	4706
895.283	4615
895.405	4588
895.526	4599
895.648	4653
895.769	4668
895.891	4714
896.012	4740
896.134	4736
896.255	4660
896.376	4645
896.498	4580
896.619	4668
896.74	4584
896.861	4634
896.982	4892
897.103	5025
897.224	4824
897.345	4710
897.466	4618
897.587	4748
897.708	4809
897.828	4759
897.949	4630
898.07	4508
898.19	4656
898.311	4782
898.431	4641
898.552	4668
898.672	4812
898.792	4797
898.913	4744
899.033	4618
899.153	4451
899.273	4390
899.393	4470
899.513	4523
899.633	4500
899.753	4565
899.873	4432
899.993	4519
900.113	4504
900.232	4596
900.352	4596
900.472	4466
900.591	4360
900.711	4497
900.83	4440
900.95	4519
901.069	4641
901.189	4546
901.308	4337
901.427	4284
901.546	4360
901.665	4462
901.784	4474
901.904	4329
902.023	4284
902.141	4238
902.26	4128
902.379	4287
902.498	4246
902.617	4223
902.735	4352
902.854	4371
902.973	4348
903.091	4219
903.21	4234
903.328	4318
903.446	4295
903.565	4253
903.683	4348
903.801	4276
903.919	4367
904.038	4451
904.156	4322
904.274	4443
904.392	4417
904.51	4424
904.627	4512
904.745	4577
904.863	4580
904.981	4424
905.098	4284
905.216	4375
905.334	4405
905.451	4432
905.569	4455
905.686	4523
905.803	4554
905.921	4409
906.038	4569
906.155	4459
906.272	4363
906.389	4428
906.506	4299
906.623	4367
906.74	4394
906.857	4299
906.974	4379
907.091	4542
907.208	4641
907.324	4622
907.441	4466
907.557	4344
907.674	4329
907.79	4280
907.907	4356
908.023	4443
908.139	4455
908.256	4447
908.372	4436
908.488	4459
908.604	4352
908.72	4333
908.836	4356
908.952	4383
909.068	4436
909.184	4599
909.3	4424
909.415	4573
909.531	4519
909.647	4341
909.762	4398
909.878	4325
909.993	4424
910.108	4402
910.224	4390
910.339	4478
910.454	4424
910.57	4375
910.685	4306
910.8	4634
910.915	4599
911.03	4466
911.145	4310
911.259	4341
911.374	4333
911.489	4276
911.604	4253
911.718	4185
911.833	4139
911.947	4086
912.062	3987
912.176	4200
912.291	4265
912.405	4272
912.519	4462
912.633	4523
912.748	4421
912.862	4322
912.976	4185
913.09	4040
913.204	4166
913.318	4147
913.431	4352
913.545	4291
913.659	4443
913.772	4375
913.886	4207
914	4192
914.113	4379
914.226	4447
914.34	4413
914.453	4211
914.566	4394
914.68	4299
914.793	4306
914.906	4158
915.019	4158
915.132	4025
915.245	4188
915.358	4219
915.47	4272
915.583	4249
915.696	4261
915.809	4398
915.921	4421
916.034	4272
916.146	4253
916.259	4200
916.371	4383
916.483	4379
916.595	4261
916.708	4318
916.82	4333
916.932	4299
917.044	4276
917.156	4299
917.268	4219
917.38	4299
917.491	4238
917.603	4356
917.715	4451
917.826	4451
917.938	4306
918.049	4242
918.161	4333
918.272	4561
918.384	4546
918.495	4413
918.606	4291
918.717	4234
918.828	4371
918.939	4363
919.05	4204
919.161	4318
919.272	4204
919.383	4227
919.494	4451
919.604	4626
919.715	4409
919.826	4379
919.936	4375
920.047	4497
920.157	4489
920.267	4710
920.378	4527
920.488	4508
920.598	4698
920.708	4862
920.818	4755
920.928	4725
921.038	4949
921.148	4927
921.258	4618
921.368	4573
921.477	4485
921.587	4398
921.697	4367
921.806	4527
921.916	4447
922.025	4246
922.134	4257
922.244	4185
922.353	4379
922.462	4166
922.571	4150
922.68	4021
922.789	3979
922.898	4036
923.007	3960
923.116	4097
923.224	4055
923.333	4059
923.442	3983
923.55	3956
923.659	4063
923.767	4067
923.876	3975
923.984	4120
924.092	3979
924.201	4112
924.309	4128
924.417	4120
924.525	4051
924.633	4074
924.741	5083
924.849	3915
924.956	4112
925.064	3994
925.172	3888
925.279	3915
925.387	4074
925.494	4021
925.602	4211
925.709	4154
925.816	4059
925.924	4147
926.031	4249
926.138	4166
926.245	4169
926.352	4135
926.459	4242
926.566	4276
926.673	4173
926.779	4074
926.886	4105
926.993	3949
927.099	3975
927.206	3941
927.312	3930
927.419	4040
927.525	4044
927.631	4131
927.737	3922
927.843	3934
927.95	3800
928.056	3937
928.162	3953
928.267	4074
928.373	4649
928.479	4101
928.585	3907
928.69	4040
928.796	4055
928.901	3979
929.007	3846
929.112	3991
929.218	4017
929.323	3972
929.428	3953
929.533	4124
929.638	3899
929.743	3960
929.848	4044
929.953	3979
930.058	3918
930.163	3785
930.267	3838
930.372	3945
930.477	3804
930.581	4078
930.685	3945
930.79	3827
930.894	3888
930.998	3892
931.103	4021
931.207	3690
931.311	3682
931.415	3667
931.519	3519
931.623	3542
