Data from test_V78500241_830.txt Node
Date: Fri Mar 25 16:54:46 CST 2022
User: usil
Spectrometer: V785-0024
Trigger mode: 0
Integration Time (sec): 4.000000E-1
Scans to average: 1
Nonlinearity correction enabled: false
Boxcar width: 0
Storing dark spectrum: false
XAxis mode: Wavelengths
Number of Pixels in Spectrum: 1024
>>>>>Begin Spectral Data<<<<<
801.071	8043
801.214	8008
801.356	7814
801.499	7799
801.641	7753
801.783	7761
801.926	7921
802.068	7917
802.211	7898
802.353	7959
802.496	7860
802.638	7841
802.78	7887
802.923	7906
803.065	7822
803.208	7890
803.35	7909
803.492	8138
803.635	8126
803.777	7989
803.919	8077
804.061	8320
804.204	8115
804.346	8058
804.488	7955
804.63	8100
804.773	7997
804.915	7993
805.057	8286
805.199	8168
805.341	8164
805.483	8240
805.626	8218
805.768	8081
805.91	8237
806.052	8126
806.194	8065
806.336	8305
806.478	8043
806.62	8005
806.762	8081
806.904	8271
807.046	8396
807.188	8366
807.33	8286
807.472	8263
807.614	8153
807.756	8130
807.898	7947
808.04	7852
808.182	7868
808.324	7898
808.465	7894
808.607	8046
808.749	8039
808.891	8100
809.033	8267
809.174	8187
809.316	8062
809.458	8027
809.6	7974
809.741	8035
809.883	8020
810.025	8050
810.166	7989
810.308	7963
810.45	7993
810.591	7860
810.733	7685
810.875	7647
811.016	7540
811.158	7472
811.299	7590
811.441	7696
811.582	7636
811.724	7563
811.865	7521
812.007	7613
812.148	7567
812.29	7575
812.431	7769
812.573	7833
812.714	7879
812.855	8142
812.997	8134
813.138	8301
813.279	8130
813.421	8043
813.562	8027
813.703	7814
813.845	7696
813.986	7396
814.127	7213
814.268	7183
814.41	7206
814.551	7114
814.692	7114
814.833	6977
814.974	7103
815.115	7076
815.256	6958
815.397	6867
815.539	6890
815.68	6878
815.821	6818
815.962	6901
816.103	6783
816.244	6662
816.385	6608
816.526	6608
816.666	6536
816.807	6281
816.948	6441
817.089	6445
817.23	6437
817.371	6353
817.512	6388
817.653	6334
817.793	6380
817.934	6346
818.075	6445
818.216	6464
818.356	6403
818.497	6148
818.638	6110
818.778	6125
818.919	6030
819.06	6140
819.2	6270
819.341	6323
819.481	6380
819.622	6521
819.762	6722
819.903	6757
820.043	6566
820.184	6593
820.324	6544
820.465	6620
820.605	6597
820.746	6589
820.886	6464
821.026	6665
821.167	6662
821.307	6806
821.447	6703
821.588	6669
821.728	6612
821.868	6467
822.008	6289
822.149	6323
822.289	6369
822.429	6041
822.569	6079
822.709	6072
822.849	5935
822.99	5863
823.13	5954
823.27	5893
823.41	5745
823.55	5786
823.69	5756
823.83	5737
823.97	5672
824.11	5467
824.25	5452
824.389	5505
824.529	5535
824.669	5482
824.809	5608
824.949	5710
825.089	5604
825.228	5535
825.368	5402
825.508	5315
825.648	5337
825.787	5341
825.927	5322
826.067	5269
826.206	5239
826.346	5383
826.485	5368
826.625	5391
826.765	5509
826.904	5459
827.044	5208
827.183	5220
827.323	5075
827.462	5254
827.601	5086
827.741	5113
827.88	5242
828.02	5075
828.159	5246
828.298	5273
828.437	5334
828.577	5193
828.716	5425
828.855	5288
828.994	5178
829.134	5170
829.273	5269
829.412	5136
829.551	5151
829.69	5231
829.829	5208
829.968	5376
830.107	5261
830.246	5261
830.385	5227
830.524	5170
830.663	5060
830.802	5014
830.941	4908
831.08	4854
831.219	4995
831.357	4953
831.496	5132
831.635	4972
831.774	4873
831.913	4877
832.051	4752
832.19	4824
832.329	4831
832.467	4694
832.606	4649
832.744	4740
832.883	4729
833.022	4729
833.16	4809
833.299	4843
833.437	4870
833.576	4854
833.714	4835
833.852	4892
833.991	4900
834.129	4892
834.267	4965
834.406	4946
834.544	5029
834.682	4991
834.821	4946
834.959	5204
835.097	5071
835.235	5185
835.373	5086
835.511	5159
835.65	5113
835.788	5064
835.926	4904
836.064	4892
836.202	4949
836.34	5178
836.478	5250
836.615	5155
836.753	5239
836.891	5315
837.029	5227
837.167	5235
837.305	5208
837.443	5136
837.58	5159
837.718	5280
837.856	5208
837.993	5162
838.131	5288
838.269	5239
838.406	5239
838.544	5246
838.681	5060
838.819	5041
838.956	4904
839.094	4961
839.231	5010
839.369	5143
839.506	5474
839.643	5315
839.781	5109
839.918	5075
840.055	5094
840.193	5113
840.33	5162
840.467	5189
840.604	5174
840.742	5467
840.879	5124
841.016	5121
841.153	5181
841.29	5391
841.427	5376
841.564	5349
841.701	5349
841.838	5326
841.975	5212
842.112	5303
842.249	5155
842.385	5147
842.522	5379
842.659	5162
842.796	5181
842.933	5216
843.069	5170
843.206	5128
843.343	5303
843.479	5273
843.616	5250
843.752	5029
843.889	5033
844.025	5254
844.162	5022
844.298	5258
844.435	5128
844.571	5083
844.708	5220
844.844	5311
844.98	5330
845.117	5277
845.253	5197
845.389	5083
845.525	5170
845.661	5181
845.798	5079
845.934	5132
846.07	5105
846.206	5216
846.342	5322
846.478	5208
846.614	5071
846.75	4984
846.886	5003
847.022	5201
847.158	5014
847.294	5102
847.429	5136
847.565	5060
847.701	5383
847.837	4866
847.972	4881
848.108	4972
848.244	4919
848.379	4793
848.515	4733
848.65	4793
848.786	4702
848.921	4805
849.057	4843
849.192	4889
849.328	4839
849.463	4919
849.598	4793
849.734	4763
849.869	4736
850.004	4615
850.14	4675
850.275	4573
850.41	4615
850.545	4554
850.68	4615
850.815	4634
850.95	4656
851.085	4862
851.22	4774
851.355	4672
851.49	4668
851.625	4710
851.76	4664
851.895	4569
852.03	4584
852.165	4641
852.299	4725
852.434	4824
852.569	4733
852.703	4778
852.838	4835
852.973	4984
853.107	4965
853.242	4744
853.376	4664
853.511	4569
853.645	4645
853.78	4797
853.914	4736
854.048	4675
854.183	4702
854.317	4706
854.451	4809
854.585	4755
854.72	4664
854.854	4820
854.988	4634
855.122	4683
855.256	4569
855.39	4721
855.524	4816
855.658	4736
855.792	4710
855.926	4736
856.06	4755
856.194	4805
856.327	4702
856.461	4645
856.595	4626
856.729	4626
856.862	4771
856.996	4755
857.13	4793
857.263	4786
857.397	4835
857.53	4691
857.664	4748
857.797	4748
857.931	4816
858.064	4691
858.197	4744
858.331	4672
858.464	4668
858.597	4519
858.731	4691
858.864	4649
858.997	4626
859.13	4691
859.263	4683
859.396	4698
859.529	4626
859.662	4569
859.795	4554
859.928	4603
860.061	4736
860.194	4771
860.327	4618
860.46	4580
860.592	4698
860.725	4729
860.858	4740
860.99	4607
861.123	4497
861.256	4558
861.388	4611
861.521	5353
861.653	4493
861.786	4485
861.918	4470
862.05	4554
862.183	4584
862.315	4630
862.447	4683
862.58	4588
862.712	4405
862.844	4383
862.976	4554
863.108	4474
863.24	4755
863.372	4341
863.504	4424
863.636	4386
863.768	4512
863.9	4466
864.032	4421
864.164	4413
864.296	4504
864.428	4584
864.559	4546
864.691	4573
864.823	4546
864.954	4546
865.086	4523
865.217	4470
865.349	4459
865.48	4497
865.612	4531
865.743	4660
865.875	4459
866.006	4481
866.137	4459
866.269	4478
866.4	4462
866.531	4451
866.662	4447
866.793	4436
866.924	4462
867.055	4523
867.186	4451
867.317	4394
867.448	4386
867.579	4386
867.71	4436
867.841	4363
867.972	4485
868.103	4478
868.233	4455
868.364	4504
868.495	4527
868.625	4675
868.756	4812
868.886	4561
869.017	4618
869.147	4748
869.278	4812
869.408	4649
869.539	4653
869.669	4702
869.799	4702
869.929	4744
870.06	4714
870.19	5052
870.32	4892
870.45	4965
870.58	5056
870.71	5105
870.84	5086
870.97	5003
871.1	4949
871.23	5143
871.36	5083
871.489	5037
871.619	5098
871.749	5075
871.879	5083
872.008	5162
872.138	5083
872.267	5083
872.397	4824
872.526	4820
872.656	4725
872.785	4816
872.915	4934
873.044	5086
873.173	4991
873.303	4968
873.432	4923
873.561	4968
873.69	4885
873.819	4896
873.948	4946
874.077	4843
874.206	4767
874.335	4809
874.464	4942
874.593	5060
874.722	4949
874.851	5094
874.979	5075
875.108	5025
875.237	4915
875.365	4873
875.494	4889
875.623	5018
875.751	4790
875.88	4885
876.008	4991
876.136	5033
876.265	5204
876.393	5337
876.521	5269
876.65	5216
876.778	5197
876.906	5105
877.034	4991
877.162	5105
877.29	5033
877.418	5052
877.546	5064
877.674	5033
877.802	5048
877.93	5029
878.058	4957
878.185	4892
878.313	4953
878.441	4938
878.568	4843
878.696	4873
878.824	4984
878.951	5010
879.079	5094
879.206	5349
879.333	5102
879.461	4980
879.588	5048
879.715	5143
879.842	5265
879.97	5003
880.097	4778
880.224	4793
880.351	4816
880.478	4870
880.605	4843
880.732	4763
880.859	5105
880.986	4881
881.112	4923
881.239	4755
881.366	4668
881.493	4580
881.619	4603
881.746	4664
881.872	4683
881.999	4664
882.125	4706
882.252	4809
882.378	4877
882.505	5010
882.631	4782
882.757	4683
882.883	4748
883.01	4759
883.136	4687
883.262	4588
883.388	4596
883.514	4839
883.64	4911
883.766	4835
883.892	4725
884.018	4702
884.143	4881
884.269	5037
884.395	4634
884.52	4599
884.646	4675
884.772	4618
884.897	4603
885.023	4668
885.148	4858
885.274	4919
885.399	4771
885.524	4698
885.65	4717
885.775	4729
885.9	4694
886.025	4911
886.15	4801
886.275	4733
886.4	4683
886.525	4725
886.65	4729
886.775	4683
886.9	4889
887.025	5041
887.149	4801
887.274	4618
887.399	4588
887.523	4573
887.648	4580
887.773	4603
887.897	4748
888.021	4717
888.146	4687
888.27	4873
888.395	4927
888.519	4755
888.643	4801
888.767	4831
888.891	4736
889.015	4637
889.139	4668
889.263	4607
889.387	4771
889.511	4877
889.635	4767
889.759	4649
889.883	4660
890.006	4763
890.13	4816
890.254	4637
890.377	4679
890.501	4550
890.624	4535
890.748	4603
890.871	4554
890.995	4432
891.118	4375
891.241	4481
891.364	4592
891.488	4649
891.611	4508
891.734	4508
891.857	4622
891.98	4565
892.103	4596
892.226	4634
892.349	4531
892.471	4398
892.594	4542
892.717	4607
892.839	4630
892.962	4611
893.085	4634
893.207	4618
893.33	4474
893.452	4519
893.575	4626
893.697	4565
893.819	4820
893.941	4828
894.064	4755
894.186	4615
894.308	4565
894.43	4744
894.552	4843
894.674	4748
894.796	4542
894.918	4569
895.04	4569
895.161	4702
895.283	4653
895.405	4535
895.526	4668
895.648	4634
895.769	4694
895.891	4717
896.012	4736
896.134	4702
896.255	4641
896.376	4645
896.498	4615
896.619	4672
896.74	4584
896.861	4717
896.982	4908
897.103	5071
897.224	4839
897.345	4687
897.466	4679
897.587	4729
897.708	4828
897.828	4748
897.949	4698
898.07	4554
898.19	4641
898.311	4843
898.431	4710
898.552	4717
898.672	4839
898.792	4824
898.913	4725
899.033	4641
899.153	4550
899.273	4413
899.393	4493
899.513	4523
899.633	4512
899.753	4538
899.873	4466
899.993	4603
900.113	4535
900.232	4592
900.352	4531
900.472	4455
900.591	4436
900.711	4462
900.83	4459
900.95	4611
901.069	4698
901.189	4516
901.308	4344
901.427	4325
901.546	4405
901.665	4512
901.784	4535
901.904	4451
902.023	4325
902.141	4227
902.26	4177
902.379	4295
902.498	4188
902.617	4158
902.735	4409
902.854	4405
902.973	4356
903.091	4242
903.21	4284
903.328	4325
903.446	4276
903.565	4268
903.683	4341
903.801	4238
903.919	4375
904.038	4497
904.156	4310
904.274	4462
904.392	4394
904.51	4436
904.627	4459
904.745	4573
904.863	4569
904.981	4402
905.098	4299
905.216	4360
905.334	4424
905.451	4398
905.569	4421
905.686	4622
905.803	4542
905.921	4474
906.038	4611
906.155	4554
906.272	4455
906.389	4470
906.506	4390
906.623	4405
906.74	4462
906.857	4299
906.974	4417
907.091	4596
907.208	4717
907.324	4637
907.441	4550
907.557	4413
907.674	4428
907.79	4325
907.907	4390
908.023	4489
908.139	4565
908.256	4421
908.372	4584
908.488	4500
908.604	4417
908.72	4390
908.836	4424
908.952	4344
909.068	4474
909.184	4672
909.3	4538
909.415	4615
909.531	4607
909.647	4371
909.762	4432
909.878	4390
909.993	4489
910.108	4440
910.224	4470
910.339	4489
910.454	4443
910.57	4424
910.685	4322
910.8	4634
910.915	4618
911.03	4508
911.145	4379
911.259	4405
911.374	4375
911.489	4337
911.604	4348
911.718	4238
911.833	4268
911.947	4105
912.062	4090
912.176	4238
912.291	4265
912.405	4310
912.519	4523
912.633	4603
912.748	4436
912.862	4371
912.976	4268
913.09	4128
913.204	4185
913.318	4310
913.431	4390
913.545	4421
913.659	4519
913.772	4360
913.886	4287
914	4234
914.113	4443
914.226	4394
914.34	4451
914.453	4295
914.566	4481
914.68	4325
914.793	4405
914.906	4215
915.019	4211
915.132	4131
915.245	4215
915.358	4215
915.47	4246
915.583	4261
915.696	4344
915.809	4478
915.921	4443
916.034	4287
916.146	4314
916.259	4246
916.371	4402
916.483	4375
916.595	4318
916.708	4398
916.82	4337
916.932	4363
917.044	4375
917.156	4386
917.268	4261
917.38	4333
917.491	4306
917.603	4352
917.715	4436
917.826	4455
917.938	4341
918.049	4253
918.161	4428
918.272	4592
918.384	4603
918.495	4516
918.606	4318
918.717	4249
918.828	4363
918.939	4398
919.05	4284
919.161	4367
919.272	4162
919.383	4291
919.494	4478
919.604	4637
919.715	4466
919.826	4344
919.936	4394
920.047	4538
920.157	4516
920.267	4736
920.378	4618
920.488	4554
920.598	4752
920.708	4892
920.818	4801
920.928	4778
921.038	4968
921.148	4946
921.258	4641
921.368	4603
921.477	4470
921.587	4531
921.697	4440
921.806	4622
921.916	4428
922.025	4261
922.134	4314
922.244	4253
922.353	4371
922.462	4204
922.571	4200
922.68	4025
922.789	3987
922.898	4086
923.007	4044
923.116	4097
923.224	4116
923.333	4082
923.442	3994
923.55	4002
923.659	4048
923.767	4230
923.876	4059
923.984	4131
924.092	3987
924.201	4120
924.309	4078
924.417	4158
924.525	4086
924.633	4128
924.741	4873
924.849	3949
924.956	4147
925.064	4025
925.172	3972
925.279	4017
925.387	4055
925.494	4063
925.602	4280
925.709	4192
925.816	4086
925.924	4196
926.031	4291
926.138	4128
926.245	4234
926.352	4105
926.459	4280
926.566	4341
926.673	4169
926.779	4135
926.886	4093
926.993	4040
927.099	3983
927.206	3937
927.312	3941
927.419	4048
927.525	4078
927.631	4093
927.737	4032
927.843	3968
927.95	3861
928.056	3983
928.162	4032
928.267	4090
928.373	4698
928.479	4150
928.585	3903
928.69	4063
928.796	4112
928.901	4040
929.007	3884
929.112	4040
929.218	4029
929.323	3979
929.428	3972
929.533	4116
929.638	3937
929.743	4013
929.848	4082
929.953	4048
930.058	3930
930.163	3846
930.267	3831
930.372	4025
930.477	3854
930.581	4173
930.685	3987
930.79	3857
930.894	3896
930.998	3884
931.103	4105
931.207	3743
931.311	3701
931.415	3728
931.519	3564
931.623	3580
