Data from test_V78500241_867.txt Node
Date: Fri Mar 25 16:55:01 CST 2022
User: usil
Spectrometer: V785-0024
Trigger mode: 0
Integration Time (sec): 4.000000E-1
Scans to average: 1
Nonlinearity correction enabled: false
Boxcar width: 0
Storing dark spectrum: false
XAxis mode: Wavelengths
Number of Pixels in Spectrum: 1024
>>>>>Begin Spectral Data<<<<<
801.071	8046
801.214	7986
801.356	7890
801.499	7902
801.641	7742
801.783	7818
801.926	7959
802.068	7955
802.211	8020
802.353	7917
802.496	7814
802.638	7868
802.78	7906
802.923	7921
803.065	7871
803.208	7951
803.35	7970
803.492	8126
803.635	8149
803.777	8024
803.919	8024
804.061	8393
804.204	8115
804.346	7970
804.488	7940
804.63	8157
804.773	8016
804.915	8084
805.057	8313
805.199	8157
805.341	8256
805.483	8263
805.626	8123
805.768	8111
805.91	8218
806.052	8187
806.194	8092
806.336	8225
806.478	8039
806.62	8024
806.762	8111
806.904	8225
807.046	8396
807.188	8305
807.33	8256
807.472	8351
807.614	8180
807.756	8073
807.898	7986
808.04	7864
808.182	7898
808.324	7864
808.465	7928
808.607	8012
808.749	8077
808.891	8168
809.033	8240
809.174	8183
809.316	8035
809.458	8001
809.6	7974
809.741	8001
809.883	8065
810.025	8039
810.166	8050
810.308	7967
810.45	8046
810.591	7864
810.733	7772
810.875	7677
811.016	7499
811.158	7533
811.299	7537
811.441	7670
811.582	7609
811.724	7537
811.865	7544
812.007	7609
812.148	7613
812.29	7655
812.431	7727
812.573	7860
812.714	7887
812.855	8046
812.997	8161
813.138	8362
813.279	8229
813.421	8115
813.562	7997
813.703	7856
813.845	7727
813.986	7415
814.127	7346
814.268	7259
814.41	7179
814.551	7050
814.692	7168
814.833	7027
814.974	7031
815.115	7069
815.256	6954
815.397	6935
815.539	7031
815.68	6863
815.821	6768
815.962	6863
816.103	6837
816.244	6688
816.385	6715
816.526	6650
816.666	6448
816.807	6289
816.948	6414
817.089	6464
817.23	6464
817.371	6311
817.512	6376
817.653	6380
817.793	6376
817.934	6369
818.075	6452
818.216	6441
818.356	6346
818.497	6228
818.638	6106
818.778	6140
818.919	6125
819.06	6083
819.2	6300
819.341	6350
819.481	6365
819.622	6506
819.762	6688
819.903	6673
820.043	6604
820.184	6559
820.324	6536
820.465	6623
820.605	6700
820.746	6642
820.886	6452
821.026	6578
821.167	6627
821.307	6783
821.447	6757
821.588	6677
821.728	6528
821.868	6517
822.008	6323
822.149	6334
822.289	6346
822.429	6129
822.569	6060
822.709	6076
822.849	5874
822.99	5893
823.13	5965
823.27	5870
823.41	5779
823.55	5775
823.69	5748
823.83	5752
823.97	5646
824.11	5471
824.25	5512
824.389	5573
824.529	5581
824.669	5554
824.809	5627
824.949	5684
825.089	5566
825.228	5543
825.368	5387
825.508	5299
825.648	5364
825.787	5341
825.927	5353
826.067	5280
826.206	5246
826.346	5334
826.485	5357
826.625	5395
826.765	5490
826.904	5486
827.044	5250
827.183	5181
827.323	5136
827.462	5231
827.601	5189
827.741	5121
827.88	5189
828.02	5098
828.159	5208
828.298	5235
828.437	5330
828.577	5250
828.716	5455
828.855	5311
828.994	5155
829.134	5113
829.273	5159
829.412	5075
829.551	5147
829.69	5136
829.829	5231
829.968	5284
830.107	5185
830.246	5223
830.385	5159
830.524	5098
830.663	5067
830.802	4984
830.941	4816
831.08	4843
831.219	4972
831.357	4938
831.496	5121
831.635	4911
831.774	4873
831.913	4797
832.051	4733
832.19	4687
832.329	4824
832.467	4706
832.606	4622
832.744	4736
832.883	4729
833.022	4774
833.16	4736
833.299	4809
833.437	4816
833.576	4786
833.714	4881
833.852	4831
833.991	4885
834.129	4919
834.267	4938
834.406	4896
834.544	4999
834.682	5003
834.821	4953
834.959	5128
835.097	4976
835.235	5128
835.373	5037
835.511	5098
835.65	5052
835.788	5060
835.926	4877
836.064	4862
836.202	4942
836.34	5159
836.478	5189
836.615	5170
836.753	5132
836.891	5273
837.029	5242
837.167	5254
837.305	5166
837.443	5143
837.58	5022
837.718	5227
837.856	5223
837.993	5102
838.131	5181
838.269	5159
838.406	5159
838.544	5193
838.681	4965
838.819	5025
838.956	4862
839.094	4881
839.231	4984
839.369	5048
839.506	5395
839.643	5273
839.781	5025
839.918	5006
840.055	5090
840.193	5102
840.33	5128
840.467	5117
840.604	5174
840.742	5414
840.879	5060
841.016	5094
841.153	5105
841.29	5292
841.427	5353
841.564	5277
841.701	5326
841.838	5326
841.975	5242
842.112	5307
842.249	5098
842.385	5083
842.522	5311
842.659	5162
842.796	5166
842.933	5170
843.069	5121
843.206	5109
843.343	5299
843.479	5159
843.616	5223
843.752	5022
843.889	4976
844.025	5204
844.162	4976
844.298	5166
844.435	5052
844.571	5067
844.708	5189
844.844	5265
844.98	5292
845.117	5303
845.253	5113
845.389	5041
845.525	5162
845.661	5124
845.798	5010
845.934	5170
846.07	4999
846.206	5155
846.342	5265
846.478	5181
846.614	5006
846.75	4946
846.886	4965
847.022	5166
847.158	4972
847.294	5071
847.429	5056
847.565	5006
847.701	5337
847.837	4831
847.972	4782
848.108	4938
848.244	4930
848.379	4782
848.515	4691
848.65	4668
848.786	4752
848.921	4729
849.057	4850
849.192	4896
849.328	4801
849.463	4854
849.598	4801
849.734	4733
849.869	4618
850.004	4630
850.14	4637
850.275	4573
850.41	4497
850.545	4542
850.68	4618
850.815	4637
850.95	4615
851.085	4797
851.22	4698
851.355	4630
851.49	4626
851.625	4645
851.76	4630
851.895	4512
852.03	4512
852.165	4649
852.299	4687
852.434	4748
852.569	4714
852.703	4733
852.838	4847
852.973	4946
853.107	4934
853.242	4725
853.376	4649
853.511	4508
853.645	4618
853.78	4778
853.914	4679
854.048	4691
854.183	4641
854.317	4675
854.451	4839
854.585	4672
854.72	4645
854.854	4725
854.988	4607
855.122	4603
855.256	4531
855.39	4706
855.524	4774
855.658	4702
855.792	4717
855.926	4714
856.06	4679
856.194	4805
856.327	4683
856.461	4569
856.595	4630
856.729	4649
856.862	4694
856.996	4675
857.13	4668
857.263	4710
857.397	4782
857.53	4603
857.664	4717
857.797	4717
857.931	4717
858.064	4679
858.197	4710
858.331	4672
858.464	4592
858.597	4512
858.731	4573
858.864	4584
858.997	4580
859.13	4653
859.263	4694
859.396	4714
859.529	4558
859.662	4592
859.795	4508
859.928	4637
860.061	4748
860.194	4683
860.327	4637
860.46	4542
860.592	4679
860.725	4698
860.858	4717
860.99	4580
861.123	4466
861.256	4527
861.388	4603
861.521	5326
861.653	4508
861.786	4436
861.918	4421
862.05	4504
862.183	4554
862.315	4599
862.447	4611
862.58	4500
862.712	4398
862.844	4341
862.976	4474
863.108	4440
863.24	4793
863.372	4322
863.504	4428
863.636	4443
863.768	4493
863.9	4402
864.032	4344
864.164	4436
864.296	4459
864.428	4527
864.559	4565
864.691	4485
864.823	4489
864.954	4478
865.086	4497
865.217	4462
865.349	4379
865.48	4493
865.612	4466
865.743	4637
865.875	4462
866.006	4470
866.137	4455
866.269	4443
866.4	4466
866.531	4413
866.662	4405
866.793	4402
866.924	4383
867.055	4462
867.186	4424
867.317	4417
867.448	4390
867.579	4352
867.71	4344
867.841	4352
867.972	4478
868.103	4462
868.233	4356
868.364	4451
868.495	4538
868.625	4637
868.756	4702
868.886	4580
869.017	4622
869.147	4774
869.278	4790
869.408	4622
869.539	4626
869.669	4675
869.799	4675
869.929	4710
870.06	4744
870.19	4953
870.32	4854
870.45	4885
870.58	4957
870.71	5060
870.84	5048
870.97	4934
871.1	4873
871.23	5071
871.36	5124
871.489	4991
871.619	5079
871.749	5064
871.879	5109
872.008	5113
872.138	5025
872.267	4991
872.397	4854
872.526	4831
872.656	4691
872.785	4805
872.915	4949
873.044	4972
873.173	4946
873.303	4976
873.432	4870
873.561	4946
873.69	4858
873.819	4881
873.948	4858
874.077	4805
874.206	4714
874.335	4736
874.464	4900
874.593	5060
874.722	4919
874.851	5098
874.979	5022
875.108	5010
875.237	4911
875.365	4877
875.494	4923
875.623	4927
875.751	4816
875.88	4873
876.008	4900
876.136	5025
876.265	5147
876.393	5364
876.521	5193
876.65	5204
876.778	5166
876.906	5067
877.034	5022
877.162	5010
877.29	4976
877.418	5022
877.546	5041
877.674	5025
877.802	5022
877.93	5029
878.058	4915
878.185	4900
878.313	4927
878.441	4930
878.568	4797
878.696	4904
878.824	4934
878.951	4961
879.079	5117
879.206	5265
879.333	5113
879.461	4949
879.588	4995
879.715	5155
879.842	5201
879.97	5018
880.097	4786
880.224	4778
880.351	4793
880.478	4809
880.605	4793
880.732	4740
880.859	5136
880.986	4847
881.112	4870
881.239	4786
881.366	4630
881.493	4580
881.619	4554
881.746	4622
881.872	4683
881.999	4653
882.125	4725
882.252	4774
882.378	4790
882.505	4987
882.631	4774
882.757	4660
882.883	4752
883.01	4733
883.136	4596
883.262	4580
883.388	4622
883.514	4816
883.64	4862
883.766	4797
883.892	4656
884.018	4717
884.143	4854
884.269	5029
884.395	4683
884.52	4611
884.646	4584
884.772	4550
884.897	4580
885.023	4656
885.148	4759
885.274	4843
885.399	4801
885.524	4691
885.65	4683
885.775	4759
885.9	4698
886.025	4828
886.15	4790
886.275	4702
886.4	4683
886.525	4725
886.65	4660
886.775	4672
886.9	4946
887.025	5033
887.149	4725
887.274	4641
887.399	4580
887.523	4573
887.648	4538
887.773	4569
887.897	4721
888.021	4740
888.146	4653
888.27	4831
888.395	4892
888.519	4774
888.643	4767
888.767	4831
888.891	4664
889.015	4607
889.139	4641
889.263	4607
889.387	4714
889.511	4831
889.635	4771
889.759	4637
889.883	4634
890.006	4710
890.13	4858
890.254	4615
890.377	4672
890.501	4561
890.624	4497
890.748	4611
890.871	4504
890.995	4443
891.118	4363
891.241	4535
891.364	4546
891.488	4637
891.611	4447
891.734	4542
891.857	4550
891.98	4561
892.103	4641
892.226	4573
892.349	4535
892.471	4398
892.594	4561
892.717	4531
892.839	4523
892.962	4634
893.085	4630
893.207	4592
893.33	4493
893.452	4508
893.575	4634
893.697	4569
893.819	4782
893.941	4843
894.064	4744
894.186	4573
894.308	4531
894.43	4702
894.552	4793
894.674	4736
894.796	4519
894.918	4584
895.04	4527
895.161	4710
895.283	4618
895.405	4573
895.526	4622
895.648	4630
895.769	4679
895.891	4721
896.012	4744
896.134	4717
896.255	4672
896.376	4672
896.498	4580
896.619	4717
896.74	4622
896.861	4626
896.982	4946
897.103	5067
897.224	4782
897.345	4725
897.466	4641
897.587	4736
897.708	4843
897.828	4793
897.949	4710
898.07	4493
898.19	4649
898.311	4805
898.431	4664
898.552	4679
898.672	4793
898.792	4809
898.913	4752
899.033	4611
899.153	4508
899.273	4402
899.393	4478
899.513	4535
899.633	4523
899.753	4527
899.873	4497
899.993	4558
900.113	4504
900.232	4573
900.352	4550
900.472	4447
900.591	4383
900.711	4500
900.83	4440
900.95	4626
901.069	4630
901.189	4561
901.308	4360
901.427	4341
901.546	4398
901.665	4462
901.784	4512
901.904	4398
902.023	4333
902.141	4169
902.26	4215
902.379	4287
902.498	4223
902.617	4234
902.735	4363
902.854	4402
902.973	4310
903.091	4234
903.21	4276
903.328	4306
903.446	4322
903.565	4265
903.683	4348
903.801	4272
903.919	4360
904.038	4417
904.156	4276
904.274	4402
904.392	4375
904.51	4447
904.627	4455
904.745	4599
904.863	4607
904.981	4375
905.098	4265
905.216	4405
905.334	4405
905.451	4459
905.569	4405
905.686	4508
905.803	4599
905.921	4402
906.038	4485
906.155	4516
906.272	4409
906.389	4447
906.506	4303
906.623	4356
906.74	4398
906.857	4261
906.974	4348
907.091	4542
907.208	4626
907.324	4550
907.441	4489
907.557	4348
907.674	4367
907.79	4295
907.907	4367
908.023	4497
908.139	4451
908.256	4451
908.372	4443
908.488	4462
908.604	4337
908.72	4322
908.836	4344
908.952	4322
909.068	4455
909.184	4558
909.3	4455
909.415	4569
909.531	4512
909.647	4398
909.762	4352
909.878	4360
909.993	4421
910.108	4394
910.224	4379
910.339	4481
910.454	4409
910.57	4352
910.685	4314
910.8	4599
910.915	4599
911.03	4485
911.145	4284
911.259	4314
911.374	4371
911.489	4352
911.604	4234
911.718	4120
911.833	4166
911.947	4090
912.062	4048
912.176	4204
912.291	4196
912.405	4188
912.519	4478
912.633	4489
912.748	4310
912.862	4314
912.976	4234
913.09	4078
913.204	4181
913.318	4242
913.431	4356
913.545	4363
913.659	4398
913.772	4306
913.886	4265
914	4211
914.113	4352
914.226	4436
914.34	4360
914.453	4207
914.566	4436
914.68	4291
914.793	4310
914.906	4135
915.019	4131
915.132	4071
915.245	4150
915.358	4207
915.47	4223
915.583	4253
915.696	4284
915.809	4360
915.921	4440
916.034	4280
916.146	4215
916.259	4242
916.371	4405
916.483	4371
916.595	4272
916.708	4318
916.82	4303
916.932	4303
917.044	4322
917.156	4329
917.268	4261
917.38	4261
917.491	4265
917.603	4329
917.715	4443
917.826	4428
917.938	4310
918.049	4268
918.161	4383
918.272	4607
918.384	4569
918.495	4436
918.606	4287
918.717	4177
918.828	4348
918.939	4314
919.05	4261
919.161	4322
919.272	4158
919.383	4215
919.494	4371
919.604	4618
919.715	4432
919.826	4325
919.936	4390
920.047	4512
920.157	4508
920.267	4698
920.378	4538
920.488	4493
920.598	4672
920.708	4896
920.818	4740
920.928	4714
921.038	4911
921.148	4908
921.258	4668
921.368	4531
921.477	4485
921.587	4470
921.697	4348
921.806	4542
921.916	4421
922.025	4242
922.134	4310
922.244	4181
922.353	4360
922.462	4181
922.571	4131
922.68	4017
922.789	3926
922.898	4017
923.007	3998
923.116	4109
923.224	4105
923.333	4036
923.442	4025
923.55	3953
923.659	4021
923.767	4055
923.876	4010
923.984	4116
924.092	3960
924.201	4078
924.309	4135
924.417	4093
924.525	4086
924.633	4109
924.741	4877
924.849	3888
924.956	4105
925.064	3956
925.172	3926
925.279	3994
925.387	4032
925.494	4032
925.602	4238
925.709	4242
925.816	3987
925.924	4116
926.031	4249
926.138	4173
926.245	4173
926.352	4074
926.459	4276
926.566	4314
926.673	4105
926.779	4059
926.886	4097
926.993	3956
927.099	4025
927.206	3903
927.312	3994
927.419	4048
927.525	4029
927.631	4074
927.737	3956
927.843	3926
927.95	3835
928.056	3949
928.162	3998
928.267	4044
928.373	4535
928.479	4154
928.585	3876
928.69	4021
928.796	4101
928.901	3983
929.007	3827
929.112	3972
929.218	3991
929.323	3934
929.428	3922
929.533	4112
929.638	3899
929.743	3972
929.848	4006
929.953	3972
930.058	3937
930.163	3751
930.267	3857
930.372	3998
930.477	3808
930.581	4074
930.685	3934
930.79	3842
930.894	3873
930.998	3816
931.103	3994
931.207	3728
931.311	3690
931.415	3667
931.519	3507
931.623	3530
