Data from test_V78500241_1824.txt Node
Date: Fri Mar 25 17:01:41 CST 2022
User: usil
Spectrometer: V785-0024
Trigger mode: 0
Integration Time (sec): 4.000000E-1
Scans to average: 1
Nonlinearity correction enabled: false
Boxcar width: 0
Storing dark spectrum: false
XAxis mode: Wavelengths
Number of Pixels in Spectrum: 1024
>>>>>Begin Spectral Data<<<<<
801.071	7970
801.214	7959
801.356	7849
801.499	7868
801.641	7776
801.783	7761
801.926	7955
802.068	7982
802.211	7959
802.353	7997
802.496	7845
802.638	7894
802.78	7883
802.923	7883
803.065	7879
803.208	7822
803.35	7925
803.492	8020
803.635	8107
803.777	7989
803.919	8161
804.061	8499
804.204	8161
804.346	8050
804.488	7970
804.63	8130
804.773	8054
804.915	8115
805.057	8313
805.199	8172
805.341	8248
805.483	8225
805.626	8180
805.768	8149
805.91	8187
806.052	8180
806.194	8153
806.336	8355
806.478	7986
806.62	8031
806.762	8081
806.904	8275
807.046	8526
807.188	8377
807.33	8305
807.472	8309
807.614	8195
807.756	8142
807.898	8065
808.04	7871
808.182	7906
808.324	7906
808.465	7913
808.607	8062
808.749	8100
808.891	8191
809.033	8328
809.174	8210
809.316	8054
809.458	8081
809.6	7963
809.741	8043
809.883	8031
810.025	8134
810.166	7970
810.308	8062
810.45	7989
810.591	7837
810.733	7693
810.875	7658
811.016	7457
811.158	7502
811.299	7613
811.441	7674
811.582	7586
811.724	7582
811.865	7518
812.007	7601
812.148	7590
812.29	7502
812.431	7719
812.573	7982
812.714	8012
812.855	8073
812.997	8221
813.138	8336
813.279	8123
813.421	8092
813.562	7906
813.703	7818
813.845	7738
813.986	7377
814.127	7190
814.268	7247
814.41	7236
814.551	7228
814.692	7228
814.833	7126
814.974	7114
815.115	7031
815.256	6958
815.397	6924
815.539	6897
815.68	6840
815.821	6768
815.962	6802
816.103	6776
816.244	6707
816.385	6540
816.526	6593
816.666	6502
816.807	6315
816.948	6407
817.089	6422
817.23	6422
817.371	6350
817.512	6315
817.653	6327
817.793	6338
817.934	6346
818.075	6414
818.216	6452
818.356	6395
818.497	6224
818.638	6102
818.778	6148
818.919	6121
819.06	6121
819.2	6342
819.341	6350
819.481	6353
819.622	6517
819.762	6749
819.903	6719
820.043	6608
820.184	6593
820.324	6517
820.465	6642
820.605	6684
820.746	6608
820.886	6445
821.026	6639
821.167	6741
821.307	6738
821.447	6745
821.588	6604
821.728	6604
821.868	6566
822.008	6311
822.149	6369
822.289	6281
822.429	6148
822.569	6110
822.709	6144
822.849	5893
822.99	5942
823.13	5859
823.27	5889
823.41	5745
823.55	5779
823.69	5817
823.83	5802
823.97	5630
824.11	5551
824.25	5524
824.389	5562
824.529	5619
824.669	5482
824.809	5611
824.949	5657
825.089	5649
825.228	5592
825.368	5353
825.508	5402
825.648	5391
825.787	5357
825.927	5395
826.067	5280
826.206	5269
826.346	5360
826.485	5376
826.625	5345
826.765	5554
826.904	5459
827.044	5250
827.183	5254
827.323	5079
827.462	5204
827.601	5185
827.741	5166
827.88	5208
828.02	5094
828.159	5181
828.298	5277
828.437	5341
828.577	5277
828.716	5455
828.855	5334
828.994	5143
829.134	5128
829.273	5174
829.412	5090
829.551	5056
829.69	5147
829.829	5216
829.968	5345
830.107	5235
830.246	5269
830.385	5178
830.524	5121
830.663	5067
830.802	4972
830.941	4908
831.08	4839
831.219	4957
831.357	4957
831.496	5128
831.635	4942
831.774	4793
831.913	4847
832.051	4744
832.19	4771
832.329	4790
832.467	4645
832.606	4641
832.744	4706
832.883	4714
833.022	4717
833.16	4767
833.299	4790
833.437	4816
833.576	4839
833.714	4820
833.852	4828
833.991	4877
834.129	4972
834.267	4892
834.406	4908
834.544	4961
834.682	4976
834.821	4911
834.959	5155
835.097	4953
835.235	5170
835.373	5064
835.511	5094
835.65	5041
835.788	5003
835.926	4938
836.064	4858
836.202	4900
836.34	5162
836.478	5189
836.615	5121
836.753	5151
836.891	5322
837.029	5311
837.167	5242
837.305	5166
837.443	5185
837.58	5041
837.718	5223
837.856	5216
837.993	5189
838.131	5204
838.269	5174
838.406	5170
838.544	5220
838.681	5033
838.819	5022
838.956	4839
839.094	4930
839.231	4968
839.369	5037
839.506	5387
839.643	5280
839.781	5033
839.918	5006
840.055	5075
840.193	5090
840.33	5094
840.467	5193
840.604	5223
840.742	5406
840.879	5083
841.016	5075
841.153	5181
841.29	5353
841.427	5303
841.564	5318
841.701	5334
841.838	5292
841.975	5201
842.112	5265
842.249	5113
842.385	5102
842.522	5307
842.659	5174
842.796	5136
842.933	5193
843.069	5189
843.206	5124
843.343	5315
843.479	5208
843.616	5258
843.752	4980
843.889	5010
844.025	5181
844.162	4984
844.298	5242
844.435	5105
844.571	5048
844.708	5204
844.844	5288
844.98	5303
845.117	5269
845.253	5166
845.389	5052
845.525	5162
845.661	5136
845.798	4984
845.934	5109
846.07	4991
846.206	5204
846.342	5280
846.478	5155
846.614	4991
846.75	4961
846.886	4881
847.022	5185
847.158	5010
847.294	5003
847.429	5079
847.565	5045
847.701	5288
847.837	4858
847.972	4805
848.108	4972
848.244	4908
848.379	4831
848.515	4706
848.65	4660
848.786	4767
848.921	4782
849.057	4900
849.192	4908
849.328	4835
849.463	4866
849.598	4790
849.734	4778
849.869	4733
850.004	4660
850.14	4656
850.275	4603
850.41	4569
850.545	4527
850.68	4592
850.815	4634
850.95	4645
851.085	4831
851.22	4733
851.355	4694
851.49	4637
851.625	4607
851.76	4645
851.895	4584
852.03	4580
852.165	4637
852.299	4702
852.434	4824
852.569	4740
852.703	4774
852.838	4816
852.973	4889
853.107	4908
853.242	4721
853.376	4698
853.511	4550
853.645	4637
853.78	4733
853.914	4706
854.048	4611
854.183	4592
854.317	4675
854.451	4824
854.585	4698
854.72	4622
854.854	4759
854.988	4603
855.122	4626
855.256	4493
855.39	4687
855.524	4755
855.658	4763
855.792	4694
855.926	4717
856.06	4793
856.194	4744
856.327	4675
856.461	4603
856.595	4634
856.729	4615
856.862	4790
856.996	4649
857.13	4774
857.263	4721
857.397	4801
857.53	4637
857.664	4752
857.797	4774
857.931	4767
858.064	4653
858.197	4698
858.331	4630
858.464	4630
858.597	4523
858.731	4558
858.864	4649
858.997	4580
859.13	4634
859.263	4641
859.396	4740
859.529	4615
859.662	4569
859.795	4542
859.928	4668
860.061	4710
860.194	4721
860.327	4630
860.46	4588
860.592	4660
860.725	4767
860.858	4694
860.99	4535
861.123	4493
861.256	4561
861.388	4607
861.521	5372
861.653	4508
861.786	4432
861.918	4459
862.05	4455
862.183	4519
862.315	4550
862.447	4573
862.58	4580
862.712	4432
862.844	4310
862.976	4497
863.108	4455
863.24	4877
863.372	4363
863.504	4443
863.636	4348
863.768	4459
863.9	4398
864.032	4329
864.164	4436
864.296	4474
864.428	4584
864.559	4558
864.691	4573
864.823	4558
864.954	4516
865.086	4493
865.217	4489
865.349	4428
865.48	4443
865.612	4523
865.743	4603
865.875	4455
866.006	4413
866.137	4462
866.269	4421
866.4	4405
866.531	4394
866.662	4383
866.793	4386
866.924	4356
867.055	4481
867.186	4481
867.317	4405
867.448	4318
867.579	4432
867.71	4363
867.841	4344
867.972	4478
868.103	4447
868.233	4443
868.364	4443
868.495	4508
868.625	4641
868.756	4759
868.886	4527
869.017	4618
869.147	4801
869.278	4763
869.408	4645
869.539	4611
869.669	4706
869.799	4672
869.929	4752
870.06	4683
870.19	4923
870.32	4953
870.45	4923
870.58	4965
870.71	5071
870.84	5079
870.97	4972
871.1	4870
871.23	5121
871.36	5155
871.489	5067
871.619	5056
871.749	5064
871.879	5086
872.008	5181
872.138	5083
872.267	4972
872.397	4805
872.526	4824
872.656	4721
872.785	4778
872.915	4904
873.044	5071
873.173	4915
873.303	4972
873.432	4938
873.561	4984
873.69	4896
873.819	4854
873.948	4889
874.077	4793
874.206	4771
874.335	4805
874.464	4938
874.593	4999
874.722	5025
874.851	5086
874.979	5075
875.108	5041
875.237	4946
875.365	4866
875.494	4923
875.623	4968
875.751	4850
875.88	4877
876.008	4961
876.136	5033
876.265	5193
876.393	5292
876.521	5246
876.65	5197
876.778	5159
876.906	5083
877.034	5048
877.162	5006
877.29	4995
877.418	5083
877.546	5025
877.674	5045
877.802	5025
877.93	5025
878.058	4942
878.185	4938
878.313	4968
878.441	4949
878.568	4850
878.696	4839
878.824	4972
878.951	4965
879.079	5132
879.206	5292
879.333	5083
879.461	4946
879.588	4984
879.715	5147
879.842	5261
879.97	4987
880.097	4801
880.224	4736
880.351	4763
880.478	4862
880.605	4790
880.732	4755
880.859	5083
880.986	4877
881.112	4915
881.239	4793
881.366	4660
881.493	4607
881.619	4584
881.746	4626
881.872	4630
881.999	4630
882.125	4687
882.252	4786
882.378	4812
882.505	4961
882.631	4809
882.757	4641
882.883	4759
883.01	4721
883.136	4664
883.262	4626
883.388	4607
883.514	4843
883.64	4889
883.766	4816
883.892	4675
884.018	4755
884.143	4908
884.269	5033
884.395	4675
884.52	4596
884.646	4664
884.772	4588
884.897	4558
885.023	4664
885.148	4778
885.274	4835
885.399	4790
885.524	4729
885.65	4702
885.775	4714
885.9	4702
886.025	4797
886.15	4782
886.275	4721
886.4	4622
886.525	4698
886.65	4679
886.775	4683
886.9	4889
887.025	5018
887.149	4801
887.274	4637
887.399	4538
887.523	4550
887.648	4519
887.773	4569
887.897	4774
888.021	4740
888.146	4683
888.27	4816
888.395	4870
888.519	4771
888.643	4774
888.767	4812
888.891	4683
889.015	4622
889.139	4618
889.263	4622
889.387	4748
889.511	4900
889.635	4835
889.759	4607
889.883	4603
890.006	4717
890.13	4812
890.254	4607
890.377	4668
890.501	4538
890.624	4538
890.748	4649
890.871	4493
890.995	4417
891.118	4367
891.241	4550
891.364	4561
891.488	4649
891.611	4527
891.734	4550
891.857	4565
891.98	4565
892.103	4630
892.226	4596
892.349	4489
892.471	4424
892.594	4577
892.717	4603
892.839	4561
892.962	4592
893.085	4687
893.207	4573
893.33	4478
893.452	4538
893.575	4618
893.697	4569
893.819	4740
893.941	4812
894.064	4774
894.186	4615
894.308	4561
894.43	4729
894.552	4801
894.674	4782
894.796	4523
894.918	4603
895.04	4527
895.161	4660
895.283	4630
895.405	4580
895.526	4656
895.648	4698
895.769	4660
895.891	4660
896.012	4694
896.134	4691
896.255	4626
896.376	4645
896.498	4599
896.619	4679
896.74	4637
896.861	4653
896.982	4911
897.103	5083
897.224	4854
897.345	4729
897.466	4664
897.587	4714
897.708	4828
897.828	4839
897.949	4649
898.07	4580
898.19	4577
898.311	4809
898.431	4645
898.552	4729
898.672	4771
898.792	4778
898.913	4759
899.033	4599
899.153	4497
899.273	4451
899.393	4485
899.513	4527
899.633	4489
899.753	4516
899.873	4538
899.993	4580
900.113	4500
900.232	4561
900.352	4538
900.472	4417
900.591	4417
900.711	4516
900.83	4474
900.95	4622
901.069	4702
901.189	4516
901.308	4390
901.427	4299
901.546	4352
901.665	4481
901.784	4489
901.904	4371
902.023	4291
902.141	4215
902.26	4181
902.379	4284
902.498	4219
902.617	4219
902.735	4352
902.854	4371
902.973	4386
903.091	4177
903.21	4227
903.328	4265
903.446	4306
903.565	4265
903.683	4371
903.801	4299
903.919	4344
904.038	4432
904.156	4299
904.274	4470
904.392	4432
904.51	4470
904.627	4443
904.745	4516
904.863	4664
904.981	4421
905.098	4287
905.216	4318
905.334	4421
905.451	4432
905.569	4409
905.686	4580
905.803	4592
905.921	4402
906.038	4554
906.155	4485
906.272	4375
906.389	4485
906.506	4299
906.623	4344
906.74	4375
906.857	4337
906.974	4375
907.091	4523
907.208	4618
907.324	4592
907.441	4481
907.557	4379
907.674	4341
907.79	4306
907.907	4405
908.023	4481
908.139	4493
908.256	4493
908.372	4493
908.488	4443
908.604	4325
908.72	4318
908.836	4379
908.952	4337
909.068	4455
909.184	4535
909.3	4451
909.415	4538
909.531	4588
909.647	4348
909.762	4413
909.878	4337
909.993	4390
910.108	4447
910.224	4398
910.339	4489
910.454	4424
910.57	4360
910.685	4314
910.8	4630
910.915	4618
911.03	4497
911.145	4337
911.259	4352
911.374	4375
911.489	4329
911.604	4322
911.718	4120
911.833	4166
911.947	4040
912.062	4078
912.176	4204
912.291	4230
912.405	4268
912.519	4432
912.633	4466
912.748	4344
912.862	4284
912.976	4219
913.09	4105
913.204	4147
913.318	4257
913.431	4371
913.545	4363
913.659	4443
913.772	4383
913.886	4261
914	4242
914.113	4367
914.226	4409
914.34	4367
914.453	4238
914.566	4451
914.68	4352
914.793	4352
914.906	4143
915.019	4128
915.132	4017
915.245	4204
915.358	4139
915.47	4211
915.583	4299
915.696	4303
915.809	4428
915.921	4375
916.034	4185
916.146	4246
916.259	4215
916.371	4363
916.483	4341
916.595	4249
916.708	4318
916.82	4329
916.932	4310
917.044	4363
917.156	4314
917.268	4192
917.38	4272
917.491	4310
917.603	4386
917.715	4417
917.826	4443
917.938	4356
918.049	4223
918.161	4421
918.272	4508
918.384	4561
918.495	4436
918.606	4291
918.717	4246
918.828	4375
918.939	4360
919.05	4261
919.161	4253
919.272	4120
919.383	4219
919.494	4402
919.604	4577
919.715	4432
919.826	4360
919.936	4379
920.047	4519
920.157	4489
920.267	4755
920.378	4512
920.488	4512
920.598	4691
920.708	4870
920.818	4706
920.928	4744
921.038	4923
921.148	4946
921.258	4622
921.368	4561
921.477	4443
921.587	4443
921.697	4379
921.806	4550
921.916	4436
922.025	4227
922.134	4234
922.244	4230
922.353	4287
922.462	4177
922.571	4109
922.68	4013
922.789	4006
922.898	4044
923.007	3987
923.116	4071
923.224	4116
923.333	4093
923.442	3968
923.55	3975
923.659	4044
923.767	4124
923.876	4025
923.984	4109
924.092	3983
924.201	4036
924.309	4090
924.417	4109
924.525	4048
924.633	4086
924.741	5006
924.849	3945
924.956	4105
925.064	3983
925.172	3911
925.279	3960
925.387	4040
925.494	4074
925.602	4215
925.709	4181
925.816	4082
925.924	4128
926.031	4177
926.138	4166
926.245	4200
926.352	4051
926.459	4215
926.566	4287
926.673	4147
926.779	4067
926.886	4071
926.993	3937
927.099	3998
927.206	3918
927.312	3926
927.419	4093
927.525	4051
927.631	4082
927.737	4002
927.843	3915
927.95	3800
928.056	3987
928.162	3975
928.267	4051
928.373	4592
928.479	4143
928.585	3835
928.69	3987
928.796	4036
928.901	3983
929.007	3827
929.112	4010
929.218	3991
929.323	3949
929.428	3930
929.533	4082
929.638	3922
929.743	3964
929.848	4025
929.953	3994
930.058	3930
930.163	3789
930.267	3846
930.372	3994
930.477	3835
930.581	4051
930.685	3968
930.79	3838
930.894	3873
930.998	3850
931.103	3998
931.207	3713
931.311	3701
931.415	3679
931.519	3553
931.623	3561
