Data from test_V78500241_2714.txt Node
Date: Fri Mar 25 17:07:52 CST 2022
User: usil
Spectrometer: V785-0024
Trigger mode: 0
Integration Time (sec): 4.000000E-1
Scans to average: 1
Nonlinearity correction enabled: false
Boxcar width: 0
Storing dark spectrum: false
XAxis mode: Wavelengths
Number of Pixels in Spectrum: 1024
>>>>>Begin Spectral Data<<<<<
801.071	8035
801.214	7986
801.356	7875
801.499	7913
801.641	7879
801.783	7807
801.926	7936
802.068	7970
802.211	8008
802.353	8016
802.496	7887
802.638	7868
802.78	7894
802.923	7928
803.065	7898
803.208	7830
803.35	7947
803.492	8161
803.635	8229
803.777	8039
803.919	8199
804.061	8469
804.204	8237
804.346	8077
804.488	7932
804.63	8119
804.773	8039
804.915	8168
805.057	8355
805.199	8142
805.341	8221
805.483	8244
805.626	8259
805.768	8161
805.91	8149
806.052	8168
806.194	8195
806.336	8332
806.478	8103
806.62	8100
806.762	8172
806.904	8237
807.046	8473
807.188	8400
807.33	8366
807.472	8374
807.614	8282
807.756	8225
807.898	8043
808.04	7959
808.182	7928
808.324	7883
808.465	7970
808.607	8130
808.749	8172
808.891	8347
809.033	8355
809.174	8221
809.316	8149
809.458	8092
809.6	8020
809.741	8046
809.883	8077
810.025	8267
810.166	8084
810.308	8065
810.45	8005
810.591	7932
810.733	7708
810.875	7700
811.016	7628
811.158	7487
811.299	7609
811.441	7772
811.582	7738
811.724	7632
811.865	7632
812.007	7696
812.148	7704
812.29	7670
812.431	7757
812.573	7963
812.714	8031
812.855	8172
812.997	8336
813.138	8320
813.279	8233
813.421	8153
813.562	8073
813.703	7932
813.845	7765
813.986	7514
814.127	7339
814.268	7244
814.41	7255
814.551	7168
814.692	7282
814.833	7118
814.974	7110
815.115	7114
815.256	6981
815.397	6943
815.539	7023
815.68	6878
815.821	6776
815.962	6928
816.103	6856
816.244	6776
816.385	6612
816.526	6612
816.666	6517
816.807	6391
816.948	6464
817.089	6471
817.23	6513
817.371	6365
817.512	6380
817.653	6445
817.793	6353
817.934	6426
818.075	6448
818.216	6502
818.356	6433
818.497	6243
818.638	6167
818.778	6182
818.919	6133
819.06	6201
819.2	6327
819.341	6338
819.481	6410
819.622	6513
819.762	6787
819.903	6772
820.043	6681
820.184	6662
820.324	6585
820.465	6711
820.605	6734
820.746	6673
820.886	6585
821.026	6749
821.167	6776
821.307	6848
821.447	6753
821.588	6715
821.728	6665
821.868	6490
822.008	6357
822.149	6426
822.289	6414
822.429	6175
822.569	6098
822.709	6155
822.849	6041
822.99	5954
823.13	5977
823.27	5912
823.41	5775
823.55	5802
823.69	5824
823.83	5840
823.97	5703
824.11	5604
824.25	5539
824.389	5596
824.529	5589
824.669	5551
824.809	5729
824.949	5718
825.089	5646
825.228	5577
825.368	5410
825.508	5425
825.648	5379
825.787	5436
825.927	5410
826.067	5318
826.206	5318
826.346	5364
826.485	5387
826.625	5486
826.765	5577
826.904	5490
827.044	5288
827.183	5185
827.323	5170
827.462	5322
827.601	5220
827.741	5223
827.88	5239
828.02	5098
828.159	5296
828.298	5311
828.437	5391
828.577	5337
828.716	5512
828.855	5360
828.994	5227
829.134	5185
829.273	5231
829.412	5166
829.551	5174
829.69	5178
829.829	5273
829.968	5398
830.107	5330
830.246	5307
830.385	5193
830.524	5151
830.663	5064
830.802	4972
830.941	4923
831.08	4911
831.219	4980
831.357	5025
831.496	5212
831.635	4980
831.774	4934
831.913	4854
832.051	4763
832.19	4755
832.329	4870
832.467	4694
832.606	4683
832.744	4736
832.883	4771
833.022	4767
833.16	4820
833.299	4850
833.437	4831
833.576	4858
833.714	4889
833.852	4870
833.991	4889
834.129	4968
834.267	5003
834.406	4873
834.544	5018
834.682	4972
834.821	4976
834.959	5216
835.097	5006
835.235	5174
835.373	5083
835.511	5098
835.65	4976
835.788	5060
835.926	4923
836.064	4892
836.202	4908
836.34	5140
836.478	5269
836.615	5159
836.753	5269
836.891	5341
837.029	5208
837.167	5220
837.305	5223
837.443	5124
837.58	5086
837.718	5250
837.856	5212
837.993	5185
838.131	5265
838.269	5185
838.406	5201
838.544	5235
838.681	5052
838.819	4987
838.956	4904
839.094	4942
839.231	4991
839.369	5140
839.506	5467
839.643	5258
839.781	5090
839.918	5003
840.055	5098
840.193	5117
840.33	5132
840.467	5162
840.604	5239
840.742	5493
840.879	5102
841.016	5105
841.153	5178
841.29	5417
841.427	5357
841.564	5303
841.701	5391
841.838	5284
841.975	5277
842.112	5269
842.249	5174
842.385	5185
842.522	5345
842.659	5212
842.796	5140
842.933	5212
843.069	5159
843.206	5117
843.343	5353
843.479	5201
843.616	5318
843.752	5132
843.889	5037
844.025	5254
844.162	5083
844.298	5254
844.435	5136
844.571	5052
844.708	5231
844.844	5284
844.98	5395
845.117	5296
845.253	5143
845.389	5083
845.525	5189
845.661	5174
845.798	5029
845.934	5147
846.07	5060
846.206	5212
846.342	5311
846.478	5220
846.614	5029
846.75	4999
846.886	4923
847.022	5174
847.158	4999
847.294	5124
847.429	5159
847.565	5010
847.701	5277
847.837	4892
847.972	4771
848.108	4927
848.244	4949
848.379	4831
848.515	4763
848.65	4740
848.786	4752
848.921	4797
849.057	4862
849.192	4908
849.328	4854
849.463	4850
849.598	4809
849.734	4786
849.869	4672
850.004	4683
850.14	4687
850.275	4615
850.41	4573
850.545	4573
850.68	4626
850.815	4694
850.95	4622
851.085	4866
851.22	4729
851.355	4683
851.49	4641
851.625	4672
851.76	4630
851.895	4561
852.03	4550
852.165	4615
852.299	4702
852.434	4786
852.569	4736
852.703	4797
852.838	4828
852.973	4961
853.107	4892
853.242	4729
853.376	4668
853.511	4569
853.645	4618
853.78	4778
853.914	4672
854.048	4721
854.183	4668
854.317	4714
854.451	4896
854.585	4702
854.72	4714
854.854	4774
854.988	4649
855.122	4706
855.256	4538
855.39	4653
855.524	4877
855.658	4740
855.792	4675
855.926	4793
856.06	4801
856.194	4828
856.327	4702
856.461	4645
856.595	4653
856.729	4645
856.862	4744
856.996	4759
857.13	4694
857.263	4736
857.397	4831
857.53	4694
857.664	4740
857.797	4752
857.931	4828
858.064	4706
858.197	4790
858.331	4675
858.464	4599
858.597	4512
858.731	4679
858.864	4634
858.997	4599
859.13	4710
859.263	4694
859.396	4740
859.529	4596
859.662	4615
859.795	4550
859.928	4675
860.061	4729
860.194	4733
860.327	4630
860.46	4577
860.592	4733
860.725	4729
860.858	4729
860.99	4565
861.123	4519
861.256	4542
861.388	4645
861.521	5284
861.653	4478
861.786	4455
861.918	4485
862.05	4558
862.183	4577
862.315	4641
862.447	4664
862.58	4554
862.712	4386
862.844	4322
862.976	4500
863.108	4500
863.24	4752
863.372	4375
863.504	4459
863.636	4394
863.768	4538
863.9	4447
864.032	4386
864.164	4390
864.296	4459
864.428	4535
864.559	4611
864.691	4535
864.823	4565
864.954	4493
865.086	4554
865.217	4493
865.349	4421
865.48	4455
865.612	4512
865.743	4634
865.875	4500
866.006	4432
866.137	4516
866.269	4451
866.4	4451
866.531	4421
866.662	4413
866.793	4402
866.924	4466
867.055	4497
867.186	4432
867.317	4413
867.448	4413
867.579	4455
867.71	4405
867.841	4451
867.972	4470
868.103	4474
868.233	4459
868.364	4462
868.495	4516
868.625	4679
868.756	4767
868.886	4615
869.017	4668
869.147	4828
869.278	4759
869.408	4691
869.539	4622
869.669	4717
869.799	4679
869.929	4755
870.06	4748
870.19	5003
870.32	4919
870.45	4972
870.58	5003
870.71	5155
870.84	5113
870.97	4980
871.1	4900
871.23	5121
871.36	5124
871.489	5025
871.619	5075
871.749	5102
871.879	5117
872.008	5204
872.138	5037
872.267	4972
872.397	4843
872.526	4824
872.656	4755
872.785	4850
872.915	5003
873.044	5071
873.173	4965
873.303	4957
873.432	4965
873.561	4965
873.69	4915
873.819	4889
873.948	4995
874.077	4828
874.206	4763
874.335	4809
874.464	4892
874.593	5067
874.722	4972
874.851	5124
874.979	5064
875.108	5037
875.237	4938
875.365	4904
875.494	4923
875.623	5029
875.751	4793
875.88	4904
876.008	4957
876.136	5048
876.265	5185
876.393	5357
876.521	5269
876.65	5254
876.778	5170
876.906	5117
877.034	5025
877.162	5086
877.29	4987
877.418	5098
877.546	5079
877.674	5045
877.802	5022
877.93	4965
878.058	4972
878.185	4904
878.313	4987
878.441	4957
878.568	4793
878.696	4866
878.824	4991
878.951	4984
879.079	5143
879.206	5288
879.333	5109
879.461	4999
879.588	5025
879.715	5113
879.842	5231
879.97	5006
880.097	4771
880.224	4782
880.351	4820
880.478	4793
880.605	4759
880.732	4835
880.859	5060
880.986	4885
881.112	4908
881.239	4755
881.366	4694
881.493	4592
881.619	4592
881.746	4691
881.872	4717
881.999	4668
882.125	4710
882.252	4820
882.378	4850
882.505	4965
882.631	4786
882.757	4679
882.883	4759
883.01	4729
883.136	4672
883.262	4599
883.388	4615
883.514	4801
883.64	4805
883.766	4790
883.892	4706
884.018	4736
884.143	4885
884.269	5052
884.395	4702
884.52	4656
884.646	4691
884.772	4561
884.897	4565
885.023	4626
885.148	4828
885.274	4919
885.399	4873
885.524	4729
885.65	4736
885.775	4744
885.9	4729
886.025	4885
886.15	4797
886.275	4687
886.4	4664
886.525	4744
886.65	4687
886.775	4687
886.9	4904
887.025	4999
887.149	4892
887.274	4599
887.399	4523
887.523	4637
887.648	4565
887.773	4577
887.897	4748
888.021	4831
888.146	4618
888.27	4778
888.395	4904
888.519	4854
888.643	4839
888.767	4877
888.891	4683
889.015	4634
889.139	4607
889.263	4653
889.387	4809
889.511	4892
889.635	4752
889.759	4630
889.883	4607
890.006	4748
890.13	4797
890.254	4603
890.377	4668
890.501	4558
890.624	4500
890.748	4637
890.871	4470
890.995	4436
891.118	4337
891.241	4485
891.364	4615
891.488	4618
891.611	4485
891.734	4538
891.857	4607
891.98	4577
892.103	4675
892.226	4588
892.349	4580
892.471	4394
892.594	4538
892.717	4592
892.839	4584
892.962	4615
893.085	4675
893.207	4622
893.33	4447
893.452	4584
893.575	4702
893.697	4630
893.819	4839
893.941	4828
894.064	4752
894.186	4588
894.308	4573
894.43	4710
894.552	4835
894.674	4729
894.796	4561
894.918	4592
895.04	4607
895.161	4729
895.283	4649
895.405	4615
895.526	4626
895.648	4687
895.769	4702
895.891	4714
896.012	4717
896.134	4778
896.255	4706
896.376	4637
896.498	4649
896.619	4679
896.74	4588
896.861	4641
896.982	4919
897.103	5094
897.224	4839
897.345	4710
897.466	4668
897.587	4763
897.708	4873
897.828	4790
897.949	4683
898.07	4580
898.19	4607
898.311	4828
898.431	4698
898.552	4733
898.672	4831
898.792	4828
898.913	4710
899.033	4618
899.153	4470
899.273	4432
899.393	4497
899.513	4500
899.633	4512
899.753	4584
899.873	4485
899.993	4523
900.113	4519
900.232	4569
900.352	4592
900.472	4485
900.591	4421
900.711	4535
900.83	4459
900.95	4561
901.069	4725
901.189	4527
901.308	4398
901.427	4325
901.546	4356
901.665	4485
901.784	4485
901.904	4363
902.023	4306
902.141	4150
902.26	4215
902.379	4333
902.498	4215
902.617	4238
902.735	4367
902.854	4394
902.973	4337
903.091	4192
903.21	4207
903.328	4299
903.446	4268
903.565	4242
903.683	4333
903.801	4265
903.919	4409
904.038	4390
904.156	4329
904.274	4413
904.392	4371
904.51	4417
904.627	4462
904.745	4554
904.863	4668
904.981	4417
905.098	4314
905.216	4371
905.334	4451
905.451	4398
905.569	4455
905.686	4558
905.803	4527
905.921	4447
906.038	4527
906.155	4474
906.272	4386
906.389	4466
906.506	4341
906.623	4405
906.74	4375
906.857	4280
906.974	4398
907.091	4504
907.208	4687
907.324	4603
907.441	4470
907.557	4390
907.674	4360
907.79	4341
907.907	4402
908.023	4500
908.139	4474
908.256	4485
908.372	4481
908.488	4428
908.604	4379
908.72	4276
908.836	4363
908.952	4383
909.068	4436
909.184	4611
909.3	4508
909.415	4603
909.531	4569
909.647	4348
909.762	4386
909.878	4333
909.993	4443
910.108	4379
910.224	4440
910.339	4519
910.454	4417
910.57	4383
910.685	4329
910.8	4634
910.915	4592
911.03	4466
911.145	4352
911.259	4363
911.374	4333
911.489	4276
911.604	4268
911.718	4166
911.833	4249
911.947	4074
912.062	4055
912.176	4188
912.291	4230
912.405	4268
912.519	4447
912.633	4489
912.748	4386
912.862	4276
912.976	4162
913.09	4112
913.204	4173
913.318	4272
913.431	4341
913.545	4341
913.659	4451
913.772	4314
913.886	4227
914	4261
914.113	4356
914.226	4447
914.34	4337
914.453	4261
914.566	4424
914.68	4272
914.793	4322
914.906	4139
915.019	4196
915.132	4078
915.245	4227
915.358	4261
915.47	4246
915.583	4314
915.696	4314
915.809	4402
915.921	4447
916.034	4242
916.146	4238
916.259	4246
916.371	4413
916.483	4363
916.595	4246
916.708	4341
916.82	4314
916.932	4299
917.044	4371
917.156	4337
917.268	4261
917.38	4268
917.491	4333
917.603	4371
917.715	4424
917.826	4474
917.938	4310
918.049	4299
918.161	4360
918.272	4508
918.384	4527
918.495	4485
918.606	4303
918.717	4200
918.828	4329
918.939	4325
919.05	4253
919.161	4303
919.272	4101
919.383	4223
919.494	4394
919.604	4592
919.715	4440
919.826	4344
919.936	4447
920.047	4546
920.157	4462
920.267	4702
920.378	4550
920.488	4535
920.598	4714
920.708	4911
920.818	4725
920.928	4752
921.038	4957
921.148	4930
921.258	4649
921.368	4558
921.477	4523
921.587	4424
921.697	4371
921.806	4565
921.916	4436
922.025	4234
922.134	4291
922.244	4223
922.353	4295
922.462	4192
922.571	4116
922.68	4002
922.789	3991
922.898	4040
923.007	4002
923.116	4093
923.224	4055
923.333	4139
923.442	4017
923.55	4021
923.659	3983
923.767	4078
923.876	3998
923.984	4120
924.092	4021
924.201	4078
924.309	4051
924.417	4093
924.525	4078
924.633	4071
924.741	5025
924.849	3892
924.956	4109
925.064	3953
925.172	3926
925.279	3915
925.387	4051
925.494	4082
925.602	4223
925.709	4185
925.816	4090
925.924	4158
926.031	4207
926.138	4211
926.245	4177
926.352	4120
926.459	4276
926.566	4360
926.673	4120
926.779	4093
926.886	4048
926.993	3998
927.099	3953
927.206	3975
927.312	3960
927.419	4067
927.525	4002
927.631	4082
927.737	3953
927.843	3945
927.95	3838
928.056	3953
928.162	4048
928.267	4063
928.373	4603
928.479	4124
928.585	3842
928.69	3983
928.796	4109
928.901	3968
929.007	3873
929.112	3983
929.218	3949
929.323	3975
929.428	3972
929.533	4124
929.638	3911
929.743	3915
929.848	4029
929.953	3998
930.058	3892
930.163	3800
930.267	3838
930.372	3972
930.477	3831
930.581	4116
930.685	3926
930.79	3846
930.894	3865
930.998	3899
931.103	4044
931.207	3694
931.311	3709
931.415	3701
931.519	3485
931.623	3572
