Data from test_V78500241_1621.txt Node
Date: Fri Mar 25 17:00:16 CST 2022
User: usil
Spectrometer: V785-0024
Trigger mode: 0
Integration Time (sec): 4.000000E-1
Scans to average: 1
Nonlinearity correction enabled: false
Boxcar width: 0
Storing dark spectrum: false
XAxis mode: Wavelengths
Number of Pixels in Spectrum: 1024
>>>>>Begin Spectral Data<<<<<
801.071	8016
801.214	8039
801.356	7871
801.499	7852
801.641	7727
801.783	7780
801.926	7978
802.068	7860
802.211	7993
802.353	7993
802.496	7830
802.638	7875
802.78	7879
802.923	7879
803.065	7841
803.208	7795
803.35	7909
803.492	8077
803.635	8145
803.777	8035
803.919	8126
804.061	8473
804.204	8088
804.346	8012
804.488	7982
804.63	8035
804.773	7970
804.915	8050
805.057	8309
805.199	8195
805.341	8107
805.483	8225
805.626	8172
805.768	8145
805.91	8161
806.052	8130
806.194	8050
806.336	8282
806.478	8073
806.62	7997
806.762	8130
806.904	8275
807.046	8518
807.188	8385
807.33	8332
807.472	8374
807.614	8218
807.756	8172
807.898	8008
808.04	7932
808.182	7856
808.324	7883
808.465	7883
808.607	8035
808.749	8103
808.891	8130
809.033	8237
809.174	8157
809.316	8077
809.458	8012
809.6	8039
809.741	8039
809.883	7997
810.025	8115
810.166	8024
810.308	8050
810.45	7982
810.591	7868
810.733	7731
810.875	7655
811.016	7582
811.158	7476
811.299	7601
811.441	7719
811.582	7639
811.724	7605
811.865	7559
812.007	7563
812.148	7567
812.29	7616
812.431	7807
812.573	7902
812.714	8008
812.855	8138
812.997	8218
813.138	8282
813.279	8187
813.421	8077
813.562	7974
813.703	7765
813.845	7765
813.986	7426
814.127	7232
814.268	7202
814.41	7179
814.551	7183
814.692	7183
814.833	7061
814.974	7126
815.115	7145
815.256	6954
815.397	7031
815.539	6894
815.68	6856
815.821	6730
815.962	6852
816.103	6810
816.244	6688
816.385	6578
816.526	6684
816.666	6494
816.807	6243
816.948	6399
817.089	6433
817.23	6445
817.371	6388
817.512	6407
817.653	6346
817.793	6357
817.934	6338
818.075	6486
818.216	6395
818.356	6369
818.497	6273
818.638	6144
818.778	6171
818.919	6155
819.06	6121
819.2	6350
819.341	6319
819.481	6319
819.622	6486
819.762	6745
819.903	6684
820.043	6570
820.184	6585
820.324	6563
820.465	6745
820.605	6703
820.746	6673
820.886	6566
821.026	6597
821.167	6715
821.307	6757
821.447	6772
821.588	6650
821.728	6582
821.868	6464
822.008	6254
822.149	6372
822.289	6407
822.429	6140
822.569	6125
822.709	6087
822.849	5920
822.99	5901
823.13	5866
823.27	5912
823.41	5707
823.55	5817
823.69	5767
823.83	5760
823.97	5627
824.11	5581
824.25	5497
824.389	5520
824.529	5615
824.669	5490
824.809	5581
824.949	5596
825.089	5573
825.228	5524
825.368	5337
825.508	5334
825.648	5353
825.787	5364
825.927	5383
826.067	5322
826.206	5288
826.346	5334
826.485	5398
826.625	5364
826.765	5493
826.904	5452
827.044	5216
827.183	5166
827.323	5159
827.462	5216
827.601	5162
827.741	5197
827.88	5216
828.02	5124
828.159	5258
828.298	5307
828.437	5360
828.577	5246
828.716	5471
828.855	5326
828.994	5132
829.134	5117
829.273	5204
829.412	5121
829.551	5181
829.69	5178
829.829	5227
829.968	5334
830.107	5322
830.246	5174
830.385	5147
830.524	5121
830.663	5022
830.802	4987
830.941	4873
831.08	4828
831.219	4984
831.357	4968
831.496	5098
831.635	4915
831.774	4850
831.913	4828
832.051	4687
832.19	4706
832.329	4767
832.467	4645
832.606	4660
832.744	4702
832.883	4679
833.022	4687
833.16	4786
833.299	4812
833.437	4793
833.576	4831
833.714	4854
833.852	4896
833.991	4900
834.129	4965
834.267	4972
834.406	4866
834.544	4980
834.682	4987
834.821	4953
834.959	5159
835.097	4949
835.235	5086
835.373	5094
835.511	5033
835.65	5033
835.788	5029
835.926	4889
836.064	4820
836.202	4919
836.34	5185
836.478	5181
836.615	5113
836.753	5212
836.891	5269
837.029	5242
837.167	5170
837.305	5151
837.443	5098
837.58	5105
837.718	5288
837.856	5189
837.993	5143
838.131	5212
838.269	5174
838.406	5174
838.544	5178
838.681	5033
838.819	4999
838.956	4812
839.094	4881
839.231	4961
839.369	5037
839.506	5402
839.643	5227
839.781	5010
839.918	5006
840.055	5083
840.193	5071
840.33	5037
840.467	5132
840.604	5162
840.742	5417
840.879	5086
841.016	5064
841.153	5155
841.29	5376
841.427	5398
841.564	5368
841.701	5311
841.838	5220
841.975	5212
842.112	5227
842.249	5136
842.385	5048
842.522	5364
842.659	5193
842.796	5185
842.933	5166
843.069	5140
843.206	5124
843.343	5261
843.479	5254
843.616	5277
843.752	5018
843.889	5037
844.025	5220
844.162	5056
844.298	5216
844.435	5052
844.571	5037
844.708	5185
844.844	5269
844.98	5330
845.117	5307
845.253	5094
845.389	5113
845.525	5185
845.661	5109
845.798	5022
845.934	5132
846.07	5003
846.206	5162
846.342	5299
846.478	5174
846.614	5064
846.75	4980
846.886	4972
847.022	5128
847.158	5033
847.294	5018
847.429	5086
847.565	5010
847.701	5318
847.837	4873
847.972	4805
848.108	4961
848.244	4946
848.379	4759
848.515	4755
848.65	4691
848.786	4828
848.921	4759
849.057	4835
849.192	4942
849.328	4790
849.463	4858
849.598	4733
849.734	4778
849.869	4710
850.004	4615
850.14	4698
850.275	4645
850.41	4538
850.545	4558
850.68	4580
850.815	4588
850.95	4558
851.085	4870
851.22	4729
851.355	4672
851.49	4634
851.625	4561
851.76	4626
851.895	4531
852.03	4497
852.165	4683
852.299	4664
852.434	4782
852.569	4721
852.703	4759
852.838	4843
852.973	4965
853.107	4900
853.242	4710
853.376	4656
853.511	4523
853.645	4565
853.78	4877
853.914	4687
854.048	4679
854.183	4656
854.317	4706
854.451	4824
854.585	4691
854.72	4645
854.854	4736
854.988	4588
855.122	4615
855.256	4512
855.39	4603
855.524	4763
855.658	4721
855.792	4706
855.926	4691
856.06	4755
856.194	4786
856.327	4706
856.461	4615
856.595	4561
856.729	4641
856.862	4729
856.996	4675
857.13	4736
857.263	4736
857.397	4774
857.53	4599
857.664	4717
857.797	4748
857.931	4793
858.064	4664
858.197	4752
858.331	4622
858.464	4584
858.597	4512
858.731	4611
858.864	4611
858.997	4607
859.13	4634
859.263	4653
859.396	4710
859.529	4592
859.662	4554
859.795	4527
859.928	4634
860.061	4748
860.194	4714
860.327	4599
860.46	4584
860.592	4725
860.725	4721
860.858	4672
860.99	4573
861.123	4478
861.256	4550
861.388	4641
861.521	5174
861.653	4493
861.786	4455
861.918	4428
862.05	4523
862.183	4561
862.315	4580
862.447	4656
862.58	4542
862.712	4333
862.844	4329
862.976	4462
863.108	4447
863.24	4725
863.372	4322
863.504	4428
863.636	4409
863.768	4489
863.9	4424
864.032	4363
864.164	4424
864.296	4493
864.428	4565
864.559	4546
864.691	4516
864.823	4519
864.954	4451
865.086	4504
865.217	4466
865.349	4428
865.48	4424
865.612	4455
865.743	4580
865.875	4428
866.006	4436
866.137	4447
866.269	4470
866.4	4409
866.531	4390
866.662	4390
866.793	4413
866.924	4417
867.055	4481
867.186	4436
867.317	4428
867.448	4421
867.579	4356
867.71	4386
867.841	4329
867.972	4451
868.103	4466
868.233	4436
868.364	4421
868.495	4519
868.625	4626
868.756	4725
868.886	4523
869.017	4618
869.147	4729
869.278	4702
869.408	4645
869.539	4622
869.669	4717
869.799	4577
869.929	4698
870.06	4710
870.19	4953
870.32	4892
870.45	4927
870.58	5010
870.71	5029
870.84	5075
870.97	4938
871.1	4896
871.23	5105
871.36	5109
871.489	5003
871.619	5083
871.749	5064
871.879	5075
872.008	5147
872.138	5010
872.267	4965
872.397	4881
872.526	4812
872.656	4710
872.785	4801
872.915	4957
873.044	5006
873.173	4938
873.303	4995
873.432	4968
873.561	4946
873.69	4850
873.819	4793
873.948	4900
874.077	4767
874.206	4729
874.335	4752
874.464	4934
874.593	5025
874.722	4938
874.851	5117
874.979	5109
875.108	5003
875.237	4949
875.365	4862
875.494	4881
875.623	4961
875.751	4797
875.88	4824
876.008	4965
876.136	4980
876.265	5250
876.393	5307
876.521	5254
876.65	5208
876.778	5147
876.906	5075
877.034	5003
877.162	5071
877.29	4999
877.418	5014
877.546	5025
877.674	5041
877.802	5033
877.93	5006
878.058	4889
878.185	4858
878.313	4938
878.441	4984
878.568	4786
878.696	4870
878.824	4984
878.951	4976
879.079	5147
879.206	5288
879.333	5083
879.461	5003
879.588	5041
879.715	5102
879.842	5246
879.97	5064
880.097	4740
880.224	4778
880.351	4763
880.478	4805
880.605	4824
880.732	4740
880.859	5056
880.986	4908
881.112	4889
881.239	4755
881.366	4687
881.493	4577
881.619	4561
881.746	4592
881.872	4626
881.999	4599
882.125	4691
882.252	4809
882.378	4748
882.505	4976
882.631	4820
882.757	4679
882.883	4687
883.01	4748
883.136	4637
883.262	4603
883.388	4603
883.514	4835
883.64	4820
883.766	4797
883.892	4675
884.018	4729
884.143	4889
884.269	4999
884.395	4672
884.52	4615
884.646	4634
884.772	4561
884.897	4550
885.023	4637
885.148	4801
885.274	4847
885.399	4759
885.524	4736
885.65	4710
885.775	4748
885.9	4717
886.025	4831
886.15	4782
886.275	4668
886.4	4656
886.525	4714
886.65	4668
886.775	4653
886.9	4885
887.025	5022
887.149	4755
887.274	4637
887.399	4538
887.523	4580
887.648	4577
887.773	4561
887.897	4744
888.021	4736
888.146	4664
888.27	4805
888.395	4877
888.519	4774
888.643	4831
888.767	4820
888.891	4683
889.015	4645
889.139	4599
889.263	4596
889.387	4763
889.511	4843
889.635	4793
889.759	4630
889.883	4664
890.006	4763
890.13	4790
890.254	4622
890.377	4645
890.501	4538
890.624	4470
890.748	4664
890.871	4535
890.995	4455
891.118	4405
891.241	4519
891.364	4569
891.488	4656
891.611	4516
891.734	4546
891.857	4558
891.98	4569
892.103	4660
892.226	4527
892.349	4531
892.471	4432
892.594	4554
892.717	4599
892.839	4580
892.962	4653
893.085	4618
893.207	4599
893.33	4443
893.452	4580
893.575	4641
893.697	4550
893.819	4816
893.941	4786
894.064	4759
894.186	4577
894.308	4588
894.43	4721
894.552	4812
894.674	4752
894.796	4550
894.918	4618
895.04	4577
895.161	4687
895.283	4637
895.405	4569
895.526	4653
895.648	4687
895.769	4687
895.891	4679
896.012	4717
896.134	4717
896.255	4630
896.376	4656
896.498	4641
896.619	4714
896.74	4580
896.861	4634
896.982	4908
897.103	5037
897.224	4812
897.345	4748
897.466	4656
897.587	4691
897.708	4847
897.828	4740
897.949	4672
898.07	4592
898.19	4607
898.311	4763
898.431	4698
898.552	4717
898.672	4744
898.792	4767
898.913	4717
899.033	4599
899.153	4504
899.273	4413
899.393	4527
899.513	4516
899.633	4508
899.753	4554
899.873	4512
899.993	4569
900.113	4523
900.232	4596
900.352	4523
900.472	4455
900.591	4360
900.711	4489
900.83	4405
900.95	4618
901.069	4702
901.189	4527
901.308	4363
901.427	4322
901.546	4344
901.665	4489
901.784	4489
901.904	4325
902.023	4287
902.141	4211
902.26	4154
902.379	4325
902.498	4238
902.617	4238
902.735	4367
902.854	4348
902.973	4363
903.091	4196
903.21	4211
903.328	4310
903.446	4249
903.565	4272
903.683	4333
903.801	4242
903.919	4417
904.038	4421
904.156	4314
904.274	4409
904.392	4394
904.51	4405
904.627	4443
904.745	4615
904.863	4637
904.981	4398
905.098	4291
905.216	4390
905.334	4405
905.451	4478
905.569	4455
905.686	4580
905.803	4577
905.921	4421
906.038	4550
906.155	4485
906.272	4394
906.389	4447
906.506	4363
906.623	4402
906.74	4371
906.857	4268
906.974	4421
907.091	4535
907.208	4634
907.324	4592
907.441	4500
907.557	4341
907.674	4329
907.79	4306
907.907	4379
908.023	4481
908.139	4474
908.256	4474
908.372	4497
908.488	4489
908.604	4322
908.72	4287
908.836	4341
908.952	4356
909.068	4390
909.184	4569
909.3	4432
909.415	4577
909.531	4550
909.647	4363
909.762	4424
909.878	4310
909.993	4466
910.108	4417
910.224	4383
910.339	4440
910.454	4371
910.57	4287
910.685	4318
910.8	4675
910.915	4561
911.03	4485
911.145	4329
911.259	4341
911.374	4390
911.489	4253
911.604	4295
911.718	4177
911.833	4200
911.947	4101
912.062	4006
912.176	4177
912.291	4234
912.405	4265
912.519	4504
912.633	4493
912.748	4367
912.862	4291
912.976	4169
913.09	4090
913.204	4230
913.318	4249
913.431	4363
913.545	4360
913.659	4424
913.772	4341
913.886	4227
914	4173
914.113	4360
914.226	4402
914.34	4344
914.453	4207
914.566	4424
914.68	4284
914.793	4360
914.906	4154
915.019	4135
915.132	4025
915.245	4207
915.358	4196
915.47	4291
915.583	4261
915.696	4287
915.809	4424
915.921	4413
916.034	4204
916.146	4234
916.259	4246
916.371	4360
916.483	4371
916.595	4242
916.708	4306
916.82	4325
916.932	4341
917.044	4356
917.156	4322
917.268	4234
917.38	4295
917.491	4276
917.603	4295
917.715	4413
917.826	4451
917.938	4352
918.049	4265
918.161	4386
918.272	4512
918.384	4504
918.495	4421
918.606	4234
918.717	4265
918.828	4314
918.939	4386
919.05	4287
919.161	4268
919.272	4097
919.383	4249
919.494	4440
919.604	4630
919.715	4367
919.826	4352
919.936	4379
920.047	4481
920.157	4455
920.267	4706
920.378	4535
920.488	4508
920.598	4744
920.708	4877
920.818	4752
920.928	4725
921.038	4930
921.148	4858
921.258	4584
921.368	4508
921.477	4478
921.587	4470
921.697	4383
921.806	4558
921.916	4440
922.025	4272
922.134	4238
922.244	4223
922.353	4352
922.462	4120
922.571	4112
922.68	4032
922.789	3975
922.898	4006
923.007	4036
923.116	4048
923.224	4063
923.333	4063
923.442	3983
923.55	4006
923.659	3994
923.767	4109
923.876	4040
923.984	4090
924.092	3987
924.201	4029
924.309	4063
924.417	4112
924.525	4036
924.633	4086
924.741	4873
924.849	3903
924.956	4128
925.064	3934
925.172	3918
925.279	3956
925.387	4017
925.494	4051
925.602	4166
925.709	4143
925.816	4036
925.924	4109
926.031	4204
926.138	4139
926.245	4177
926.352	4082
926.459	4246
926.566	4322
926.673	4139
926.779	4044
926.886	4086
926.993	3987
927.099	3934
927.206	3903
927.312	3941
927.419	4051
927.525	4025
927.631	4071
927.737	3937
927.843	3937
927.95	3854
928.056	3941
928.162	4029
928.267	4086
928.373	4554
928.479	4101
928.585	3880
928.69	3972
928.796	4032
928.901	3899
929.007	3865
929.112	4006
929.218	3972
929.323	3979
929.428	3945
929.533	4090
929.638	3953
929.743	3934
929.848	4025
929.953	3972
930.058	3968
930.163	3778
930.267	3812
930.372	3960
930.477	3781
930.581	4105
930.685	3915
930.79	3808
930.894	3930
930.998	3865
931.103	4040
931.207	3762
931.311	3717
931.415	3690
931.519	3561
931.623	3526
