Data from test_V78500241_1361.txt Node
Date: Fri Mar 25 16:58:27 CST 2022
User: usil
Spectrometer: V785-0024
Trigger mode: 0
Integration Time (sec): 4.000000E-1
Scans to average: 1
Nonlinearity correction enabled: false
Boxcar width: 0
Storing dark spectrum: false
XAxis mode: Wavelengths
Number of Pixels in Spectrum: 1024
>>>>>Begin Spectral Data<<<<<
801.071	7959
801.214	7940
801.356	7849
801.499	7807
801.641	7742
801.783	7780
801.926	7947
802.068	7909
802.211	7982
802.353	8001
802.496	7875
802.638	7856
802.78	7860
802.923	7879
803.065	7868
803.208	7845
803.35	8001
803.492	8005
803.635	8214
803.777	7978
803.919	8065
804.061	8492
804.204	8187
804.346	8077
804.488	7982
804.63	8062
804.773	8058
804.915	8024
805.057	8271
805.199	8168
805.341	8252
805.483	8286
805.626	8221
805.768	8187
805.91	8183
806.052	8176
806.194	8115
806.336	8271
806.478	8058
806.62	8031
806.762	8153
806.904	8248
807.046	8438
807.188	8393
807.33	8267
807.472	8286
807.614	8096
807.756	8119
807.898	7986
808.04	7871
808.182	7871
808.324	7913
808.465	7917
808.607	8077
808.749	8168
808.891	8240
809.033	8252
809.174	8191
809.316	8046
809.458	8058
809.6	7947
809.741	8084
809.883	8027
810.025	8100
810.166	8107
810.308	8024
810.45	7997
810.591	7868
810.733	7715
810.875	7742
811.016	7525
811.158	7571
811.299	7605
811.441	7662
811.582	7662
811.724	7639
811.865	7518
812.007	7590
812.148	7594
812.29	7632
812.431	7750
812.573	7875
812.714	7963
812.855	8123
812.997	8145
813.138	8305
813.279	8149
813.421	8115
813.562	8065
813.703	7860
813.845	7795
813.986	7449
814.127	7152
814.268	7171
814.41	7213
814.551	7164
814.692	7213
814.833	7072
814.974	7080
815.115	7190
815.256	6932
815.397	6878
815.539	6878
815.68	6825
815.821	6772
815.962	6871
816.103	6783
816.244	6703
816.385	6662
816.526	6627
816.666	6441
816.807	6319
816.948	6372
817.089	6464
817.23	6422
817.371	6388
817.512	6361
817.653	6372
817.793	6346
817.934	6391
818.075	6456
818.216	6403
818.356	6414
818.497	6209
818.638	6144
818.778	6064
818.919	6083
819.06	6155
819.2	6338
819.341	6342
819.481	6346
819.622	6483
819.762	6684
819.903	6741
820.043	6604
820.184	6566
820.324	6555
820.465	6642
820.605	6669
820.746	6635
820.886	6486
821.026	6608
821.167	6684
821.307	6711
821.447	6734
821.588	6696
821.728	6601
821.868	6494
822.008	6289
822.149	6388
822.289	6380
822.429	6129
822.569	6038
822.709	6057
822.849	5904
822.99	5908
823.13	5882
823.27	5863
823.41	5794
823.55	5760
823.69	5783
823.83	5752
823.97	5649
824.11	5524
824.25	5463
824.389	5566
824.529	5535
824.669	5520
824.809	5604
824.949	5615
825.089	5638
825.228	5562
825.368	5349
825.508	5258
825.648	5322
825.787	5334
825.927	5395
826.067	5265
826.206	5322
826.346	5395
826.485	5410
826.625	5414
826.765	5566
826.904	5463
827.044	5239
827.183	5193
827.323	5098
827.462	5181
827.601	5132
827.741	5155
827.88	5174
828.02	5113
828.159	5235
828.298	5315
828.437	5345
828.577	5273
828.716	5474
828.855	5277
828.994	5143
829.134	5151
829.273	5159
829.412	5124
829.551	5109
829.69	5189
829.829	5189
829.968	5341
830.107	5273
830.246	5254
830.385	5136
830.524	5159
830.663	5048
830.802	4927
830.941	4904
831.08	4847
831.219	4904
831.357	5014
831.496	5162
831.635	4900
831.774	4782
831.913	4828
832.051	4748
832.19	4733
832.329	4816
832.467	4687
832.606	4645
832.744	4691
832.883	4668
833.022	4714
833.16	4752
833.299	4778
833.437	4843
833.576	4801
833.714	4873
833.852	4835
833.991	4934
834.129	4942
834.267	4927
834.406	4889
834.544	4972
834.682	4953
834.821	4972
834.959	5181
835.097	5003
835.235	5128
835.373	5037
835.511	5056
835.65	5025
835.788	5014
835.926	4873
836.064	4892
836.202	4911
836.34	5162
836.478	5235
836.615	5090
836.753	5216
836.891	5201
837.029	5261
837.167	5170
837.305	5147
837.443	5083
837.58	5094
837.718	5269
837.856	5170
837.993	5105
838.131	5212
838.269	5193
838.406	5178
838.544	5136
838.681	4995
838.819	4999
838.956	4866
839.094	4877
839.231	4957
839.369	5056
839.506	5387
839.643	5197
839.781	5045
839.918	5014
840.055	5094
840.193	5094
840.33	5147
840.467	5083
840.604	5162
840.742	5425
840.879	5056
841.016	5041
841.153	5094
841.29	5364
841.427	5296
841.564	5299
841.701	5337
841.838	5269
841.975	5239
842.112	5265
842.249	5151
842.385	5071
842.522	5269
842.659	5201
842.796	5094
842.933	5155
843.069	5159
843.206	5174
843.343	5265
843.479	5204
843.616	5235
843.752	4987
843.889	5022
844.025	5204
844.162	4999
844.298	5208
844.435	5056
844.571	5045
844.708	5201
844.844	5277
844.98	5387
845.117	5277
845.253	5102
845.389	5071
845.525	5181
845.661	5132
845.798	4999
845.934	5143
846.07	5029
846.206	5174
846.342	5258
846.478	5151
846.614	5025
846.75	4972
846.886	4881
847.022	5155
847.158	5029
847.294	5010
847.429	5022
847.565	5041
847.701	5315
847.837	4843
847.972	4812
848.108	4938
848.244	4896
848.379	4786
848.515	4717
848.65	4733
848.786	4721
848.921	4782
849.057	4881
849.192	4892
849.328	4812
849.463	4824
849.598	4782
849.734	4725
849.869	4656
850.004	4653
850.14	4645
850.275	4615
850.41	4519
850.545	4546
850.68	4603
850.815	4588
850.95	4611
851.085	4805
851.22	4778
851.355	4611
851.49	4630
851.625	4683
851.76	4615
851.895	4558
852.03	4554
852.165	4649
852.299	4675
852.434	4740
852.569	4714
852.703	4748
852.838	4839
852.973	4927
853.107	4953
853.242	4721
853.376	4637
853.511	4531
853.645	4615
853.78	4816
853.914	4714
854.048	4599
854.183	4599
854.317	4687
854.451	4805
854.585	4615
854.72	4596
854.854	4744
854.988	4592
855.122	4592
855.256	4493
855.39	4664
855.524	4748
855.658	4706
855.792	4694
855.926	4736
856.06	4767
856.194	4790
856.327	4694
856.461	4634
856.595	4599
856.729	4611
856.862	4706
856.996	4702
857.13	4691
857.263	4725
857.397	4786
857.53	4634
857.664	4698
857.797	4809
857.931	4782
858.064	4668
858.197	4698
858.331	4569
858.464	4611
858.597	4512
858.731	4622
858.864	4615
858.997	4588
859.13	4622
859.263	4672
859.396	4729
859.529	4565
859.662	4546
859.795	4527
859.928	4641
860.061	4691
860.194	4786
860.327	4618
860.46	4516
860.592	4622
860.725	4637
860.858	4687
860.99	4607
861.123	4497
861.256	4561
861.388	4634
861.521	5284
861.653	4489
861.786	4421
861.918	4459
862.05	4554
862.183	4550
862.315	4596
862.447	4672
862.58	4558
862.712	4413
862.844	4318
862.976	4436
863.108	4447
863.24	4889
863.372	4299
863.504	4390
863.636	4417
863.768	4424
863.9	4405
864.032	4363
864.164	4417
864.296	4451
864.428	4554
864.559	4531
864.691	4538
864.823	4512
864.954	4489
865.086	4546
865.217	4470
865.349	4428
865.48	4455
865.612	4504
865.743	4622
865.875	4478
866.006	4432
866.137	4443
866.269	4436
866.4	4459
866.531	4424
866.662	4417
866.793	4394
866.924	4424
867.055	4523
867.186	4485
867.317	4424
867.448	4360
867.579	4386
867.71	4386
867.841	4375
867.972	4455
868.103	4474
868.233	4421
868.364	4497
868.495	4455
868.625	4618
868.756	4763
868.886	4531
869.017	4622
869.147	4740
869.278	4759
869.408	4634
869.539	4641
869.669	4721
869.799	4637
869.929	4790
870.06	4721
870.19	4911
870.32	4862
870.45	4953
870.58	5041
870.71	5033
870.84	5041
870.97	4904
871.1	4889
871.23	5136
871.36	5064
871.489	5003
871.619	5083
871.749	5094
871.879	5090
872.008	5208
872.138	5025
872.267	4953
872.397	4904
872.526	4767
872.656	4683
872.785	4812
872.915	4968
873.044	5048
873.173	4923
873.303	5006
873.432	4908
873.561	4923
873.69	4828
873.819	4881
873.948	4854
874.077	4782
874.206	4748
874.335	4763
874.464	4889
874.593	5052
874.722	4984
874.851	5098
874.979	4980
875.108	5014
875.237	4889
875.365	4892
875.494	4877
875.623	4965
875.751	4843
875.88	4831
876.008	4946
876.136	5071
876.265	5201
876.393	5334
876.521	5223
876.65	5197
876.778	5166
876.906	5033
877.034	4999
877.162	5014
877.29	4976
877.418	5037
877.546	5025
877.674	5003
877.802	4946
877.93	5014
878.058	4896
878.185	4850
878.313	4934
878.441	4946
878.568	4812
878.696	4835
878.824	4881
878.951	4991
879.079	5086
879.206	5235
879.333	5094
879.461	4987
879.588	4995
879.715	5136
879.842	5174
879.97	4968
880.097	4816
880.224	4729
880.351	4790
880.478	4831
880.605	4786
880.732	4828
880.859	5060
880.986	4900
881.112	4881
881.239	4778
881.366	4664
881.493	4558
881.619	4615
881.746	4634
881.872	4618
881.999	4592
882.125	4668
882.252	4797
882.378	4812
882.505	4923
882.631	4767
882.757	4630
882.883	4698
883.01	4729
883.136	4622
883.262	4558
883.388	4592
883.514	4755
883.64	4847
883.766	4790
883.892	4687
884.018	4706
884.143	4889
884.269	5003
884.395	4618
884.52	4584
884.646	4656
884.772	4561
884.897	4531
885.023	4645
885.148	4767
885.274	4896
885.399	4809
885.524	4714
885.65	4714
885.775	4759
885.9	4725
886.025	4900
886.15	4710
886.275	4725
886.4	4615
886.525	4733
886.65	4714
886.775	4626
886.9	4877
887.025	5022
887.149	4774
887.274	4641
887.399	4641
887.523	4615
887.648	4546
887.773	4542
887.897	4809
888.021	4759
888.146	4672
888.27	4793
888.395	4904
888.519	4763
888.643	4816
888.767	4835
888.891	4664
889.015	4630
889.139	4672
889.263	4584
889.387	4740
889.511	4839
889.635	4835
889.759	4626
889.883	4641
890.006	4733
890.13	4759
890.254	4618
890.377	4691
890.501	4523
890.624	4489
890.748	4577
890.871	4504
890.995	4367
891.118	4402
891.241	4531
891.364	4546
891.488	4588
891.611	4474
891.734	4504
891.857	4596
891.98	4573
892.103	4626
892.226	4607
892.349	4538
892.471	4405
892.594	4542
892.717	4607
892.839	4531
892.962	4607
893.085	4645
893.207	4603
893.33	4466
893.452	4516
893.575	4634
893.697	4622
893.819	4782
893.941	4797
894.064	4782
894.186	4546
894.308	4550
894.43	4729
894.552	4812
894.674	4702
894.796	4485
894.918	4611
895.04	4561
895.161	4691
895.283	4611
895.405	4577
895.526	4634
895.648	4675
895.769	4649
895.891	4710
896.012	4702
896.134	4717
896.255	4672
896.376	4630
896.498	4599
896.619	4691
896.74	4550
896.861	4645
896.982	4919
897.103	5041
897.224	4790
897.345	4755
897.466	4634
897.587	4721
897.708	4873
897.828	4782
897.949	4626
898.07	4550
898.19	4622
898.311	4793
898.431	4645
898.552	4755
898.672	4835
898.792	4774
898.913	4702
899.033	4645
899.153	4478
899.273	4390
899.393	4497
899.513	4554
899.633	4481
899.753	4531
899.873	4516
899.993	4569
900.113	4500
900.232	4599
900.352	4504
900.472	4436
900.591	4375
900.711	4462
900.83	4451
900.95	4596
901.069	4679
901.189	4485
901.308	4360
901.427	4337
901.546	4363
901.665	4443
901.784	4443
901.904	4356
902.023	4341
902.141	4181
902.26	4162
902.379	4284
902.498	4207
902.617	4196
902.735	4379
902.854	4402
902.973	4390
903.091	4177
903.21	4158
903.328	4268
903.446	4246
903.565	4223
903.683	4322
903.801	4287
903.919	4375
904.038	4402
904.156	4322
904.274	4436
904.392	4413
904.51	4428
904.627	4405
904.745	4592
904.863	4558
904.981	4348
905.098	4333
905.216	4367
905.334	4394
905.451	4405
905.569	4421
905.686	4531
905.803	4535
905.921	4341
906.038	4538
906.155	4504
906.272	4367
906.389	4455
906.506	4303
906.623	4367
906.74	4386
906.857	4268
906.974	4333
907.091	4596
907.208	4645
907.324	4554
907.441	4497
907.557	4348
907.674	4379
907.79	4333
907.907	4379
908.023	4531
908.139	4462
908.256	4398
908.372	4466
908.488	4402
908.604	4322
908.72	4303
908.836	4386
908.952	4344
909.068	4375
909.184	4550
909.3	4489
909.415	4569
909.531	4550
909.647	4367
909.762	4394
909.878	4318
909.993	4428
910.108	4405
910.224	4405
910.339	4466
910.454	4421
910.57	4341
910.685	4295
910.8	4618
910.915	4569
911.03	4474
911.145	4306
911.259	4352
911.374	4417
911.489	4284
911.604	4268
911.718	4177
911.833	4166
911.947	4067
912.062	4074
912.176	4169
912.291	4287
912.405	4200
912.519	4455
912.633	4558
912.748	4356
912.862	4272
912.976	4185
913.09	4147
913.204	4131
913.318	4238
913.431	4375
913.545	4360
913.659	4409
913.772	4367
913.886	4227
914	4200
914.113	4383
914.226	4428
914.34	4398
914.453	4211
914.566	4417
914.68	4303
914.793	4337
914.906	4105
915.019	4109
915.132	4078
915.245	4162
915.358	4196
915.47	4204
915.583	4249
915.696	4356
915.809	4375
915.921	4432
916.034	4234
916.146	4223
916.259	4154
916.371	4375
916.483	4413
916.595	4276
916.708	4303
916.82	4325
916.932	4306
917.044	4344
917.156	4333
917.268	4246
917.38	4322
917.491	4253
917.603	4299
917.715	4443
917.826	4394
917.938	4360
918.049	4246
918.161	4409
918.272	4554
918.384	4546
918.495	4421
918.606	4287
918.717	4284
918.828	4360
918.939	4371
919.05	4219
919.161	4306
919.272	4128
919.383	4230
919.494	4508
919.604	4622
919.715	4417
919.826	4325
919.936	4402
920.047	4523
920.157	4451
920.267	4733
920.378	4508
920.488	4504
920.598	4714
920.708	4892
920.818	4706
920.928	4714
921.038	4930
921.148	4900
921.258	4656
921.368	4527
921.477	4451
921.587	4516
921.697	4402
921.806	4550
921.916	4432
922.025	4246
922.134	4215
922.244	4192
922.353	4299
922.462	4150
922.571	4120
922.68	3918
922.789	3979
922.898	4025
923.007	4017
923.116	4067
923.224	4044
923.333	4078
923.442	3983
923.55	3983
923.659	4021
923.767	4105
923.876	4017
923.984	4147
924.092	3987
924.201	4093
924.309	4055
924.417	4097
924.525	4048
924.633	4120
924.741	5022
924.849	3930
924.956	4097
925.064	3972
925.172	3876
925.279	3911
925.387	4093
925.494	4074
925.602	4215
925.709	4230
925.816	4029
925.924	4135
926.031	4234
926.138	4128
926.245	4169
926.352	4101
926.459	4219
926.566	4276
926.673	4120
926.779	4059
926.886	4090
926.993	3987
927.099	3953
927.206	3907
927.312	3964
927.419	4013
927.525	4032
927.631	4051
927.737	3968
927.843	3975
927.95	3850
928.056	3941
928.162	3972
928.267	4044
928.373	4702
928.479	4120
928.585	3896
928.69	4013
928.796	4086
928.901	3964
929.007	3842
929.112	4017
929.218	3975
929.323	3926
929.428	3960
929.533	4082
929.638	3861
929.743	3960
929.848	4017
929.953	4002
930.058	3922
930.163	3819
930.267	3827
930.372	3968
930.477	3797
930.581	4063
930.685	3937
930.79	3781
930.894	3869
930.998	3861
931.103	4044
931.207	3705
931.311	3686
931.415	3663
931.519	3492
931.623	3534
