Data from test_V78500241_38.txt Node
Date: Fri Mar 25 16:49:16 CST 2022
User: usil
Spectrometer: V785-0024
Trigger mode: 0
Integration Time (sec): 4.000000E-1
Scans to average: 1
Nonlinearity correction enabled: false
Boxcar width: 0
Storing dark spectrum: false
XAxis mode: Wavelengths
Number of Pixels in Spectrum: 1024
>>>>>Begin Spectral Data<<<<<
801.071	8100
801.214	8035
801.356	7970
801.499	8005
801.641	7833
801.783	7974
801.926	8073
802.068	8039
802.211	8119
802.353	8145
802.496	7989
802.638	7921
802.78	8043
802.923	7917
803.065	7925
803.208	7951
803.35	8081
803.492	8119
803.635	8176
803.777	8039
803.919	8119
804.061	8476
804.204	8176
804.346	8119
804.488	7986
804.63	8126
804.773	8035
804.915	8138
805.057	8282
805.199	8237
805.341	8324
805.483	8339
805.626	8279
805.768	8164
805.91	8309
806.052	8225
806.194	8153
806.336	8355
806.478	8142
806.62	8145
806.762	8271
806.904	8317
807.046	8446
807.188	8507
807.33	8358
807.472	8374
807.614	8263
807.756	8233
807.898	8092
808.04	7997
808.182	7967
808.324	7974
808.465	7928
808.607	8058
808.749	8115
808.891	8294
809.033	8301
809.174	8210
809.316	8107
809.458	8103
809.6	8062
809.741	8031
809.883	8062
810.025	8111
810.166	8138
810.308	8069
810.45	8024
810.591	7928
810.733	7845
810.875	7727
811.016	7628
811.158	7567
811.299	7658
811.441	7822
811.582	7818
811.724	7594
811.865	7639
812.007	7647
812.148	7632
812.29	7685
812.431	7856
812.573	7921
812.714	8081
812.855	8157
812.997	8256
813.138	8309
813.279	8172
813.421	8138
813.562	8005
813.703	7936
813.845	7761
813.986	7476
814.127	7373
814.268	7305
814.41	7221
814.551	7274
814.692	7251
814.833	7168
814.974	7187
815.115	7137
815.256	7057
815.397	6970
815.539	6970
815.68	6837
815.821	6837
815.962	6951
816.103	6844
816.244	6810
816.385	6627
816.526	6753
816.666	6559
816.807	6437
816.948	6506
817.089	6528
817.23	6555
817.371	6452
817.512	6414
817.653	6410
817.793	6441
817.934	6437
818.075	6532
818.216	6479
818.356	6498
818.497	6323
818.638	6121
818.778	6247
818.919	6251
819.06	6262
819.2	6388
819.341	6433
819.481	6410
819.622	6544
819.762	6833
819.903	6821
820.043	6639
820.184	6673
820.324	6623
820.465	6738
820.605	6730
820.746	6722
820.886	6544
821.026	6719
821.167	6760
821.307	6867
821.447	6818
821.588	6703
821.728	6642
821.868	6559
822.008	6353
822.149	6422
822.289	6486
822.429	6197
822.569	6136
822.709	6167
822.849	6003
822.99	5901
823.13	5996
823.27	5950
823.41	5836
823.55	5897
823.69	5870
823.83	5847
823.97	5748
824.11	5615
824.25	5611
824.389	5646
824.529	5615
824.669	5589
824.809	5703
824.949	5714
825.089	5691
825.228	5646
825.368	5444
825.508	5379
825.648	5391
825.787	5425
825.927	5383
826.067	5326
826.206	5326
826.346	5448
826.485	5482
826.625	5471
826.765	5604
826.904	5520
827.044	5337
827.183	5250
827.323	5231
827.462	5307
827.601	5197
827.741	5231
827.88	5299
828.02	5185
828.159	5330
828.298	5311
828.437	5463
828.577	5322
828.716	5528
828.855	5341
828.994	5216
829.134	5223
829.273	5254
829.412	5193
829.551	5162
829.69	5250
829.829	5292
829.968	5433
830.107	5402
830.246	5307
830.385	5197
830.524	5159
830.663	5128
830.802	5037
830.941	4968
831.08	4908
831.219	5041
831.357	5071
831.496	5174
831.635	4991
831.774	4915
831.913	4885
832.051	4782
832.19	4866
832.329	4892
832.467	4736
832.606	4714
832.744	4831
832.883	4774
833.022	4763
833.16	4805
833.299	4889
833.437	4881
833.576	4866
833.714	4984
833.852	4930
833.991	4957
834.129	5010
834.267	4953
834.406	4930
834.544	5018
834.682	5014
834.821	5064
834.959	5250
835.097	5048
835.235	5193
835.373	5151
835.511	5105
835.65	5052
835.788	5056
835.926	4953
836.064	4911
836.202	4919
836.34	5273
836.478	5280
836.615	5227
836.753	5288
836.891	5337
837.029	5315
837.167	5231
837.305	5170
837.443	5201
837.58	5132
837.718	5345
837.856	5239
837.993	5197
838.131	5265
838.269	5250
838.406	5311
838.544	5212
838.681	5109
838.819	5113
838.956	4927
839.094	4965
839.231	5022
839.369	5136
839.506	5463
839.643	5315
839.781	5124
839.918	5041
840.055	5159
840.193	5140
840.33	5147
840.467	5216
840.604	5258
840.742	5532
840.879	5162
841.016	5056
841.153	5216
841.29	5398
841.427	5379
841.564	5421
841.701	5425
841.838	5345
841.975	5280
842.112	5334
842.249	5185
842.385	5136
842.522	5383
842.659	5181
842.796	5185
842.933	5299
843.069	5235
843.206	5151
843.343	5429
843.479	5231
843.616	5379
843.752	5086
843.889	5067
844.025	5277
844.162	5067
844.298	5261
844.435	5151
844.571	5079
844.708	5254
844.844	5296
844.98	5387
845.117	5341
845.253	5166
845.389	5109
845.525	5223
845.661	5208
845.798	5132
845.934	5201
846.07	5090
846.206	5246
846.342	5360
846.478	5258
846.614	5113
846.75	5018
846.886	4934
847.022	5181
847.158	5094
847.294	5071
847.429	5155
847.565	5132
847.701	5383
847.837	4915
847.972	4862
848.108	4987
848.244	4976
848.379	4843
848.515	4801
848.65	4774
848.786	4805
848.921	4835
849.057	4915
849.192	4976
849.328	4881
849.463	4911
849.598	4881
849.734	4801
849.869	4744
850.004	4649
850.14	4672
850.275	4653
850.41	4584
850.545	4615
850.68	4656
850.815	4691
850.95	4694
851.085	4915
851.22	4816
851.355	4710
851.49	4664
851.625	4672
851.76	4687
851.895	4622
852.03	4584
852.165	4702
852.299	4831
852.434	4885
852.569	4778
852.703	4835
852.838	4923
852.973	4995
853.107	4965
853.242	4767
853.376	4710
853.511	4603
853.645	4634
853.78	4831
853.914	4733
854.048	4721
854.183	4683
854.317	4759
854.451	4843
854.585	4710
854.72	4683
854.854	4820
854.988	4626
855.122	4710
855.256	4561
855.39	4691
855.524	4786
855.658	4805
855.792	4706
855.926	4786
856.06	4801
856.194	4816
856.327	4714
856.461	4615
856.595	4603
856.729	4675
856.862	4744
856.996	4774
857.13	4748
857.263	4786
857.397	4854
857.53	4702
857.664	4778
857.797	4782
857.931	4843
858.064	4801
858.197	4831
858.331	4679
858.464	4698
858.597	4558
858.731	4660
858.864	4679
858.997	4656
859.13	4733
859.263	4774
859.396	4774
859.529	4592
859.662	4596
859.795	4588
859.928	4653
860.061	4782
860.194	4843
860.327	4679
860.46	4630
860.592	4755
860.725	4790
860.858	4801
860.99	4592
861.123	4580
861.256	4561
861.388	4679
861.521	5463
861.653	4580
861.786	4535
861.918	4527
862.05	4504
862.183	4588
862.315	4622
862.447	4717
862.58	4561
862.712	4394
862.844	4352
862.976	4470
863.108	4474
863.24	4980
863.372	4310
863.504	4428
863.636	4436
863.768	4504
863.9	4481
864.032	4383
864.164	4421
864.296	4523
864.428	4573
864.559	4588
864.691	4554
864.823	4584
864.954	4542
865.086	4577
865.217	4516
865.349	4470
865.48	4474
865.612	4535
865.743	4664
865.875	4508
866.006	4504
866.137	4531
866.269	4535
866.4	4497
866.531	4523
866.662	4447
866.793	4390
866.924	4470
867.055	4542
867.186	4474
867.317	4462
867.448	4398
867.579	4413
867.71	4443
867.841	4409
867.972	4489
868.103	4466
868.233	4497
868.364	4519
868.495	4538
868.625	4767
868.756	4752
868.886	4565
869.017	4660
869.147	4778
869.278	4809
869.408	4748
869.539	4653
869.669	4797
869.799	4729
869.929	4828
870.06	4786
870.19	4995
870.32	4953
870.45	4934
870.58	4999
870.71	5109
870.84	5132
870.97	4980
871.1	4957
871.23	5174
871.36	5170
871.489	5056
871.619	5143
871.749	5086
871.879	5178
872.008	5227
872.138	5117
872.267	4995
872.397	4949
872.526	4847
872.656	4786
872.785	4870
872.915	4972
873.044	5102
873.173	5018
873.303	5098
873.432	4965
873.561	4987
873.69	4927
873.819	4919
873.948	4965
874.077	4892
874.206	4801
874.335	4839
874.464	5010
874.593	5136
874.722	5022
874.851	5193
874.979	5079
875.108	5113
875.237	4968
875.365	4904
875.494	4946
875.623	5060
875.751	4889
875.88	4980
876.008	5029
876.136	5086
876.265	5303
876.393	5395
876.521	5280
876.65	5280
876.778	5231
876.906	5109
877.034	5098
877.162	5090
877.29	5014
877.418	5113
877.546	5064
877.674	5098
877.802	5102
877.93	5086
878.058	4942
878.185	4934
878.313	5052
878.441	4972
878.568	4854
878.696	4873
878.824	4995
878.951	5064
879.079	5143
879.206	5315
879.333	5143
879.461	5010
879.588	5041
879.715	5174
879.842	5315
879.97	5041
880.097	4843
880.224	4835
880.351	4797
880.478	4801
880.605	4881
880.732	4843
880.859	5174
880.986	4904
881.112	4976
881.239	4816
881.366	4706
881.493	4721
881.619	4618
881.746	4675
881.872	4694
881.999	4672
882.125	4721
882.252	4809
882.378	4873
882.505	5071
882.631	4824
882.757	4725
882.883	4809
883.01	4759
883.136	4771
883.262	4645
883.388	4653
883.514	4885
883.64	4942
883.766	4866
883.892	4710
884.018	4793
884.143	4961
884.269	5071
884.395	4687
884.52	4679
884.646	4698
884.772	4596
884.897	4611
885.023	4714
885.148	4870
885.274	4927
885.399	4870
885.524	4759
885.65	4763
885.775	4782
885.9	4752
886.025	4919
886.15	4847
886.275	4710
886.4	4683
886.525	4786
886.65	4763
886.775	4774
886.9	4934
887.025	5113
887.149	4824
887.274	4717
887.399	4637
887.523	4637
887.648	4622
887.773	4596
887.897	4805
888.021	4828
888.146	4744
888.27	4828
888.395	4968
888.519	4862
888.643	4862
888.767	4900
888.891	4725
889.015	4672
889.139	4698
889.263	4668
889.387	4793
889.511	4961
889.635	4854
889.759	4733
889.883	4710
890.006	4755
890.13	4873
890.254	4634
890.377	4702
890.501	4607
890.624	4580
890.748	4710
890.871	4592
890.995	4474
891.118	4455
891.241	4558
891.364	4550
891.488	4641
891.611	4538
891.734	4592
891.857	4641
891.98	4569
892.103	4672
892.226	4641
892.349	4561
892.471	4466
892.594	4615
892.717	4611
892.839	4615
892.962	4649
893.085	4691
893.207	4580
893.33	4466
893.452	4561
893.575	4706
893.697	4668
893.819	4862
893.941	4881
894.064	4816
894.186	4637
894.308	4634
894.43	4774
894.552	4850
894.674	4820
894.796	4603
894.918	4664
895.04	4645
895.161	4752
895.283	4733
895.405	4641
895.526	4672
895.648	4736
895.769	4710
895.891	4740
896.012	4793
896.134	4763
896.255	4660
896.376	4664
896.498	4668
896.619	4717
896.74	4641
896.861	4725
896.982	4968
897.103	5132
897.224	4911
897.345	4733
897.466	4729
897.587	4782
897.708	4911
897.828	4831
897.949	4691
898.07	4596
898.19	4683
898.311	4892
898.431	4725
898.552	4782
898.672	4839
898.792	4877
898.913	4824
899.033	4672
899.153	4596
899.273	4470
899.393	4550
899.513	4565
899.633	4599
899.753	4569
899.873	4569
899.993	4626
900.113	4588
900.232	4618
900.352	4653
900.472	4592
900.591	4459
900.711	4508
900.83	4481
900.95	4672
901.069	4675
901.189	4596
901.308	4383
901.427	4360
901.546	4462
901.665	4519
901.784	4523
901.904	4398
902.023	4394
902.141	4227
902.26	4204
902.379	4367
902.498	4280
902.617	4223
902.735	4402
902.854	4421
902.973	4413
903.091	4242
903.21	4272
903.328	4318
903.446	4295
903.565	4284
903.683	4402
903.801	4352
903.919	4424
904.038	4485
904.156	4337
904.274	4504
904.392	4440
904.51	4504
904.627	4569
904.745	4603
904.863	4622
904.981	4459
905.098	4390
905.216	4405
905.334	4474
905.451	4481
905.569	4519
905.686	4622
905.803	4630
905.921	4451
906.038	4630
906.155	4493
906.272	4405
906.389	4485
906.506	4379
906.623	4394
906.74	4436
906.857	4344
906.974	4367
907.091	4641
907.208	4675
907.324	4656
907.441	4565
907.557	4371
907.674	4367
907.79	4306
907.907	4417
908.023	4550
908.139	4569
908.256	4489
908.372	4504
908.488	4519
908.604	4409
908.72	4367
908.836	4386
908.952	4428
909.068	4447
909.184	4615
909.3	4546
909.415	4573
909.531	4607
909.647	4344
909.762	4424
909.878	4356
909.993	4535
910.108	4489
910.224	4500
910.339	4580
910.454	4436
910.57	4417
910.685	4379
910.8	4687
910.915	4637
911.03	4599
911.145	4356
911.259	4318
911.374	4417
911.489	4341
911.604	4329
911.718	4223
911.833	4230
911.947	4112
912.062	4048
912.176	4291
912.291	4306
912.405	4284
912.519	4481
912.633	4527
912.748	4432
912.862	4333
912.976	4249
913.09	4116
913.204	4207
913.318	4287
913.431	4451
913.545	4417
913.659	4481
913.772	4402
913.886	4299
914	4272
914.113	4371
914.226	4413
914.34	4440
914.453	4314
914.566	4462
914.68	4375
914.793	4402
914.906	4188
915.019	4139
915.132	4116
915.245	4253
915.358	4265
915.47	4242
915.583	4284
915.696	4337
915.809	4500
915.921	4436
916.034	4303
916.146	4303
916.259	4280
916.371	4413
916.483	4386
916.595	4310
916.708	4363
916.82	4344
916.932	4325
917.044	4390
917.156	4310
917.268	4272
917.38	4291
917.491	4303
917.603	4390
917.715	4497
917.826	4474
917.938	4386
918.049	4249
918.161	4394
918.272	4577
918.384	4550
918.495	4462
918.606	4363
918.717	4310
918.828	4367
918.939	4398
919.05	4322
919.161	4413
919.272	4150
919.383	4246
919.494	4462
919.604	4668
919.715	4485
919.826	4409
919.936	4428
920.047	4569
920.157	4527
920.267	4687
920.378	4580
920.488	4504
920.598	4763
920.708	4946
920.818	4759
920.928	4820
921.038	5006
921.148	4942
921.258	4721
921.368	4622
921.477	4497
921.587	4443
921.697	4409
921.806	4565
921.916	4462
922.025	4268
922.134	4276
922.244	4249
922.353	4318
922.462	4177
922.571	4154
922.68	4032
922.789	3972
922.898	4029
923.007	4040
923.116	4150
923.224	4128
923.333	4105
923.442	4044
923.55	3987
923.659	4067
923.767	4086
923.876	4032
923.984	4131
924.092	4051
924.201	4097
924.309	4097
924.417	4162
924.525	4158
924.633	4097
924.741	5060
924.849	3968
924.956	4158
925.064	4017
925.172	3888
925.279	3956
925.387	4090
925.494	4082
925.602	4196
925.709	4192
925.816	4044
925.924	4147
926.031	4291
926.138	4169
926.245	4211
926.352	4128
926.459	4257
926.566	4352
926.673	4238
926.779	4135
926.886	4135
926.993	4032
927.099	4002
927.206	3964
927.312	3994
927.419	4154
927.525	4032
927.631	4116
927.737	3998
927.843	4006
927.95	3888
928.056	3972
928.162	4006
928.267	4093
928.373	4603
928.479	4131
928.585	3915
928.69	4055
928.796	4128
928.901	4006
929.007	3880
929.112	4051
929.218	4032
929.323	3991
929.428	3975
929.533	4158
929.638	3953
929.743	3964
929.848	4097
929.953	4093
930.058	3945
930.163	3808
930.267	3861
930.372	4048
930.477	3850
930.581	4135
930.685	3994
930.79	3850
930.894	3915
930.998	3880
931.103	4059
931.207	3747
931.311	3740
931.415	3637
931.519	3534
931.623	3568
