Data from test_V78500241_345.txt Node
Date: Fri Mar 25 16:51:24 CST 2022
User: usil
Spectrometer: V785-0024
Trigger mode: 0
Integration Time (sec): 4.000000E-1
Scans to average: 1
Nonlinearity correction enabled: false
Boxcar width: 0
Storing dark spectrum: false
XAxis mode: Wavelengths
Number of Pixels in Spectrum: 1024
>>>>>Begin Spectral Data<<<<<
801.071	8035
801.214	8012
801.356	7906
801.499	7917
801.641	7887
801.783	7875
801.926	8039
802.068	7997
802.211	7928
802.353	7970
802.496	7837
802.638	7970
802.78	7947
802.923	7947
803.065	7868
803.208	7837
803.35	7932
803.492	8012
803.635	8115
803.777	7963
803.919	8046
804.061	8419
804.204	8191
804.346	8008
804.488	7955
804.63	8115
804.773	8008
804.915	8065
805.057	8362
805.199	8172
805.341	8240
805.483	8233
805.626	8142
805.768	8054
805.91	8168
806.052	8142
806.194	8115
806.336	8294
806.478	8126
806.62	8100
806.762	8161
806.904	8267
807.046	8454
807.188	8343
807.33	8309
807.472	8301
807.614	8195
807.756	8157
807.898	8016
808.04	7947
808.182	7860
808.324	7936
808.465	7898
808.607	8103
808.749	8142
808.891	8225
809.033	8240
809.174	8210
809.316	8012
809.458	8111
809.6	7951
809.741	8050
809.883	8031
810.025	8073
810.166	8065
810.308	8058
810.45	8039
810.591	7868
810.733	7715
810.875	7681
811.016	7533
811.158	7525
811.299	7700
811.441	7776
811.582	7753
811.724	7670
811.865	7556
812.007	7666
812.148	7601
812.29	7609
812.431	7757
812.573	7925
812.714	8073
812.855	8161
812.997	8210
813.138	8358
813.279	8172
813.421	8187
813.562	8115
813.703	7909
813.845	7731
813.986	7491
814.127	7308
814.268	7225
814.41	7179
814.551	7179
814.692	7179
814.833	7091
814.974	7168
815.115	7114
815.256	6966
815.397	6859
815.539	6951
815.68	6814
815.821	6772
815.962	6947
816.103	6837
816.244	6688
816.385	6639
816.526	6669
816.666	6532
816.807	6357
816.948	6456
817.089	6509
817.23	6494
817.371	6388
817.512	6380
817.653	6346
817.793	6372
817.934	6441
818.075	6536
818.216	6479
818.356	6426
818.497	6235
818.638	6114
818.778	6114
818.919	6106
819.06	6140
819.2	6350
819.341	6399
819.481	6376
819.622	6585
819.762	6772
819.903	6700
820.043	6582
820.184	6521
820.324	6589
820.465	6703
820.605	6688
820.746	6677
820.886	6483
821.026	6654
821.167	6776
821.307	6802
821.447	6829
821.588	6601
821.728	6551
821.868	6574
822.008	6331
822.149	6426
822.289	6445
822.429	6175
822.569	6144
822.709	6140
822.849	5942
822.99	5939
823.13	5973
823.27	5954
823.41	5752
823.55	5798
823.69	5745
823.83	5817
823.97	5695
824.11	5547
824.25	5509
824.389	5570
824.529	5562
824.669	5528
824.809	5623
824.949	5638
825.089	5630
825.228	5634
825.368	5402
825.508	5341
825.648	5395
825.787	5421
825.927	5387
826.067	5258
826.206	5345
826.346	5391
826.485	5402
826.625	5379
826.765	5585
826.904	5444
827.044	5246
827.183	5204
827.323	5178
827.462	5280
827.601	5162
827.741	5231
827.88	5231
828.02	5098
828.159	5273
828.298	5288
828.437	5398
828.577	5296
828.716	5448
828.855	5322
828.994	5197
829.134	5166
829.273	5212
829.412	5147
829.551	5174
829.69	5143
829.829	5227
829.968	5345
830.107	5288
830.246	5292
830.385	5212
830.524	5132
830.663	5098
830.802	4976
830.941	4885
831.08	4927
831.219	5025
831.357	4957
831.496	5178
831.635	4991
831.774	4873
831.913	4790
832.051	4744
832.19	4797
832.329	4858
832.467	4691
832.606	4611
832.744	4778
832.883	4714
833.022	4744
833.16	4786
833.299	4896
833.437	4835
833.576	4843
833.714	4831
833.852	4858
833.991	4896
834.129	4946
834.267	4934
834.406	4915
834.544	4984
834.682	4987
834.821	4991
834.959	5174
835.097	4987
835.235	5143
835.373	5147
835.511	5128
835.65	5094
835.788	5094
835.926	4854
836.064	4896
836.202	4942
836.34	5155
836.478	5288
836.615	5067
836.753	5223
836.891	5284
837.029	5261
837.167	5189
837.305	5170
837.443	5155
837.58	5147
837.718	5318
837.856	5235
837.993	5170
838.131	5242
838.269	5258
838.406	5204
838.544	5212
838.681	4987
838.819	5014
838.956	4911
839.094	4927
839.231	4965
839.369	5067
839.506	5414
839.643	5258
839.781	5079
839.918	4999
840.055	5083
840.193	5124
840.33	5098
840.467	5151
840.604	5185
840.742	5433
840.879	5098
841.016	5136
841.153	5166
841.29	5360
841.427	5349
841.564	5307
841.701	5303
841.838	5273
841.975	5280
842.112	5315
842.249	5208
842.385	5090
842.522	5277
842.659	5181
842.796	5155
842.933	5189
843.069	5109
843.206	5162
843.343	5246
843.479	5242
843.616	5269
843.752	5064
843.889	5025
844.025	5208
844.162	5037
844.298	5185
844.435	5067
844.571	5018
844.708	5239
844.844	5303
844.98	5349
845.117	5273
845.253	5185
845.389	5064
845.525	5159
845.661	5166
845.798	4999
845.934	5132
846.07	5052
846.206	5220
846.342	5269
846.478	5193
846.614	5010
846.75	4965
846.886	4976
847.022	5162
847.158	4965
847.294	5075
847.429	5109
847.565	5056
847.701	5318
847.837	4877
847.972	4816
848.108	4927
848.244	4968
848.379	4831
848.515	4736
848.65	4755
848.786	4736
848.921	4778
849.057	4904
849.192	4908
849.328	4820
849.463	4835
849.598	4816
849.734	4793
849.869	4687
850.004	4645
850.14	4668
850.275	4649
850.41	4554
850.545	4596
850.68	4588
850.815	4618
850.95	4649
851.085	4850
851.22	4786
851.355	4664
851.49	4630
851.625	4626
851.76	4630
851.895	4573
852.03	4504
852.165	4641
852.299	4637
852.434	4801
852.569	4721
852.703	4763
852.838	4812
852.973	4972
853.107	4949
853.242	4729
853.376	4691
853.511	4523
853.645	4649
853.78	4797
853.914	4721
854.048	4668
854.183	4645
854.317	4748
854.451	4854
854.585	4691
854.72	4649
854.854	4759
854.988	4592
855.122	4630
855.256	4554
855.39	4672
855.524	4767
855.658	4691
855.792	4778
855.926	4664
856.06	4767
856.194	4797
856.327	4687
856.461	4630
856.595	4622
856.729	4615
856.862	4736
856.996	4672
857.13	4706
857.263	4820
857.397	4847
857.53	4664
857.664	4656
857.797	4759
857.931	4759
858.064	4771
858.197	4755
858.331	4675
858.464	4634
858.597	4565
858.731	4649
858.864	4618
858.997	4645
859.13	4656
859.263	4649
859.396	4672
859.529	4630
859.662	4546
859.795	4569
859.928	4607
860.061	4755
860.194	4771
860.327	4584
860.46	4607
860.592	4733
860.725	4717
860.858	4774
860.99	4561
861.123	4478
861.256	4512
861.388	4618
861.521	5395
861.653	4516
861.786	4421
861.918	4421
862.05	4519
862.183	4558
862.315	4596
862.447	4664
862.58	4592
862.712	4424
862.844	4360
862.976	4470
863.108	4474
863.24	4790
863.372	4348
863.504	4421
863.636	4436
863.768	4462
863.9	4443
864.032	4371
864.164	4436
864.296	4455
864.428	4573
864.559	4569
864.691	4485
864.823	4474
864.954	4493
865.086	4508
865.217	4500
865.349	4455
865.48	4474
865.612	4485
865.743	4626
865.875	4455
866.006	4413
866.137	4398
866.269	4470
866.4	4402
866.531	4402
866.662	4417
866.793	4436
866.924	4417
867.055	4455
867.186	4455
867.317	4405
867.448	4367
867.579	4424
867.71	4424
867.841	4375
867.972	4489
868.103	4470
868.233	4500
868.364	4478
868.495	4500
868.625	4672
868.756	4771
868.886	4592
869.017	4599
869.147	4801
869.278	4782
869.408	4653
869.539	4714
869.669	4694
869.799	4679
869.929	4763
870.06	4782
870.19	4892
870.32	4911
870.45	4938
870.58	4987
870.71	5067
870.84	5121
870.97	4949
871.1	4839
871.23	5162
871.36	5105
871.489	5045
871.619	5060
871.749	5109
871.879	5132
872.008	5174
872.138	5064
872.267	4991
872.397	4873
872.526	4828
872.656	4721
872.785	4736
872.915	4968
873.044	5018
873.173	4949
873.303	4919
873.432	4987
873.561	4976
873.69	4881
873.819	4896
873.948	4900
874.077	4854
874.206	4793
874.335	4809
874.464	4934
874.593	5064
874.722	4999
874.851	5094
874.979	5083
875.108	5045
875.237	4946
875.365	4866
875.494	4866
875.623	4946
875.751	4870
875.88	4881
876.008	4972
876.136	4984
876.265	5246
876.393	5330
876.521	5231
876.65	5220
876.778	5212
876.906	5048
877.034	5014
877.162	5037
877.29	5006
877.418	5022
877.546	5052
877.674	5098
877.802	5033
877.93	4984
878.058	4927
878.185	4854
878.313	4911
878.441	4946
878.568	4797
878.696	4908
878.824	4965
878.951	4908
879.079	5136
879.206	5299
879.333	5128
879.461	4984
879.588	4965
879.715	5178
879.842	5204
879.97	4965
880.097	4774
880.224	4759
880.351	4812
880.478	4858
880.605	4778
880.732	4763
880.859	5064
880.986	4885
881.112	4934
881.239	4805
881.366	4717
881.493	4641
881.619	4622
881.746	4653
881.872	4622
881.999	4645
882.125	4664
882.252	4805
882.378	4847
882.505	4999
882.631	4805
882.757	4637
882.883	4736
883.01	4740
883.136	4691
883.262	4622
883.388	4603
883.514	4839
883.64	4873
883.766	4816
883.892	4622
884.018	4702
884.143	4900
884.269	5056
884.395	4698
884.52	4607
884.646	4668
884.772	4634
884.897	4584
885.023	4660
885.148	4793
885.274	4858
885.399	4835
885.524	4694
885.65	4733
885.775	4740
885.9	4694
886.025	4839
886.15	4812
886.275	4702
886.4	4683
886.525	4714
886.65	4721
886.775	4683
886.9	4904
887.025	5075
887.149	4816
887.274	4679
887.399	4603
887.523	4611
887.648	4592
887.773	4630
887.897	4805
888.021	4748
888.146	4679
888.27	4797
888.395	4866
888.519	4797
888.643	4812
888.767	4809
888.891	4679
889.015	4596
889.139	4653
889.263	4660
889.387	4771
889.511	4843
889.635	4801
889.759	4653
889.883	4630
890.006	4714
890.13	4809
890.254	4630
890.377	4672
890.501	4516
890.624	4523
890.748	4641
890.871	4531
890.995	4474
891.118	4405
891.241	4577
891.364	4561
891.488	4634
891.611	4519
891.734	4527
891.857	4607
891.98	4542
892.103	4599
892.226	4565
892.349	4512
892.471	4451
892.594	4584
892.717	4664
892.839	4554
892.962	4596
893.085	4656
893.207	4611
893.33	4470
893.452	4573
893.575	4714
893.697	4569
893.819	4797
893.941	4812
894.064	4778
894.186	4618
894.308	4554
894.43	4702
894.552	4812
894.674	4759
894.796	4550
894.918	4615
895.04	4554
895.161	4725
895.283	4664
895.405	4573
895.526	4641
895.648	4694
895.769	4759
895.891	4736
896.012	4759
896.134	4744
896.255	4687
896.376	4656
896.498	4641
896.619	4679
896.74	4611
896.861	4637
896.982	4927
897.103	5117
897.224	4816
897.345	4744
897.466	4694
897.587	4755
897.708	4847
897.828	4790
897.949	4660
898.07	4546
898.19	4641
898.311	4805
898.431	4672
898.552	4694
898.672	4812
898.792	4820
898.913	4748
899.033	4660
899.153	4497
899.273	4459
899.393	4504
899.513	4573
899.633	4550
899.753	4508
899.873	4493
899.993	4531
900.113	4546
900.232	4599
900.352	4550
900.472	4504
900.591	4356
900.711	4489
900.83	4428
900.95	4668
901.069	4679
901.189	4554
901.308	4344
901.427	4322
901.546	4363
901.665	4424
901.784	4470
901.904	4352
902.023	4333
902.141	4227
902.26	4143
902.379	4314
902.498	4257
902.617	4227
902.735	4356
902.854	4447
902.973	4367
903.091	4223
903.21	4249
903.328	4257
903.446	4299
903.565	4253
903.683	4417
903.801	4265
903.919	4405
904.038	4424
904.156	4329
904.274	4440
904.392	4409
904.51	4424
904.627	4527
904.745	4622
904.863	4637
904.981	4436
905.098	4261
905.216	4405
905.334	4428
905.451	4459
905.569	4462
905.686	4565
905.803	4546
905.921	4428
906.038	4588
906.155	4535
906.272	4379
906.389	4466
906.506	4341
906.623	4352
906.74	4363
906.857	4295
906.974	4402
907.091	4531
907.208	4668
907.324	4535
907.441	4489
907.557	4348
907.674	4287
907.79	4295
907.907	4405
908.023	4512
908.139	4462
908.256	4424
908.372	4478
908.488	4394
908.604	4341
908.72	4306
908.836	4405
908.952	4413
909.068	4405
909.184	4577
909.3	4500
909.415	4588
909.531	4565
909.647	4383
909.762	4398
909.878	4379
909.993	4421
910.108	4417
910.224	4485
910.339	4481
910.454	4440
910.57	4375
910.685	4303
910.8	4630
910.915	4641
911.03	4512
911.145	4337
911.259	4325
911.374	4379
911.489	4291
911.604	4348
911.718	4177
911.833	4185
911.947	4086
912.062	4078
912.176	4230
912.291	4253
912.405	4219
912.519	4443
912.633	4493
912.748	4409
912.862	4268
912.976	4166
913.09	4074
913.204	4219
913.318	4249
913.431	4413
913.545	4360
913.659	4402
913.772	4371
913.886	4219
914	4227
914.113	4390
914.226	4424
914.34	4379
914.453	4211
914.566	4421
914.68	4310
914.793	4318
914.906	4166
915.019	4128
915.132	4074
915.245	4204
915.358	4246
915.47	4238
915.583	4276
915.696	4325
915.809	4398
915.921	4428
916.034	4287
916.146	4261
916.259	4215
916.371	4383
916.483	4371
916.595	4246
916.708	4329
916.82	4291
916.932	4341
917.044	4322
917.156	4322
917.268	4219
917.38	4219
917.491	4238
917.603	4341
917.715	4386
917.826	4451
917.938	4318
918.049	4215
918.161	4421
918.272	4531
918.384	4538
918.495	4447
918.606	4303
918.717	4227
918.828	4379
918.939	4363
919.05	4284
919.161	4306
919.272	4124
919.383	4188
919.494	4440
919.604	4649
919.715	4405
919.826	4344
919.936	4383
920.047	4470
920.157	4497
920.267	4687
920.378	4565
920.488	4466
920.598	4698
920.708	4870
920.818	4748
920.928	4752
921.038	4923
921.148	4942
921.258	4615
921.368	4584
921.477	4489
921.587	4466
921.697	4367
921.806	4519
921.916	4455
922.025	4295
922.134	4234
922.244	4246
922.353	4333
922.462	4154
922.571	4116
922.68	4036
922.789	3949
922.898	3964
923.007	4025
923.116	4147
923.224	4063
923.333	4078
923.442	4013
923.55	3956
923.659	4036
923.767	4131
923.876	3998
923.984	4086
924.092	4025
924.201	4086
924.309	4097
924.417	4090
924.525	4044
924.633	4120
924.741	4870
924.849	3899
924.956	4116
925.064	3968
925.172	3934
925.279	4006
925.387	4051
925.494	4036
925.602	4207
925.709	4219
925.816	4032
925.924	4147
926.031	4249
926.138	4215
926.245	4246
926.352	4093
926.459	4211
926.566	4333
926.673	4204
926.779	4147
926.886	4128
926.993	3991
927.099	3956
927.206	3903
927.312	4010
927.419	4040
927.525	4051
927.631	4120
927.737	3960
927.843	3945
927.95	3884
928.056	3922
928.162	4002
928.267	4086
928.373	4630
928.479	4120
928.585	3884
928.69	3994
928.796	4086
928.901	3975
929.007	3873
929.112	4029
929.218	3949
929.323	3945
929.428	3945
929.533	4128
929.638	3926
929.743	3975
929.848	4025
929.953	4048
930.058	3880
930.163	3762
930.267	3797
930.372	3945
930.477	3831
930.581	4071
930.685	3956
930.79	3835
930.894	3915
930.998	3873
931.103	4090
931.207	3728
931.311	3682
931.415	3694
931.519	3496
931.623	3553
