Data from test_V78500241_2368.txt Node
Date: Fri Mar 25 17:05:28 CST 2022
User: usil
Spectrometer: V785-0024
Trigger mode: 0
Integration Time (sec): 4.000000E-1
Scans to average: 1
Nonlinearity correction enabled: false
Boxcar width: 0
Storing dark spectrum: false
XAxis mode: Wavelengths
Number of Pixels in Spectrum: 1024
>>>>>Begin Spectral Data<<<<<
801.071	8046
801.214	7917
801.356	7902
801.499	7887
801.641	7765
801.783	7883
801.926	7974
802.068	8005
802.211	8005
802.353	7989
802.496	7928
802.638	7898
802.78	7906
802.923	7913
803.065	7833
803.208	7883
803.35	8058
803.492	8096
803.635	8130
803.777	8039
803.919	8187
804.061	8393
804.204	8142
804.346	8077
804.488	8024
804.63	8065
804.773	8024
804.915	8180
805.057	8336
805.199	8134
805.341	8164
805.483	8317
805.626	8172
805.768	8180
805.91	8183
806.052	8229
806.194	8115
806.336	8309
806.478	8107
806.62	8119
806.762	8138
806.904	8282
807.046	8457
807.188	8377
807.33	8275
807.472	8305
807.614	8210
807.756	8164
807.898	8020
808.04	7902
808.182	7940
808.324	7887
808.465	7913
808.607	8088
808.749	8134
808.891	8275
809.033	8286
809.174	8221
809.316	8119
809.458	8092
809.6	8058
809.741	8050
809.883	8065
810.025	8145
810.166	8111
810.308	8062
810.45	7970
810.591	7871
810.733	7757
810.875	7666
811.016	7529
811.158	7521
811.299	7586
811.441	7696
811.582	7727
811.724	7537
811.865	7537
812.007	7624
812.148	7563
812.29	7674
812.431	7811
812.573	7936
812.714	7974
812.855	8172
812.997	8237
813.138	8305
813.279	8210
813.421	8107
813.562	7997
813.703	7826
813.845	7742
813.986	7502
814.127	7225
814.268	7152
814.41	7202
814.551	7175
814.692	7244
814.833	7114
814.974	7129
815.115	7137
815.256	6989
815.397	6863
815.539	6901
815.68	6840
815.821	6802
815.962	6913
816.103	6833
816.244	6726
816.385	6642
816.526	6604
816.666	6544
816.807	6338
816.948	6494
817.089	6494
817.23	6467
817.371	6372
817.512	6418
817.653	6426
817.793	6338
817.934	6452
818.075	6464
818.216	6486
818.356	6441
818.497	6289
818.638	6171
818.778	6167
818.919	6186
819.06	6243
819.2	6365
819.341	6350
819.481	6414
819.622	6566
819.762	6722
819.903	6738
820.043	6597
820.184	6547
820.324	6559
820.465	6715
820.605	6700
820.746	6635
820.886	6563
821.026	6677
821.167	6791
821.307	6840
821.447	6757
821.588	6700
821.728	6627
821.868	6551
822.008	6407
822.149	6410
822.289	6407
822.429	6129
822.569	6140
822.709	6125
822.849	5996
822.99	5920
823.13	5954
823.27	5904
823.41	5821
823.55	5821
823.69	5771
823.83	5756
823.97	5623
824.11	5528
824.25	5486
824.389	5547
824.529	5642
824.669	5532
824.809	5684
824.949	5642
825.089	5596
825.228	5551
825.368	5402
825.508	5357
825.648	5402
825.787	5349
825.927	5376
826.067	5280
826.206	5280
826.346	5326
826.485	5391
826.625	5425
826.765	5509
826.904	5486
827.044	5273
827.183	5178
827.323	5132
827.462	5216
827.601	5216
827.741	5185
827.88	5216
828.02	5121
828.159	5227
828.298	5307
828.437	5391
828.577	5273
828.716	5467
828.855	5265
828.994	5212
829.134	5166
829.273	5197
829.412	5147
829.551	5140
829.69	5159
829.829	5242
829.968	5395
830.107	5254
830.246	5246
830.385	5204
830.524	5178
830.663	5079
830.802	4991
830.941	4854
831.08	4892
831.219	4957
831.357	4995
831.496	5117
831.635	4953
831.774	4862
831.913	4835
832.051	4721
832.19	4752
832.329	4812
832.467	4717
832.606	4630
832.744	4725
832.883	4752
833.022	4698
833.16	4824
833.299	4870
833.437	4858
833.576	4877
833.714	4904
833.852	4854
833.991	4900
834.129	4949
834.267	4972
834.406	4946
834.544	4968
834.682	4934
834.821	4987
834.959	5189
835.097	4965
835.235	5162
835.373	5041
835.511	5151
835.65	5003
835.788	5033
835.926	4862
836.064	4831
836.202	4984
836.34	5151
836.478	5223
836.615	5105
836.753	5174
836.891	5303
837.029	5265
837.167	5273
837.305	5124
837.443	5151
837.58	5094
837.718	5231
837.856	5235
837.993	5113
838.131	5246
838.269	5231
838.406	5201
838.544	5181
838.681	5029
838.819	4984
838.956	4900
839.094	4930
839.231	4980
839.369	5083
839.506	5448
839.643	5258
839.781	5113
839.918	5018
840.055	5109
840.193	5060
840.33	5117
840.467	5136
840.604	5216
840.742	5478
840.879	5090
841.016	5105
841.153	5132
841.29	5368
841.427	5379
841.564	5318
841.701	5341
841.838	5269
841.975	5250
842.112	5277
842.249	5193
842.385	5094
842.522	5360
842.659	5166
842.796	5136
842.933	5124
843.069	5189
843.206	5121
843.343	5334
843.479	5216
843.616	5284
843.752	5048
843.889	5003
844.025	5151
844.162	5064
844.298	5269
844.435	5143
844.571	5033
844.708	5258
844.844	5277
844.98	5360
845.117	5368
845.253	5170
845.389	5105
845.525	5121
845.661	5143
845.798	5064
845.934	5143
846.07	5052
846.206	5220
846.342	5254
846.478	5204
846.614	5033
846.75	4987
846.886	4972
847.022	5147
847.158	5052
847.294	5086
847.429	5151
847.565	5033
847.701	5311
847.837	4862
847.972	4790
848.108	4968
848.244	4949
848.379	4816
848.515	4744
848.65	4782
848.786	4729
848.921	4767
849.057	4839
849.192	4904
849.328	4854
849.463	4847
849.598	4793
849.734	4771
849.869	4683
850.004	4649
850.14	4721
850.275	4634
850.41	4512
850.545	4527
850.68	4565
850.815	4599
850.95	4641
851.085	4759
851.22	4733
851.355	4675
851.49	4622
851.625	4630
851.76	4611
851.895	4577
852.03	4538
852.165	4653
852.299	4744
852.434	4744
852.569	4771
852.703	4782
852.838	4862
852.973	4930
853.107	4949
853.242	4706
853.376	4634
853.511	4523
853.645	4607
853.78	4858
853.914	4691
854.048	4660
854.183	4622
854.317	4694
854.451	4862
854.585	4664
854.72	4672
854.854	4744
854.988	4603
855.122	4645
855.256	4500
855.39	4637
855.524	4790
855.658	4729
855.792	4668
855.926	4717
856.06	4752
856.194	4778
856.327	4721
856.461	4596
856.595	4615
856.729	4634
856.862	4698
856.996	4672
857.13	4702
857.263	4767
857.397	4763
857.53	4626
857.664	4717
857.797	4717
857.931	4774
858.064	4668
858.197	4744
858.331	4649
858.464	4618
858.597	4554
858.731	4641
858.864	4603
858.997	4622
859.13	4675
859.263	4717
859.396	4672
859.529	4577
859.662	4615
859.795	4546
859.928	4634
860.061	4721
860.194	4733
860.327	4607
860.46	4516
860.592	4729
860.725	4683
860.858	4717
860.99	4561
861.123	4504
861.256	4546
861.388	4592
861.521	5303
861.653	4474
861.786	4443
861.918	4443
862.05	4519
862.183	4573
862.315	4630
862.447	4649
862.58	4542
862.712	4390
862.844	4341
862.976	4440
863.108	4478
863.24	4862
863.372	4356
863.504	4417
863.636	4398
863.768	4455
863.9	4421
864.032	4337
864.164	4383
864.296	4451
864.428	4580
864.559	4523
864.691	4519
864.823	4512
864.954	4459
865.086	4546
865.217	4500
865.349	4386
865.48	4451
865.612	4516
865.743	4649
865.875	4459
866.006	4424
866.137	4466
866.269	4466
866.4	4432
866.531	4424
866.662	4367
866.793	4360
866.924	4424
867.055	4500
867.186	4436
867.317	4447
867.448	4356
867.579	4402
867.71	4348
867.841	4360
867.972	4455
868.103	4432
868.233	4413
868.364	4443
868.495	4474
868.625	4668
868.756	4740
868.886	4577
869.017	4645
869.147	4748
869.278	4805
869.408	4687
869.539	4645
869.669	4679
869.799	4660
869.929	4793
870.06	4706
870.19	4923
870.32	4847
870.45	4911
870.58	5067
870.71	5178
870.84	5102
870.97	4972
871.1	4896
871.23	5064
871.36	5098
871.489	5022
871.619	5105
871.749	5083
871.879	5090
872.008	5151
872.138	5045
872.267	4949
872.397	4873
872.526	4820
872.656	4717
872.785	4839
872.915	4949
873.044	5041
873.173	4946
873.303	4976
873.432	4889
873.561	4976
873.69	4847
873.819	4847
873.948	4934
874.077	4850
874.206	4782
874.335	4778
874.464	4892
874.593	5052
874.722	4911
874.851	5105
874.979	5029
875.108	5029
875.237	4949
875.365	4870
875.494	4877
875.623	4976
875.751	4816
875.88	4866
876.008	4965
876.136	5056
876.265	5174
876.393	5353
876.521	5269
876.65	5227
876.778	5193
876.906	5109
877.034	5064
877.162	5086
877.29	4972
877.418	5056
877.546	5067
877.674	5029
877.802	5052
877.93	5022
878.058	4919
878.185	4877
878.313	4976
878.441	4980
878.568	4835
878.696	4923
878.824	4949
878.951	5003
879.079	5105
879.206	5246
879.333	5132
879.461	4972
879.588	5006
879.715	5090
879.842	5231
879.97	4995
880.097	4828
880.224	4721
880.351	4793
880.478	4771
880.605	4782
880.732	4744
880.859	5094
880.986	4850
881.112	4904
881.239	4755
881.366	4664
881.493	4615
881.619	4611
881.746	4618
881.872	4668
881.999	4687
882.125	4668
882.252	4831
882.378	4809
882.505	4949
882.631	4801
882.757	4694
882.883	4748
883.01	4691
883.136	4683
883.262	4592
883.388	4637
883.514	4858
883.64	4908
883.766	4828
883.892	4641
884.018	4717
884.143	4866
884.269	4987
884.395	4698
884.52	4615
884.646	4634
884.772	4554
884.897	4531
885.023	4698
885.148	4786
885.274	4843
885.399	4797
885.524	4744
885.65	4702
885.775	4736
885.9	4679
886.025	4850
886.15	4793
886.275	4733
886.4	4660
886.525	4786
886.65	4702
886.775	4664
886.9	4927
887.025	5029
887.149	4763
887.274	4649
887.399	4561
887.523	4573
887.648	4603
887.773	4599
887.897	4774
888.021	4778
888.146	4683
888.27	4839
888.395	4885
888.519	4786
888.643	4847
888.767	4771
888.891	4725
889.015	4580
889.139	4672
889.263	4615
889.387	4702
889.511	4831
889.635	4774
889.759	4691
889.883	4634
890.006	4725
890.13	4824
890.254	4592
890.377	4691
890.501	4546
890.624	4542
890.748	4664
890.871	4462
890.995	4443
891.118	4383
891.241	4531
891.364	4523
891.488	4611
891.611	4512
891.734	4558
891.857	4603
891.98	4607
892.103	4645
892.226	4649
892.349	4554
892.471	4447
892.594	4538
892.717	4611
892.839	4558
892.962	4592
893.085	4687
893.207	4580
893.33	4443
893.452	4561
893.575	4656
893.697	4565
893.819	4778
893.941	4809
894.064	4805
894.186	4577
894.308	4592
894.43	4736
894.552	4782
894.674	4763
894.796	4569
894.918	4630
895.04	4542
895.161	4714
895.283	4645
895.405	4603
895.526	4634
895.648	4672
895.769	4645
895.891	4725
896.012	4778
896.134	4729
896.255	4660
896.376	4656
896.498	4653
896.619	4672
896.74	4596
896.861	4653
896.982	4915
897.103	5052
897.224	4862
897.345	4752
897.466	4660
897.587	4714
897.708	4896
897.828	4744
897.949	4653
898.07	4561
898.19	4607
898.311	4820
898.431	4660
898.552	4759
898.672	4850
898.792	4809
898.913	4740
899.033	4592
899.153	4584
899.273	4451
899.393	4516
899.513	4508
899.633	4558
899.753	4523
899.873	4516
899.993	4584
900.113	4569
900.232	4577
900.352	4519
900.472	4489
900.591	4383
900.711	4493
900.83	4455
900.95	4626
901.069	4694
901.189	4565
901.308	4348
901.427	4291
901.546	4360
901.665	4443
901.784	4535
901.904	4405
902.023	4314
902.141	4200
902.26	4196
902.379	4299
902.498	4287
902.617	4215
902.735	4409
902.854	4409
902.973	4356
903.091	4181
903.21	4219
903.328	4272
903.446	4242
903.565	4280
903.683	4337
903.801	4265
903.919	4409
904.038	4428
904.156	4337
904.274	4443
904.392	4428
904.51	4455
904.627	4451
904.745	4573
904.863	4615
904.981	4394
905.098	4238
905.216	4383
905.334	4447
905.451	4390
905.569	4459
905.686	4546
905.803	4565
905.921	4443
906.038	4535
906.155	4493
906.272	4375
906.389	4497
906.506	4344
906.623	4402
906.74	4398
906.857	4280
906.974	4352
907.091	4588
907.208	4683
907.324	4596
907.441	4466
907.557	4341
907.674	4356
907.79	4371
907.907	4413
908.023	4500
908.139	4497
908.256	4455
908.372	4451
908.488	4504
908.604	4341
908.72	4272
908.836	4398
908.952	4390
909.068	4417
909.184	4561
909.3	4478
909.415	4542
909.531	4580
909.647	4367
909.762	4318
909.878	4341
909.993	4428
910.108	4409
910.224	4390
910.339	4493
910.454	4402
910.57	4322
910.685	4325
910.8	4645
910.915	4565
911.03	4455
911.145	4322
911.259	4329
911.374	4405
911.489	4303
911.604	4291
911.718	4147
911.833	4215
911.947	4093
912.062	4044
912.176	4200
912.291	4276
912.405	4253
912.519	4459
912.633	4504
912.748	4348
912.862	4310
912.976	4227
913.09	4048
913.204	4116
913.318	4238
913.431	4383
913.545	4363
913.659	4436
913.772	4333
913.886	4234
914	4257
914.113	4432
914.226	4462
914.34	4375
914.453	4227
914.566	4428
914.68	4344
914.793	4310
914.906	4143
915.019	4109
915.132	4040
915.245	4169
915.358	4238
915.47	4200
915.583	4280
915.696	4306
915.809	4390
915.921	4424
916.034	4253
916.146	4242
916.259	4223
916.371	4356
916.483	4367
916.595	4299
916.708	4310
916.82	4314
916.932	4322
917.044	4333
917.156	4325
917.268	4242
917.38	4265
917.491	4284
917.603	4337
917.715	4398
917.826	4440
917.938	4314
918.049	4227
918.161	4394
918.272	4550
918.384	4550
918.495	4443
918.606	4253
918.717	4257
918.828	4314
918.939	4383
919.05	4234
919.161	4306
919.272	4158
919.383	4207
919.494	4462
919.604	4607
919.715	4386
919.826	4367
919.936	4413
920.047	4489
920.157	4504
920.267	4725
920.378	4497
920.488	4527
920.598	4729
920.708	4934
920.818	4816
920.928	4748
921.038	4938
921.148	4949
921.258	4607
921.368	4592
921.477	4516
921.587	4470
921.697	4383
921.806	4561
921.916	4436
922.025	4238
922.134	4268
922.244	4230
922.353	4348
922.462	4158
922.571	4147
922.68	4032
922.789	3975
922.898	4048
923.007	3983
923.116	4063
923.224	4071
923.333	4093
923.442	3998
923.55	3941
923.659	4006
923.767	4097
923.876	4002
923.984	4116
924.092	3956
924.201	4055
924.309	4074
924.417	4086
924.525	4029
924.633	4078
924.741	5064
924.849	3945
924.956	4124
925.064	3934
925.172	3896
925.279	3953
925.387	4071
925.494	4067
925.602	4204
925.709	4177
925.816	4044
925.924	4131
926.031	4215
926.138	4169
926.245	4227
926.352	4097
926.459	4257
926.566	4265
926.673	4173
926.779	4109
926.886	4120
926.993	3975
927.099	3956
927.206	3937
927.312	3953
927.419	4051
927.525	3979
927.631	4109
927.737	3968
927.843	3945
927.95	3800
928.056	3956
928.162	3991
928.267	4059
928.373	4577
928.479	4109
928.585	3888
928.69	4006
928.796	4059
928.901	3979
929.007	3808
929.112	4006
929.218	3949
929.323	3934
929.428	3960
929.533	4063
929.638	3880
929.743	3934
929.848	4044
929.953	3983
930.058	3956
930.163	3762
930.267	3816
930.372	3964
930.477	3755
930.581	4082
930.685	3987
930.79	3838
930.894	3888
930.998	3812
931.103	4021
931.207	3728
931.311	3713
931.415	3652
931.519	3545
931.623	3542
