Data from test_V78500241_1634.txt Node
Date: Fri Mar 25 17:00:21 CST 2022
User: usil
Spectrometer: V785-0024
Trigger mode: 0
Integration Time (sec): 4.000000E-1
Scans to average: 1
Nonlinearity correction enabled: false
Boxcar width: 0
Storing dark spectrum: false
XAxis mode: Wavelengths
Number of Pixels in Spectrum: 1024
>>>>>Begin Spectral Data<<<<<
801.071	7913
801.214	8054
801.356	7849
801.499	7841
801.641	7852
801.783	7822
801.926	7932
802.068	7936
802.211	8016
802.353	8016
802.496	7841
802.638	7879
802.78	7932
802.923	7936
803.065	7883
803.208	7852
803.35	8050
803.492	8088
803.635	8123
803.777	8016
803.919	8130
804.061	8412
804.204	8149
804.346	8054
804.488	8031
804.63	8103
804.773	8005
804.915	8123
805.057	8332
805.199	8191
805.341	8180
805.483	8199
805.626	8225
805.768	8115
805.91	8161
806.052	8172
806.194	8100
806.336	8259
806.478	8073
806.62	8077
806.762	8130
806.904	8244
807.046	8495
807.188	8370
807.33	8233
807.472	8267
807.614	8206
807.756	8191
807.898	7944
808.04	7894
808.182	7898
808.324	7868
808.465	7967
808.607	8008
808.749	8107
808.891	8263
809.033	8301
809.174	8294
809.316	8012
809.458	8020
809.6	7989
809.741	8062
809.883	7989
810.025	8065
810.166	8069
810.308	8001
810.45	8024
810.591	7818
810.733	7750
810.875	7605
811.016	7499
811.158	7419
811.299	7556
811.441	7674
811.582	7662
811.724	7540
811.865	7518
812.007	7552
812.148	7616
812.29	7639
812.431	7738
812.573	7879
812.714	8008
812.855	8119
812.997	8123
813.138	8294
813.279	8138
813.421	8145
813.562	7993
813.703	7765
813.845	7693
813.986	7377
814.127	7228
814.268	7187
814.41	7168
814.551	7213
814.692	7171
814.833	7057
814.974	7118
815.115	7137
815.256	6973
815.397	6962
815.539	6970
815.68	6840
815.821	6753
815.962	6818
816.103	6844
816.244	6669
816.385	6616
816.526	6620
816.666	6490
816.807	6273
816.948	6452
817.089	6475
817.23	6456
817.371	6323
817.512	6357
817.653	6399
817.793	6331
817.934	6319
818.075	6483
818.216	6410
818.356	6429
818.497	6266
818.638	6136
818.778	6186
818.919	6140
819.06	6159
819.2	6342
819.341	6315
819.481	6391
819.622	6532
819.762	6745
819.903	6688
820.043	6627
820.184	6597
820.324	6601
820.465	6722
820.605	6703
820.746	6601
820.886	6555
821.026	6620
821.167	6726
821.307	6795
821.447	6818
821.588	6662
821.728	6536
821.868	6528
822.008	6395
822.149	6365
822.289	6391
822.429	6159
822.569	6110
822.709	6167
822.849	5942
822.99	5901
823.13	5889
823.27	5889
823.41	5805
823.55	5817
823.69	5813
823.83	5809
823.97	5714
824.11	5577
824.25	5554
824.389	5646
824.529	5611
824.669	5551
824.809	5703
824.949	5699
825.089	5703
825.228	5592
825.368	5379
825.508	5383
825.648	5376
825.787	5421
825.927	5414
826.067	5353
826.206	5322
826.346	5452
826.485	5444
826.625	5395
826.765	5554
826.904	5539
827.044	5299
827.183	5269
827.323	5212
827.462	5261
827.601	5208
827.741	5185
827.88	5265
828.02	5151
828.159	5269
828.298	5341
828.437	5436
828.577	5299
828.716	5486
828.855	5326
828.994	5216
829.134	5181
829.273	5258
829.412	5166
829.551	5189
829.69	5223
829.829	5261
829.968	5387
830.107	5303
830.246	5296
830.385	5242
830.524	5193
830.663	5086
830.802	4984
830.941	4904
831.08	4938
831.219	5067
831.357	5014
831.496	5223
831.635	4953
831.774	4915
831.913	4911
832.051	4809
832.19	4755
832.329	4911
832.467	4733
832.606	4634
832.744	4744
832.883	4736
833.022	4725
833.16	4782
833.299	4843
833.437	4850
833.576	4896
833.714	4930
833.852	4904
833.991	4915
834.129	4968
834.267	4961
834.406	4934
834.544	5003
834.682	4961
834.821	4957
834.959	5242
835.097	5071
835.235	5178
835.373	5147
835.511	5151
835.65	5045
835.788	5010
835.926	4896
836.064	4885
836.202	4968
836.34	5174
836.478	5265
836.615	5174
836.753	5170
836.891	5341
837.029	5292
837.167	5220
837.305	5189
837.443	5155
837.58	5105
837.718	5258
837.856	5174
837.993	5140
838.131	5265
838.269	5208
838.406	5220
838.544	5201
838.681	5094
838.819	5033
838.956	4919
839.094	4892
839.231	5014
839.369	5090
839.506	5421
839.643	5284
839.781	5105
839.918	5071
840.055	5132
840.193	5090
840.33	5132
840.467	5140
840.604	5151
840.742	5425
840.879	5117
841.016	5098
841.153	5189
841.29	5414
841.427	5315
841.564	5345
841.701	5372
841.838	5292
841.975	5231
842.112	5273
842.249	5166
842.385	5159
842.522	5345
842.659	5239
842.796	5162
842.933	5227
843.069	5159
843.206	5185
843.343	5292
843.479	5269
843.616	5280
843.752	5083
843.889	5075
844.025	5204
844.162	5014
844.298	5250
844.435	5105
844.571	5079
844.708	5181
844.844	5299
844.98	5376
845.117	5372
845.253	5170
845.389	5102
845.525	5185
845.661	5151
845.798	4987
845.934	5220
846.07	5094
846.206	5193
846.342	5311
846.478	5166
846.614	5041
846.75	4965
846.886	4976
847.022	5140
847.158	5052
847.294	5124
847.429	5140
847.565	5045
847.701	5383
847.837	4904
847.972	4835
848.108	4991
848.244	4957
848.379	4809
848.515	4691
848.65	4736
848.786	4755
848.921	4805
849.057	4908
849.192	4881
849.328	4839
849.463	4862
849.598	4873
849.734	4835
849.869	4694
850.004	4687
850.14	4702
850.275	4615
850.41	4615
850.545	4565
850.68	4649
850.815	4615
850.95	4622
851.085	4812
851.22	4740
851.355	4675
851.49	4698
851.625	4637
851.76	4675
851.895	4603
852.03	4538
852.165	4668
852.299	4755
852.434	4786
852.569	4782
852.703	4782
852.838	4877
852.973	4953
853.107	4946
853.242	4736
853.376	4729
853.511	4565
853.645	4596
853.78	4839
853.914	4733
854.048	4687
854.183	4683
854.317	4736
854.451	4885
854.585	4679
854.72	4656
854.854	4736
854.988	4607
855.122	4660
855.256	4538
855.39	4691
855.524	4767
855.658	4752
855.792	4710
855.926	4740
856.06	4786
856.194	4881
856.327	4717
856.461	4626
856.595	4653
856.729	4607
856.862	4771
856.996	4725
857.13	4729
857.263	4752
857.397	4809
857.53	4675
857.664	4744
857.797	4733
857.931	4843
858.064	4721
858.197	4767
858.331	4668
858.464	4622
858.597	4512
858.731	4672
858.864	4664
858.997	4656
859.13	4679
859.263	4668
859.396	4744
859.529	4611
859.662	4565
859.795	4603
859.928	4626
860.061	4763
860.194	4763
860.327	4603
860.46	4546
860.592	4706
860.725	4759
860.858	4744
860.99	4618
861.123	4592
861.256	4542
861.388	4672
861.521	5235
861.653	4508
861.786	4474
861.918	4504
862.05	4550
862.183	4592
862.315	4675
862.447	4698
862.58	4580
862.712	4443
862.844	4363
862.976	4500
863.108	4462
863.24	4786
863.372	4333
863.504	4432
863.636	4413
863.768	4489
863.9	4459
864.032	4371
864.164	4398
864.296	4489
864.428	4561
864.559	4580
864.691	4474
864.823	4592
864.954	4538
865.086	4527
865.217	4512
865.349	4394
865.48	4466
865.612	4474
865.743	4649
865.875	4440
866.006	4417
866.137	4550
866.269	4470
866.4	4455
866.531	4443
866.662	4394
866.793	4459
866.924	4466
867.055	4478
867.186	4512
867.317	4481
867.448	4386
867.579	4417
867.71	4379
867.841	4375
867.972	4432
868.103	4485
868.233	4489
868.364	4485
868.495	4466
868.625	4710
868.756	4740
868.886	4618
869.017	4649
869.147	4797
869.278	4744
869.408	4679
869.539	4664
869.669	4729
869.799	4691
869.929	4774
870.06	4767
870.19	4942
870.32	4927
870.45	4953
870.58	5067
870.71	5124
870.84	5060
870.97	4961
871.1	4938
871.23	5174
871.36	5155
871.489	5052
871.619	5067
871.749	5132
871.879	5136
872.008	5223
872.138	5075
872.267	4953
872.397	4866
872.526	4824
872.656	4740
872.785	4831
872.915	4934
873.044	5045
873.173	4984
873.303	4976
873.432	4961
873.561	4957
873.69	4892
873.819	4885
873.948	4908
874.077	4801
874.206	4748
874.335	4809
874.464	4911
874.593	5083
874.722	5010
874.851	5117
874.979	5041
875.108	5071
875.237	4900
875.365	4938
875.494	4889
875.623	4995
875.751	4812
875.88	4896
876.008	4968
876.136	5014
876.265	5178
876.393	5353
876.521	5216
876.65	5250
876.778	5155
876.906	5128
877.034	5121
877.162	5071
877.29	5033
877.418	5052
877.546	5037
877.674	5018
877.802	5064
877.93	5014
878.058	4972
878.185	4870
878.313	4938
878.441	4965
878.568	4790
878.696	4870
878.824	4976
878.951	5006
879.079	5102
879.206	5261
879.333	5109
879.461	5003
879.588	5037
879.715	5113
879.842	5261
879.97	5045
880.097	4774
880.224	4752
880.351	4816
880.478	4793
880.605	4786
880.732	4831
880.859	5109
880.986	4862
881.112	4889
881.239	4820
881.366	4679
881.493	4584
881.619	4603
881.746	4637
881.872	4675
881.999	4630
882.125	4721
882.252	4809
882.378	4793
882.505	4987
882.631	4854
882.757	4698
882.883	4767
883.01	4748
883.136	4668
883.262	4626
883.388	4626
883.514	4782
883.64	4873
883.766	4782
883.892	4672
884.018	4729
884.143	4889
884.269	5079
884.395	4672
884.52	4607
884.646	4649
884.772	4630
884.897	4580
885.023	4656
885.148	4759
885.274	4866
885.399	4755
885.524	4710
885.65	4698
885.775	4759
885.9	4611
886.025	4850
886.15	4816
886.275	4691
886.4	4599
886.525	4733
886.65	4717
886.775	4729
886.9	4892
887.025	5014
887.149	4801
887.274	4725
887.399	4622
887.523	4626
887.648	4615
887.773	4588
887.897	4748
888.021	4797
888.146	4706
888.27	4866
888.395	4946
888.519	4839
888.643	4801
888.767	4828
888.891	4664
889.015	4550
889.139	4660
889.263	4664
889.387	4759
889.511	4858
889.635	4824
889.759	4645
889.883	4664
890.006	4717
890.13	4850
890.254	4603
890.377	4694
890.501	4584
890.624	4527
890.748	4607
890.871	4489
890.995	4409
891.118	4405
891.241	4508
891.364	4542
891.488	4626
891.611	4489
891.734	4569
891.857	4618
891.98	4538
892.103	4660
892.226	4611
892.349	4504
892.471	4390
892.594	4565
892.717	4573
892.839	4573
892.962	4535
893.085	4618
893.207	4641
893.33	4474
893.452	4542
893.575	4641
893.697	4561
893.819	4797
893.941	4824
894.064	4752
894.186	4580
894.308	4630
894.43	4714
894.552	4797
894.674	4774
894.796	4554
894.918	4554
895.04	4615
895.161	4710
895.283	4637
895.405	4565
895.526	4668
895.648	4687
895.769	4641
895.891	4706
896.012	4744
896.134	4714
896.255	4626
896.376	4630
896.498	4615
896.619	4740
896.74	4630
896.861	4645
896.982	4934
897.103	5067
897.224	4850
897.345	4740
897.466	4653
897.587	4748
897.708	4824
897.828	4778
897.949	4683
898.07	4599
898.19	4607
898.311	4797
898.431	4664
898.552	4714
898.672	4828
898.792	4812
898.913	4687
899.033	4626
899.153	4512
899.273	4413
899.393	4478
899.513	4580
899.633	4527
899.753	4542
899.873	4489
899.993	4561
900.113	4554
900.232	4588
900.352	4588
900.472	4462
900.591	4428
900.711	4512
900.83	4428
900.95	4622
901.069	4668
901.189	4523
901.308	4367
901.427	4314
901.546	4390
901.665	4512
901.784	4497
901.904	4383
902.023	4310
902.141	4192
902.26	4112
902.379	4291
902.498	4246
902.617	4223
902.735	4344
902.854	4371
902.973	4356
903.091	4200
903.21	4265
903.328	4257
903.446	4234
903.565	4310
903.683	4322
903.801	4287
903.919	4375
904.038	4424
904.156	4329
904.274	4413
904.392	4363
904.51	4451
904.627	4489
904.745	4527
904.863	4611
904.981	4371
905.098	4265
905.216	4344
905.334	4421
905.451	4432
905.569	4432
905.686	4588
905.803	4561
905.921	4398
906.038	4554
906.155	4436
906.272	4375
906.389	4485
906.506	4352
906.623	4386
906.74	4413
906.857	4333
906.974	4398
907.091	4603
907.208	4653
907.324	4618
907.441	4512
907.557	4333
907.674	4333
907.79	4341
907.907	4398
908.023	4451
908.139	4443
908.256	4443
908.372	4489
908.488	4447
908.604	4379
908.72	4360
908.836	4348
908.952	4363
909.068	4428
909.184	4535
909.3	4466
909.415	4538
909.531	4580
909.647	4352
909.762	4402
909.878	4344
909.993	4459
910.108	4409
910.224	4398
910.339	4478
910.454	4333
910.57	4333
910.685	4322
910.8	4626
910.915	4584
911.03	4493
911.145	4322
911.259	4318
911.374	4402
911.489	4303
911.604	4268
911.718	4154
911.833	4265
911.947	4074
912.062	4036
912.176	4215
912.291	4276
912.405	4249
912.519	4451
912.633	4508
912.748	4363
912.862	4295
912.976	4181
913.09	4139
913.204	4181
913.318	4249
913.431	4409
913.545	4386
913.659	4424
913.772	4352
913.886	4249
914	4204
914.113	4379
914.226	4489
914.34	4413
914.453	4215
914.566	4421
914.68	4333
914.793	4333
914.906	4143
915.019	4158
915.132	4055
915.245	4143
915.358	4154
915.47	4272
915.583	4272
915.696	4299
915.809	4424
915.921	4470
916.034	4253
916.146	4306
916.259	4173
916.371	4333
916.483	4337
916.595	4265
916.708	4306
916.82	4360
916.932	4291
917.044	4310
917.156	4322
917.268	4219
917.38	4303
917.491	4272
917.603	4363
917.715	4462
917.826	4451
917.938	4337
918.049	4200
918.161	4413
918.272	4542
918.384	4519
918.495	4451
918.606	4295
918.717	4238
918.828	4333
918.939	4348
919.05	4287
919.161	4276
919.272	4158
919.383	4219
919.494	4443
919.604	4603
919.715	4466
919.826	4363
919.936	4402
920.047	4497
920.157	4481
920.267	4683
920.378	4561
920.488	4489
920.598	4714
920.708	4892
920.818	4744
920.928	4763
921.038	4938
921.148	4900
921.258	4637
921.368	4573
921.477	4516
921.587	4481
921.697	4363
921.806	4550
921.916	4481
922.025	4303
922.134	4261
922.244	4223
922.353	4284
922.462	4188
922.571	4147
922.68	4017
922.789	3972
922.898	4071
923.007	4013
923.116	4097
923.224	4063
923.333	4105
923.442	3998
923.55	3991
923.659	4032
923.767	4097
923.876	4002
923.984	4101
924.092	3991
924.201	4048
924.309	4048
924.417	4120
924.525	4051
924.633	4120
924.741	4835
924.849	3937
924.956	4120
925.064	3964
925.172	3918
925.279	3983
925.387	4055
925.494	4048
925.602	4188
925.709	4169
925.816	4006
925.924	4109
926.031	4234
926.138	4162
926.245	4185
926.352	4101
926.459	4265
926.566	4299
926.673	4139
926.779	4044
926.886	4074
926.993	4002
927.099	3922
927.206	3926
927.312	3915
927.419	4059
927.525	4006
927.631	4074
927.737	3975
927.843	3930
927.95	3831
928.056	3945
928.162	4010
928.267	3998
928.373	4592
928.479	4105
928.585	3865
928.69	4021
928.796	4051
928.901	3953
929.007	3854
929.112	3994
929.218	4048
929.323	3899
929.428	3945
929.533	4093
929.638	3922
929.743	3918
929.848	4036
929.953	4048
930.058	3926
930.163	3789
930.267	3804
930.372	3915
930.477	3778
930.581	4090
930.685	3941
930.79	3804
930.894	3884
930.998	3869
931.103	4051
931.207	3728
931.311	3709
931.415	3679
931.519	3523
931.623	3553
