Data from test_V78500241_660.txt Node
Date: Fri Mar 25 16:53:35 CST 2022
User: usil
Spectrometer: V785-0024
Trigger mode: 0
Integration Time (sec): 4.000000E-1
Scans to average: 1
Nonlinearity correction enabled: false
Boxcar width: 0
Storing dark spectrum: false
XAxis mode: Wavelengths
Number of Pixels in Spectrum: 1024
>>>>>Begin Spectral Data<<<<<
801.071	8134
801.214	7997
801.356	7894
801.499	7845
801.641	7807
801.783	7875
801.926	7997
802.068	7906
802.211	8012
802.353	8016
802.496	7940
802.638	7936
802.78	7944
802.923	7955
803.065	7864
803.208	7841
803.35	7982
803.492	8153
803.635	8176
803.777	8046
803.919	8092
804.061	8400
804.204	8153
804.346	8062
804.488	8062
804.63	8134
804.773	8031
804.915	8031
805.057	8248
805.199	8145
805.341	8309
805.483	8221
805.626	8199
805.768	8126
805.91	8199
806.052	8157
806.194	8134
806.336	8256
806.478	8088
806.62	8062
806.762	8126
806.904	8294
807.046	8450
807.188	8385
807.33	8370
807.472	8347
807.614	8233
807.756	8134
807.898	8027
808.04	7868
808.182	7902
808.324	7913
808.465	7955
808.607	8039
808.749	8115
808.891	8252
809.033	8240
809.174	8107
809.316	8020
809.458	7997
809.6	7967
809.741	8005
809.883	8039
810.025	8062
810.166	8012
810.308	7993
810.45	8020
810.591	7879
810.733	7738
810.875	7696
811.016	7556
811.158	7521
811.299	7544
811.441	7750
811.582	7632
811.724	7502
811.865	7556
812.007	7624
812.148	7586
812.29	7594
812.431	7696
812.573	7814
812.714	7940
812.855	8111
812.997	8229
813.138	8301
813.279	8252
813.421	8138
813.562	7978
813.703	7841
813.845	7753
813.986	7533
814.127	7285
814.268	7240
814.41	7251
814.551	7160
814.692	7164
814.833	7042
814.974	7057
815.115	7080
815.256	7008
815.397	6962
815.539	6916
815.68	6837
815.821	6749
815.962	6833
816.103	6779
816.244	6757
816.385	6631
816.526	6612
816.666	6426
816.807	6311
816.948	6418
817.089	6494
817.23	6418
817.371	6380
817.512	6429
817.653	6380
817.793	6327
817.934	6414
818.075	6486
818.216	6376
818.356	6353
818.497	6155
818.638	6129
818.778	6129
818.919	6136
819.06	6114
819.2	6289
819.341	6308
819.481	6353
819.622	6521
819.762	6764
819.903	6669
820.043	6585
820.184	6597
820.324	6620
820.465	6700
820.605	6669
820.746	6570
820.886	6547
821.026	6662
821.167	6692
821.307	6802
821.447	6802
821.588	6604
821.728	6555
821.868	6471
822.008	6342
822.149	6414
822.289	6369
822.429	6197
822.569	6091
822.709	6152
822.849	5908
822.99	5980
823.13	5961
823.27	5958
823.41	5809
823.55	5790
823.69	5783
823.83	5832
823.97	5699
824.11	5585
824.25	5528
824.389	5615
824.529	5585
824.669	5539
824.809	5619
824.949	5684
825.089	5623
825.228	5554
825.368	5372
825.508	5414
825.648	5429
825.787	5444
825.927	5376
826.067	5311
826.206	5326
826.346	5414
826.485	5414
826.625	5417
826.765	5611
826.904	5520
827.044	5235
827.183	5265
827.323	5121
827.462	5258
827.601	5189
827.741	5212
827.88	5261
828.02	5105
828.159	5242
828.298	5349
828.437	5387
828.577	5299
828.716	5497
828.855	5372
828.994	5212
829.134	5239
829.273	5250
829.412	5201
829.551	5212
829.69	5250
829.829	5284
829.968	5349
830.107	5307
830.246	5277
830.385	5227
830.524	5178
830.663	5121
830.802	5010
830.941	4991
831.08	4923
831.219	5022
831.357	4995
831.496	5204
831.635	4999
831.774	4896
831.913	4854
832.051	4767
832.19	4786
832.329	4839
832.467	4771
832.606	4691
832.744	4782
832.883	4725
833.022	4793
833.16	4790
833.299	4843
833.437	4877
833.576	4835
833.714	4854
833.852	4927
833.991	4930
834.129	4980
834.267	4976
834.406	4942
834.544	5003
834.682	5014
834.821	5022
834.959	5204
835.097	4957
835.235	5185
835.373	5102
835.511	5098
835.65	5033
835.788	5033
835.926	4911
836.064	4911
836.202	4980
836.34	5227
836.478	5273
836.615	5181
836.753	5239
836.891	5292
837.029	5273
837.167	5277
837.305	5181
837.443	5185
837.58	5140
837.718	5269
837.856	5185
837.993	5197
838.131	5280
838.269	5239
838.406	5250
838.544	5227
838.681	5121
838.819	5075
838.956	4942
839.094	4938
839.231	5022
839.369	5124
839.506	5387
839.643	5341
839.781	5071
839.918	5056
840.055	5128
840.193	5128
840.33	5166
840.467	5121
840.604	5212
840.742	5459
840.879	5113
841.016	5147
841.153	5162
841.29	5383
841.427	5383
841.564	5360
841.701	5387
841.838	5337
841.975	5220
842.112	5330
842.249	5201
842.385	5098
842.522	5402
842.659	5185
842.796	5216
842.933	5178
843.069	5162
843.206	5147
843.343	5341
843.479	5280
843.616	5280
843.752	5075
843.889	5056
844.025	5258
844.162	5041
844.298	5246
844.435	5083
844.571	5075
844.708	5231
844.844	5269
844.98	5402
845.117	5284
845.253	5185
845.389	5094
845.525	5193
845.661	5220
845.798	5075
845.934	5193
846.07	5121
846.206	5223
846.342	5292
846.478	5239
846.614	5064
846.75	4980
846.886	4942
847.022	5193
847.158	5052
847.294	5140
847.429	5109
847.565	5067
847.701	5337
847.837	4839
847.972	4858
848.108	4995
848.244	4938
848.379	4752
848.515	4767
848.65	4805
848.786	4793
848.921	4771
849.057	4908
849.192	4949
849.328	4908
849.463	4866
849.598	4767
849.734	4835
849.869	4691
850.004	4645
850.14	4706
850.275	4687
850.41	4535
850.545	4588
850.68	4603
850.815	4637
850.95	4664
851.085	4892
851.22	4771
851.355	4706
851.49	4634
851.625	4717
851.76	4691
851.895	4561
852.03	4535
852.165	4710
852.299	4687
852.434	4809
852.569	4797
852.703	4812
852.838	4843
852.973	4949
853.107	4934
853.242	4744
853.376	4729
853.511	4523
853.645	4660
853.78	4828
853.914	4706
854.048	4679
854.183	4626
854.317	4691
854.451	4843
854.585	4698
854.72	4683
854.854	4778
854.988	4656
855.122	4660
855.256	4538
855.39	4683
855.524	4774
855.658	4744
855.792	4706
855.926	4717
856.06	4733
856.194	4839
856.327	4683
856.461	4645
856.595	4649
856.729	4634
856.862	4725
856.996	4710
857.13	4706
857.263	4812
857.397	4793
857.53	4702
857.664	4748
857.797	4752
857.931	4801
858.064	4694
858.197	4702
858.331	4691
858.464	4626
858.597	4603
858.731	4698
858.864	4622
858.997	4637
859.13	4683
859.263	4656
859.396	4702
859.529	4603
859.662	4649
859.795	4588
859.928	4675
860.061	4816
860.194	4763
860.327	4664
860.46	4550
860.592	4759
860.725	4748
860.858	4755
860.99	4596
861.123	4531
861.256	4542
861.388	4634
861.521	5387
861.653	4497
861.786	4478
861.918	4462
862.05	4504
862.183	4565
862.315	4649
862.447	4717
862.58	4588
862.712	4402
862.844	4348
862.976	4466
863.108	4447
863.24	4870
863.372	4375
863.504	4466
863.636	4485
863.768	4523
863.9	4440
864.032	4436
864.164	4398
864.296	4512
864.428	4611
864.559	4561
864.691	4584
864.823	4512
864.954	4531
865.086	4569
865.217	4485
865.349	4413
865.48	4466
865.612	4546
865.743	4653
865.875	4508
866.006	4459
866.137	4489
866.269	4493
866.4	4474
866.531	4451
866.662	4421
866.793	4432
866.924	4421
867.055	4493
867.186	4455
867.317	4489
867.448	4394
867.579	4436
867.71	4436
867.841	4417
867.972	4497
868.103	4531
868.233	4497
868.364	4489
868.495	4519
868.625	4649
868.756	4805
868.886	4577
869.017	4634
869.147	4782
869.278	4828
869.408	4645
869.539	4599
869.669	4710
869.799	4660
869.929	4755
870.06	4733
870.19	4938
870.32	4908
870.45	4923
870.58	4957
870.71	5132
870.84	5090
870.97	4972
871.1	4946
871.23	5159
871.36	5143
871.489	5022
871.619	5018
871.749	5105
871.879	5083
872.008	5178
872.138	5064
872.267	4980
872.397	4843
872.526	4831
872.656	4714
872.785	4824
872.915	4972
873.044	5086
873.173	4927
873.303	4938
873.432	4953
873.561	4991
873.69	4892
873.819	4873
873.948	4938
874.077	4812
874.206	4786
874.335	4774
874.464	4976
874.593	5083
874.722	4980
874.851	5121
874.979	4987
875.108	5071
875.237	4923
875.365	4923
875.494	4904
875.623	4957
875.751	4786
875.88	4953
876.008	5041
876.136	5014
876.265	5246
876.393	5357
876.521	5303
876.65	5250
876.778	5140
876.906	5121
877.034	5056
877.162	5033
877.29	5041
877.418	5155
877.546	5064
877.674	5064
877.802	5029
877.93	5037
878.058	4949
878.185	4923
878.313	4980
878.441	4942
878.568	4839
878.696	4930
878.824	4949
878.951	5003
879.079	5143
879.206	5235
879.333	5113
879.461	4980
879.588	4991
879.715	5151
879.842	5216
879.97	5033
880.097	4820
880.224	4767
880.351	4797
880.478	4793
880.605	4835
880.732	4831
880.859	5079
880.986	4885
881.112	4923
881.239	4820
881.366	4744
881.493	4679
881.619	4611
881.746	4687
881.872	4660
881.999	4634
882.125	4687
882.252	4774
882.378	4828
882.505	4984
882.631	4797
882.757	4649
882.883	4725
883.01	4782
883.136	4710
883.262	4626
883.388	4649
883.514	4816
883.64	4919
883.766	4767
883.892	4683
884.018	4771
884.143	4911
884.269	5018
884.395	4679
884.52	4626
884.646	4645
884.772	4596
884.897	4561
885.023	4649
885.148	4816
885.274	4870
885.399	4809
885.524	4733
885.65	4725
885.775	4793
885.9	4664
886.025	4877
886.15	4771
886.275	4771
886.4	4641
886.525	4755
886.65	4714
886.775	4694
886.9	4942
887.025	5083
887.149	4805
887.274	4702
887.399	4649
887.523	4660
887.648	4588
887.773	4603
887.897	4790
888.021	4748
888.146	4683
888.27	4812
888.395	4908
888.519	4835
888.643	4847
888.767	4850
888.891	4668
889.015	4679
889.139	4668
889.263	4599
889.387	4809
889.511	4927
889.635	4831
889.759	4630
889.883	4660
890.006	4748
890.13	4847
890.254	4599
890.377	4679
890.501	4550
890.624	4538
890.748	4660
890.871	4538
890.995	4409
891.118	4379
891.241	4504
891.364	4531
891.488	4637
891.611	4508
891.734	4546
891.857	4645
891.98	4561
892.103	4714
892.226	4607
892.349	4531
892.471	4417
892.594	4569
892.717	4588
892.839	4569
892.962	4622
893.085	4672
893.207	4637
893.33	4478
893.452	4565
893.575	4691
893.697	4596
893.819	4797
893.941	4850
894.064	4759
894.186	4634
894.308	4565
894.43	4759
894.552	4820
894.674	4748
894.796	4550
894.918	4592
895.04	4577
895.161	4714
895.283	4664
895.405	4618
895.526	4649
895.648	4679
895.769	4759
895.891	4736
896.012	4752
896.134	4668
896.255	4664
896.376	4683
896.498	4622
896.619	4687
896.74	4596
896.861	4653
896.982	4923
897.103	5029
897.224	4850
897.345	4740
897.466	4694
897.587	4740
897.708	4885
897.828	4771
897.949	4675
898.07	4531
898.19	4630
898.311	4927
898.431	4694
898.552	4736
898.672	4812
898.792	4809
898.913	4714
899.033	4641
899.153	4508
899.273	4432
899.393	4542
899.513	4504
899.633	4535
899.753	4546
899.873	4535
899.993	4577
900.113	4531
900.232	4584
900.352	4565
900.472	4481
900.591	4421
900.711	4497
900.83	4489
900.95	4588
901.069	4721
901.189	4561
901.308	4402
901.427	4303
901.546	4421
901.665	4512
901.784	4516
901.904	4367
902.023	4287
902.141	4173
902.26	4196
902.379	4272
902.498	4230
902.617	4215
902.735	4367
902.854	4421
902.973	4322
903.091	4234
903.21	4268
903.328	4329
903.446	4276
903.565	4261
903.683	4348
903.801	4249
903.919	4447
904.038	4440
904.156	4322
904.274	4455
904.392	4360
904.51	4443
904.627	4436
904.745	4558
904.863	4592
904.981	4402
905.098	4348
905.216	4379
905.334	4451
905.451	4455
905.569	4432
905.686	4565
905.803	4550
905.921	4402
906.038	4565
906.155	4493
906.272	4402
906.389	4493
906.506	4356
906.623	4375
906.74	4398
906.857	4367
906.974	4318
907.091	4554
907.208	4675
907.324	4599
907.441	4500
907.557	4329
907.674	4356
907.79	4329
907.907	4390
908.023	4478
908.139	4489
908.256	4432
908.372	4481
908.488	4470
908.604	4375
908.72	4337
908.836	4352
908.952	4398
909.068	4424
909.184	4550
909.3	4455
909.415	4599
909.531	4577
909.647	4360
909.762	4341
909.878	4367
909.993	4443
910.108	4417
910.224	4443
910.339	4504
910.454	4436
910.57	4348
910.685	4310
910.8	4656
910.915	4584
911.03	4478
911.145	4325
911.259	4344
911.374	4398
911.489	4310
911.604	4295
911.718	4192
911.833	4173
911.947	4093
912.062	3983
912.176	4188
912.291	4223
912.405	4268
912.519	4497
912.633	4527
912.748	4367
912.862	4287
912.976	4223
913.09	4082
913.204	4192
913.318	4261
913.431	4436
913.545	4421
913.659	4478
913.772	4363
913.886	4253
914	4211
914.113	4371
914.226	4413
914.34	4394
914.453	4257
914.566	4398
914.68	4314
914.793	4344
914.906	4162
915.019	4112
915.132	4086
915.245	4207
915.358	4242
915.47	4276
915.583	4295
915.696	4314
915.809	4398
915.921	4428
916.034	4287
916.146	4227
916.259	4207
916.371	4398
916.483	4333
916.595	4287
916.708	4348
916.82	4329
916.932	4379
917.044	4341
917.156	4272
917.268	4242
917.38	4242
917.491	4287
917.603	4375
917.715	4459
917.826	4443
917.938	4390
918.049	4291
918.161	4337
918.272	4542
918.384	4565
918.495	4402
918.606	4310
918.717	4246
918.828	4318
918.939	4375
919.05	4284
919.161	4299
919.272	4131
919.383	4242
919.494	4455
919.604	4607
919.715	4394
919.826	4402
919.936	4421
920.047	4497
920.157	4485
920.267	4710
920.378	4561
920.488	4497
920.598	4729
920.708	4934
920.818	4721
920.928	4752
921.038	4949
921.148	4946
921.258	4592
921.368	4550
921.477	4516
921.587	4466
921.697	4337
921.806	4542
921.916	4455
922.025	4295
922.134	4284
922.244	4204
922.353	4341
922.462	4227
922.571	4143
922.68	4040
922.789	3926
922.898	4059
923.007	3983
923.116	4067
923.224	4021
923.333	4078
923.442	3987
923.55	3968
923.659	4025
923.767	4135
923.876	3987
923.984	4147
924.092	3972
924.201	4078
924.309	4086
924.417	4101
924.525	4059
924.633	4086
924.741	5067
924.849	3934
924.956	4109
925.064	3983
925.172	3903
925.279	3922
925.387	4044
925.494	4051
925.602	4192
925.709	4211
925.816	4055
925.924	4158
926.031	4303
926.138	4150
926.245	4177
926.352	4078
926.459	4249
926.566	4310
926.673	4154
926.779	4116
926.886	4120
926.993	3991
927.099	3975
927.206	3956
927.312	3956
927.419	4040
927.525	4021
927.631	4051
927.737	3972
927.843	3930
927.95	3869
928.056	3960
928.162	4044
928.267	4071
928.373	4664
928.479	4112
928.585	3930
928.69	3960
928.796	4124
928.901	3953
929.007	3865
929.112	4013
929.218	3964
929.323	3994
929.428	3994
929.533	4090
929.638	3941
929.743	3968
929.848	4040
929.953	4002
930.058	3949
930.163	3831
930.267	3831
930.372	3968
930.477	3857
930.581	4090
930.685	3949
930.79	3812
930.894	3915
930.998	3888
931.103	3983
931.207	3736
931.311	3701
931.415	3675
931.519	3519
931.623	3523
