Data from test_V78500241_498.txt Node
Date: Fri Mar 25 16:52:27 CST 2022
User: usil
Spectrometer: V785-0024
Trigger mode: 0
Integration Time (sec): 4.000000E-1
Scans to average: 1
Nonlinearity correction enabled: false
Boxcar width: 0
Storing dark spectrum: false
XAxis mode: Wavelengths
Number of Pixels in Spectrum: 1024
>>>>>Begin Spectral Data<<<<<
801.071	8027
801.214	8043
801.356	7799
801.499	7837
801.641	7811
801.783	7871
801.926	8077
802.068	7989
802.211	8050
802.353	7967
802.496	7860
802.638	7830
802.78	7837
802.923	7917
803.065	7909
803.208	7814
803.35	7921
803.492	8024
803.635	8077
803.777	8001
803.919	8088
804.061	8374
804.204	8168
804.346	7982
804.488	7898
804.63	8058
804.773	8016
804.915	8096
805.057	8317
805.199	8199
805.341	8191
805.483	8195
805.626	8206
805.768	8084
805.91	8119
806.052	8126
806.194	8039
806.336	8362
806.478	8142
806.62	8107
806.762	8107
806.904	8259
807.046	8415
807.188	8244
807.33	8210
807.472	8290
807.614	8119
807.756	8077
807.898	7993
808.04	7906
808.182	7894
808.324	7894
808.465	7860
808.607	7978
808.749	8050
808.891	8180
809.033	8195
809.174	8115
809.316	8058
809.458	8065
809.6	7940
809.741	7986
809.883	8065
810.025	8050
810.166	8092
810.308	8039
810.45	7978
810.591	7830
810.733	7731
810.875	7609
811.016	7460
811.158	7502
811.299	7628
811.441	7757
811.582	7655
811.724	7567
811.865	7533
812.007	7681
812.148	7590
812.29	7563
812.431	7761
812.573	7868
812.714	8031
812.855	8134
812.997	8229
813.138	8309
813.279	8286
813.421	8168
813.562	8031
813.703	7887
813.845	7753
813.986	7495
814.127	7388
814.268	7255
814.41	7194
814.551	7187
814.692	7194
814.833	7080
814.974	7088
815.115	7110
815.256	6970
815.397	6920
815.539	6928
815.68	6795
815.821	6783
815.962	6916
816.103	6749
816.244	6688
816.385	6616
816.526	6608
816.666	6490
816.807	6292
816.948	6452
817.089	6437
817.23	6372
817.371	6334
817.512	6433
817.653	6361
817.793	6342
817.934	6433
818.075	6437
818.216	6490
818.356	6357
818.497	6254
818.638	6087
818.778	6098
818.919	6072
819.06	6114
819.2	6342
819.341	6277
819.481	6338
819.622	6540
819.762	6677
819.903	6654
820.043	6563
820.184	6521
820.324	6578
820.465	6623
820.605	6631
820.746	6589
820.886	6464
821.026	6623
821.167	6700
821.307	6745
821.447	6688
821.588	6627
821.728	6494
821.868	6460
822.008	6304
822.149	6380
822.289	6300
822.429	6117
822.569	6106
822.709	6110
822.849	5885
822.99	5859
823.13	5923
823.27	5866
823.41	5790
823.55	5771
823.69	5745
823.83	5779
823.97	5688
824.11	5535
824.25	5509
824.389	5512
824.529	5592
824.669	5547
824.809	5592
824.949	5699
825.089	5634
825.228	5566
825.368	5372
825.508	5349
825.648	5349
825.787	5414
825.927	5395
826.067	5318
826.206	5254
826.346	5402
826.485	5440
826.625	5433
826.765	5585
826.904	5459
827.044	5296
827.183	5265
827.323	5181
827.462	5265
827.601	5193
827.741	5235
827.88	5265
828.02	5170
828.159	5212
828.298	5273
828.437	5349
828.577	5311
828.716	5505
828.855	5326
828.994	5246
829.134	5140
829.273	5239
829.412	5166
829.551	5162
829.69	5216
829.829	5288
829.968	5353
830.107	5258
830.246	5258
830.385	5231
830.524	5155
830.663	5102
830.802	5003
830.941	4927
831.08	4927
831.219	5006
831.357	5033
831.496	5235
831.635	4991
831.774	4889
831.913	4889
832.051	4767
832.19	4771
832.329	4847
832.467	4733
832.606	4656
832.744	4763
832.883	4740
833.022	4771
833.16	4809
833.299	4858
833.437	4858
833.576	4892
833.714	4908
833.852	4904
833.991	4938
834.129	5025
834.267	5022
834.406	4930
834.544	5010
834.682	5029
834.821	5006
834.959	5223
835.097	4991
835.235	5208
835.373	5147
835.511	5132
835.65	5105
835.788	5067
835.926	4938
836.064	4942
836.202	4938
836.34	5227
836.478	5239
836.615	5178
836.753	5269
836.891	5337
837.029	5292
837.167	5261
837.305	5193
837.443	5197
837.58	5102
837.718	5284
837.856	5212
837.993	5147
838.131	5254
838.269	5216
838.406	5258
838.544	5246
838.681	5064
838.819	5037
838.956	4930
839.094	4980
839.231	5060
839.369	5143
839.506	5455
839.643	5303
839.781	5056
839.918	5045
840.055	5181
840.193	5121
840.33	5105
840.467	5159
840.604	5227
840.742	5490
840.879	5124
841.016	5140
841.153	5170
841.29	5414
841.427	5410
841.564	5330
841.701	5406
841.838	5330
841.975	5250
842.112	5334
842.249	5170
842.385	5128
842.522	5307
842.659	5132
842.796	5181
842.933	5246
843.069	5166
843.206	5208
843.343	5341
843.479	5254
843.616	5326
843.752	5048
843.889	5018
844.025	5250
844.162	5037
844.298	5223
844.435	5151
844.571	5105
844.708	5204
844.844	5296
844.98	5368
845.117	5326
845.253	5143
845.389	5105
845.525	5201
845.661	5159
845.798	5086
845.934	5121
846.07	5064
846.206	5280
846.342	5307
846.478	5220
846.614	5029
846.75	5006
846.886	5022
847.022	5155
847.158	5094
847.294	5060
847.429	5094
847.565	5045
847.701	5334
847.837	4873
847.972	4873
848.108	4949
848.244	4934
848.379	4790
848.515	4778
848.65	4809
848.786	4782
848.921	4767
849.057	4870
849.192	4885
849.328	4850
849.463	4881
849.598	4858
849.734	4790
849.869	4717
850.004	4664
850.14	4725
850.275	4603
850.41	4516
850.545	4615
850.68	4603
850.815	4664
850.95	4653
851.085	4885
851.22	4797
851.355	4683
851.49	4664
851.625	4664
851.76	4649
851.895	4542
852.03	4561
852.165	4698
852.299	4786
852.434	4786
852.569	4774
852.703	4816
852.838	4850
852.973	4976
853.107	4953
853.242	4793
853.376	4714
853.511	4565
853.645	4660
853.78	4896
853.914	4729
854.048	4740
854.183	4649
854.317	4744
854.451	4820
854.585	4767
854.72	4653
854.854	4805
854.988	4607
855.122	4698
855.256	4538
855.39	4714
855.524	4820
855.658	4729
855.792	4744
855.926	4790
856.06	4797
856.194	4862
856.327	4714
856.461	4645
856.595	4668
856.729	4641
856.862	4771
856.996	4702
857.13	4771
857.263	4748
857.397	4850
857.53	4679
857.664	4793
857.797	4774
857.931	4858
858.064	4679
858.197	4790
858.331	4694
858.464	4660
858.597	4588
858.731	4618
858.864	4656
858.997	4630
859.13	4649
859.263	4733
859.396	4691
859.529	4641
859.662	4588
859.795	4573
859.928	4706
860.061	4782
860.194	4767
860.327	4664
860.46	4584
860.592	4729
860.725	4771
860.858	4740
860.99	4592
861.123	4569
861.256	4531
861.388	4592
861.521	5341
861.653	4504
861.786	4497
861.918	4436
862.05	4535
862.183	4542
862.315	4607
862.447	4694
862.58	4565
862.712	4432
862.844	4356
862.976	4516
863.108	4542
863.24	4774
863.372	4348
863.504	4462
863.636	4413
863.768	4550
863.9	4455
864.032	4421
864.164	4409
864.296	4493
864.428	4580
864.559	4630
864.691	4538
864.823	4569
864.954	4531
865.086	4546
865.217	4489
865.349	4455
865.48	4481
865.612	4497
865.743	4706
865.875	4500
866.006	4481
866.137	4512
866.269	4432
866.4	4489
866.531	4474
866.662	4394
866.793	4500
866.924	4504
867.055	4512
867.186	4360
867.317	4462
867.448	4409
867.579	4390
867.71	4409
867.841	4405
867.972	4500
868.103	4500
868.233	4455
868.364	4436
868.495	4527
868.625	4679
868.756	4759
868.886	4596
869.017	4622
869.147	4782
869.278	4797
869.408	4672
869.539	4683
869.669	4740
869.799	4683
869.929	4816
870.06	4763
870.19	4946
870.32	4923
870.45	4995
870.58	5052
870.71	5109
870.84	5102
870.97	4987
871.1	4949
871.23	5140
871.36	5151
871.489	5052
871.619	5052
871.749	5143
871.879	5178
872.008	5216
872.138	5071
872.267	5056
872.397	4896
872.526	4843
872.656	4702
872.785	4854
872.915	4957
873.044	5048
873.173	4984
873.303	5010
873.432	4972
873.561	4965
873.69	4908
873.819	4980
873.948	4942
874.077	4835
874.206	4809
874.335	4858
874.464	4942
874.593	5086
874.722	4968
874.851	5136
874.979	5086
875.108	5075
875.237	4957
875.365	4957
875.494	4873
875.623	4999
875.751	4835
875.88	4892
876.008	4965
876.136	5067
876.265	5265
876.393	5379
876.521	5269
876.65	5311
876.778	5185
876.906	5140
877.034	5018
877.162	5075
877.29	5052
877.418	5128
877.546	5045
877.674	5075
877.802	5052
877.93	5086
878.058	4946
878.185	4850
878.313	4965
878.441	4968
878.568	4831
878.696	4919
878.824	4980
878.951	5025
879.079	5128
879.206	5337
879.333	5143
879.461	5022
879.588	4984
879.715	5174
879.842	5204
879.97	5052
880.097	4828
880.224	4816
880.351	4774
880.478	4847
880.605	4809
880.732	4820
880.859	5105
880.986	4904
881.112	4961
881.239	4790
881.366	4717
881.493	4599
881.619	4637
881.746	4717
881.872	4668
881.999	4717
882.125	4733
882.252	4740
882.378	4831
882.505	5006
882.631	4835
882.757	4691
882.883	4759
883.01	4763
883.136	4691
883.262	4615
883.388	4607
883.514	4816
883.64	4908
883.766	4805
883.892	4653
884.018	4698
884.143	4923
884.269	5052
884.395	4710
884.52	4668
884.646	4660
884.772	4630
884.897	4584
885.023	4675
885.148	4721
885.274	4889
885.399	4843
885.524	4721
885.65	4752
885.775	4778
885.9	4733
886.025	4896
886.15	4847
886.275	4748
886.4	4679
886.525	4729
886.65	4717
886.775	4725
886.9	4972
887.025	5041
887.149	4835
887.274	4691
887.399	4584
887.523	4679
887.648	4637
887.773	4615
887.897	4767
888.021	4816
888.146	4744
888.27	4858
888.395	4942
888.519	4759
888.643	4850
888.767	4896
888.891	4725
889.015	4649
889.139	4645
889.263	4641
889.387	4771
889.511	4858
889.635	4809
889.759	4649
889.883	4702
890.006	4721
890.13	4828
890.254	4679
890.377	4729
890.501	4516
890.624	4550
890.748	4649
890.871	4523
890.995	4455
891.118	4402
891.241	4546
891.364	4546
891.488	4637
891.611	4538
891.734	4554
891.857	4641
891.98	4622
892.103	4660
892.226	4611
892.349	4588
892.471	4443
892.594	4558
892.717	4649
892.839	4554
892.962	4622
893.085	4634
893.207	4622
893.33	4462
893.452	4527
893.575	4679
893.697	4611
893.819	4828
893.941	4911
894.064	4824
894.186	4626
894.308	4569
894.43	4752
894.552	4911
894.674	4786
894.796	4618
894.918	4607
895.04	4630
895.161	4759
895.283	4649
895.405	4561
895.526	4653
895.648	4698
895.769	4759
895.891	4664
896.012	4778
896.134	4763
896.255	4714
896.376	4649
896.498	4634
896.619	4683
896.74	4626
896.861	4672
896.982	4999
897.103	5105
897.224	4831
897.345	4786
897.466	4717
897.587	4698
897.708	4919
897.828	4797
897.949	4611
898.07	4573
898.19	4653
898.311	4854
898.431	4687
898.552	4740
898.672	4843
898.792	4801
898.913	4710
899.033	4725
899.153	4523
899.273	4462
899.393	4538
899.513	4542
899.633	4569
899.753	4618
899.873	4558
899.993	4630
900.113	4565
900.232	4596
900.352	4592
900.472	4485
900.591	4417
900.711	4516
900.83	4504
900.95	4580
901.069	4744
901.189	4531
901.308	4356
901.427	4310
901.546	4375
901.665	4516
901.784	4523
901.904	4432
902.023	4363
902.141	4223
902.26	4207
902.379	4287
902.498	4299
902.617	4265
902.735	4363
902.854	4447
902.973	4367
903.091	4242
903.21	4238
903.328	4287
903.446	4265
903.565	4280
903.683	4352
903.801	4303
903.919	4421
904.038	4421
904.156	4363
904.274	4481
904.392	4405
904.51	4474
904.627	4485
904.745	4573
904.863	4691
904.981	4390
905.098	4310
905.216	4367
905.334	4466
905.451	4432
905.569	4504
905.686	4599
905.803	4592
905.921	4428
906.038	4565
906.155	4504
906.272	4398
906.389	4409
906.506	4386
906.623	4432
906.74	4394
906.857	4341
906.974	4424
907.091	4596
907.208	4706
907.324	4630
907.441	4478
907.557	4360
907.674	4352
907.79	4375
907.907	4386
908.023	4493
908.139	4474
908.256	4436
908.372	4481
908.488	4436
908.604	4356
908.72	4325
908.836	4386
908.952	4402
909.068	4424
909.184	4573
909.3	4489
909.415	4592
909.531	4550
909.647	4318
909.762	4386
909.878	4333
909.993	4478
910.108	4481
910.224	4428
910.339	4462
910.454	4398
910.57	4356
910.685	4291
910.8	4668
910.915	4618
911.03	4485
911.145	4356
911.259	4303
911.374	4352
911.489	4295
911.604	4268
911.718	4169
911.833	4219
911.947	4074
912.062	4067
912.176	4238
912.291	4219
912.405	4272
912.519	4447
912.633	4478
912.748	4432
912.862	4310
912.976	4219
913.09	4086
913.204	4204
913.318	4253
913.431	4337
913.545	4383
913.659	4512
913.772	4409
913.886	4207
914	4192
914.113	4424
914.226	4440
914.34	4383
914.453	4272
914.566	4390
914.68	4284
914.793	4341
914.906	4150
915.019	4192
915.132	4131
915.245	4173
915.358	4188
915.47	4223
915.583	4272
915.696	4265
915.809	4440
915.921	4451
916.034	4333
916.146	4287
916.259	4207
916.371	4394
916.483	4348
916.595	4253
916.708	4303
916.82	4337
916.932	4325
917.044	4333
917.156	4352
917.268	4242
917.38	4299
917.491	4280
917.603	4409
917.715	4386
917.826	4481
917.938	4322
918.049	4227
918.161	4386
918.272	4527
918.384	4554
918.495	4409
918.606	4284
918.717	4246
918.828	4333
918.939	4398
919.05	4265
919.161	4360
919.272	4116
919.383	4207
919.494	4478
919.604	4641
919.715	4409
919.826	4383
919.936	4436
920.047	4531
920.157	4512
920.267	4710
920.378	4554
920.488	4497
920.598	4755
920.708	4904
920.818	4812
920.928	4771
921.038	4946
921.148	4919
921.258	4634
921.368	4577
921.477	4497
921.587	4455
921.697	4398
921.806	4573
921.916	4405
922.025	4287
922.134	4268
922.244	4227
922.353	4303
922.462	4215
922.571	4135
922.68	4002
922.789	3998
922.898	4055
923.007	3956
923.116	4116
923.224	4017
923.333	4086
923.442	4036
923.55	3991
923.659	4040
923.767	4124
923.876	3968
923.984	4135
924.092	3979
924.201	4090
924.309	4116
924.417	4147
924.525	4048
924.633	4169
924.741	5029
924.849	3956
924.956	4116
925.064	3972
925.172	3873
925.279	3953
925.387	4105
925.494	4063
925.602	4238
925.709	4177
925.816	4055
925.924	4150
926.031	4207
926.138	4166
926.245	4219
926.352	4067
926.459	4230
926.566	4371
926.673	4131
926.779	4090
926.886	4063
926.993	3956
927.099	3960
927.206	3922
927.312	3960
927.419	4051
927.525	4055
927.631	4090
927.737	4006
927.843	3975
927.95	3850
928.056	3945
928.162	3960
928.267	4086
928.373	4725
928.479	4105
928.585	3850
928.69	4021
928.796	4074
928.901	3960
929.007	3842
929.112	3979
929.218	3956
929.323	3930
929.428	3949
929.533	4067
929.638	3911
929.743	3956
929.848	4032
929.953	3987
930.058	3930
930.163	3785
930.267	3831
930.372	3987
930.477	3846
930.581	4105
930.685	3987
930.79	3816
930.894	3922
930.998	3880
931.103	4086
931.207	3720
931.311	3690
931.415	3663
931.519	3496
931.623	3526
