Data from test_V78500241_2408.txt Node
Date: Fri Mar 25 17:05:44 CST 2022
User: usil
Spectrometer: V785-0024
Trigger mode: 0
Integration Time (sec): 4.000000E-1
Scans to average: 1
Nonlinearity correction enabled: false
Boxcar width: 0
Storing dark spectrum: false
XAxis mode: Wavelengths
Number of Pixels in Spectrum: 1024
>>>>>Begin Spectral Data<<<<<
801.071	8024
801.214	7947
801.356	7902
801.499	7849
801.641	7757
801.783	7818
801.926	7909
802.068	8024
802.211	7974
802.353	7986
802.496	7860
802.638	7852
802.78	7944
802.923	7902
803.065	7845
803.208	7875
803.35	8001
803.492	8187
803.635	8161
803.777	8031
803.919	8191
804.061	8503
804.204	8237
804.346	7997
804.488	7993
804.63	8073
804.773	8031
804.915	8100
805.057	8305
805.199	8218
805.341	8210
805.483	8240
805.626	8248
805.768	8168
805.91	8210
806.052	8214
806.194	8115
806.336	8301
806.478	8191
806.62	8043
806.762	8145
806.904	8309
807.046	8427
807.188	8423
807.33	8237
807.472	8324
807.614	8199
807.756	8187
807.898	8016
808.04	7879
808.182	7898
808.324	7833
808.465	7875
808.607	8065
808.749	8161
808.891	8221
809.033	8309
809.174	8317
809.316	8092
809.458	8043
809.6	8039
809.741	8008
809.883	8024
810.025	8092
810.166	8024
810.308	8035
810.45	8073
810.591	7890
810.733	7674
810.875	7666
811.016	7502
811.158	7441
811.299	7575
811.441	7677
811.582	7681
811.724	7594
811.865	7510
812.007	7601
812.148	7613
812.29	7537
812.431	7731
812.573	7932
812.714	7970
812.855	8168
812.997	8187
813.138	8324
813.279	8130
813.421	8123
813.562	7974
813.703	7875
813.845	7750
813.986	7426
814.127	7247
814.268	7232
814.41	7213
814.551	7156
814.692	7240
814.833	7080
814.974	7107
815.115	7126
815.256	7015
815.397	6905
815.539	6905
815.68	6886
815.821	6821
815.962	6829
816.103	6802
816.244	6738
816.385	6639
816.526	6635
816.666	6563
816.807	6311
816.948	6452
817.089	6448
817.23	6429
817.371	6410
817.512	6353
817.653	6433
817.793	6319
817.934	6391
818.075	6509
818.216	6464
818.356	6410
818.497	6277
818.638	6117
818.778	6190
818.919	6076
819.06	6155
819.2	6304
819.341	6273
819.481	6372
819.622	6498
819.762	6760
819.903	6738
820.043	6642
820.184	6623
820.324	6597
820.465	6719
820.605	6684
820.746	6650
820.886	6525
821.026	6627
821.167	6772
821.307	6833
821.447	6677
821.588	6662
821.728	6585
821.868	6517
822.008	6311
822.149	6429
822.289	6403
822.429	6155
822.569	6152
822.709	6136
822.849	5992
822.99	5882
823.13	5916
823.27	5939
823.41	5798
823.55	5809
823.69	5726
823.83	5767
823.97	5710
824.11	5535
824.25	5532
824.389	5573
824.529	5581
824.669	5539
824.809	5611
824.949	5653
825.089	5642
825.228	5566
825.368	5417
825.508	5349
825.648	5349
825.787	5406
825.927	5421
826.067	5326
826.206	5261
826.346	5425
826.485	5379
826.625	5410
826.765	5524
826.904	5474
827.044	5235
827.183	5197
827.323	5102
827.462	5284
827.601	5216
827.741	5197
827.88	5201
828.02	5079
828.159	5239
828.298	5303
828.437	5379
828.577	5277
828.716	5444
828.855	5360
828.994	5189
829.134	5197
829.273	5170
829.412	5178
829.551	5117
829.69	5166
829.829	5250
829.968	5433
830.107	5254
830.246	5296
830.385	5174
830.524	5143
830.663	5075
830.802	4980
830.941	4896
831.08	4843
831.219	4987
831.357	4976
831.496	5147
831.635	4904
831.774	4820
831.913	4873
832.051	4767
832.19	4744
832.329	4828
832.467	4717
832.606	4626
832.744	4706
832.883	4755
833.022	4725
833.16	4862
833.299	4835
833.437	4824
833.576	4896
833.714	4900
833.852	4881
833.991	4942
834.129	4987
834.267	4957
834.406	4942
834.544	4995
834.682	4949
834.821	4934
834.959	5193
835.097	4968
835.235	5121
835.373	5010
835.511	5132
835.65	5060
835.788	5052
835.926	4919
836.064	4873
836.202	4915
836.34	5162
836.478	5220
836.615	5090
836.753	5181
836.891	5296
837.029	5296
837.167	5185
837.305	5128
837.443	5143
837.58	5064
837.718	5231
837.856	5197
837.993	5162
838.131	5261
838.269	5216
838.406	5189
838.544	5193
838.681	5037
838.819	5014
838.956	4889
839.094	4862
839.231	5010
839.369	5128
839.506	5364
839.643	5307
839.781	5067
839.918	5018
840.055	5124
840.193	5102
840.33	5102
840.467	5181
840.604	5185
840.742	5452
840.879	5079
841.016	5113
841.153	5102
841.29	5406
841.427	5299
841.564	5311
841.701	5326
841.838	5307
841.975	5258
842.112	5242
842.249	5143
842.385	5117
842.522	5299
842.659	5166
842.796	5140
842.933	5178
843.069	5197
843.206	5151
843.343	5265
843.479	5235
843.616	5299
843.752	5132
843.889	5003
844.025	5223
844.162	4953
844.298	5181
844.435	5056
844.571	5060
844.708	5212
844.844	5280
844.98	5288
845.117	5288
845.253	5143
845.389	5010
845.525	5143
845.661	5105
845.798	5014
845.934	5143
846.07	5071
846.206	5235
846.342	5265
846.478	5174
846.614	5090
846.75	5014
846.886	4953
847.022	5102
847.158	5029
847.294	5079
847.429	5105
847.565	5052
847.701	5296
847.837	4828
847.972	4797
848.108	4949
848.244	4927
848.379	4774
848.515	4740
848.65	4702
848.786	4702
848.921	4736
849.057	4866
849.192	4904
849.328	4790
849.463	4870
849.598	4782
849.734	4744
849.869	4691
850.004	4588
850.14	4634
850.275	4637
850.41	4512
850.545	4550
850.68	4588
850.815	4607
850.95	4641
851.085	4843
851.22	4774
851.355	4679
851.49	4618
851.625	4664
851.76	4653
851.895	4573
852.03	4588
852.165	4656
852.299	4736
852.434	4790
852.569	4790
852.703	4763
852.838	4843
852.973	4889
853.107	4904
853.242	4740
853.376	4702
853.511	4577
853.645	4577
853.78	4763
853.914	4668
854.048	4683
854.183	4675
854.317	4714
854.451	4847
854.585	4664
854.72	4641
854.854	4740
854.988	4538
855.122	4634
855.256	4516
855.39	4687
855.524	4771
855.658	4744
855.792	4672
855.926	4714
856.06	4755
856.194	4820
856.327	4687
856.461	4596
856.595	4634
856.729	4592
856.862	4778
856.996	4721
857.13	4736
857.263	4752
857.397	4729
857.53	4641
857.664	4698
857.797	4702
857.931	4774
858.064	4664
858.197	4752
858.331	4683
858.464	4637
858.597	4558
858.731	4645
858.864	4664
858.997	4588
859.13	4641
859.263	4660
859.396	4702
859.529	4637
859.662	4558
859.795	4558
859.928	4622
860.061	4763
860.194	4778
860.327	4603
860.46	4538
860.592	4706
860.725	4694
860.858	4687
860.99	4599
861.123	4497
861.256	4531
861.388	4634
861.521	5296
861.653	4489
861.786	4421
861.918	4409
862.05	4523
862.183	4573
862.315	4580
862.447	4641
862.58	4561
862.712	4379
862.844	4341
862.976	4497
863.108	4421
863.24	4797
863.372	4287
863.504	4421
863.636	4390
863.768	4466
863.9	4436
864.032	4352
864.164	4421
864.296	4459
864.428	4527
864.559	4558
864.691	4542
864.823	4512
864.954	4535
865.086	4546
865.217	4470
865.349	4379
865.48	4478
865.612	4493
865.743	4588
865.875	4478
866.006	4383
866.137	4470
866.269	4447
866.4	4421
866.531	4424
866.662	4383
866.793	4421
866.924	4455
867.055	4451
867.186	4481
867.317	4398
867.448	4421
867.579	4348
867.71	4363
867.841	4363
867.972	4455
868.103	4478
868.233	4474
868.364	4462
868.495	4508
868.625	4660
868.756	4786
868.886	4558
869.017	4630
869.147	4797
869.278	4748
869.408	4687
869.539	4691
869.669	4710
869.799	4672
869.929	4759
870.06	4744
870.19	4968
870.32	4942
870.45	4896
870.58	5060
870.71	5060
870.84	5075
870.97	4896
871.1	4927
871.23	5174
871.36	5102
871.489	5056
871.619	5071
871.749	5064
871.879	5124
872.008	5155
872.138	5037
872.267	4976
872.397	4831
872.526	4763
872.656	4755
872.785	4831
872.915	4976
873.044	5056
873.173	4930
873.303	4930
873.432	4911
873.561	4942
873.69	4938
873.819	4896
873.948	4957
874.077	4786
874.206	4778
874.335	4805
874.464	4908
874.593	5025
874.722	4980
874.851	5086
874.979	5113
875.108	4999
875.237	4900
875.365	4915
875.494	4911
875.623	5010
875.751	4854
875.88	4847
876.008	4976
876.136	5056
876.265	5193
876.393	5364
876.521	5242
876.65	5239
876.778	5204
876.906	5071
877.034	5033
877.162	5090
877.29	5006
877.418	5086
877.546	5083
877.674	5037
877.802	5048
877.93	5006
878.058	4919
878.185	4885
878.313	5014
878.441	4942
878.568	4774
878.696	4885
878.824	5033
878.951	5018
879.079	5109
879.206	5265
879.333	5083
879.461	5010
879.588	5025
879.715	5117
879.842	5193
879.97	5029
880.097	4759
880.224	4740
880.351	4801
880.478	4793
880.605	4816
880.732	4820
880.859	5086
880.986	4870
881.112	4938
881.239	4790
881.366	4683
881.493	4588
881.619	4519
881.746	4653
881.872	4622
881.999	4649
882.125	4672
882.252	4767
882.378	4793
882.505	4987
882.631	4763
882.757	4694
882.883	4710
883.01	4752
883.136	4691
883.262	4550
883.388	4592
883.514	4843
883.64	4885
883.766	4771
883.892	4717
884.018	4706
884.143	4843
884.269	4991
884.395	4702
884.52	4603
884.646	4660
884.772	4580
884.897	4542
885.023	4615
885.148	4801
885.274	4862
885.399	4828
885.524	4714
885.65	4687
885.775	4790
885.9	4706
886.025	4843
886.15	4767
886.275	4710
886.4	4653
886.525	4717
886.65	4622
886.775	4672
886.9	4919
887.025	5014
887.149	4839
887.274	4721
887.399	4649
887.523	4645
887.648	4615
887.773	4573
887.897	4801
888.021	4767
888.146	4683
888.27	4809
888.395	4904
888.519	4831
888.643	4812
888.767	4828
888.891	4679
889.015	4634
889.139	4630
889.263	4607
889.387	4763
889.511	4900
889.635	4801
889.759	4649
889.883	4615
890.006	4729
890.13	4805
890.254	4637
890.377	4710
890.501	4580
890.624	4592
890.748	4580
890.871	4538
890.995	4417
891.118	4424
891.241	4478
891.364	4538
891.488	4683
891.611	4504
891.734	4561
891.857	4611
891.98	4584
892.103	4611
892.226	4584
892.349	4504
892.471	4409
892.594	4531
892.717	4584
892.839	4531
892.962	4588
893.085	4683
893.207	4592
893.33	4466
893.452	4538
893.575	4634
893.697	4550
893.819	4805
893.941	4835
894.064	4820
894.186	4588
894.308	4577
894.43	4740
894.552	4759
894.674	4824
894.796	4634
894.918	4546
895.04	4550
895.161	4729
895.283	4672
895.405	4558
895.526	4641
895.648	4634
895.769	4675
895.891	4702
896.012	4740
896.134	4714
896.255	4634
896.376	4683
896.498	4626
896.619	4687
896.74	4599
896.861	4653
896.982	4919
897.103	5037
897.224	4854
897.345	4752
897.466	4717
897.587	4740
897.708	4873
897.828	4710
897.949	4641
898.07	4599
898.19	4592
898.311	4809
898.431	4664
898.552	4767
898.672	4839
898.792	4793
898.913	4687
899.033	4653
899.153	4508
899.273	4379
899.393	4516
899.513	4512
899.633	4538
899.753	4485
899.873	4485
899.993	4599
900.113	4546
900.232	4565
900.352	4538
900.472	4459
900.591	4409
900.711	4481
900.83	4466
900.95	4626
901.069	4675
901.189	4558
901.308	4383
901.427	4341
901.546	4337
901.665	4474
901.784	4478
901.904	4344
902.023	4360
902.141	4192
902.26	4166
902.379	4299
902.498	4249
902.617	4238
902.735	4379
902.854	4409
902.973	4356
903.091	4192
903.21	4219
903.328	4287
903.446	4280
903.565	4265
903.683	4356
903.801	4284
903.919	4405
904.038	4451
904.156	4360
904.274	4440
904.392	4409
904.51	4424
904.627	4493
904.745	4599
904.863	4683
904.981	4424
905.098	4314
905.216	4379
905.334	4432
905.451	4436
905.569	4481
905.686	4538
905.803	4558
905.921	4398
906.038	4500
906.155	4459
906.272	4424
906.389	4497
906.506	4341
906.623	4348
906.74	4367
906.857	4310
906.974	4379
907.091	4527
907.208	4668
907.324	4599
907.441	4519
907.557	4367
907.674	4341
907.79	4265
907.907	4394
908.023	4466
908.139	4459
908.256	4440
908.372	4455
908.488	4432
908.604	4379
908.72	4333
908.836	4375
908.952	4405
909.068	4424
909.184	4561
909.3	4500
909.415	4573
909.531	4493
909.647	4383
909.762	4413
909.878	4360
909.993	4379
910.108	4432
910.224	4424
910.339	4424
910.454	4405
910.57	4348
910.685	4337
910.8	4588
910.915	4580
911.03	4459
911.145	4356
911.259	4341
911.374	4356
911.489	4284
911.604	4272
911.718	4219
911.833	4215
911.947	4090
912.062	4048
912.176	4223
912.291	4230
912.405	4291
912.519	4459
912.633	4519
912.748	4398
912.862	4295
912.976	4173
913.09	4105
913.204	4257
913.318	4253
913.431	4344
913.545	4352
913.659	4466
913.772	4356
913.886	4268
914	4219
914.113	4409
914.226	4417
914.34	4402
914.453	4188
914.566	4383
914.68	4268
914.793	4272
914.906	4143
915.019	4158
915.132	4086
915.245	4181
915.358	4265
915.47	4246
915.583	4261
915.696	4253
915.809	4402
915.921	4413
916.034	4265
916.146	4230
916.259	4268
916.371	4371
916.483	4360
916.595	4253
916.708	4329
916.82	4383
916.932	4318
917.044	4318
917.156	4341
917.268	4242
917.38	4265
917.491	4257
917.603	4299
917.715	4398
917.826	4432
917.938	4363
918.049	4246
918.161	4409
918.272	4493
918.384	4523
918.495	4474
918.606	4318
918.717	4253
918.828	4325
918.939	4348
919.05	4249
919.161	4306
919.272	4147
919.383	4215
919.494	4398
919.604	4653
919.715	4447
919.826	4333
919.936	4413
920.047	4508
920.157	4523
920.267	4717
920.378	4584
920.488	4504
920.598	4717
920.708	4919
920.818	4740
920.928	4752
921.038	4934
921.148	4938
921.258	4637
921.368	4577
921.477	4481
921.587	4459
921.697	4383
921.806	4577
921.916	4398
922.025	4272
922.134	4272
922.244	4215
922.353	4337
922.462	4177
922.571	4135
922.68	3998
922.789	3975
922.898	4063
923.007	3972
923.116	4101
923.224	4063
923.333	4067
923.442	4006
923.55	3987
923.659	4051
923.767	4067
923.876	4017
923.984	4112
924.092	4006
924.201	4086
924.309	4067
924.417	4105
924.525	4074
924.633	4078
924.741	5025
924.849	3915
924.956	4101
925.064	3945
925.172	3884
925.279	3941
925.387	4025
925.494	4063
925.602	4215
925.709	4204
925.816	4059
925.924	4128
926.031	4204
926.138	4173
926.245	4223
926.352	4124
926.459	4276
926.566	4344
926.673	4196
926.779	4086
926.886	4109
926.993	3960
927.099	3945
927.206	3896
927.312	3941
927.419	4063
927.525	4013
927.631	4086
927.737	3972
927.843	3983
927.95	3808
928.056	3941
928.162	3991
928.267	4032
928.373	4637
928.479	4131
928.585	3865
928.69	4036
928.796	4074
928.901	3896
929.007	3827
929.112	4021
929.218	3956
929.323	3972
929.428	3975
929.533	4124
929.638	3915
929.743	3987
929.848	4063
929.953	4013
930.058	3915
930.163	3789
930.267	3842
930.372	3991
930.477	3778
930.581	4059
930.685	3926
930.79	3831
930.894	3850
930.998	3854
931.103	4086
931.207	3740
931.311	3766
931.415	3698
931.519	3519
931.623	3549
