Data from test_V78500241_1023.txt Node
Date: Fri Mar 25 16:56:06 CST 2022
User: usil
Spectrometer: V785-0024
Trigger mode: 0
Integration Time (sec): 4.000000E-1
Scans to average: 1
Nonlinearity correction enabled: false
Boxcar width: 0
Storing dark spectrum: false
XAxis mode: Wavelengths
Number of Pixels in Spectrum: 1024
>>>>>Begin Spectral Data<<<<<
801.071	8016
801.214	8012
801.356	7803
801.499	7814
801.641	7715
801.783	7833
801.926	7925
802.068	7887
802.211	7898
802.353	7879
802.496	7845
802.638	7795
802.78	7852
802.923	7925
803.065	7860
803.208	7917
803.35	7917
803.492	8096
803.635	8084
803.777	8069
803.919	8130
804.061	8427
804.204	8153
804.346	8054
804.488	7940
804.63	8130
804.773	8005
804.915	8145
805.057	8202
805.199	8134
805.341	8233
805.483	8233
805.626	8126
805.768	8062
805.91	8199
806.052	8164
806.194	8103
806.336	8225
806.478	8134
806.62	8043
806.762	8123
806.904	8256
807.046	8473
807.188	8256
807.33	8328
807.472	8317
807.614	8092
807.756	8077
807.898	8024
808.04	7887
808.182	7898
808.324	7883
808.465	7811
808.607	8016
808.749	8176
808.891	8138
809.033	8294
809.174	8199
809.316	8046
809.458	7978
809.6	7982
809.741	8001
809.883	7917
810.025	8054
810.166	7978
810.308	7997
810.45	7963
810.591	7830
810.733	7712
810.875	7639
811.016	7510
811.158	7483
811.299	7620
811.441	7674
811.582	7582
811.724	7499
811.865	7499
812.007	7499
812.148	7620
812.29	7609
812.431	7689
812.573	7913
812.714	7944
812.855	8096
812.997	8092
813.138	8309
813.279	8145
813.421	8069
813.562	8020
813.703	7803
813.845	7769
813.986	7445
814.127	7228
814.268	7187
814.41	7236
814.551	7107
814.692	7141
814.833	7065
814.974	7053
815.115	7057
815.256	6939
815.397	6909
815.539	6935
815.68	6814
815.821	6711
815.962	6829
816.103	6810
816.244	6741
816.385	6665
816.526	6646
816.666	6475
816.807	6304
816.948	6437
817.089	6456
817.23	6441
817.371	6350
817.512	6391
817.653	6369
817.793	6353
817.934	6365
818.075	6426
818.216	6365
818.356	6429
818.497	6197
818.638	6133
818.778	6140
818.919	6175
819.06	6133
819.2	6289
819.341	6277
819.481	6315
819.622	6494
819.762	6745
819.903	6642
820.043	6616
820.184	6555
820.324	6513
820.465	6715
820.605	6681
820.746	6673
820.886	6467
821.026	6627
821.167	6734
821.307	6768
821.447	6734
821.588	6627
821.728	6555
821.868	6475
822.008	6334
822.149	6311
822.289	6327
822.429	6114
822.569	6087
822.709	6110
822.849	5889
822.99	5916
823.13	5908
823.27	5885
823.41	5756
823.55	5767
823.69	5802
823.83	5726
823.97	5668
824.11	5512
824.25	5486
824.389	5532
824.529	5566
824.669	5505
824.809	5630
824.949	5573
825.089	5551
825.228	5581
825.368	5364
825.508	5303
825.648	5341
825.787	5341
825.927	5318
826.067	5239
826.206	5258
826.346	5307
826.485	5364
826.625	5414
826.765	5524
826.904	5532
827.044	5254
827.183	5166
827.323	5090
827.462	5227
827.601	5170
827.741	5189
827.88	5246
828.02	5109
828.159	5201
828.298	5269
828.437	5334
828.577	5242
828.716	5474
828.855	5277
828.994	5181
829.134	5098
829.273	5143
829.412	5140
829.551	5109
829.69	5124
829.829	5212
829.968	5326
830.107	5242
830.246	5239
830.385	5151
830.524	5098
830.663	5056
830.802	4968
830.941	4885
831.08	4858
831.219	4938
831.357	4942
831.496	5155
831.635	4923
831.774	4843
831.913	4858
832.051	4691
832.19	4733
832.329	4805
832.467	4664
832.606	4592
832.744	4740
832.883	4721
833.022	4706
833.16	4771
833.299	4824
833.437	4816
833.576	4805
833.714	4873
833.852	4881
833.991	4824
834.129	4965
834.267	4934
834.406	4877
834.544	4938
834.682	4942
834.821	4968
834.959	5094
835.097	4965
835.235	5086
835.373	5064
835.511	5041
835.65	4980
835.788	4953
835.926	4885
836.064	4847
836.202	4942
836.34	5132
836.478	5250
836.615	5121
836.753	5162
836.891	5322
837.029	5223
837.167	5178
837.305	5155
837.443	5094
837.58	5052
837.718	5216
837.856	5178
837.993	5124
838.131	5220
838.269	5151
838.406	5170
838.544	5117
838.681	5022
838.819	4972
838.956	4843
839.094	4904
839.231	4953
839.369	5075
839.506	5417
839.643	5258
839.781	5052
839.918	4972
840.055	5083
840.193	5041
840.33	5094
840.467	5079
840.604	5204
840.742	5448
840.879	5079
841.016	5014
841.153	5162
841.29	5353
841.427	5246
841.564	5311
841.701	5318
841.838	5231
841.975	5197
842.112	5235
842.249	5124
842.385	5052
842.522	5318
842.659	5181
842.796	5155
842.933	5155
843.069	5105
843.206	5155
843.343	5277
843.479	5250
843.616	5265
843.752	4942
843.889	4999
844.025	5181
844.162	4984
844.298	5246
844.435	5045
844.571	5018
844.708	5155
844.844	5311
844.98	5261
845.117	5341
845.253	5155
845.389	5143
845.525	5147
845.661	5098
845.798	5041
845.934	5147
846.07	5071
846.206	5239
846.342	5284
846.478	5231
846.614	5025
846.75	4987
846.886	4957
847.022	5185
847.158	5064
847.294	5128
847.429	5181
847.565	5079
847.701	5360
847.837	4877
847.972	4862
848.108	4987
848.244	4984
848.379	4820
848.515	4740
848.65	4694
848.786	4755
848.921	4793
849.057	4885
849.192	4968
849.328	4831
849.463	4858
849.598	4824
849.734	4782
849.869	4668
850.004	4710
850.14	4687
850.275	4634
850.41	4573
850.545	4580
850.68	4683
850.815	4641
850.95	4687
851.085	4873
851.22	4748
851.355	4702
851.49	4630
851.625	4653
851.76	4679
851.895	4592
852.03	4596
852.165	4653
852.299	4748
852.434	4854
852.569	4744
852.703	4850
852.838	4847
852.973	4904
853.107	4965
853.242	4805
853.376	4691
853.511	4603
853.645	4645
853.78	4805
853.914	4672
854.048	4725
854.183	4611
854.317	4763
854.451	4881
854.585	4714
854.72	4660
854.854	4774
854.988	4599
855.122	4653
855.256	4523
855.39	4660
855.524	4790
855.658	4744
855.792	4736
855.926	4748
856.06	4744
856.194	4843
856.327	4733
856.461	4596
856.595	4683
856.729	4664
856.862	4752
856.996	4675
857.13	4782
857.263	4752
857.397	4828
857.53	4630
857.664	4740
857.797	4759
857.931	4797
858.064	4786
858.197	4748
858.331	4706
858.464	4679
858.597	4538
858.731	4626
858.864	4664
858.997	4592
859.13	4653
859.263	4717
859.396	4729
859.529	4558
859.662	4626
859.795	4554
859.928	4649
860.061	4805
860.194	4778
860.327	4611
860.46	4607
860.592	4744
860.725	4752
860.858	4767
860.99	4561
861.123	4584
861.256	4599
861.388	4580
861.521	5357
861.653	4504
861.786	4440
861.918	4451
862.05	4569
862.183	4573
862.315	4615
862.447	4694
862.58	4546
862.712	4424
862.844	4405
862.976	4493
863.108	4459
863.24	4873
863.372	4344
863.504	4474
863.636	4428
863.768	4447
863.9	4413
864.032	4375
864.164	4417
864.296	4527
864.428	4596
864.559	4561
864.691	4527
864.823	4512
864.954	4512
865.086	4546
865.217	4497
865.349	4417
865.48	4481
865.612	4519
865.743	4645
865.875	4470
866.006	4478
866.137	4504
866.269	4443
866.4	4443
866.531	4459
866.662	4402
866.793	4451
866.924	4432
867.055	4462
867.186	4474
867.317	4432
867.448	4386
867.579	4440
867.71	4432
867.841	4390
867.972	4478
868.103	4493
868.233	4462
868.364	4443
868.495	4474
868.625	4706
868.756	4771
868.886	4542
869.017	4584
869.147	4790
869.278	4790
869.408	4687
869.539	4630
869.669	4736
869.799	4668
869.929	4767
870.06	4786
870.19	4946
870.32	4927
870.45	4927
870.58	5022
870.71	5143
870.84	5113
870.97	4980
871.1	4885
871.23	5124
871.36	5170
871.489	5025
871.619	5060
871.749	5124
871.879	5159
872.008	5250
872.138	5102
872.267	4976
872.397	4847
872.526	4881
872.656	4706
872.785	4790
872.915	4987
873.044	5071
873.173	4934
873.303	4987
873.432	4957
873.561	4961
873.69	4919
873.819	4847
873.948	4908
874.077	4805
874.206	4763
874.335	4801
874.464	4980
874.593	5041
874.722	5006
874.851	5086
874.979	5140
875.108	5029
875.237	5006
875.365	4930
875.494	4927
875.623	5014
875.751	4889
875.88	4900
876.008	4972
876.136	5105
876.265	5239
876.393	5349
876.521	5258
876.65	5239
876.778	5178
876.906	5064
877.034	5037
877.162	5079
877.29	4999
877.418	5052
877.546	5041
877.674	5071
877.802	5052
877.93	5010
878.058	4987
878.185	4866
878.313	4995
878.441	5014
878.568	4778
878.696	4904
878.824	4980
878.951	5018
879.079	5105
879.206	5261
879.333	5143
879.461	4946
879.588	4953
879.715	5140
879.842	5269
879.97	5003
880.097	4809
880.224	4702
880.351	4809
880.478	4824
880.605	4847
880.732	4809
880.859	5136
880.986	4915
881.112	4938
881.239	4759
881.366	4672
881.493	4637
881.619	4611
881.746	4664
881.872	4675
881.999	4649
882.125	4706
882.252	4820
882.378	4854
882.505	4976
882.631	4790
882.757	4710
882.883	4721
883.01	4706
883.136	4664
883.262	4653
883.388	4649
883.514	4816
883.64	4858
883.766	4778
883.892	4698
884.018	4702
884.143	4930
884.269	5056
884.395	4687
884.52	4618
884.646	4679
884.772	4622
884.897	4573
885.023	4645
885.148	4790
885.274	4858
885.399	4805
885.524	4793
885.65	4725
885.775	4778
885.9	4714
886.025	4866
886.15	4809
886.275	4771
886.4	4679
886.525	4729
886.65	4694
886.775	4759
886.9	4953
887.025	5056
887.149	4809
887.274	4672
887.399	4569
887.523	4603
887.648	4588
887.773	4622
887.897	4755
888.021	4771
888.146	4675
888.27	4831
888.395	4911
888.519	4866
888.643	4816
888.767	4831
888.891	4683
889.015	4615
889.139	4641
889.263	4588
889.387	4771
889.511	4881
889.635	4816
889.759	4645
889.883	4637
890.006	4698
890.13	4858
890.254	4611
890.377	4649
890.501	4527
890.624	4561
890.748	4584
890.871	4542
890.995	4405
891.118	4421
891.241	4489
891.364	4592
891.488	4622
891.611	4432
891.734	4580
891.857	4607
891.98	4558
892.103	4630
892.226	4637
892.349	4538
892.471	4451
892.594	4577
892.717	4584
892.839	4588
892.962	4580
893.085	4672
893.207	4618
893.33	4462
893.452	4531
893.575	4679
893.697	4607
893.819	4824
893.941	4835
894.064	4782
894.186	4626
894.308	4569
894.43	4736
894.552	4870
894.674	4835
894.796	4565
894.918	4599
895.04	4596
895.161	4687
895.283	4672
895.405	4538
895.526	4683
895.648	4668
895.769	4649
895.891	4717
896.012	4725
896.134	4736
896.255	4683
896.376	4660
896.498	4573
896.619	4675
896.74	4611
896.861	4656
896.982	4873
897.103	5075
897.224	4839
897.345	4759
897.466	4717
897.587	4733
897.708	4900
897.828	4759
897.949	4641
898.07	4577
898.19	4656
898.311	4831
898.431	4683
898.552	4733
898.672	4858
898.792	4805
898.913	4740
899.033	4656
899.153	4538
899.273	4428
899.393	4478
899.513	4550
899.633	4580
899.753	4611
899.873	4493
899.993	4622
900.113	4531
900.232	4611
900.352	4531
900.472	4523
900.591	4363
900.711	4500
900.83	4436
900.95	4626
901.069	4721
901.189	4573
901.308	4348
901.427	4310
901.546	4398
901.665	4459
901.784	4531
901.904	4375
902.023	4341
902.141	4188
902.26	4242
902.379	4314
902.498	4234
902.617	4223
902.735	4314
902.854	4432
902.973	4379
903.091	4230
903.21	4223
903.328	4329
903.446	4261
903.565	4284
903.683	4341
903.801	4249
903.919	4383
904.038	4443
904.156	4329
904.274	4459
904.392	4405
904.51	4398
904.627	4470
904.745	4565
904.863	4675
904.981	4379
905.098	4341
905.216	4398
905.334	4451
905.451	4447
905.569	4398
905.686	4516
905.803	4596
905.921	4398
906.038	4588
906.155	4470
906.272	4451
906.389	4447
906.506	4360
906.623	4371
906.74	4443
906.857	4314
906.974	4333
907.091	4596
907.208	4698
907.324	4596
907.441	4512
907.557	4371
907.674	4383
907.79	4318
907.907	4398
908.023	4432
908.139	4516
908.256	4447
908.372	4462
908.488	4417
908.604	4341
908.72	4325
908.836	4379
908.952	4348
909.068	4394
909.184	4618
909.3	4500
909.415	4580
909.531	4550
909.647	4325
909.762	4390
909.878	4363
909.993	4409
910.108	4383
910.224	4440
910.339	4478
910.454	4432
910.57	4363
910.685	4322
910.8	4660
910.915	4649
911.03	4500
911.145	4299
911.259	4299
911.374	4371
911.489	4310
911.604	4284
911.718	4181
911.833	4177
911.947	4086
912.062	4071
912.176	4211
912.291	4234
912.405	4242
912.519	4481
912.633	4466
912.748	4390
912.862	4333
912.976	4200
913.09	4082
913.204	4169
913.318	4257
913.431	4360
913.545	4409
913.659	4436
913.772	4390
913.886	4230
914	4249
914.113	4390
914.226	4466
914.34	4390
914.453	4272
914.566	4470
914.68	4341
914.793	4375
914.906	4147
915.019	4158
915.132	4086
915.245	4200
915.358	4249
915.47	4276
915.583	4299
915.696	4352
915.809	4432
915.921	4440
916.034	4291
916.146	4276
916.259	4280
916.371	4363
916.483	4386
916.595	4280
916.708	4352
916.82	4363
916.932	4348
917.044	4363
917.156	4344
917.268	4352
917.38	4329
917.491	4314
917.603	4398
917.715	4443
917.826	4474
917.938	4360
918.049	4268
918.161	4402
918.272	4611
918.384	4584
918.495	4493
918.606	4295
918.717	4291
918.828	4421
918.939	4379
919.05	4268
919.161	4348
919.272	4162
919.383	4234
919.494	4504
919.604	4637
919.715	4470
919.826	4379
919.936	4451
920.047	4554
920.157	4512
920.267	4721
920.378	4611
920.488	4523
920.598	4740
920.708	4938
920.818	4824
920.928	4790
921.038	4965
921.148	4965
921.258	4683
921.368	4569
921.477	4569
921.587	4474
921.697	4405
921.806	4615
921.916	4474
922.025	4310
922.134	4325
922.244	4280
922.353	4386
922.462	4219
922.571	4234
922.68	4048
922.789	4055
922.898	4063
923.007	3998
923.116	4086
923.224	4105
923.333	4097
923.442	4025
923.55	4055
923.659	4135
923.767	4150
923.876	4074
923.984	4200
924.092	4025
924.201	4086
924.309	4158
924.417	4188
924.525	4101
924.633	4135
924.741	5109
924.849	3930
924.956	4154
925.064	3979
925.172	3937
925.279	4006
925.387	4093
925.494	4067
925.602	4257
925.709	4211
925.816	3998
925.924	4135
926.031	4272
926.138	4196
926.245	4261
926.352	4124
926.459	4234
926.566	4322
926.673	4173
926.779	4097
926.886	4105
926.993	3994
927.099	3998
927.206	3937
927.312	3975
927.419	4101
927.525	4055
927.631	4169
927.737	4021
927.843	3949
927.95	3869
928.056	3934
928.162	3960
928.267	4105
928.373	4744
928.479	4128
928.585	3880
928.69	4010
928.796	4173
928.901	3979
929.007	3915
929.112	4010
929.218	4025
929.323	4021
929.428	3945
929.533	4166
929.638	3941
929.743	3960
929.848	4071
929.953	4048
930.058	3953
930.163	3785
930.267	3884
930.372	4006
930.477	3842
930.581	4162
930.685	4010
930.79	3892
930.894	3918
930.998	3896
931.103	4040
931.207	3766
931.311	3728
931.415	3648
931.519	3538
931.623	3580
