Data from test_V78500241_355.txt Node
Date: Fri Mar 25 16:51:28 CST 2022
User: usil
Spectrometer: V785-0024
Trigger mode: 0
Integration Time (sec): 4.000000E-1
Scans to average: 1
Nonlinearity correction enabled: false
Boxcar width: 0
Storing dark spectrum: false
XAxis mode: Wavelengths
Number of Pixels in Spectrum: 1024
>>>>>Begin Spectral Data<<<<<
801.071	8103
801.214	8081
801.356	7982
801.499	7928
801.641	7849
801.783	7868
801.926	7967
802.068	8027
802.211	7959
802.353	8084
802.496	7871
802.638	7879
802.78	7944
802.923	7913
803.065	7925
803.208	7871
803.35	7967
803.492	8096
803.635	8100
803.777	8065
803.919	8161
804.061	8438
804.204	8149
804.346	8058
804.488	7944
804.63	8058
804.773	8008
804.915	8115
805.057	8351
805.199	8183
805.341	8248
805.483	8317
805.626	8145
805.768	8084
805.91	8153
806.052	8210
806.194	8092
806.336	8339
806.478	8180
806.62	8077
806.762	8149
806.904	8355
807.046	8514
807.188	8336
807.33	8324
807.472	8259
807.614	8115
807.756	8111
807.898	8043
808.04	7868
808.182	7906
808.324	7970
808.465	7947
808.607	8081
808.749	8123
808.891	8240
809.033	8233
809.174	8187
809.316	8119
809.458	8054
809.6	8039
809.741	8073
809.883	8039
810.025	8123
810.166	8100
810.308	8123
810.45	8069
810.591	7913
810.733	7803
810.875	7677
811.016	7460
811.158	7483
811.299	7662
811.441	7734
811.582	7761
811.724	7628
811.865	7628
812.007	7700
812.148	7632
812.29	7613
812.431	7742
812.573	7932
812.714	7951
812.855	8111
812.997	8210
813.138	8332
813.279	8218
813.421	8020
813.562	8119
813.703	7906
813.845	7833
813.986	7419
814.127	7305
814.268	7297
814.41	7301
814.551	7194
814.692	7213
814.833	7149
814.974	7080
815.115	7133
815.256	6947
815.397	6920
815.539	6901
815.68	6840
815.821	6741
815.962	6882
816.103	6787
816.244	6764
816.385	6669
816.526	6627
816.666	6509
816.807	6334
816.948	6441
817.089	6486
817.23	6460
817.371	6418
817.512	6384
817.653	6346
817.793	6388
817.934	6395
818.075	6441
818.216	6460
818.356	6376
818.497	6258
818.638	6133
818.778	6190
818.919	6178
819.06	6098
819.2	6285
819.341	6353
819.481	6365
819.622	6486
819.762	6791
819.903	6684
820.043	6563
820.184	6570
820.324	6597
820.465	6734
820.605	6726
820.746	6662
820.886	6540
821.026	6677
821.167	6719
821.307	6783
821.447	6795
821.588	6753
821.728	6623
821.868	6544
822.008	6357
822.149	6395
822.289	6479
822.429	6171
822.569	6129
822.709	6155
822.849	5973
822.99	5977
823.13	5977
823.27	5984
823.41	5855
823.55	5828
823.69	5847
823.83	5821
823.97	5726
824.11	5528
824.25	5585
824.389	5608
824.529	5653
824.669	5532
824.809	5653
824.949	5733
825.089	5653
825.228	5630
825.368	5410
825.508	5406
825.648	5402
825.787	5459
825.927	5459
826.067	5337
826.206	5357
826.346	5497
826.485	5455
826.625	5490
826.765	5539
826.904	5562
827.044	5296
827.183	5235
827.323	5147
827.462	5337
827.601	5242
827.741	5239
827.88	5284
828.02	5159
828.159	5265
828.298	5284
828.437	5474
828.577	5349
828.716	5570
828.855	5337
828.994	5204
829.134	5223
829.273	5258
829.412	5181
829.551	5181
829.69	5265
829.829	5299
829.968	5383
830.107	5315
830.246	5345
830.385	5231
830.524	5178
830.663	5155
830.802	5079
830.941	4968
831.08	4927
831.219	5041
831.357	4991
831.496	5189
831.635	5018
831.774	4900
831.913	4942
832.051	4748
832.19	4793
832.329	4881
832.467	4774
832.606	4729
832.744	4740
832.883	4809
833.022	4774
833.16	4866
833.299	4870
833.437	4835
833.576	4938
833.714	4858
833.852	4980
833.991	4930
834.129	4984
834.267	4968
834.406	4942
834.544	5067
834.682	5060
834.821	5067
834.959	5204
835.097	5060
835.235	5181
835.373	5178
835.511	5128
835.65	5071
835.788	5071
835.926	4934
836.064	4923
836.202	4999
836.34	5170
836.478	5261
836.615	5098
836.753	5242
836.891	5345
837.029	5277
837.167	5231
837.305	5231
837.443	5178
837.58	5136
837.718	5277
837.856	5216
837.993	5140
838.131	5322
838.269	5235
838.406	5277
838.544	5231
838.681	5086
838.819	5010
838.956	4949
839.094	4980
839.231	5045
839.369	5121
839.506	5474
839.643	5307
839.781	5136
839.918	5083
840.055	5140
840.193	5128
840.33	5140
840.467	5181
840.604	5261
840.742	5463
840.879	5159
841.016	5151
841.153	5143
841.29	5410
841.427	5429
841.564	5337
841.701	5376
841.838	5341
841.975	5212
842.112	5337
842.249	5178
842.385	5166
842.522	5349
842.659	5166
842.796	5170
842.933	5242
843.069	5197
843.206	5159
843.343	5360
843.479	5299
843.616	5299
843.752	5113
843.889	5014
844.025	5277
844.162	5094
844.298	5227
844.435	5140
844.571	5071
844.708	5212
844.844	5334
844.98	5341
845.117	5303
845.253	5090
845.389	5136
845.525	5162
845.661	5136
845.798	5056
845.934	5170
846.07	5064
846.206	5227
846.342	5345
846.478	5189
846.614	5083
846.75	5041
846.886	4999
847.022	5178
847.158	5094
847.294	5075
847.429	5181
847.565	5105
847.701	5379
847.837	4885
847.972	4843
848.108	4987
848.244	4949
848.379	4847
848.515	4797
848.65	4740
848.786	4763
848.921	4790
849.057	4904
849.192	4934
849.328	4847
849.463	4949
849.598	4885
849.734	4805
849.869	4729
850.004	4634
850.14	4752
850.275	4649
850.41	4588
850.545	4615
850.68	4622
850.815	4637
850.95	4645
851.085	4839
851.22	4828
851.355	4755
851.49	4687
851.625	4645
851.76	4691
851.895	4599
852.03	4538
852.165	4683
852.299	4759
852.434	4797
852.569	4755
852.703	4759
852.838	4896
852.973	4980
853.107	4991
853.242	4786
853.376	4706
853.511	4615
853.645	4649
853.78	4797
853.914	4687
854.048	4740
854.183	4660
854.317	4755
854.451	4862
854.585	4725
854.72	4675
854.854	4809
854.988	4675
855.122	4679
855.256	4538
855.39	4702
855.524	4812
855.658	4778
855.792	4714
855.926	4805
856.06	4767
856.194	4831
856.327	4721
856.461	4664
856.595	4645
856.729	4634
856.862	4774
856.996	4733
857.13	4771
857.263	4759
857.397	4805
857.53	4664
857.664	4744
857.797	4801
857.931	4831
858.064	4733
858.197	4801
858.331	4714
858.464	4641
858.597	4573
858.731	4641
858.864	4649
858.997	4615
859.13	4752
859.263	4714
859.396	4733
859.529	4653
859.662	4615
859.795	4588
859.928	4702
860.061	4797
860.194	4820
860.327	4660
860.46	4565
860.592	4778
860.725	4771
860.858	4809
860.99	4599
861.123	4519
861.256	4580
861.388	4645
861.521	5376
861.653	4538
861.786	4481
861.918	4504
862.05	4546
862.183	4573
862.315	4630
862.447	4679
862.58	4580
862.712	4413
862.844	4383
862.976	4485
863.108	4459
863.24	4774
863.372	4375
863.504	4428
863.636	4455
863.768	4493
863.9	4409
864.032	4424
864.164	4428
864.296	4519
864.428	4615
864.559	4531
864.691	4561
864.823	4538
864.954	4519
865.086	4535
865.217	4504
865.349	4451
865.48	4519
865.612	4470
865.743	4729
865.875	4478
866.006	4462
866.137	4519
866.269	4462
866.4	4493
866.531	4443
866.662	4436
866.793	4413
866.924	4447
867.055	4489
867.186	4519
867.317	4432
867.448	4413
867.579	4417
867.71	4424
867.841	4409
867.972	4516
868.103	4451
868.233	4447
868.364	4424
868.495	4519
868.625	4702
868.756	4809
868.886	4607
869.017	4622
869.147	4790
869.278	4812
869.408	4679
869.539	4683
869.669	4767
869.799	4656
869.929	4782
870.06	4790
870.19	4949
870.32	4949
870.45	4984
870.58	5067
870.71	5121
870.84	5143
870.97	4999
871.1	4976
871.23	5174
871.36	5128
871.489	5090
871.619	5128
871.749	5159
871.879	5121
872.008	5185
872.138	5128
872.267	5010
872.397	4892
872.526	4809
872.656	4763
872.785	4801
872.915	5003
873.044	5121
873.173	5003
873.303	5006
873.432	5018
873.561	4968
873.69	4904
873.819	4900
873.948	4930
874.077	4831
874.206	4771
874.335	4816
874.464	4953
874.593	5071
874.722	4995
874.851	5181
874.979	5086
875.108	5075
875.237	4919
875.365	4911
875.494	4923
875.623	4980
875.751	4843
875.88	4877
876.008	5010
876.136	5113
876.265	5189
876.393	5417
876.521	5292
876.65	5239
876.778	5155
876.906	5147
877.034	5037
877.162	5060
877.29	5010
877.418	5060
877.546	5075
877.674	5037
877.802	5060
877.93	5025
878.058	4991
878.185	4908
878.313	4991
878.441	5033
878.568	4801
878.696	4889
878.824	5037
878.951	5064
879.079	5174
879.206	5326
879.333	5090
879.461	5018
879.588	5018
879.715	5132
879.842	5277
879.97	4999
880.097	4801
880.224	4793
880.351	4847
880.478	4908
880.605	4858
880.732	4809
880.859	5090
880.986	4965
881.112	4930
881.239	4790
881.366	4687
881.493	4607
881.619	4656
881.746	4615
881.872	4706
881.999	4683
882.125	4740
882.252	4793
882.378	4889
882.505	4965
882.631	4839
882.757	4736
882.883	4736
883.01	4793
883.136	4668
883.262	4630
883.388	4641
883.514	4828
883.64	4870
883.766	4809
883.892	4668
884.018	4748
884.143	4889
884.269	5014
884.395	4763
884.52	4660
884.646	4675
884.772	4615
884.897	4558
885.023	4706
885.148	4763
885.274	4896
885.399	4793
885.524	4748
885.65	4694
885.775	4733
885.9	4714
886.025	4892
886.15	4877
886.275	4725
886.4	4672
886.525	4744
886.65	4752
886.775	4691
886.9	4972
887.025	5029
887.149	4805
887.274	4691
887.399	4603
887.523	4637
887.648	4603
887.773	4592
887.897	4778
888.021	4805
888.146	4668
888.27	4847
888.395	4904
888.519	4828
888.643	4870
888.767	4858
888.891	4679
889.015	4706
889.139	4649
889.263	4580
889.387	4778
889.511	4904
889.635	4820
889.759	4664
889.883	4660
890.006	4721
890.13	4790
890.254	4626
890.377	4755
890.501	4561
890.624	4535
890.748	4672
890.871	4523
890.995	4470
891.118	4390
891.241	4542
891.364	4538
891.488	4637
891.611	4523
891.734	4596
891.857	4596
891.98	4573
892.103	4679
892.226	4618
892.349	4508
892.471	4474
892.594	4569
892.717	4622
892.839	4607
892.962	4618
893.085	4672
893.207	4634
893.33	4478
893.452	4531
893.575	4649
893.697	4607
893.819	4782
893.941	4767
894.064	4759
894.186	4580
894.308	4660
894.43	4748
894.552	4828
894.674	4790
894.796	4584
894.918	4615
895.04	4569
895.161	4675
895.283	4687
895.405	4611
895.526	4653
895.648	4706
895.769	4755
895.891	4710
896.012	4774
896.134	4767
896.255	4641
896.376	4687
896.498	4634
896.619	4752
896.74	4645
896.861	4630
896.982	4965
897.103	5090
897.224	4824
897.345	4755
897.466	4683
897.587	4767
897.708	4854
897.828	4801
897.949	4694
898.07	4592
898.19	4645
898.311	4816
898.431	4721
898.552	4748
898.672	4843
898.792	4771
898.913	4759
899.033	4660
899.153	4542
899.273	4440
899.393	4573
899.513	4500
899.633	4554
899.753	4588
899.873	4546
899.993	4603
900.113	4542
900.232	4645
900.352	4535
900.472	4512
900.591	4421
900.711	4546
900.83	4466
900.95	4649
901.069	4694
901.189	4546
901.308	4344
901.427	4360
901.546	4417
901.665	4535
901.784	4493
901.904	4421
902.023	4295
902.141	4219
902.26	4150
902.379	4303
902.498	4318
902.617	4211
902.735	4344
902.854	4405
902.973	4341
903.091	4204
903.21	4223
903.328	4329
903.446	4272
903.565	4291
903.683	4348
903.801	4268
903.919	4390
904.038	4459
904.156	4367
904.274	4432
904.392	4451
904.51	4478
904.627	4489
904.745	4603
904.863	4664
904.981	4409
905.098	4295
905.216	4367
905.334	4443
905.451	4474
905.569	4413
905.686	4546
905.803	4592
905.921	4428
906.038	4565
906.155	4512
906.272	4413
906.389	4500
906.506	4337
906.623	4386
906.74	4375
906.857	4337
906.974	4390
907.091	4607
907.208	4672
907.324	4592
907.441	4508
907.557	4318
907.674	4344
907.79	4322
907.907	4356
908.023	4542
908.139	4508
908.256	4447
908.372	4474
908.488	4459
908.604	4383
908.72	4322
908.836	4409
908.952	4394
909.068	4432
909.184	4588
909.3	4516
909.415	4641
909.531	4573
909.647	4352
909.762	4402
909.878	4329
909.993	4466
910.108	4428
910.224	4405
910.339	4474
910.454	4394
910.57	4333
910.685	4322
910.8	4675
910.915	4664
911.03	4508
911.145	4356
911.259	4348
911.374	4360
911.489	4299
911.604	4261
911.718	4147
911.833	4200
911.947	4124
912.062	4059
912.176	4268
912.291	4261
912.405	4257
912.519	4489
912.633	4497
912.748	4386
912.862	4360
912.976	4188
913.09	4131
913.204	4128
913.318	4215
913.431	4383
913.545	4367
913.659	4459
913.772	4413
913.886	4284
914	4249
914.113	4394
914.226	4432
914.34	4409
914.453	4207
914.566	4390
914.68	4356
914.793	4318
914.906	4124
915.019	4166
915.132	4017
915.245	4181
915.358	4215
915.47	4188
915.583	4246
915.696	4299
915.809	4428
915.921	4428
916.034	4276
916.146	4291
916.259	4207
916.371	4375
916.483	4383
916.595	4299
916.708	4390
916.82	4344
916.932	4306
917.044	4352
917.156	4386
917.268	4223
917.38	4284
917.491	4272
917.603	4360
917.715	4409
917.826	4459
917.938	4348
918.049	4234
918.161	4386
918.272	4531
918.384	4523
918.495	4466
918.606	4306
918.717	4238
918.828	4360
918.939	4443
919.05	4272
919.161	4322
919.272	4135
919.383	4295
919.494	4504
919.604	4641
919.715	4432
919.826	4383
919.936	4428
920.047	4538
920.157	4512
920.267	4702
920.378	4538
920.488	4542
920.598	4721
920.708	4927
920.818	4812
920.928	4774
921.038	4908
921.148	4900
921.258	4653
921.368	4584
921.477	4512
921.587	4474
921.697	4402
921.806	4542
921.916	4409
922.025	4249
922.134	4268
922.244	4257
922.353	4303
922.462	4166
922.571	4131
922.68	4051
922.789	3972
922.898	4032
923.007	3987
923.116	4116
923.224	4063
923.333	4051
923.442	4036
923.55	3968
923.659	4029
923.767	4116
923.876	4013
923.984	4131
924.092	3964
924.201	4101
924.309	4105
924.417	4112
924.525	4055
924.633	4131
924.741	4877
924.849	3915
924.956	4116
925.064	3972
925.172	3930
925.279	3979
925.387	4063
925.494	4067
925.602	4242
925.709	4219
925.816	4044
925.924	4131
926.031	4200
926.138	4154
926.245	4192
926.352	4109
926.459	4238
926.566	4280
926.673	4173
926.779	4097
926.886	4116
926.993	4013
927.099	4013
927.206	3937
927.312	3983
927.419	4074
927.525	4051
927.631	4078
927.737	3953
927.843	3964
927.95	3850
928.056	3934
928.162	3949
928.267	4036
928.373	4694
928.479	4112
928.585	3892
928.69	4040
928.796	4067
928.901	3956
929.007	3861
929.112	4021
929.218	4017
929.323	3937
929.428	3937
929.533	4162
929.638	3922
929.743	3968
929.848	4067
929.953	4021
930.058	3915
930.163	3774
930.267	3888
930.372	3972
930.477	3804
930.581	4074
930.685	3983
930.79	3827
930.894	3907
930.998	3873
931.103	4067
931.207	3701
931.311	3690
931.415	3622
931.519	3515
931.623	3576
