Data from test_V78500241_2766.txt Node
Date: Fri Mar 25 17:08:14 CST 2022
User: usil
Spectrometer: V785-0024
Trigger mode: 0
Integration Time (sec): 4.000000E-1
Scans to average: 1
Nonlinearity correction enabled: false
Boxcar width: 0
Storing dark spectrum: false
XAxis mode: Wavelengths
Number of Pixels in Spectrum: 1024
>>>>>Begin Spectral Data<<<<<
801.071	8016
801.214	7967
801.356	7837
801.499	7841
801.641	7772
801.783	7849
801.926	8043
802.068	7967
802.211	8005
802.353	8001
802.496	7887
802.638	7845
802.78	7883
802.923	7963
803.065	7875
803.208	7811
803.35	7921
803.492	8077
803.635	8202
803.777	8062
803.919	8168
804.061	8438
804.204	8134
804.346	8084
804.488	7978
804.63	8119
804.773	8020
804.915	8088
805.057	8313
805.199	8107
805.341	8218
805.483	8279
805.626	8225
805.768	8100
805.91	8187
806.052	8240
806.194	8149
806.336	8275
806.478	8100
806.62	8088
806.762	8111
806.904	8183
807.046	8454
807.188	8377
807.33	8313
807.472	8324
807.614	8149
807.756	8088
807.898	8008
808.04	7921
808.182	7879
808.324	7925
808.465	7970
808.607	8123
808.749	8084
808.891	8240
809.033	8305
809.174	8286
809.316	8092
809.458	8058
809.6	7997
809.741	7951
809.883	7959
810.025	8069
810.166	8134
810.308	7970
810.45	8012
810.591	7898
810.733	7753
810.875	7666
811.016	7537
811.158	7510
811.299	7613
811.441	7753
811.582	7696
811.724	7567
811.865	7556
812.007	7590
812.148	7578
812.29	7609
812.431	7719
812.573	7921
812.714	8001
812.855	8168
812.997	8233
813.138	8263
813.279	8206
813.421	8107
813.562	7997
813.703	7864
813.845	7769
813.986	7460
814.127	7270
814.268	7263
814.41	7213
814.551	7251
814.692	7126
814.833	7053
814.974	7072
815.115	7107
815.256	6909
815.397	6920
815.539	6943
815.68	6825
815.821	6814
815.962	6894
816.103	6825
816.244	6757
816.385	6623
816.526	6608
816.666	6502
816.807	6289
816.948	6441
817.089	6509
817.23	6407
817.371	6350
817.512	6372
817.653	6376
817.793	6353
817.934	6410
818.075	6486
818.216	6403
818.356	6471
818.497	6251
818.638	6121
818.778	6197
818.919	6152
819.06	6144
819.2	6334
819.341	6247
819.481	6361
819.622	6570
819.762	6734
819.903	6707
820.043	6559
820.184	6578
820.324	6620
820.465	6669
820.605	6673
820.746	6566
820.886	6479
821.026	6726
821.167	6764
821.307	6779
821.447	6814
821.588	6662
821.728	6612
821.868	6498
822.008	6342
822.149	6407
822.289	6380
822.429	6194
822.569	6087
822.709	6098
822.849	5923
822.99	5920
823.13	5965
823.27	5908
823.41	5824
823.55	5817
823.69	5798
823.83	5760
823.97	5661
824.11	5486
824.25	5524
824.389	5581
824.529	5615
824.669	5512
824.809	5627
824.949	5581
825.089	5596
825.228	5558
825.368	5364
825.508	5322
825.648	5376
825.787	5318
825.927	5383
826.067	5284
826.206	5296
826.346	5387
826.485	5383
826.625	5425
826.765	5554
826.904	5471
827.044	5288
827.183	5174
827.323	5083
827.462	5258
827.601	5216
827.741	5174
827.88	5239
828.02	5124
828.159	5216
828.298	5307
828.437	5337
828.577	5277
828.716	5467
828.855	5341
828.994	5204
829.134	5128
829.273	5166
829.412	5178
829.551	5102
829.69	5128
829.829	5231
829.968	5376
830.107	5288
830.246	5299
830.385	5166
830.524	5113
830.663	5086
830.802	4961
830.941	4862
831.08	4900
831.219	4976
831.357	5014
831.496	5105
831.635	4923
831.774	4854
831.913	4877
832.051	4717
832.19	4763
832.329	4927
832.467	4725
832.606	4630
832.744	4717
832.883	4740
833.022	4702
833.16	4759
833.299	4793
833.437	4801
833.576	4835
833.714	4858
833.852	4923
833.991	4904
834.129	4919
834.267	4953
834.406	4896
834.544	4953
834.682	4999
834.821	4923
834.959	5166
835.097	4972
835.235	5124
835.373	5071
835.511	5098
835.65	5029
835.788	5018
835.926	4923
836.064	4877
836.202	4877
836.34	5178
836.478	5181
836.615	5113
836.753	5212
836.891	5292
837.029	5280
837.167	5197
837.305	5124
837.443	5147
837.58	5048
837.718	5254
837.856	5166
837.993	5117
838.131	5246
838.269	5201
838.406	5181
838.544	5113
838.681	5029
838.819	5006
838.956	4885
839.094	4877
839.231	4923
839.369	5033
839.506	5395
839.643	5250
839.781	5037
839.918	5045
840.055	5151
840.193	5071
840.33	5094
840.467	5124
840.604	5201
840.742	5452
840.879	5079
841.016	5086
841.153	5155
841.29	5368
841.427	5269
841.564	5326
841.701	5360
841.838	5242
841.975	5216
842.112	5246
842.249	5124
842.385	5071
842.522	5261
842.659	5151
842.796	5113
842.933	5223
843.069	5052
843.206	5170
843.343	5299
843.479	5242
843.616	5227
843.752	5025
843.889	5006
844.025	5250
844.162	5018
844.298	5261
844.435	5102
844.571	5025
844.708	5185
844.844	5292
844.98	5326
845.117	5277
845.253	5102
845.389	5025
845.525	5147
845.661	5090
845.798	5094
845.934	5136
846.07	5041
846.206	5204
846.342	5250
846.478	5159
846.614	4995
846.75	4984
846.886	4930
847.022	5140
847.158	5003
847.294	5033
847.429	5124
847.565	5094
847.701	5364
847.837	4889
847.972	4752
848.108	4930
848.244	4957
848.379	4767
848.515	4710
848.65	4714
848.786	4748
848.921	4774
849.057	4847
849.192	4892
849.328	4854
849.463	4835
849.598	4771
849.734	4748
849.869	4637
850.004	4573
850.14	4607
850.275	4599
850.41	4508
850.545	4523
850.68	4637
850.815	4584
850.95	4603
851.085	4824
851.22	4706
851.355	4649
851.49	4584
851.625	4615
851.76	4599
851.895	4535
852.03	4493
852.165	4649
852.299	4672
852.434	4786
852.569	4752
852.703	4740
852.838	4786
852.973	4877
853.107	4854
853.242	4752
853.376	4656
853.511	4550
853.645	4626
853.78	4767
853.914	4653
854.048	4656
854.183	4626
854.317	4649
854.451	4801
854.585	4691
854.72	4649
854.854	4740
854.988	4580
855.122	4637
855.256	4523
855.39	4607
855.524	4793
855.658	4698
855.792	4725
855.926	4740
856.06	4774
856.194	4797
856.327	4687
856.461	4660
856.595	4649
856.729	4634
856.862	4759
856.996	4752
857.13	4774
857.263	4809
857.397	4870
857.53	4618
857.664	4729
857.797	4793
857.931	4763
858.064	4702
858.197	4828
858.331	4771
858.464	4618
858.597	4565
858.731	4664
858.864	4672
858.997	4656
859.13	4675
859.263	4710
859.396	4744
859.529	4558
859.662	4596
859.795	4561
859.928	4675
860.061	4816
860.194	4782
860.327	4634
860.46	4599
860.592	4782
860.725	4793
860.858	4748
860.99	4622
861.123	4577
861.256	4550
861.388	4641
861.521	5402
861.653	4569
861.786	4497
861.918	4512
862.05	4565
862.183	4546
862.315	4649
862.447	4687
862.58	4607
862.712	4443
862.844	4367
862.976	4455
863.108	4497
863.24	4809
863.372	4394
863.504	4470
863.636	4432
863.768	4504
863.9	4466
864.032	4462
864.164	4424
864.296	4516
864.428	4618
864.559	4596
864.691	4599
864.823	4569
864.954	4584
865.086	4554
865.217	4527
865.349	4451
865.48	4497
865.612	4500
865.743	4672
865.875	4542
866.006	4523
866.137	4481
866.269	4474
866.4	4443
866.531	4447
866.662	4474
866.793	4440
866.924	4508
867.055	4455
867.186	4466
867.317	4451
867.448	4421
867.579	4402
867.71	4436
867.841	4405
867.972	4508
868.103	4504
868.233	4493
868.364	4459
868.495	4550
868.625	4683
868.756	4748
868.886	4580
869.017	4656
869.147	4809
869.278	4812
869.408	4683
869.539	4668
869.669	4744
869.799	4668
869.929	4778
870.06	4854
870.19	4961
870.32	4957
870.45	4987
870.58	5022
870.71	5064
870.84	5162
870.97	4968
871.1	4995
871.23	5204
871.36	5189
871.489	5071
871.619	5102
871.749	5105
871.879	5121
872.008	5220
872.138	5132
872.267	5025
872.397	4904
872.526	4850
872.656	4801
872.785	4835
872.915	4980
873.044	5041
873.173	4976
873.303	5010
873.432	4942
873.561	5022
873.69	4957
873.819	4870
873.948	4968
874.077	4881
874.206	4786
874.335	4790
874.464	4965
874.593	5109
874.722	4995
874.851	5109
874.979	5022
875.108	5083
875.237	4942
875.365	4919
875.494	4870
875.623	4984
875.751	4843
875.88	4927
876.008	5018
876.136	5067
876.265	5216
876.393	5357
876.521	5345
876.65	5250
876.778	5174
876.906	5094
877.034	5060
877.162	5067
877.29	5010
877.418	5071
877.546	5090
877.674	5083
877.802	5045
877.93	5071
878.058	4991
878.185	4923
878.313	5010
878.441	4972
878.568	4850
878.696	4873
878.824	4995
878.951	5022
879.079	5143
879.206	5280
879.333	5132
879.461	5014
879.588	5029
879.715	5155
879.842	5280
879.97	5022
880.097	4873
880.224	4812
880.351	4843
880.478	4858
880.605	4862
880.732	4793
880.859	5109
880.986	4968
881.112	4949
881.239	4839
881.366	4744
881.493	4653
881.619	4687
881.746	4634
881.872	4668
881.999	4702
882.125	4668
882.252	4797
882.378	4866
882.505	4934
882.631	4850
882.757	4717
882.883	4782
883.01	4729
883.136	4717
883.262	4630
883.388	4637
883.514	4805
883.64	4904
883.766	4812
883.892	4721
884.018	4740
884.143	4911
884.269	5098
884.395	4717
884.52	4664
884.646	4710
884.772	4607
884.897	4637
885.023	4714
885.148	4801
885.274	4949
885.399	4816
885.524	4774
885.65	4714
885.775	4748
885.9	4714
886.025	4908
886.15	4816
886.275	4782
886.4	4675
886.525	4755
886.65	4717
886.775	4733
886.9	4934
887.025	5037
887.149	4805
887.274	4645
887.399	4565
887.523	4622
887.648	4653
887.773	4603
887.897	4801
888.021	4839
888.146	4740
888.27	4873
888.395	4980
888.519	4797
888.643	4824
888.767	4892
888.891	4714
889.015	4611
889.139	4698
889.263	4679
889.387	4824
889.511	4896
889.635	4809
889.759	4660
889.883	4660
890.006	4729
890.13	4866
890.254	4626
890.377	4691
890.501	4577
890.624	4550
890.748	4588
890.871	4493
890.995	4485
891.118	4409
891.241	4538
891.364	4573
891.488	4626
891.611	4500
891.734	4538
891.857	4622
891.98	4611
892.103	4664
892.226	4656
892.349	4603
892.471	4428
892.594	4611
892.717	4584
892.839	4573
892.962	4653
893.085	4691
893.207	4603
893.33	4489
893.452	4538
893.575	4748
893.697	4603
893.819	4839
893.941	4862
894.064	4767
894.186	4649
894.308	4561
894.43	4736
894.552	4858
894.674	4736
894.796	4615
894.918	4592
895.04	4596
895.161	4759
895.283	4675
895.405	4611
895.526	4641
895.648	4755
895.769	4656
895.891	4759
896.012	4755
896.134	4790
896.255	4725
896.376	4653
896.498	4672
896.619	4687
896.74	4683
896.861	4710
896.982	4927
897.103	5052
897.224	4850
897.345	4786
897.466	4649
897.587	4714
897.708	4892
897.828	4782
897.949	4721
898.07	4622
898.19	4626
898.311	4847
898.431	4710
898.552	4740
898.672	4866
898.792	4824
898.913	4736
899.033	4679
899.153	4569
899.273	4489
899.393	4580
899.513	4554
899.633	4573
899.753	4558
899.873	4531
899.993	4607
900.113	4603
900.232	4607
900.352	4531
900.472	4542
900.591	4394
900.711	4538
900.83	4512
900.95	4615
901.069	4755
901.189	4558
901.308	4402
901.427	4318
901.546	4383
901.665	4466
901.784	4561
901.904	4386
902.023	4318
902.141	4253
902.26	4215
902.379	4318
902.498	4276
902.617	4265
902.735	4398
902.854	4424
902.973	4398
903.091	4227
903.21	4280
903.328	4360
903.446	4276
903.565	4291
903.683	4428
903.801	4295
903.919	4466
904.038	4440
904.156	4344
904.274	4474
904.392	4375
904.51	4432
904.627	4485
904.745	4618
904.863	4645
904.981	4417
905.098	4348
905.216	4413
905.334	4474
905.451	4424
905.569	4459
905.686	4596
905.803	4577
905.921	4421
906.038	4561
906.155	4481
906.272	4470
906.389	4443
906.506	4367
906.623	4417
906.74	4405
906.857	4333
906.974	4379
907.091	4554
907.208	4717
907.324	4637
907.441	4493
907.557	4379
907.674	4371
907.79	4341
907.907	4337
908.023	4462
908.139	4523
908.256	4459
908.372	4481
908.488	4474
908.604	4367
908.72	4348
908.836	4428
908.952	4390
909.068	4455
909.184	4584
909.3	4489
909.415	4607
909.531	4542
909.647	4356
909.762	4383
909.878	4322
909.993	4478
910.108	4421
910.224	4421
910.339	4478
910.454	4466
910.57	4367
910.685	4333
910.8	4645
910.915	4596
911.03	4527
911.145	4322
911.259	4348
911.374	4352
911.489	4287
911.604	4268
911.718	4215
911.833	4280
911.947	4074
912.062	4074
912.176	4219
912.291	4265
912.405	4310
912.519	4535
912.633	4531
912.748	4371
912.862	4394
912.976	4223
913.09	4131
913.204	4147
913.318	4287
913.431	4443
913.545	4421
913.659	4474
913.772	4386
913.886	4318
914	4257
914.113	4386
914.226	4470
914.34	4367
914.453	4291
914.566	4447
914.68	4306
914.793	4337
914.906	4169
915.019	4154
915.132	4131
915.245	4200
915.358	4227
915.47	4287
915.583	4257
915.696	4318
915.809	4440
915.921	4424
916.034	4280
916.146	4272
916.259	4265
916.371	4379
916.483	4383
916.595	4280
916.708	4356
916.82	4303
916.932	4363
917.044	4329
917.156	4352
917.268	4261
917.38	4299
917.491	4257
917.603	4383
917.715	4478
917.826	4470
917.938	4337
918.049	4246
918.161	4375
918.272	4573
918.384	4516
918.495	4489
918.606	4325
918.717	4272
918.828	4299
918.939	4390
919.05	4272
919.161	4341
919.272	4112
919.383	4253
919.494	4436
919.604	4630
919.715	4413
919.826	4344
919.936	4398
920.047	4508
920.157	4535
920.267	4710
920.378	4588
920.488	4481
920.598	4744
920.708	4908
920.818	4759
920.928	4721
921.038	4946
921.148	4930
921.258	4596
921.368	4573
921.477	4542
921.587	4493
921.697	4383
921.806	4531
921.916	4459
922.025	4276
922.134	4207
922.244	4299
922.353	4375
922.462	4204
922.571	4150
922.68	4032
922.789	4025
922.898	4044
923.007	4048
923.116	4112
923.224	4097
923.333	4135
923.442	4013
923.55	4044
923.659	4051
923.767	4162
923.876	4044
923.984	4181
924.092	4036
924.201	4071
924.309	4207
924.417	4181
924.525	4112
924.633	4162
924.741	5090
924.849	3956
924.956	4150
925.064	4067
925.172	3972
925.279	4055
925.387	4109
925.494	4131
925.602	4310
925.709	4230
925.816	4090
925.924	4211
926.031	4253
926.138	4261
926.245	4257
926.352	4177
926.459	4303
926.566	4344
926.673	4230
926.779	4131
926.886	4086
926.993	4036
927.099	4013
927.206	4006
927.312	3956
927.419	4124
927.525	4051
927.631	4185
927.737	4002
927.843	3979
927.95	3941
928.056	4032
928.162	4063
928.267	4143
928.373	4767
928.479	4162
928.585	3949
928.69	4101
928.796	4128
928.901	4032
929.007	3918
929.112	4051
929.218	4021
929.323	4025
929.428	3991
929.533	4143
929.638	3918
929.743	4021
929.848	4124
929.953	4074
930.058	3956
930.163	3816
930.267	3876
930.372	3975
930.477	3857
930.581	4158
930.685	3991
930.79	3899
930.894	3972
930.998	3926
931.103	4059
931.207	3755
931.311	3720
931.415	3732
931.519	3591
931.623	3603
