Data from test_V78500241_69.txt Node
Date: Fri Mar 25 16:49:29 CST 2022
User: usil
Spectrometer: V785-0024
Trigger mode: 0
Integration Time (sec): 4.000000E-1
Scans to average: 1
Nonlinearity correction enabled: false
Boxcar width: 0
Storing dark spectrum: false
XAxis mode: Wavelengths
Number of Pixels in Spectrum: 1024
>>>>>Begin Spectral Data<<<<<
801.071	7978
801.214	8096
801.356	7936
801.499	7898
801.641	7849
801.783	7799
801.926	8031
802.068	7993
802.211	7986
802.353	8035
802.496	7902
802.638	7887
802.78	7940
802.923	7959
803.065	7909
803.208	7913
803.35	8001
803.492	8081
803.635	8111
803.777	7970
803.919	8153
804.061	8454
804.204	8142
804.346	8054
804.488	8001
804.63	8111
804.773	7986
804.915	8123
805.057	8221
805.199	8187
805.341	8191
805.483	8240
805.626	8252
805.768	8100
805.91	8233
806.052	8172
806.194	8164
806.336	8324
806.478	8100
806.62	8130
806.762	8210
806.904	8294
807.046	8473
807.188	8358
807.33	8336
807.472	8377
807.614	8199
807.756	8267
807.898	8005
808.04	7944
808.182	7974
808.324	7997
808.465	7932
808.607	8081
808.749	8100
808.891	8206
809.033	8362
809.174	8210
809.316	7978
809.458	8069
809.6	7997
809.741	8001
809.883	8103
810.025	8142
810.166	8077
810.308	8161
810.45	8107
810.591	7936
810.733	7772
810.875	7731
811.016	7571
811.158	7533
811.299	7586
811.441	7765
811.582	7738
811.724	7750
811.865	7609
812.007	7658
812.148	7693
812.29	7685
812.431	7750
812.573	7875
812.714	8046
812.855	8161
812.997	8225
813.138	8377
813.279	8290
813.421	8199
813.562	8027
813.703	7875
813.845	7742
813.986	7396
814.127	7335
814.268	7266
814.41	7255
814.551	7240
814.692	7232
814.833	7141
814.974	7149
815.115	7160
815.256	6970
815.397	6954
815.539	6928
815.68	6863
815.821	6810
815.962	6875
816.103	6844
816.244	6772
816.385	6631
816.526	6635
816.666	6623
816.807	6350
816.948	6509
817.089	6467
817.23	6483
817.371	6467
817.512	6475
817.653	6391
817.793	6464
817.934	6467
818.075	6483
818.216	6494
818.356	6445
818.497	6270
818.638	6194
818.778	6167
818.919	6186
819.06	6205
819.2	6327
819.341	6327
819.481	6365
819.622	6608
819.762	6802
819.903	6719
820.043	6677
820.184	6623
820.324	6623
820.465	6749
820.605	6669
820.746	6654
820.886	6585
821.026	6749
821.167	6787
821.307	6814
821.447	6871
821.588	6719
821.728	6646
821.868	6544
822.008	6327
822.149	6414
822.289	6429
822.429	6095
822.569	6152
822.709	6186
822.849	5931
822.99	5931
823.13	5973
823.27	5927
823.41	5840
823.55	5786
823.69	5809
823.83	5813
823.97	5756
824.11	5596
824.25	5543
824.389	5570
824.529	5611
824.669	5558
824.809	5676
824.949	5657
825.089	5653
825.228	5615
825.368	5421
825.508	5433
825.648	5398
825.787	5417
825.927	5372
826.067	5318
826.206	5296
826.346	5425
826.485	5520
826.625	5440
826.765	5528
826.904	5509
827.044	5284
827.183	5216
827.323	5159
827.462	5273
827.601	5197
827.741	5239
827.88	5277
828.02	5140
828.159	5261
828.298	5349
828.437	5417
828.577	5322
828.716	5535
828.855	5349
828.994	5216
829.134	5162
829.273	5181
829.412	5208
829.551	5143
829.69	5216
829.829	5246
829.968	5410
830.107	5307
830.246	5337
830.385	5174
830.524	5155
830.663	5113
830.802	4949
830.941	4911
831.08	4896
831.219	5022
831.357	4984
831.496	5201
831.635	4923
831.774	4927
831.913	4870
832.051	4790
832.19	4786
832.329	4839
832.467	4774
832.606	4653
832.744	4786
832.883	4755
833.022	4763
833.16	4812
833.299	4801
833.437	4831
833.576	4839
833.714	4873
833.852	4843
833.991	4930
834.129	4991
834.267	4934
834.406	4927
834.544	5014
834.682	4991
834.821	5037
834.959	5261
835.097	5003
835.235	5231
835.373	5121
835.511	5166
835.65	5086
835.788	5071
835.926	4908
836.064	4908
836.202	4984
836.34	5204
836.478	5242
836.615	5113
836.753	5250
836.891	5322
837.029	5261
837.167	5201
837.305	5136
837.443	5204
837.58	5056
837.718	5277
837.856	5181
837.993	5132
838.131	5277
838.269	5212
838.406	5212
838.544	5197
838.681	5075
838.819	5029
838.956	4934
839.094	4946
839.231	5048
839.369	5132
839.506	5387
839.643	5292
839.781	5064
839.918	5025
840.055	5143
840.193	5094
840.33	5132
840.467	5193
840.604	5204
840.742	5452
840.879	5124
841.016	5162
841.153	5185
841.29	5410
841.427	5330
841.564	5357
841.701	5402
841.838	5265
841.975	5288
842.112	5322
842.249	5136
842.385	5197
842.522	5341
842.659	5185
842.796	5201
842.933	5246
843.069	5159
843.206	5162
843.343	5292
843.479	5292
843.616	5303
843.752	5010
843.889	5071
844.025	5223
844.162	5045
844.298	5231
844.435	5124
844.571	5071
844.708	5201
844.844	5318
844.98	5372
845.117	5372
845.253	5162
845.389	5109
845.525	5193
845.661	5159
845.798	5098
845.934	5204
846.07	5037
846.206	5254
846.342	5315
846.478	5208
846.614	5064
846.75	4961
846.886	4938
847.022	5132
847.158	5098
847.294	5117
847.429	5105
847.565	5086
847.701	5414
847.837	4873
847.972	4828
848.108	4908
848.244	4957
848.379	4828
848.515	4759
848.65	4740
848.786	4812
848.921	4801
849.057	4870
849.192	4972
849.328	4839
849.463	4820
849.598	4835
849.734	4801
849.869	4721
850.004	4668
850.14	4645
850.275	4649
850.41	4561
850.545	4546
850.68	4615
850.815	4653
850.95	4672
851.085	4896
851.22	4763
851.355	4733
851.49	4672
851.625	4660
851.76	4645
851.895	4580
852.03	4542
852.165	4675
852.299	4721
852.434	4767
852.569	4736
852.703	4801
852.838	4885
852.973	4927
853.107	4934
853.242	4797
853.376	4698
853.511	4569
853.645	4653
853.78	4835
853.914	4748
854.048	4710
854.183	4656
854.317	4714
854.451	4812
854.585	4698
854.72	4683
854.854	4786
854.988	4649
855.122	4618
855.256	4569
855.39	4622
855.524	4812
855.658	4740
855.792	4729
855.926	4744
856.06	4820
856.194	4828
856.327	4755
856.461	4668
856.595	4645
856.729	4668
856.862	4748
856.996	4748
857.13	4755
857.263	4782
857.397	4847
857.53	4702
857.664	4740
857.797	4797
857.931	4812
858.064	4698
858.197	4786
858.331	4679
858.464	4698
858.597	4546
858.731	4687
858.864	4641
858.997	4615
859.13	4679
859.263	4725
859.396	4710
859.529	4584
859.662	4607
859.795	4527
859.928	4622
860.061	4771
860.194	4774
860.327	4656
860.46	4584
860.592	4733
860.725	4797
860.858	4687
860.99	4626
861.123	4527
861.256	4546
861.388	4649
861.521	5277
861.653	4535
861.786	4455
861.918	4428
862.05	4561
862.183	4603
862.315	4656
862.447	4672
862.58	4592
862.712	4417
862.844	4352
862.976	4470
863.108	4470
863.24	4885
863.372	4367
863.504	4432
863.636	4447
863.768	4516
863.9	4451
864.032	4371
864.164	4421
864.296	4478
864.428	4573
864.559	4561
864.691	4561
864.823	4558
864.954	4558
865.086	4561
865.217	4474
865.349	4440
865.48	4481
865.612	4527
865.743	4626
865.875	4497
866.006	4436
866.137	4500
866.269	4451
866.4	4436
866.531	4447
866.662	4394
866.793	4436
866.924	4466
867.055	4516
867.186	4447
867.317	4470
867.448	4398
867.579	4356
867.71	4398
867.841	4383
867.972	4459
868.103	4455
868.233	4459
868.364	4436
868.495	4527
868.625	4675
868.756	4774
868.886	4599
869.017	4664
869.147	4801
869.278	4752
869.408	4683
869.539	4694
869.669	4725
869.799	4725
869.929	4786
870.06	4748
870.19	4984
870.32	4927
870.45	4934
870.58	4984
870.71	5094
870.84	5132
870.97	4995
871.1	4915
871.23	5162
871.36	5155
871.489	5048
871.619	5132
871.749	5147
871.879	5174
872.008	5204
872.138	5086
872.267	5037
872.397	4904
872.526	4839
872.656	4752
872.785	4843
872.915	4927
873.044	5083
873.173	4965
873.303	5025
873.432	4965
873.561	4957
873.69	4919
873.819	4908
873.948	4976
874.077	4847
874.206	4812
874.335	4862
874.464	4991
874.593	5079
874.722	5006
874.851	5147
874.979	5140
875.108	5048
875.237	4892
875.365	4908
875.494	4862
875.623	5006
875.751	4839
875.88	4900
876.008	5033
876.136	5086
876.265	5223
876.393	5357
876.521	5277
876.65	5220
876.778	5216
876.906	5067
877.034	5136
877.162	5083
877.29	5033
877.418	5102
877.546	5075
877.674	5056
877.802	5109
877.93	5052
878.058	4953
878.185	4919
878.313	4965
878.441	4972
878.568	4797
878.696	4938
878.824	4972
878.951	5056
879.079	5189
879.206	5315
879.333	5178
879.461	5025
879.588	5018
879.715	5136
879.842	5315
879.97	5022
880.097	4828
880.224	4782
880.351	4847
880.478	4839
880.605	4839
880.732	4809
880.859	5143
880.986	4919
881.112	4923
881.239	4816
881.366	4672
881.493	4664
881.619	4618
881.746	4641
881.872	4660
881.999	4637
882.125	4740
882.252	4809
882.378	4847
882.505	4972
882.631	4847
882.757	4706
882.883	4725
883.01	4744
883.136	4641
883.262	4660
883.388	4630
883.514	4824
883.64	4892
883.766	4828
883.892	4740
884.018	4759
884.143	4946
884.269	5033
884.395	4721
884.52	4618
884.646	4645
884.772	4618
884.897	4558
885.023	4683
885.148	4809
885.274	4870
885.399	4824
885.524	4759
885.65	4714
885.775	4790
885.9	4736
886.025	4896
886.15	4820
886.275	4782
886.4	4698
886.525	4740
886.65	4748
886.775	4782
886.9	4938
887.025	5060
887.149	4824
887.274	4729
887.399	4580
887.523	4683
887.648	4615
887.773	4630
887.897	4793
888.021	4801
888.146	4725
888.27	4812
888.395	4953
888.519	4866
888.643	4831
888.767	4862
888.891	4714
889.015	4653
889.139	4679
889.263	4626
889.387	4809
889.511	4911
889.635	4809
889.759	4653
889.883	4706
890.006	4759
890.13	4870
890.254	4618
890.377	4729
890.501	4599
890.624	4478
890.748	4641
890.871	4485
890.995	4436
891.118	4413
891.241	4592
891.364	4580
891.488	4653
891.611	4523
891.734	4554
891.857	4656
891.98	4573
892.103	4664
892.226	4615
892.349	4569
892.471	4466
892.594	4603
892.717	4607
892.839	4653
892.962	4611
893.085	4714
893.207	4588
893.33	4478
893.452	4535
893.575	4653
893.697	4626
893.819	4793
893.941	4828
894.064	4793
894.186	4615
894.308	4599
894.43	4729
894.552	4892
894.674	4778
894.796	4546
894.918	4691
895.04	4618
895.161	4771
895.283	4675
895.405	4653
895.526	4660
895.648	4710
895.769	4706
895.891	4767
896.012	4774
896.134	4725
896.255	4668
896.376	4649
896.498	4710
896.619	4714
896.74	4656
896.861	4687
896.982	4972
897.103	5071
897.224	4915
897.345	4763
897.466	4664
897.587	4790
897.708	4862
897.828	4759
897.949	4687
898.07	4622
898.19	4626
898.311	4862
898.431	4702
898.552	4736
898.672	4877
898.792	4782
898.913	4755
899.033	4675
899.153	4523
899.273	4451
899.393	4538
899.513	4584
899.633	4592
899.753	4535
899.873	4531
899.993	4561
900.113	4573
900.232	4580
900.352	4615
900.472	4504
900.591	4436
900.711	4565
900.83	4497
900.95	4622
901.069	4752
901.189	4622
901.308	4383
901.427	4360
901.546	4421
901.665	4519
901.784	4535
901.904	4398
902.023	4344
902.141	4246
902.26	4234
902.379	4276
902.498	4234
902.617	4272
902.735	4394
902.854	4405
902.973	4405
903.091	4230
903.21	4303
903.328	4291
903.446	4348
903.565	4291
903.683	4417
903.801	4303
903.919	4417
904.038	4451
904.156	4360
904.274	4478
904.392	4417
904.51	4493
904.627	4489
904.745	4618
904.863	4683
904.981	4436
905.098	4356
905.216	4386
905.334	4447
905.451	4497
905.569	4519
905.686	4569
905.803	4580
905.921	4443
906.038	4531
906.155	4550
906.272	4421
906.389	4481
906.506	4390
906.623	4455
906.74	4455
906.857	4337
906.974	4421
907.091	4550
907.208	4733
907.324	4683
907.441	4535
907.557	4398
907.674	4329
907.79	4367
907.907	4371
908.023	4519
908.139	4519
908.256	4485
908.372	4432
908.488	4470
908.604	4383
908.72	4325
908.836	4440
908.952	4421
909.068	4462
909.184	4573
909.3	4478
909.415	4565
909.531	4580
909.647	4383
909.762	4424
909.878	4398
909.993	4421
910.108	4440
910.224	4470
910.339	4523
910.454	4409
910.57	4367
910.685	4322
910.8	4691
910.915	4679
911.03	4474
911.145	4371
911.259	4360
911.374	4402
911.489	4291
911.604	4371
911.718	4173
911.833	4257
911.947	4097
912.062	4090
912.176	4227
912.291	4280
912.405	4261
912.519	4504
912.633	4527
912.748	4398
912.862	4360
912.976	4173
913.09	4139
913.204	4200
913.318	4223
913.431	4428
913.545	4352
913.659	4428
913.772	4386
913.886	4276
914	4227
914.113	4409
914.226	4512
914.34	4390
914.453	4261
914.566	4485
914.68	4383
914.793	4360
914.906	4177
915.019	4185
915.132	4131
915.245	4188
915.358	4234
915.47	4234
915.583	4257
915.696	4344
915.809	4409
915.921	4478
916.034	4261
916.146	4287
916.259	4265
916.371	4424
916.483	4436
916.595	4280
916.708	4310
916.82	4363
916.932	4371
917.044	4352
917.156	4367
917.268	4246
917.38	4287
917.491	4306
917.603	4405
917.715	4428
917.826	4443
917.938	4348
918.049	4257
918.161	4443
918.272	4592
918.384	4592
918.495	4481
918.606	4329
918.717	4280
918.828	4402
918.939	4424
919.05	4295
919.161	4329
919.272	4162
919.383	4246
919.494	4531
919.604	4664
919.715	4451
919.826	4371
919.936	4394
920.047	4546
920.157	4584
920.267	4710
920.378	4554
920.488	4561
920.598	4786
920.708	4877
920.818	4843
920.928	4771
921.038	4965
921.148	4953
921.258	4592
921.368	4573
921.477	4493
921.587	4485
921.697	4367
921.806	4565
921.916	4466
922.025	4318
922.134	4310
922.244	4272
922.353	4363
922.462	4192
922.571	4147
922.68	4059
922.789	3991
922.898	4063
923.007	4040
923.116	4147
923.224	4109
923.333	4109
923.442	4021
923.55	4010
923.659	4051
923.767	4166
923.876	4029
923.984	4204
924.092	4002
924.201	4105
924.309	4112
924.417	4090
924.525	4116
924.633	4128
924.741	4870
924.849	3926
924.956	4166
925.064	3998
925.172	3896
925.279	4040
925.387	4059
925.494	4074
925.602	4265
925.709	4162
925.816	4078
925.924	4147
926.031	4284
926.138	4234
926.245	4204
926.352	4158
926.459	4268
926.566	4329
926.673	4162
926.779	4105
926.886	4139
926.993	3975
927.099	3991
927.206	3953
927.312	4002
927.419	4082
927.525	4051
927.631	4109
927.737	3979
927.843	3987
927.95	3873
928.056	3968
928.162	4021
928.267	4059
928.373	4740
928.479	4162
928.585	3911
928.69	4036
928.796	4048
928.901	3994
929.007	3899
929.112	4025
929.218	4025
929.323	3991
929.428	4010
929.533	4131
929.638	3960
929.743	3983
929.848	4067
929.953	4040
930.058	3949
930.163	3819
930.267	3838
930.372	3998
930.477	3831
930.581	4109
930.685	3979
930.79	3846
930.894	3903
930.998	3892
931.103	4074
931.207	3732
931.311	3717
931.415	3701
931.519	3564
931.623	3576
