Data from test_V78500241_832.txt Node
Date: Fri Mar 25 16:54:47 CST 2022
User: usil
Spectrometer: V785-0024
Trigger mode: 0
Integration Time (sec): 4.000000E-1
Scans to average: 1
Nonlinearity correction enabled: false
Boxcar width: 0
Storing dark spectrum: false
XAxis mode: Wavelengths
Number of Pixels in Spectrum: 1024
>>>>>Begin Spectral Data<<<<<
801.071	8062
801.214	7997
801.356	7894
801.499	7902
801.641	7803
801.783	7727
801.926	7974
802.068	7879
802.211	7921
802.353	7986
802.496	7818
802.638	7925
802.78	7902
802.923	7951
803.065	7811
803.208	7887
803.35	8005
803.492	8191
803.635	8191
803.777	8043
803.919	8073
804.061	8404
804.204	8153
804.346	7974
804.488	7997
804.63	8081
804.773	8058
804.915	8149
805.057	8282
805.199	8168
805.341	8210
805.483	8191
805.626	8195
805.768	8058
805.91	8149
806.052	8142
806.194	8111
806.336	8290
806.478	8092
806.62	8043
806.762	8126
806.904	8279
807.046	8522
807.188	8396
807.33	8275
807.472	8343
807.614	8161
807.756	8134
807.898	7978
808.04	7951
808.182	7921
808.324	7871
808.465	7879
808.607	8069
808.749	8035
808.891	8130
809.033	8328
809.174	8244
809.316	8081
809.458	8005
809.6	7997
809.741	7986
809.883	8031
810.025	8058
810.166	8081
810.308	8035
810.45	7997
810.591	7898
810.733	7772
810.875	7620
811.016	7495
811.158	7411
811.299	7582
811.441	7674
811.582	7628
811.724	7597
811.865	7571
812.007	7575
812.148	7628
812.29	7643
812.431	7750
812.573	7826
812.714	7963
812.855	8100
812.997	8157
813.138	8267
813.279	8153
813.421	8111
813.562	7978
813.703	7837
813.845	7738
813.986	7430
814.127	7244
814.268	7202
814.41	7126
814.551	7141
814.692	7168
814.833	7015
814.974	7099
815.115	7141
815.256	6958
815.397	6916
815.539	6928
815.68	6795
815.821	6798
815.962	6818
816.103	6753
816.244	6700
816.385	6696
816.526	6608
816.666	6441
816.807	6266
816.948	6403
817.089	6509
817.23	6471
817.371	6407
817.512	6384
817.653	6403
817.793	6376
817.934	6407
818.075	6410
818.216	6456
818.356	6407
818.497	6258
818.638	6129
818.778	6152
818.919	6133
819.06	6144
819.2	6292
819.341	6300
819.481	6365
819.622	6509
819.762	6760
819.903	6662
820.043	6566
820.184	6559
820.324	6536
820.465	6719
820.605	6677
820.746	6582
820.886	6486
821.026	6654
821.167	6730
821.307	6760
821.447	6772
821.588	6646
821.728	6597
821.868	6483
822.008	6300
822.149	6361
822.289	6327
822.429	6098
822.569	6079
822.709	6110
822.849	5916
822.99	5908
823.13	5927
823.27	5920
823.41	5745
823.55	5748
823.69	5748
823.83	5745
823.97	5646
824.11	5611
824.25	5486
824.389	5604
824.529	5573
824.669	5543
824.809	5630
824.949	5676
825.089	5600
825.228	5562
825.368	5429
825.508	5330
825.648	5318
825.787	5372
825.927	5364
826.067	5315
826.206	5269
826.346	5379
826.485	5402
826.625	5372
826.765	5512
826.904	5505
827.044	5265
827.183	5181
827.323	5143
827.462	5204
827.601	5185
827.741	5132
827.88	5181
828.02	5090
828.159	5227
828.298	5288
828.437	5299
828.577	5239
828.716	5452
828.855	5303
828.994	5220
829.134	5090
829.273	5204
829.412	5155
829.551	5124
829.69	5086
829.829	5185
829.968	5383
830.107	5174
830.246	5261
830.385	5132
830.524	5117
830.663	5109
830.802	4953
830.941	4908
831.08	4850
831.219	4961
831.357	4965
831.496	5147
831.635	4911
831.774	4824
831.913	4828
832.051	4702
832.19	4740
832.329	4820
832.467	4683
832.606	4618
832.744	4721
832.883	4649
833.022	4710
833.16	4771
833.299	4847
833.437	4801
833.576	4820
833.714	4854
833.852	4881
833.991	4873
834.129	4942
834.267	5022
834.406	4885
834.544	4972
834.682	4972
834.821	5029
834.959	5155
835.097	4999
835.235	5201
835.373	5075
835.511	5048
835.65	4968
835.788	4961
835.926	4850
836.064	4862
836.202	4934
836.34	5151
836.478	5185
836.615	5098
836.753	5250
836.891	5277
837.029	5292
837.167	5216
837.305	5212
837.443	5174
837.58	5083
837.718	5201
837.856	5162
837.993	5117
838.131	5193
838.269	5223
838.406	5193
838.544	5132
838.681	5025
838.819	4995
838.956	4881
839.094	4892
839.231	4995
839.369	5086
839.506	5406
839.643	5296
839.781	5064
839.918	4987
840.055	5094
840.193	5056
840.33	5086
840.467	5128
840.604	5181
840.742	5417
840.879	5098
841.016	5067
841.153	5121
841.29	5383
841.427	5334
841.564	5318
841.701	5326
841.838	5269
841.975	5284
842.112	5258
842.249	5185
842.385	5090
842.522	5357
842.659	5132
842.796	5121
842.933	5189
843.069	5136
843.206	5132
843.343	5292
843.479	5204
843.616	5296
843.752	5006
843.889	4995
844.025	5208
844.162	4965
844.298	5212
844.435	5086
844.571	5025
844.708	5204
844.844	5307
844.98	5322
845.117	5231
845.253	5086
845.389	5079
845.525	5113
845.661	5140
845.798	5003
845.934	5159
846.07	5010
846.206	5212
846.342	5288
846.478	5189
846.614	5006
846.75	4984
846.886	4953
847.022	5181
847.158	5029
847.294	5018
847.429	5113
847.565	4980
847.701	5277
847.837	4831
847.972	4809
848.108	4957
848.244	4904
848.379	4793
848.515	4729
848.65	4687
848.786	4809
848.921	4755
849.057	4816
849.192	4843
849.328	4790
849.463	4847
849.598	4793
849.734	4778
849.869	4645
850.004	4637
850.14	4630
850.275	4630
850.41	4519
850.545	4538
850.68	4584
850.815	4618
850.95	4618
851.085	4809
851.22	4752
851.355	4634
851.49	4596
851.625	4611
851.76	4641
851.895	4546
852.03	4481
852.165	4672
852.299	4683
852.434	4778
852.569	4729
852.703	4771
852.838	4801
852.973	4873
853.107	4889
853.242	4748
853.376	4656
853.511	4519
853.645	4580
853.78	4767
853.914	4710
854.048	4634
854.183	4592
854.317	4694
854.451	4786
854.585	4691
854.72	4637
854.854	4733
854.988	4607
855.122	4573
855.256	4531
855.39	4603
855.524	4759
855.658	4740
855.792	4702
855.926	4752
856.06	4706
856.194	4782
856.327	4683
856.461	4592
856.595	4588
856.729	4580
856.862	4778
856.996	4672
857.13	4679
857.263	4691
857.397	4744
857.53	4630
857.664	4763
857.797	4706
857.931	4774
858.064	4641
858.197	4744
858.331	4584
858.464	4641
858.597	4508
858.731	4645
858.864	4603
858.997	4561
859.13	4626
859.263	4634
859.396	4664
859.529	4596
859.662	4565
859.795	4531
859.928	4550
860.061	4786
860.194	4755
860.327	4607
860.46	4554
860.592	4687
860.725	4714
860.858	4710
860.99	4599
861.123	4546
861.256	4558
861.388	4584
861.521	5311
861.653	4447
861.786	4443
861.918	4504
862.05	4470
862.183	4550
862.315	4573
862.447	4603
862.58	4512
862.712	4409
862.844	4287
862.976	4451
863.108	4363
863.24	4774
863.372	4306
863.504	4413
863.636	4383
863.768	4485
863.9	4421
864.032	4390
864.164	4402
864.296	4455
864.428	4538
864.559	4565
864.691	4512
864.823	4478
864.954	4462
865.086	4493
865.217	4440
865.349	4383
865.48	4409
865.612	4466
865.743	4622
865.875	4481
866.006	4455
866.137	4440
866.269	4409
866.4	4417
866.531	4424
866.662	4398
866.793	4360
866.924	4371
867.055	4436
867.186	4432
867.317	4360
867.448	4352
867.579	4363
867.71	4363
867.841	4360
867.972	4424
868.103	4432
868.233	4485
868.364	4478
868.495	4478
868.625	4645
868.756	4744
868.886	4588
869.017	4603
869.147	4793
869.278	4790
869.408	4641
869.539	4645
869.669	4679
869.799	4637
869.929	4736
870.06	4683
870.19	4980
870.32	4881
870.45	4919
870.58	4987
870.71	5109
870.84	5022
870.97	4946
871.1	4908
871.23	5113
871.36	5151
871.489	5025
871.619	5041
871.749	5071
871.879	5094
872.008	5166
872.138	5045
872.267	4991
872.397	4831
872.526	4809
872.656	4721
872.785	4839
872.915	4915
873.044	5037
873.173	4957
873.303	4953
873.432	4930
873.561	4957
873.69	4866
873.819	4866
873.948	4900
874.077	4809
874.206	4740
874.335	4767
874.464	4923
874.593	5045
874.722	4949
874.851	5079
874.979	5052
875.108	5056
875.237	4934
875.365	4873
875.494	4858
875.623	4961
875.751	4820
875.88	4908
876.008	4991
876.136	4980
876.265	5128
876.393	5337
876.521	5258
876.65	5223
876.778	5204
876.906	5033
877.034	5010
877.162	5018
877.29	4980
877.418	5041
877.546	5086
877.674	5071
877.802	4961
877.93	5052
878.058	4976
878.185	4915
878.313	4881
878.441	4911
878.568	4778
878.696	4847
878.824	4957
878.951	4976
879.079	5105
879.206	5277
879.333	5102
879.461	4976
879.588	4984
879.715	5132
879.842	5235
879.97	5014
880.097	4759
880.224	4683
880.351	4824
880.478	4850
880.605	4820
880.732	4793
880.859	5113
880.986	4835
881.112	4915
881.239	4698
881.366	4668
881.493	4561
881.619	4580
881.746	4618
881.872	4637
881.999	4683
882.125	4672
882.252	4778
882.378	4847
882.505	4987
882.631	4767
882.757	4668
882.883	4721
883.01	4748
883.136	4656
883.262	4584
883.388	4615
883.514	4816
883.64	4866
883.766	4816
883.892	4630
884.018	4679
884.143	4862
884.269	5014
884.395	4691
884.52	4641
884.646	4603
884.772	4565
884.897	4607
885.023	4618
885.148	4774
885.274	4847
885.399	4824
885.524	4733
885.65	4653
885.775	4691
885.9	4714
886.025	4881
886.15	4755
886.275	4755
886.4	4630
886.525	4725
886.65	4672
886.775	4691
886.9	4911
887.025	4968
887.149	4763
887.274	4656
887.399	4641
887.523	4641
887.648	4573
887.773	4599
887.897	4736
888.021	4805
888.146	4687
888.27	4873
888.395	4885
888.519	4797
888.643	4831
888.767	4820
888.891	4683
889.015	4615
889.139	4641
889.263	4622
889.387	4763
889.511	4854
889.635	4797
889.759	4588
889.883	4675
890.006	4755
890.13	4862
890.254	4554
890.377	4702
890.501	4523
890.624	4474
890.748	4599
890.871	4508
890.995	4459
891.118	4352
891.241	4546
891.364	4527
891.488	4645
891.611	4493
891.734	4485
891.857	4580
891.98	4565
892.103	4634
892.226	4588
892.349	4500
892.471	4478
892.594	4558
892.717	4577
892.839	4577
892.962	4558
893.085	4691
893.207	4615
893.33	4470
893.452	4542
893.575	4645
893.697	4626
893.819	4812
893.941	4790
894.064	4786
894.186	4561
894.308	4577
894.43	4744
894.552	4809
894.674	4733
894.796	4561
894.918	4588
895.04	4542
895.161	4721
895.283	4626
895.405	4523
895.526	4607
895.648	4626
895.769	4687
895.891	4675
896.012	4702
896.134	4706
896.255	4664
896.376	4637
896.498	4668
896.619	4664
896.74	4577
896.861	4672
896.982	4938
897.103	5048
897.224	4831
897.345	4691
897.466	4656
897.587	4698
897.708	4847
897.828	4782
897.949	4683
898.07	4550
898.19	4637
898.311	4828
898.431	4672
898.552	4687
898.672	4793
898.792	4755
898.913	4687
899.033	4630
899.153	4497
899.273	4443
899.393	4489
899.513	4474
899.633	4493
899.753	4478
899.873	4535
899.993	4622
900.113	4527
900.232	4664
900.352	4493
900.472	4462
900.591	4424
900.711	4497
900.83	4424
900.95	4641
901.069	4668
901.189	4546
901.308	4306
901.427	4341
901.546	4348
901.665	4508
901.784	4504
901.904	4436
902.023	4352
902.141	4207
902.26	4177
902.379	4306
902.498	4196
902.617	4219
902.735	4367
902.854	4329
902.973	4344
903.091	4246
903.21	4223
903.328	4306
903.446	4257
903.565	4276
903.683	4360
903.801	4223
903.919	4402
904.038	4394
904.156	4314
904.274	4394
904.392	4360
904.51	4447
904.627	4440
904.745	4493
904.863	4634
904.981	4363
905.098	4257
905.216	4371
905.334	4451
905.451	4424
905.569	4474
905.686	4550
905.803	4550
905.921	4360
906.038	4538
906.155	4462
906.272	4424
906.389	4470
906.506	4375
906.623	4383
906.74	4402
906.857	4280
906.974	4371
907.091	4504
907.208	4664
907.324	4558
907.441	4485
907.557	4318
907.674	4337
907.79	4322
907.907	4383
908.023	4474
908.139	4497
908.256	4424
908.372	4466
908.488	4474
908.604	4379
908.72	4299
908.836	4352
908.952	4337
909.068	4367
909.184	4569
909.3	4500
909.415	4569
909.531	4550
909.647	4344
909.762	4386
909.878	4337
909.993	4424
910.108	4371
910.224	4386
910.339	4485
910.454	4386
910.57	4360
910.685	4310
910.8	4622
910.915	4611
911.03	4481
911.145	4303
911.259	4295
911.374	4352
911.489	4287
911.604	4219
911.718	4154
911.833	4192
911.947	4090
912.062	4059
912.176	4204
912.291	4200
912.405	4227
912.519	4443
912.633	4504
912.748	4417
912.862	4299
912.976	4200
913.09	4101
913.204	4154
913.318	4265
913.431	4348
913.545	4405
913.659	4443
913.772	4367
913.886	4234
914	4249
914.113	4356
914.226	4436
914.34	4409
914.453	4246
914.566	4455
914.68	4299
914.793	4314
914.906	4185
915.019	4112
915.132	4044
915.245	4181
915.358	4181
915.47	4215
915.583	4276
915.696	4341
915.809	4360
915.921	4413
916.034	4265
916.146	4204
916.259	4204
916.371	4375
916.483	4329
916.595	4249
916.708	4272
916.82	4287
916.932	4268
917.044	4329
917.156	4344
917.268	4246
917.38	4291
917.491	4306
917.603	4306
917.715	4398
917.826	4417
917.938	4352
918.049	4207
918.161	4421
918.272	4519
918.384	4538
918.495	4436
918.606	4295
918.717	4207
918.828	4360
918.939	4295
919.05	4211
919.161	4337
919.272	4105
919.383	4192
919.494	4466
919.604	4649
919.715	4417
919.826	4333
919.936	4394
920.047	4512
920.157	4497
920.267	4717
920.378	4569
920.488	4542
920.598	4706
920.708	4889
920.818	4721
920.928	4733
921.038	4961
921.148	4946
921.258	4577
921.368	4569
921.477	4508
921.587	4451
921.697	4337
921.806	4500
921.916	4443
922.025	4291
922.134	4268
922.244	4227
922.353	4360
922.462	4154
922.571	4105
922.68	3998
922.789	3991
922.898	4032
923.007	3975
923.116	4112
923.224	4074
923.333	4063
923.442	4021
923.55	3983
923.659	4025
923.767	4131
923.876	3983
923.984	4147
924.092	3987
924.201	4074
924.309	4120
924.417	4150
924.525	4086
924.633	4139
924.741	4885
924.849	3937
924.956	4173
925.064	3907
925.172	3903
925.279	3960
925.387	4067
925.494	4071
925.602	4162
925.709	4196
925.816	4029
925.924	4135
926.031	4188
926.138	4162
926.245	4196
926.352	4040
926.459	4253
926.566	4325
926.673	4150
926.779	4105
926.886	4090
926.993	3899
927.099	3994
927.206	3941
927.312	3922
927.419	4097
927.525	4032
927.631	4078
927.737	3960
927.843	3880
927.95	3846
928.056	3960
928.162	3956
928.267	3983
928.373	4675
928.479	4116
928.585	3861
928.69	4063
928.796	4101
928.901	3960
929.007	3827
929.112	3998
929.218	3964
929.323	3888
929.428	3937
929.533	4101
929.638	3911
929.743	3953
929.848	4040
929.953	3960
930.058	3941
930.163	3759
930.267	3838
930.372	3964
930.477	3793
930.581	4093
930.685	3915
930.79	3816
930.894	3876
930.998	3880
931.103	3991
931.207	3724
931.311	3682
931.415	3679
931.519	3511
931.623	3515
