Data from test_V78500241_2050.txt Node
Date: Fri Mar 25 17:03:15 CST 2022
User: usil
Spectrometer: V785-0024
Trigger mode: 0
Integration Time (sec): 4.000000E-1
Scans to average: 1
Nonlinearity correction enabled: false
Boxcar width: 0
Storing dark spectrum: false
XAxis mode: Wavelengths
Number of Pixels in Spectrum: 1024
>>>>>Begin Spectral Data<<<<<
801.071	7993
801.214	7993
801.356	7795
801.499	7909
801.641	7776
801.783	7814
801.926	8020
802.068	7967
802.211	7986
802.353	7959
802.496	7837
802.638	7898
802.78	7898
802.923	7894
803.065	7875
803.208	7826
803.35	7917
803.492	8092
803.635	8161
803.777	8005
803.919	8073
804.061	8374
804.204	8115
804.346	8043
804.488	7944
804.63	8043
804.773	8005
804.915	8073
805.057	8256
805.199	8138
805.341	8233
805.483	8180
805.626	8233
805.768	8058
805.91	8183
806.052	8142
806.194	8164
806.336	8248
806.478	8088
806.62	8001
806.762	8111
806.904	8298
807.046	8503
807.188	8374
807.33	8267
807.472	8298
807.614	8161
807.756	8145
807.898	7959
808.04	7818
808.182	7868
808.324	7833
808.465	7811
808.607	8027
808.749	8134
808.891	8225
809.033	8320
809.174	8164
809.316	8134
809.458	8043
809.6	7993
809.741	7963
809.883	8027
810.025	8050
810.166	8100
810.308	7982
810.45	8012
810.591	7845
810.733	7750
810.875	7700
811.016	7483
811.158	7434
811.299	7559
811.441	7727
811.582	7693
811.724	7548
811.865	7529
812.007	7590
812.148	7571
812.29	7628
812.431	7814
812.573	7913
812.714	7970
812.855	8145
812.997	8237
813.138	8248
813.279	8134
813.421	8054
813.562	7982
813.703	7753
813.845	7685
813.986	7388
814.127	7244
814.268	7156
814.41	7164
814.551	7137
814.692	7228
814.833	7118
814.974	7042
815.115	7107
815.256	6954
815.397	6920
815.539	6894
815.68	6837
815.821	6753
815.962	6806
816.103	6776
816.244	6662
816.385	6608
816.526	6585
816.666	6460
816.807	6331
816.948	6395
817.089	6460
817.23	6319
817.371	6388
817.512	6353
817.653	6388
817.793	6391
817.934	6388
818.075	6418
818.216	6418
818.356	6426
818.497	6251
818.638	6091
818.778	6140
818.919	6140
819.06	6152
819.2	6342
819.341	6262
819.481	6365
819.622	6486
819.762	6703
819.903	6730
820.043	6578
820.184	6544
820.324	6559
820.465	6688
820.605	6711
820.746	6631
820.886	6513
821.026	6654
821.167	6730
821.307	6700
821.447	6764
821.588	6726
821.728	6616
821.868	6502
822.008	6266
822.149	6403
822.289	6262
822.429	6148
822.569	6072
822.709	6144
822.849	5931
822.99	5878
823.13	5878
823.27	5863
823.41	5733
823.55	5691
823.69	5756
823.83	5786
823.97	5615
824.11	5528
824.25	5467
824.389	5532
824.529	5623
824.669	5505
824.809	5630
824.949	5634
825.089	5646
825.228	5570
825.368	5368
825.508	5357
825.648	5337
825.787	5322
825.927	5330
826.067	5318
826.206	5311
826.346	5357
826.485	5406
826.625	5395
826.765	5570
826.904	5455
827.044	5269
827.183	5216
827.323	5147
827.462	5189
827.601	5193
827.741	5170
827.88	5246
828.02	5155
828.159	5269
828.298	5250
828.437	5383
828.577	5318
828.716	5501
828.855	5330
828.994	5223
829.134	5181
829.273	5170
829.412	5185
829.551	5159
829.69	5170
829.829	5277
829.968	5372
830.107	5284
830.246	5273
830.385	5220
830.524	5185
830.663	5071
830.802	5029
830.941	4904
831.08	4900
831.219	5064
831.357	5052
831.496	5166
831.635	4976
831.774	4850
831.913	4892
832.051	4778
832.19	4797
832.329	4889
832.467	4752
832.606	4679
832.744	4786
832.883	4805
833.022	4725
833.16	4854
833.299	4904
833.437	4835
833.576	4870
833.714	4923
833.852	4873
833.991	4930
834.129	5006
834.267	4980
834.406	4995
834.544	5033
834.682	5003
834.821	5006
834.959	5147
835.097	5037
835.235	5128
835.373	5159
835.511	5136
835.65	5086
835.788	5079
835.926	4946
836.064	4930
836.202	4934
836.34	5204
836.478	5269
836.615	5132
836.753	5250
836.891	5322
837.029	5315
837.167	5216
837.305	5204
837.443	5212
837.58	5067
837.718	5261
837.856	5235
837.993	5147
838.131	5227
838.269	5235
838.406	5250
838.544	5239
838.681	5109
838.819	5041
838.956	4847
839.094	4942
839.231	5003
839.369	5143
839.506	5452
839.643	5280
839.781	5090
839.918	5094
840.055	5075
840.193	5136
840.33	5102
840.467	5124
840.604	5204
840.742	5452
840.879	5140
841.016	5090
841.153	5193
841.29	5379
841.427	5337
841.564	5364
841.701	5421
841.838	5315
841.975	5261
842.112	5345
842.249	5223
842.385	5117
842.522	5326
842.659	5231
842.796	5216
842.933	5227
843.069	5170
843.206	5143
843.343	5261
843.479	5265
843.616	5296
843.752	5098
843.889	5033
844.025	5227
844.162	5045
844.298	5231
844.435	5124
844.571	5109
844.708	5227
844.844	5288
844.98	5372
845.117	5322
845.253	5189
845.389	5067
845.525	5193
845.661	5185
845.798	5064
845.934	5140
846.07	5075
846.206	5220
846.342	5273
846.478	5170
846.614	5052
846.75	5041
846.886	4980
847.022	5170
847.158	5045
847.294	5056
847.429	5136
847.565	5128
847.701	5417
847.837	4923
847.972	4801
848.108	4984
848.244	4930
848.379	4812
848.515	4824
848.65	4683
848.786	4759
848.921	4793
849.057	4892
849.192	4915
849.328	4850
849.463	4847
849.598	4850
849.734	4862
849.869	4740
850.004	4706
850.14	4615
850.275	4660
850.41	4523
850.545	4588
850.68	4664
850.815	4641
850.95	4679
851.085	4831
851.22	4805
851.355	4702
851.49	4683
851.625	4687
851.76	4622
851.895	4573
852.03	4558
852.165	4649
852.299	4733
852.434	4786
852.569	4714
852.703	4847
852.838	4873
852.973	4991
853.107	4927
853.242	4733
853.376	4687
853.511	4573
853.645	4641
853.78	4839
853.914	4694
854.048	4668
854.183	4660
854.317	4706
854.451	4847
854.585	4687
854.72	4618
854.854	4752
854.988	4599
855.122	4668
855.256	4569
855.39	4679
855.524	4809
855.658	4752
855.792	4702
855.926	4820
856.06	4820
856.194	4820
856.327	4714
856.461	4634
856.595	4603
856.729	4675
856.862	4782
856.996	4691
857.13	4748
857.263	4733
857.397	4816
857.53	4664
857.664	4733
857.797	4786
857.931	4782
858.064	4710
858.197	4740
858.331	4675
858.464	4637
858.597	4569
858.731	4672
858.864	4660
858.997	4641
859.13	4714
859.263	4698
859.396	4736
859.529	4577
859.662	4565
859.795	4565
859.928	4679
860.061	4797
860.194	4793
860.327	4637
860.46	4611
860.592	4736
860.725	4748
860.858	4744
860.99	4565
861.123	4531
861.256	4546
861.388	4645
861.521	5284
861.653	4538
861.786	4413
861.918	4519
862.05	4588
862.183	4565
862.315	4607
862.447	4645
862.58	4542
862.712	4466
862.844	4375
862.976	4474
863.108	4500
863.24	4812
863.372	4341
863.504	4436
863.636	4485
863.768	4436
863.9	4459
864.032	4424
864.164	4421
864.296	4489
864.428	4584
864.559	4615
864.691	4584
864.823	4565
864.954	4519
865.086	4519
865.217	4497
865.349	4424
865.48	4462
865.612	4519
865.743	4656
865.875	4455
866.006	4489
866.137	4516
866.269	4459
866.4	4462
866.531	4447
866.662	4443
866.793	4443
866.924	4440
867.055	4535
867.186	4523
867.317	4428
867.448	4390
867.579	4417
867.71	4405
867.841	4398
867.972	4504
868.103	4535
868.233	4432
868.364	4485
868.495	4527
868.625	4694
868.756	4736
868.886	4656
869.017	4634
869.147	4805
869.278	4805
869.408	4664
869.539	4660
869.669	4702
869.799	4691
869.929	4801
870.06	4774
870.19	4957
870.32	4987
870.45	4919
870.58	5045
870.71	5090
870.84	5174
870.97	4984
871.1	4930
871.23	5170
871.36	5162
871.489	5048
871.619	5064
871.749	5140
871.879	5121
872.008	5170
872.138	5060
872.267	4999
872.397	4850
872.526	4831
872.656	4755
872.785	4816
872.915	4980
873.044	5075
873.173	4934
873.303	4991
873.432	4980
873.561	4919
873.69	4911
873.819	4919
873.948	4885
874.077	4839
874.206	4778
874.335	4839
874.464	4934
874.593	5117
874.722	4930
874.851	5102
874.979	5029
875.108	5064
875.237	4961
875.365	4908
875.494	4908
875.623	4991
875.751	4885
875.88	4911
876.008	5010
876.136	5010
876.265	5250
876.393	5364
876.521	5284
876.65	5227
876.778	5174
876.906	5090
877.034	5052
877.162	5056
877.29	5052
877.418	5083
877.546	5071
877.674	5079
877.802	5052
877.93	5052
878.058	4934
878.185	4900
878.313	4961
878.441	4972
878.568	4820
878.696	4847
878.824	4972
878.951	5045
879.079	5178
879.206	5288
879.333	5132
879.461	5033
879.588	5003
879.715	5189
879.842	5227
879.97	4991
880.097	4797
880.224	4774
880.351	4831
880.478	4828
880.605	4866
880.732	4771
880.859	5064
880.986	4934
881.112	4942
881.239	4752
881.366	4729
881.493	4702
881.619	4611
881.746	4645
881.872	4660
881.999	4675
882.125	4725
882.252	4771
882.378	4790
882.505	4972
882.631	4858
882.757	4691
882.883	4736
883.01	4725
883.136	4691
883.262	4664
883.388	4615
883.514	4816
883.64	4889
883.766	4835
883.892	4702
884.018	4725
884.143	4858
884.269	5037
884.395	4683
884.52	4653
884.646	4672
884.772	4573
884.897	4603
885.023	4729
885.148	4797
885.274	4862
885.399	4771
885.524	4748
885.65	4721
885.775	4736
885.9	4801
886.025	4873
886.15	4767
886.275	4736
886.4	4656
886.525	4736
886.65	4691
886.775	4721
886.9	4957
887.025	5041
887.149	4835
887.274	4656
887.399	4558
887.523	4592
887.648	4630
887.773	4588
887.897	4786
888.021	4767
888.146	4679
888.27	4831
888.395	4938
888.519	4778
888.643	4816
888.767	4873
888.891	4694
889.015	4634
889.139	4580
889.263	4599
889.387	4797
889.511	4889
889.635	4790
889.759	4668
889.883	4615
890.006	4710
890.13	4820
890.254	4645
890.377	4668
890.501	4577
890.624	4531
890.748	4702
890.871	4527
890.995	4451
891.118	4417
891.241	4527
891.364	4550
891.488	4660
891.611	4497
891.734	4550
891.857	4599
891.98	4577
892.103	4660
892.226	4607
892.349	4512
892.471	4417
892.594	4546
892.717	4588
892.839	4622
892.962	4611
893.085	4668
893.207	4641
893.33	4474
893.452	4542
893.575	4702
893.697	4603
893.819	4790
893.941	4839
894.064	4793
894.186	4603
894.308	4538
894.43	4759
894.552	4797
894.674	4767
894.796	4504
894.918	4607
895.04	4592
895.161	4729
895.283	4653
895.405	4584
895.526	4653
895.648	4714
895.769	4748
895.891	4733
896.012	4748
896.134	4740
896.255	4683
896.376	4656
896.498	4607
896.619	4702
896.74	4630
896.861	4645
896.982	4923
897.103	5075
897.224	4854
897.345	4797
897.466	4683
897.587	4729
897.708	4889
897.828	4809
897.949	4687
898.07	4603
898.19	4618
898.311	4870
898.431	4698
898.552	4721
898.672	4816
898.792	4831
898.913	4752
899.033	4615
899.153	4504
899.273	4421
899.393	4481
899.513	4538
899.633	4500
899.753	4577
899.873	4535
899.993	4584
900.113	4554
900.232	4584
900.352	4550
900.472	4508
900.591	4379
900.711	4538
900.83	4466
900.95	4611
901.069	4664
901.189	4546
901.308	4367
901.427	4352
901.546	4440
901.665	4531
901.784	4504
901.904	4383
902.023	4329
902.141	4230
902.26	4169
902.379	4356
902.498	4253
902.617	4268
902.735	4383
902.854	4421
902.973	4367
903.091	4215
903.21	4242
903.328	4337
903.446	4284
903.565	4223
903.683	4341
903.801	4242
903.919	4428
904.038	4432
904.156	4291
904.274	4470
904.392	4485
904.51	4455
904.627	4485
904.745	4630
904.863	4668
904.981	4394
905.098	4249
905.216	4363
905.334	4451
905.451	4424
905.569	4424
905.686	4561
905.803	4565
905.921	4447
906.038	4588
906.155	4485
906.272	4409
906.389	4489
906.506	4386
906.623	4402
906.74	4417
906.857	4344
906.974	4352
907.091	4573
907.208	4626
907.324	4637
907.441	4527
907.557	4337
907.674	4375
907.79	4280
907.907	4394
908.023	4470
908.139	4447
908.256	4424
908.372	4451
908.488	4424
908.604	4348
908.72	4303
908.836	4333
908.952	4398
909.068	4470
909.184	4641
909.3	4523
909.415	4580
909.531	4550
909.647	4394
909.762	4402
909.878	4375
909.993	4462
910.108	4413
910.224	4428
910.339	4493
910.454	4470
910.57	4402
910.685	4375
910.8	4672
910.915	4577
911.03	4508
911.145	4363
911.259	4310
911.374	4318
911.489	4306
911.604	4276
911.718	4162
911.833	4204
911.947	4086
912.062	4021
912.176	4188
912.291	4215
912.405	4238
912.519	4474
912.633	4459
912.748	4329
912.862	4383
912.976	4234
913.09	4109
913.204	4166
913.318	4257
913.431	4363
913.545	4360
913.659	4417
913.772	4341
913.886	4196
914	4230
914.113	4367
914.226	4421
914.34	4405
914.453	4234
914.566	4405
914.68	4295
914.793	4367
914.906	4154
915.019	4105
915.132	4135
915.245	4192
915.358	4230
915.47	4234
915.583	4257
915.696	4284
915.809	4432
915.921	4421
916.034	4223
916.146	4268
916.259	4249
916.371	4390
916.483	4322
916.595	4253
916.708	4314
916.82	4371
916.932	4314
917.044	4337
917.156	4318
917.268	4253
917.38	4276
917.491	4261
917.603	4344
917.715	4428
917.826	4409
917.938	4337
918.049	4242
918.161	4379
918.272	4626
918.384	4554
918.495	4428
918.606	4303
918.717	4246
918.828	4352
918.939	4421
919.05	4238
919.161	4310
919.272	4116
919.383	4207
919.494	4436
919.604	4603
919.715	4424
919.826	4375
919.936	4424
920.047	4550
920.157	4504
920.267	4721
920.378	4546
920.488	4550
920.598	4733
920.708	4919
920.818	4786
920.928	4748
921.038	4938
921.148	4915
921.258	4626
921.368	4577
921.477	4485
921.587	4443
921.697	4398
921.806	4535
921.916	4409
922.025	4272
922.134	4261
922.244	4265
922.353	4348
922.462	4200
922.571	4143
922.68	3987
922.789	4010
922.898	4010
923.007	4010
923.116	4097
923.224	4059
923.333	4090
923.442	3998
923.55	3964
923.659	4044
923.767	4162
923.876	4025
923.984	4124
924.092	4013
924.201	4036
924.309	4090
924.417	4139
924.525	4078
924.633	4116
924.741	5048
924.849	3880
924.956	4120
925.064	3975
925.172	3918
925.279	3956
925.387	4040
925.494	4071
925.602	4181
925.709	4188
925.816	3987
925.924	4097
926.031	4249
926.138	4131
926.245	4223
926.352	4116
926.459	4204
926.566	4325
926.673	4150
926.779	4169
926.886	4112
926.993	3998
927.099	3991
927.206	3930
927.312	3937
927.419	4048
927.525	4021
927.631	4097
927.737	3972
927.843	3937
927.95	3808
928.056	4013
928.162	3960
928.267	4071
928.373	4603
928.479	4097
928.585	3857
928.69	4055
928.796	4059
928.901	3979
929.007	3865
929.112	4010
929.218	3991
929.323	3972
929.428	3930
929.533	4124
929.638	3892
929.743	3968
929.848	3991
929.953	4013
930.058	3918
930.163	3778
930.267	3831
930.372	3994
930.477	3850
930.581	4071
930.685	3918
930.79	3869
930.894	3915
930.998	3884
931.103	4032
931.207	3705
931.311	3682
931.415	3667
931.519	3515
931.623	3572
