Data from test_V78500241_577.txt Node
Date: Fri Mar 25 16:53:00 CST 2022
User: usil
Spectrometer: V785-0024
Trigger mode: 0
Integration Time (sec): 4.000000E-1
Scans to average: 1
Nonlinearity correction enabled: false
Boxcar width: 0
Storing dark spectrum: false
XAxis mode: Wavelengths
Number of Pixels in Spectrum: 1024
>>>>>Begin Spectral Data<<<<<
801.071	8046
801.214	7940
801.356	7852
801.499	7845
801.641	7814
801.783	7871
801.926	8005
802.068	7989
802.211	8001
802.353	7993
802.496	7856
802.638	7913
802.78	7993
802.923	7894
803.065	7845
803.208	7837
803.35	7917
803.492	8054
803.635	8248
803.777	8046
803.919	8134
804.061	8374
804.204	8077
804.346	8081
804.488	7921
804.63	8130
804.773	8058
804.915	8107
805.057	8259
805.199	8161
805.341	8248
805.483	8309
805.626	8195
805.768	8039
805.91	8187
806.052	8202
806.194	8107
806.336	8317
806.478	8103
806.62	7982
806.762	8115
806.904	8233
807.046	8374
807.188	8294
807.33	8214
807.472	8320
807.614	8115
807.756	8180
807.898	8008
808.04	7875
808.182	7871
808.324	7925
808.465	7894
808.607	8024
808.749	8062
808.891	8202
809.033	8229
809.174	8123
809.316	7986
809.458	8046
809.6	7951
809.741	8005
809.883	8096
810.025	8062
810.166	8027
810.308	7974
810.45	7997
810.591	7875
810.733	7734
810.875	7700
811.016	7586
811.158	7506
811.299	7571
811.441	7708
811.582	7708
811.724	7571
811.865	7548
812.007	7590
812.148	7552
812.29	7632
812.431	7731
812.573	7860
812.714	8016
812.855	8134
812.997	8218
813.138	8366
813.279	8256
813.421	8142
813.562	8046
813.703	7898
813.845	7845
813.986	7426
814.127	7396
814.268	7331
814.41	7198
814.551	7198
814.692	7145
814.833	7080
814.974	7091
815.115	7175
815.256	7008
815.397	6897
815.539	7031
815.68	6852
815.821	6757
815.962	6894
816.103	6802
816.244	6795
816.385	6635
816.526	6620
816.666	6593
816.807	6304
816.948	6410
817.089	6418
817.23	6422
817.371	6376
817.512	6346
817.653	6327
817.793	6399
817.934	6342
818.075	6429
818.216	6456
818.356	6414
818.497	6292
818.638	6106
818.778	6121
818.919	6213
819.06	6117
819.2	6315
819.341	6281
819.481	6353
819.622	6513
819.762	6715
819.903	6711
820.043	6563
820.184	6574
820.324	6574
820.465	6604
820.605	6646
820.746	6563
820.886	6426
821.026	6654
821.167	6795
821.307	6768
821.447	6806
821.588	6650
821.728	6547
821.868	6513
822.008	6292
822.149	6376
822.289	6338
822.429	6144
822.569	6057
822.709	6114
822.849	5920
822.99	5878
823.13	5855
823.27	5904
823.41	5821
823.55	5783
823.69	5733
823.83	5798
823.97	5627
824.11	5467
824.25	5486
824.389	5512
824.529	5554
824.669	5493
824.809	5657
824.949	5676
825.089	5611
825.228	5539
825.368	5398
825.508	5315
825.648	5337
825.787	5395
825.927	5372
826.067	5307
826.206	5254
826.346	5357
826.485	5398
826.625	5406
826.765	5532
826.904	5467
827.044	5261
827.183	5174
827.323	5128
827.462	5216
827.601	5166
827.741	5166
827.88	5201
828.02	5079
828.159	5265
828.298	5284
828.437	5322
828.577	5204
828.716	5436
828.855	5258
828.994	5136
829.134	5174
829.273	5189
829.412	5162
829.551	5136
829.69	5143
829.829	5151
829.968	5387
830.107	5261
830.246	5277
830.385	5178
830.524	5117
830.663	5102
830.802	4980
830.941	4862
831.08	4862
831.219	4980
831.357	5018
831.496	5159
831.635	4930
831.774	4889
831.913	4797
832.051	4736
832.19	4725
832.329	4801
832.467	4717
832.606	4584
832.744	4721
832.883	4679
833.022	4733
833.16	4771
833.299	4835
833.437	4824
833.576	4759
833.714	4820
833.852	4862
833.991	4854
834.129	4938
834.267	4896
834.406	4847
834.544	4938
834.682	4923
834.821	4984
834.959	5132
835.097	4965
835.235	5151
835.373	5117
835.511	5105
835.65	5045
835.788	4972
835.926	4889
836.064	4801
836.202	4908
836.34	5143
836.478	5216
836.615	5128
836.753	5204
836.891	5265
837.029	5261
837.167	5162
837.305	5128
837.443	5075
837.58	5037
837.718	5212
837.856	5124
837.993	5170
838.131	5242
838.269	5239
838.406	5193
838.544	5155
838.681	5067
838.819	5045
838.956	4885
839.094	4908
839.231	4980
839.369	5071
839.506	5398
839.643	5235
839.781	5064
839.918	5003
840.055	5079
840.193	5048
840.33	5105
840.467	5098
840.604	5178
840.742	5452
840.879	5071
841.016	5083
841.153	5132
841.29	5337
841.427	5345
841.564	5299
841.701	5357
841.838	5254
841.975	5277
842.112	5242
842.249	5113
842.385	5132
842.522	5326
842.659	5204
842.796	5098
842.933	5212
843.069	5159
843.206	5113
843.343	5246
843.479	5261
843.616	5201
843.752	5029
843.889	4968
844.025	5231
844.162	4999
844.298	5155
844.435	5048
844.571	5018
844.708	5189
844.844	5311
844.98	5337
845.117	5322
845.253	5178
845.389	5105
845.525	5181
845.661	5166
845.798	5048
845.934	5151
846.07	5056
846.206	5151
846.342	5303
846.478	5166
846.614	4999
846.75	4965
846.886	4889
847.022	5136
847.158	5041
847.294	5075
847.429	5086
847.565	5010
847.701	5261
847.837	4885
847.972	4824
848.108	4946
848.244	4919
848.379	4763
848.515	4759
848.65	4725
848.786	4698
848.921	4767
849.057	4877
849.192	4866
849.328	4850
849.463	4847
849.598	4805
849.734	4786
849.869	4683
850.004	4618
850.14	4672
850.275	4630
850.41	4554
850.545	4527
850.68	4660
850.815	4660
850.95	4626
851.085	4866
851.22	4714
851.355	4641
851.49	4679
851.625	4603
851.76	4645
851.895	4516
852.03	4462
852.165	4634
852.299	4675
852.434	4816
852.569	4752
852.703	4763
852.838	4877
852.973	5006
853.107	4927
853.242	4694
853.376	4668
853.511	4466
853.645	4569
853.78	4824
853.914	4698
854.048	4675
854.183	4626
854.317	4618
854.451	4847
854.585	4710
854.72	4603
854.854	4771
854.988	4637
855.122	4630
855.256	4512
855.39	4634
855.524	4721
855.658	4710
855.792	4710
855.926	4706
856.06	4801
856.194	4797
856.327	4698
856.461	4630
856.595	4588
856.729	4649
856.862	4733
856.996	4664
857.13	4714
857.263	4786
857.397	4793
857.53	4611
857.664	4729
857.797	4740
857.931	4793
858.064	4668
858.197	4717
858.331	4649
858.464	4592
858.597	4531
858.731	4615
858.864	4599
858.997	4542
859.13	4618
859.263	4656
859.396	4683
859.529	4599
859.662	4542
859.795	4523
859.928	4615
860.061	4748
860.194	4721
860.327	4592
860.46	4569
860.592	4668
860.725	4748
860.858	4672
860.99	4592
861.123	4523
861.256	4504
861.388	4592
861.521	5459
861.653	4436
861.786	4428
861.918	4428
862.05	4474
862.183	4535
862.315	4603
862.447	4660
862.58	4577
862.712	4386
862.844	4329
862.976	4489
863.108	4443
863.24	4908
863.372	4333
863.504	4447
863.636	4398
863.768	4451
863.9	4462
864.032	4367
864.164	4383
864.296	4470
864.428	4527
864.559	4569
864.691	4558
864.823	4523
864.954	4455
865.086	4523
865.217	4478
865.349	4409
865.48	4451
865.612	4523
865.743	4611
865.875	4485
866.006	4413
866.137	4523
866.269	4436
866.4	4512
866.531	4436
866.662	4383
866.793	4417
866.924	4375
867.055	4512
867.186	4474
867.317	4436
867.448	4352
867.579	4375
867.71	4360
867.841	4390
867.972	4455
868.103	4447
868.233	4443
868.364	4436
868.495	4485
868.625	4679
868.756	4759
868.886	4580
869.017	4649
869.147	4748
869.278	4755
869.408	4675
869.539	4630
869.669	4717
869.799	4672
869.929	4736
870.06	4721
870.19	4942
870.32	4900
870.45	4946
870.58	4942
870.71	5098
870.84	5083
870.97	4957
871.1	4892
871.23	5102
871.36	5094
871.489	5025
871.619	5052
871.749	5094
871.879	5113
872.008	5204
872.138	5033
872.267	5006
872.397	4843
872.526	4801
872.656	4702
872.785	4797
872.915	4953
873.044	5018
873.173	4873
873.303	5022
873.432	4949
873.561	4927
873.69	4870
873.819	4854
873.948	4927
874.077	4831
874.206	4782
874.335	4793
874.464	4915
874.593	5079
874.722	4972
874.851	5075
874.979	5052
875.108	5048
875.237	4919
875.365	4908
875.494	4938
875.623	4991
875.751	4805
875.88	4904
876.008	4972
876.136	5010
876.265	5174
876.393	5372
876.521	5254
876.65	5220
876.778	5155
876.906	5037
877.034	5033
877.162	4984
877.29	4972
877.418	5048
877.546	5090
877.674	5037
877.802	5029
877.93	4949
878.058	4911
878.185	4843
878.313	4942
878.441	4957
878.568	4774
878.696	4927
878.824	4961
878.951	4968
879.079	5113
879.206	5315
879.333	5105
879.461	4980
879.588	5037
879.715	5181
879.842	5223
879.97	4984
880.097	4755
880.224	4721
880.351	4771
880.478	4786
880.605	4854
880.732	4816
880.859	5056
880.986	4911
881.112	4908
881.239	4763
881.366	4641
881.493	4653
881.619	4622
881.746	4660
881.872	4683
881.999	4645
882.125	4653
882.252	4790
882.378	4828
882.505	4934
882.631	4812
882.757	4702
882.883	4774
883.01	4736
883.136	4710
883.262	4592
883.388	4607
883.514	4805
883.64	4850
883.766	4816
883.892	4626
884.018	4675
884.143	4862
884.269	5052
884.395	4702
884.52	4622
884.646	4630
884.772	4558
884.897	4538
885.023	4641
885.148	4797
885.274	4896
885.399	4793
885.524	4698
885.65	4660
885.775	4767
885.9	4691
886.025	4850
886.15	4782
886.275	4733
886.4	4653
886.525	4744
886.65	4683
886.775	4675
886.9	4908
887.025	5025
887.149	4820
887.274	4702
887.399	4580
887.523	4603
887.648	4577
887.773	4584
887.897	4767
888.021	4782
888.146	4687
888.27	4843
888.395	4866
888.519	4778
888.643	4786
888.767	4820
888.891	4710
889.015	4645
889.139	4618
889.263	4592
889.387	4744
889.511	4858
889.635	4759
889.759	4637
889.883	4660
890.006	4714
890.13	4843
890.254	4645
890.377	4645
890.501	4500
890.624	4504
890.748	4630
890.871	4470
890.995	4405
891.118	4375
891.241	4580
891.364	4523
891.488	4660
891.611	4523
891.734	4546
891.857	4584
891.98	4550
892.103	4653
892.226	4630
892.349	4523
892.471	4428
892.594	4580
892.717	4603
892.839	4535
892.962	4588
893.085	4664
893.207	4588
893.33	4470
893.452	4512
893.575	4672
893.697	4542
893.819	4805
893.941	4847
894.064	4797
894.186	4565
894.308	4561
894.43	4778
894.552	4805
894.674	4736
894.796	4558
894.918	4626
895.04	4577
895.161	4698
895.283	4672
895.405	4569
895.526	4664
895.648	4675
895.769	4736
895.891	4736
896.012	4755
896.134	4744
896.255	4649
896.376	4634
896.498	4630
896.619	4675
896.74	4622
896.861	4649
896.982	4889
897.103	5090
897.224	4824
897.345	4755
897.466	4637
897.587	4755
897.708	4866
897.828	4782
897.949	4683
898.07	4535
898.19	4599
898.311	4824
898.431	4683
898.552	4729
898.672	4847
898.792	4793
898.913	4694
899.033	4611
899.153	4497
899.273	4470
899.393	4580
899.513	4527
899.633	4489
899.753	4561
899.873	4455
899.993	4565
900.113	4550
900.232	4607
900.352	4558
900.472	4493
900.591	4409
900.711	4504
900.83	4421
900.95	4615
901.069	4675
901.189	4504
901.308	4379
901.427	4303
901.546	4405
901.665	4512
901.784	4489
901.904	4394
902.023	4314
902.141	4223
902.26	4139
902.379	4322
902.498	4223
902.617	4227
902.735	4390
902.854	4436
902.973	4333
903.091	4230
903.21	4299
903.328	4322
903.446	4303
903.565	4261
903.683	4363
903.801	4303
903.919	4417
904.038	4424
904.156	4318
904.274	4421
904.392	4386
904.51	4440
904.627	4436
904.745	4554
904.863	4615
904.981	4402
905.098	4284
905.216	4344
905.334	4417
905.451	4379
905.569	4417
905.686	4554
905.803	4580
905.921	4398
906.038	4565
906.155	4436
906.272	4363
906.389	4428
906.506	4341
906.623	4379
906.74	4360
906.857	4322
906.974	4413
907.091	4577
907.208	4694
907.324	4580
907.441	4485
907.557	4375
907.674	4295
907.79	4325
907.907	4424
908.023	4432
908.139	4451
908.256	4402
908.372	4455
908.488	4447
908.604	4367
908.72	4325
908.836	4390
908.952	4306
909.068	4421
909.184	4592
909.3	4478
909.415	4573
909.531	4577
909.647	4333
909.762	4386
909.878	4356
909.993	4421
910.108	4440
910.224	4402
910.339	4504
910.454	4413
910.57	4352
910.685	4280
910.8	4607
910.915	4596
911.03	4504
911.145	4344
911.259	4333
911.374	4379
911.489	4280
911.604	4299
911.718	4154
911.833	4192
911.947	4067
912.062	4040
912.176	4154
912.291	4261
912.405	4242
912.519	4470
912.633	4519
912.748	4390
912.862	4306
912.976	4211
913.09	4120
913.204	4181
913.318	4196
913.431	4352
913.545	4367
913.659	4390
913.772	4337
913.886	4234
914	4246
914.113	4405
914.226	4421
914.34	4398
914.453	4219
914.566	4443
914.68	4295
914.793	4333
914.906	4128
915.019	4158
915.132	4078
915.245	4173
915.358	4173
915.47	4253
915.583	4272
915.696	4272
915.809	4390
915.921	4428
916.034	4310
916.146	4238
916.259	4238
916.371	4371
916.483	4322
916.595	4276
916.708	4318
916.82	4352
916.932	4272
917.044	4329
917.156	4329
917.268	4223
917.38	4261
917.491	4272
917.603	4318
917.715	4421
917.826	4402
917.938	4348
918.049	4234
918.161	4394
918.272	4565
918.384	4516
918.495	4432
918.606	4268
918.717	4207
918.828	4344
918.939	4348
919.05	4192
919.161	4306
919.272	4128
919.383	4211
919.494	4436
919.604	4615
919.715	4417
919.826	4352
919.936	4417
920.047	4512
920.157	4462
920.267	4656
920.378	4485
920.488	4459
920.598	4714
920.708	4927
920.818	4759
920.928	4744
921.038	4961
921.148	4938
921.258	4649
921.368	4542
921.477	4466
921.587	4451
921.697	4375
921.806	4493
921.916	4409
922.025	4261
922.134	4223
922.244	4181
922.353	4325
922.462	4177
922.571	4143
922.68	4010
922.789	3991
922.898	3991
923.007	4017
923.116	4086
923.224	4101
923.333	4044
923.442	3934
923.55	3991
923.659	4013
923.767	4055
923.876	3968
923.984	4086
924.092	4017
924.201	4021
924.309	4048
924.417	4074
924.525	4006
924.633	4086
924.741	5045
924.849	3934
924.956	4086
925.064	3960
925.172	3880
925.279	3926
925.387	4010
925.494	4013
925.602	4219
925.709	4147
925.816	3987
925.924	4109
926.031	4188
926.138	4124
926.245	4143
926.352	4071
926.459	4192
926.566	4314
926.673	4124
926.779	4067
926.886	4074
926.993	3960
927.099	3975
927.206	3949
927.312	3956
927.419	4074
927.525	4055
927.631	4112
927.737	3964
927.843	3945
927.95	3865
928.056	3956
928.162	3998
928.267	4086
928.373	4717
928.479	4120
928.585	3930
928.69	4006
928.796	4097
928.901	3983
929.007	3857
929.112	4021
929.218	4048
929.323	3953
929.428	3949
929.533	4131
929.638	3896
929.743	3979
929.848	4048
929.953	3983
930.058	3979
930.163	3823
930.267	3854
930.372	3998
930.477	3896
930.581	4109
930.685	3991
930.79	3876
930.894	3918
930.998	3888
931.103	4112
931.207	3759
931.311	3743
931.415	3720
931.519	3591
931.623	3599
