Data from test_V78500241_538.txt Node
Date: Fri Mar 25 16:52:44 CST 2022
User: usil
Spectrometer: V785-0024
Trigger mode: 0
Integration Time (sec): 4.000000E-1
Scans to average: 1
Nonlinearity correction enabled: false
Boxcar width: 0
Storing dark spectrum: false
XAxis mode: Wavelengths
Number of Pixels in Spectrum: 1024
>>>>>Begin Spectral Data<<<<<
801.071	8043
801.214	8043
801.356	7879
801.499	7894
801.641	7795
801.783	7849
801.926	8008
802.068	8065
802.211	7993
802.353	8058
802.496	7909
802.638	7875
802.78	7947
802.923	7928
803.065	7849
803.208	7830
803.35	8005
803.492	8088
803.635	8153
803.777	8001
803.919	8142
804.061	8419
804.204	8088
804.346	8031
804.488	7986
804.63	8065
804.773	8031
804.915	8134
805.057	8275
805.199	8240
805.341	8161
805.483	8225
805.626	8202
805.768	8092
805.91	8134
806.052	8240
806.194	8123
806.336	8267
806.478	8172
806.62	8065
806.762	8126
806.904	8183
807.046	8427
807.188	8358
807.33	8275
807.472	8218
807.614	8157
807.756	8100
807.898	8031
808.04	7784
808.182	7879
808.324	7887
808.465	7898
808.607	8046
808.749	8081
808.891	8172
809.033	8309
809.174	8065
809.316	8096
809.458	8046
809.6	8020
809.741	7978
809.883	8054
810.025	8050
810.166	8020
810.308	7982
810.45	8031
810.591	7856
810.733	7750
810.875	7571
811.016	7559
811.158	7453
811.299	7628
811.441	7746
811.582	7712
811.724	7556
811.865	7567
812.007	7628
812.148	7514
812.29	7613
812.431	7742
812.573	7932
812.714	7986
812.855	8145
812.997	8290
813.138	8355
813.279	8176
813.421	8138
813.562	8142
813.703	7986
813.845	7860
813.986	7552
814.127	7362
814.268	7285
814.41	7225
814.551	7228
814.692	7206
814.833	7126
814.974	7084
815.115	7145
815.256	7008
815.397	7004
815.539	6935
815.68	6825
815.821	6810
815.962	6886
816.103	6818
816.244	6684
816.385	6707
816.526	6623
816.666	6521
816.807	6308
816.948	6441
817.089	6471
817.23	6414
817.371	6391
817.512	6350
817.653	6414
817.793	6384
817.934	6445
818.075	6490
818.216	6456
818.356	6464
818.497	6239
818.638	6106
818.778	6114
818.919	6110
819.06	6136
819.2	6346
819.341	6315
819.481	6346
819.622	6502
819.762	6707
819.903	6700
820.043	6555
820.184	6551
820.324	6559
820.465	6642
820.605	6684
820.746	6608
820.886	6475
821.026	6654
821.167	6662
821.307	6806
821.447	6703
821.588	6627
821.728	6517
821.868	6437
822.008	6323
822.149	6365
822.289	6395
822.429	6121
822.569	6091
822.709	6136
822.849	5885
822.99	5889
823.13	5931
823.27	5931
823.41	5745
823.55	5733
823.69	5790
823.83	5798
823.97	5676
824.11	5512
824.25	5551
824.389	5524
824.529	5581
824.669	5566
824.809	5638
824.949	5608
825.089	5619
825.228	5562
825.368	5372
825.508	5387
825.648	5353
825.787	5417
825.927	5402
826.067	5318
826.206	5307
826.346	5334
826.485	5357
826.625	5402
826.765	5570
826.904	5520
827.044	5181
827.183	5197
827.323	5105
827.462	5254
827.601	5162
827.741	5162
827.88	5231
828.02	5159
828.159	5212
828.298	5277
828.437	5364
828.577	5296
828.716	5429
828.855	5303
828.994	5193
829.134	5170
829.273	5181
829.412	5159
829.551	5105
829.69	5189
829.829	5216
829.968	5337
830.107	5227
830.246	5280
830.385	5223
830.524	5147
830.663	5041
830.802	4980
830.941	4889
831.08	4862
831.219	4972
831.357	5014
831.496	5143
831.635	4946
831.774	4805
831.913	4805
832.051	4717
832.19	4744
832.329	4847
832.467	4771
832.606	4653
832.744	4721
832.883	4725
833.022	4714
833.16	4801
833.299	4843
833.437	4782
833.576	4835
833.714	4870
833.852	4900
833.991	4858
834.129	4930
834.267	4961
834.406	4938
834.544	4957
834.682	4938
834.821	4968
834.959	5197
835.097	4961
835.235	5166
835.373	5083
835.511	5071
835.65	5075
835.788	5045
835.926	4900
836.064	4900
836.202	4949
836.34	5170
836.478	5261
836.615	5109
836.753	5178
836.891	5284
837.029	5220
837.167	5170
837.305	5136
837.443	5117
837.58	5052
837.718	5212
837.856	5159
837.993	5105
838.131	5231
838.269	5223
838.406	5201
838.544	5155
838.681	5006
838.819	5010
838.956	4908
839.094	4904
839.231	4911
839.369	5102
839.506	5379
839.643	5258
839.781	5045
839.918	5010
840.055	5060
840.193	5075
840.33	5083
840.467	5140
840.604	5208
840.742	5463
840.879	5075
841.016	5033
841.153	5121
841.29	5341
841.427	5357
841.564	5307
841.701	5322
841.838	5311
841.975	5284
842.112	5250
842.249	5121
842.385	5151
842.522	5360
842.659	5132
842.796	5170
842.933	5193
843.069	5132
843.206	5140
843.343	5334
843.479	5227
843.616	5242
843.752	5025
843.889	5064
844.025	5235
844.162	5010
844.298	5159
844.435	5041
844.571	5075
844.708	5223
844.844	5311
844.98	5315
845.117	5280
845.253	5071
845.389	5086
845.525	5193
845.661	5090
845.798	5014
845.934	5155
846.07	5025
846.206	5185
846.342	5296
846.478	5178
846.614	5025
846.75	4980
846.886	4991
847.022	5124
847.158	4949
847.294	5056
847.429	5151
847.565	5064
847.701	5357
847.837	4847
847.972	4839
848.108	4999
848.244	4896
848.379	4771
848.515	4710
848.65	4694
848.786	4755
848.921	4790
849.057	4820
849.192	4877
849.328	4816
849.463	4801
849.598	4790
849.734	4729
849.869	4702
850.004	4630
850.14	4683
850.275	4596
850.41	4516
850.545	4550
850.68	4565
850.815	4561
850.95	4584
851.085	4847
851.22	4759
851.355	4679
851.49	4653
851.625	4615
851.76	4645
851.895	4531
852.03	4512
852.165	4691
852.299	4691
852.434	4771
852.569	4763
852.703	4790
852.838	4835
852.973	4896
853.107	4900
853.242	4675
853.376	4740
853.511	4569
853.645	4649
853.78	4786
853.914	4717
854.048	4691
854.183	4588
854.317	4656
854.451	4854
854.585	4698
854.72	4596
854.854	4755
854.988	4588
855.122	4634
855.256	4531
855.39	4626
855.524	4748
855.658	4744
855.792	4717
855.926	4683
856.06	4702
856.194	4831
856.327	4717
856.461	4634
856.595	4622
856.729	4649
856.862	4740
856.996	4698
857.13	4717
857.263	4778
857.397	4790
857.53	4664
857.664	4683
857.797	4752
857.931	4744
858.064	4698
858.197	4752
858.331	4687
858.464	4596
858.597	4516
858.731	4634
858.864	4634
858.997	4630
859.13	4656
859.263	4656
859.396	4637
859.529	4584
859.662	4531
859.795	4558
859.928	4637
860.061	4790
860.194	4755
860.327	4573
860.46	4577
860.592	4759
860.725	4683
860.858	4706
860.99	4527
861.123	4542
861.256	4550
861.388	4607
861.521	5448
861.653	4443
861.786	4474
861.918	4447
862.05	4531
862.183	4504
862.315	4565
862.447	4603
862.58	4523
862.712	4360
862.844	4352
862.976	4523
863.108	4402
863.24	4839
863.372	4344
863.504	4405
863.636	4402
863.768	4459
863.9	4470
864.032	4390
864.164	4413
864.296	4440
864.428	4558
864.559	4523
864.691	4493
864.823	4493
864.954	4459
865.086	4497
865.217	4493
865.349	4367
865.48	4421
865.612	4436
865.743	4615
865.875	4428
866.006	4421
866.137	4462
866.269	4443
866.4	4432
866.531	4390
866.662	4440
866.793	4440
866.924	4394
867.055	4497
867.186	4451
867.317	4375
867.448	4375
867.579	4413
867.71	4375
867.841	4360
867.972	4489
868.103	4447
868.233	4436
868.364	4424
868.495	4466
868.625	4729
868.756	4752
868.886	4599
869.017	4596
869.147	4778
869.278	4767
869.408	4706
869.539	4618
869.669	4634
869.799	4660
869.929	4740
870.06	4733
870.19	4987
870.32	4919
870.45	4911
870.58	5025
870.71	5124
870.84	5094
870.97	5018
871.1	4991
871.23	5132
871.36	5117
871.489	5048
871.619	5067
871.749	5052
871.879	5098
872.008	5170
872.138	5037
872.267	4968
872.397	4881
872.526	4809
872.656	4729
872.785	4843
872.915	4965
873.044	5014
873.173	4896
873.303	4934
873.432	4976
873.561	4972
873.69	4877
873.819	4820
873.948	4919
874.077	4801
874.206	4752
874.335	4759
874.464	4949
874.593	5071
874.722	4949
874.851	5109
874.979	5033
875.108	5041
875.237	4908
875.365	4858
875.494	4900
875.623	4961
875.751	4797
875.88	4877
876.008	4995
876.136	5048
876.265	5147
876.393	5322
876.521	5284
876.65	5261
876.778	5181
876.906	5079
877.034	5022
877.162	5025
877.29	5010
877.418	4991
877.546	5075
877.674	5041
877.802	5022
877.93	4999
878.058	4946
878.185	4847
878.313	4908
878.441	4965
878.568	4793
878.696	4889
878.824	4953
878.951	4984
879.079	5136
879.206	5307
879.333	5045
879.461	4987
879.588	5014
879.715	5117
879.842	5231
879.97	4987
880.097	4820
880.224	4714
880.351	4805
880.478	4828
880.605	4866
880.732	4786
880.859	5064
880.986	4915
881.112	4919
881.239	4793
881.366	4675
881.493	4588
881.619	4550
881.746	4634
881.872	4653
881.999	4653
882.125	4672
882.252	4797
882.378	4862
882.505	4949
882.631	4778
882.757	4664
882.883	4721
883.01	4763
883.136	4672
883.262	4618
883.388	4588
883.514	4736
883.64	4824
883.766	4797
883.892	4679
884.018	4698
884.143	4908
884.269	5048
884.395	4653
884.52	4611
884.646	4668
884.772	4573
884.897	4531
885.023	4664
885.148	4824
885.274	4877
885.399	4721
885.524	4752
885.65	4679
885.775	4736
885.9	4637
886.025	4831
886.15	4793
886.275	4782
886.4	4649
886.525	4748
886.65	4710
886.775	4626
886.9	4911
887.025	5052
887.149	4843
887.274	4653
887.399	4592
887.523	4569
887.648	4569
887.773	4588
887.897	4793
888.021	4831
888.146	4660
888.27	4805
888.395	4915
888.519	4854
888.643	4790
888.767	4828
888.891	4683
889.015	4630
889.139	4653
889.263	4603
889.387	4763
889.511	4873
889.635	4759
889.759	4626
889.883	4645
890.006	4748
890.13	4839
890.254	4569
890.377	4664
890.501	4538
890.624	4573
890.748	4618
890.871	4527
890.995	4459
891.118	4371
891.241	4535
891.364	4550
891.488	4588
891.611	4512
891.734	4535
891.857	4573
891.98	4569
892.103	4645
892.226	4580
892.349	4523
892.471	4398
892.594	4561
892.717	4538
892.839	4508
892.962	4569
893.085	4641
893.207	4588
893.33	4478
893.452	4512
893.575	4687
893.697	4538
893.819	4778
893.941	4786
894.064	4736
894.186	4500
894.308	4558
894.43	4683
894.552	4801
894.674	4752
894.796	4561
894.918	4561
895.04	4531
895.161	4729
895.283	4694
895.405	4550
895.526	4626
895.648	4698
895.769	4675
895.891	4679
896.012	4748
896.134	4782
896.255	4675
896.376	4653
896.498	4637
896.619	4672
896.74	4622
896.861	4645
896.982	4949
897.103	5094
897.224	4809
897.345	4702
897.466	4656
897.587	4733
897.708	4850
897.828	4786
897.949	4679
898.07	4546
898.19	4637
898.311	4839
898.431	4714
898.552	4736
898.672	4801
898.792	4839
898.913	4733
899.033	4622
899.153	4489
899.273	4432
899.393	4531
899.513	4508
899.633	4527
899.753	4527
899.873	4523
899.993	4527
900.113	4531
900.232	4599
900.352	4618
900.472	4478
900.591	4386
900.711	4432
900.83	4405
900.95	4603
901.069	4679
901.189	4516
901.308	4417
901.427	4341
901.546	4386
901.665	4440
901.784	4500
901.904	4402
902.023	4341
902.141	4162
902.26	4154
902.379	4280
902.498	4204
902.617	4200
902.735	4421
902.854	4398
902.973	4310
903.091	4227
903.21	4223
903.328	4284
903.446	4287
903.565	4265
903.683	4375
903.801	4280
903.919	4356
904.038	4432
904.156	4318
904.274	4432
904.392	4383
904.51	4417
904.627	4493
904.745	4546
904.863	4611
904.981	4371
905.098	4322
905.216	4405
905.334	4443
905.451	4409
905.569	4421
905.686	4565
905.803	4580
905.921	4421
906.038	4561
906.155	4451
906.272	4356
906.389	4436
906.506	4325
906.623	4375
906.74	4379
906.857	4306
906.974	4379
907.091	4550
907.208	4691
907.324	4569
907.441	4497
907.557	4371
907.674	4356
907.79	4303
907.907	4375
908.023	4443
908.139	4497
908.256	4421
908.372	4470
908.488	4409
908.604	4356
908.72	4329
908.836	4337
908.952	4367
909.068	4383
909.184	4542
909.3	4424
909.415	4561
909.531	4569
909.647	4337
909.762	4371
909.878	4341
909.993	4417
910.108	4402
910.224	4436
910.339	4489
910.454	4375
910.57	4363
910.685	4287
910.8	4630
910.915	4584
911.03	4451
911.145	4333
911.259	4318
911.374	4421
911.489	4291
911.604	4249
911.718	4147
911.833	4223
911.947	4097
912.062	4044
912.176	4246
912.291	4257
912.405	4207
912.519	4443
912.633	4443
912.748	4356
912.862	4280
912.976	4200
913.09	4086
913.204	4154
913.318	4230
913.431	4348
913.545	4344
913.659	4451
913.772	4348
913.886	4234
914	4261
914.113	4341
914.226	4421
914.34	4386
914.453	4246
914.566	4390
914.68	4306
914.793	4303
914.906	4177
915.019	4097
915.132	4109
915.245	4181
915.358	4204
915.47	4219
915.583	4303
915.696	4284
915.809	4436
915.921	4436
916.034	4249
916.146	4276
916.259	4234
916.371	4386
916.483	4337
916.595	4284
916.708	4341
916.82	4322
916.932	4333
917.044	4363
917.156	4322
917.268	4257
917.38	4287
917.491	4268
917.603	4405
917.715	4413
917.826	4413
917.938	4413
918.049	4299
918.161	4413
918.272	4626
918.384	4565
918.495	4470
918.606	4314
918.717	4303
918.828	4356
918.939	4398
919.05	4303
919.161	4398
919.272	4185
919.383	4280
919.494	4474
919.604	4691
919.715	4497
919.826	4402
919.936	4462
920.047	4599
920.157	4554
920.267	4774
920.378	4596
920.488	4527
920.598	4771
920.708	4980
920.818	4725
920.928	4816
921.038	4938
921.148	4934
921.258	4672
921.368	4565
921.477	4538
921.587	4516
921.697	4409
921.806	4626
921.916	4478
922.025	4314
922.134	4398
922.244	4204
922.353	4413
922.462	4219
922.571	4150
922.68	4013
922.789	4048
922.898	4120
923.007	4029
923.116	4177
923.224	4105
923.333	4128
923.442	4055
923.55	3998
923.659	4082
923.767	4139
923.876	4059
923.984	4200
924.092	4032
924.201	4131
924.309	4082
924.417	4169
924.525	4040
924.633	4158
924.741	5090
924.849	3979
924.956	4192
925.064	3994
925.172	3975
925.279	4055
925.387	4032
925.494	4097
925.602	4230
925.709	4257
925.816	4078
925.924	4135
926.031	4276
926.138	4261
926.245	4272
926.352	4128
926.459	4257
926.566	4390
926.673	4147
926.779	4124
926.886	4105
926.993	4006
927.099	3979
927.206	3953
927.312	3953
927.419	4055
927.525	4040
927.631	4135
927.737	4051
927.843	3975
927.95	3907
928.056	3987
928.162	4044
928.267	4097
928.373	4706
928.479	4158
928.585	3903
928.69	4063
928.796	4116
928.901	4025
929.007	3903
929.112	4051
929.218	3987
929.323	3979
929.428	3998
929.533	4101
929.638	3968
929.743	3987
929.848	4128
929.953	4021
930.058	3945
930.163	3789
930.267	3880
930.372	3987
930.477	3857
930.581	4086
930.685	4017
930.79	3888
930.894	3960
930.998	3903
931.103	4040
931.207	3732
931.311	3701
931.415	3713
931.519	3561
931.623	3545
