Data from test_V78500241_2326.txt Node
Date: Fri Mar 25 17:05:10 CST 2022
User: usil
Spectrometer: V785-0024
Trigger mode: 0
Integration Time (sec): 4.000000E-1
Scans to average: 1
Nonlinearity correction enabled: false
Boxcar width: 0
Storing dark spectrum: false
XAxis mode: Wavelengths
Number of Pixels in Spectrum: 1024
>>>>>Begin Spectral Data<<<<<
801.071	8012
801.214	7898
801.356	7822
801.499	7837
801.641	7845
801.783	7894
801.926	7883
802.068	7871
802.211	7982
802.353	7967
802.496	7792
802.638	7803
802.78	7852
802.923	7917
803.065	7833
803.208	7883
803.35	7970
803.492	8054
803.635	8195
803.777	8062
803.919	8191
804.061	8442
804.204	8138
804.346	8043
804.488	7959
804.63	8130
804.773	8043
804.915	8111
805.057	8248
805.199	8161
805.341	8168
805.483	8324
805.626	8225
805.768	8145
805.91	8176
806.052	8176
806.194	8081
806.336	8187
806.478	8100
806.62	8035
806.762	8126
806.904	8286
807.046	8400
807.188	8347
807.33	8259
807.472	8305
807.614	8195
807.756	8123
807.898	7928
808.04	7871
808.182	7887
808.324	7868
808.465	7902
808.607	8020
808.749	8096
808.891	8267
809.033	8248
809.174	8172
809.316	8069
809.458	8016
809.6	8054
809.741	8035
809.883	8039
810.025	8043
810.166	8073
810.308	8020
810.45	8008
810.591	7868
810.733	7772
810.875	7677
811.016	7537
811.158	7487
811.299	7540
811.441	7708
811.582	7677
811.724	7491
811.865	7582
812.007	7533
812.148	7548
812.29	7616
812.431	7742
812.573	7913
812.714	7947
812.855	8092
812.997	8294
813.138	8214
813.279	8138
813.421	8107
813.562	7932
813.703	7814
813.845	7746
813.986	7403
814.127	7255
814.268	7244
814.41	7209
814.551	7164
814.692	7266
814.833	7122
814.974	7122
815.115	7129
815.256	6943
815.397	6928
815.539	7012
815.68	6806
815.821	6772
815.962	6840
816.103	6859
816.244	6696
816.385	6646
816.526	6620
816.666	6551
816.807	6334
816.948	6422
817.089	6475
817.23	6414
817.371	6353
817.512	6395
817.653	6395
817.793	6384
817.934	6410
818.075	6452
818.216	6460
818.356	6380
818.497	6277
818.638	6148
818.778	6114
818.919	6125
819.06	6182
819.2	6327
819.341	6361
819.481	6361
819.622	6547
819.762	6734
819.903	6642
820.043	6635
820.184	6525
820.324	6597
820.465	6688
820.605	6684
820.746	6639
820.886	6521
821.026	6654
821.167	6715
821.307	6825
821.447	6764
821.588	6631
821.728	6616
821.868	6498
822.008	6292
822.149	6380
822.289	6376
822.429	6129
822.569	6091
822.709	6095
822.849	5893
822.99	5939
823.13	5908
823.27	5980
823.41	5832
823.55	5809
823.69	5764
823.83	5794
823.97	5634
824.11	5562
824.25	5474
824.389	5600
824.529	5600
824.669	5566
824.809	5600
824.949	5619
825.089	5604
825.228	5535
825.368	5410
825.508	5368
825.648	5299
825.787	5417
825.927	5387
826.067	5269
826.206	5258
826.346	5414
826.485	5452
826.625	5429
826.765	5570
826.904	5467
827.044	5265
827.183	5155
827.323	5121
827.462	5239
827.601	5204
827.741	5151
827.88	5178
828.02	5105
828.159	5227
828.298	5311
828.437	5330
828.577	5269
828.716	5505
828.855	5330
828.994	5132
829.134	5155
829.273	5159
829.412	5117
829.551	5166
829.69	5170
829.829	5273
829.968	5341
830.107	5261
830.246	5239
830.385	5193
830.524	5083
830.663	5075
830.802	5003
830.941	4877
831.08	4911
831.219	4953
831.357	4984
831.496	5136
831.635	4908
831.774	4896
831.913	4835
832.051	4733
832.19	4767
832.329	4839
832.467	4714
832.606	4630
832.744	4763
832.883	4691
833.022	4710
833.16	4805
833.299	4835
833.437	4828
833.576	4858
833.714	4866
833.852	4850
833.991	4873
834.129	4968
834.267	4965
834.406	4866
834.544	4965
834.682	4927
834.821	5010
834.959	5155
835.097	4965
835.235	5124
835.373	5045
835.511	5083
835.65	5022
835.788	4999
835.926	4896
836.064	4885
836.202	4915
836.34	5189
836.478	5239
836.615	5136
836.753	5212
836.891	5235
837.029	5250
837.167	5197
837.305	5178
837.443	5090
837.58	5105
837.718	5280
837.856	5189
837.993	5117
838.131	5193
838.269	5235
838.406	5204
838.544	5147
838.681	5029
838.819	5014
838.956	4835
839.094	4885
839.231	4968
839.369	5094
839.506	5433
839.643	5258
839.781	5045
839.918	4968
840.055	5056
840.193	5025
840.33	5128
840.467	5155
840.604	5185
840.742	5410
840.879	5102
841.016	5083
841.153	5121
841.29	5387
841.427	5379
841.564	5326
841.701	5299
841.838	5296
841.975	5280
842.112	5239
842.249	5151
842.385	5132
842.522	5330
842.659	5170
842.796	5132
842.933	5170
843.069	5140
843.206	5159
843.343	5235
843.479	5246
843.616	5246
843.752	5045
843.889	5022
844.025	5223
844.162	4999
844.298	5090
844.435	5105
844.571	5060
844.708	5231
844.844	5269
844.98	5334
845.117	5307
845.253	5094
845.389	5136
845.525	5136
845.661	5079
845.798	5037
845.934	5117
846.07	5010
846.206	5181
846.342	5269
846.478	5170
846.614	4976
846.75	4976
846.886	4968
847.022	5136
847.158	4991
847.294	5060
847.429	5067
847.565	5029
847.701	5303
847.837	4835
847.972	4809
848.108	5003
848.244	4938
848.379	4759
848.515	4721
848.65	4721
848.786	4717
848.921	4755
849.057	4881
849.192	4854
849.328	4805
849.463	4889
849.598	4782
849.734	4782
849.869	4645
850.004	4596
850.14	4664
850.275	4664
850.41	4497
850.545	4630
850.68	4630
850.815	4679
850.95	4611
851.085	4847
851.22	4721
851.355	4637
851.49	4599
851.625	4603
851.76	4622
851.895	4596
852.03	4565
852.165	4603
852.299	4725
852.434	4786
852.569	4733
852.703	4717
852.838	4854
852.973	4881
853.107	4942
853.242	4767
853.376	4622
853.511	4535
853.645	4618
853.78	4812
853.914	4664
854.048	4683
854.183	4622
854.317	4683
854.451	4828
854.585	4736
854.72	4649
854.854	4744
854.988	4607
855.122	4592
855.256	4519
855.39	4717
855.524	4790
855.658	4759
855.792	4698
855.926	4736
856.06	4729
856.194	4759
856.327	4706
856.461	4599
856.595	4622
856.729	4615
856.862	4740
856.996	4710
857.13	4736
857.263	4759
857.397	4782
857.53	4607
857.664	4763
857.797	4729
857.931	4831
858.064	4687
858.197	4771
858.331	4618
858.464	4599
858.597	4516
858.731	4618
858.864	4603
858.997	4584
859.13	4626
859.263	4618
859.396	4653
859.529	4596
859.662	4516
859.795	4592
859.928	4599
860.061	4736
860.194	4759
860.327	4573
860.46	4599
860.592	4679
860.725	4744
860.858	4694
860.99	4603
861.123	4516
861.256	4558
861.388	4649
861.521	5368
861.653	4504
861.786	4402
861.918	4421
862.05	4504
862.183	4535
862.315	4618
862.447	4607
862.58	4542
862.712	4379
862.844	4383
862.976	4504
863.108	4516
863.24	4896
863.372	4291
863.504	4398
863.636	4409
863.768	4478
863.9	4390
864.032	4379
864.164	4409
864.296	4466
864.428	4584
864.559	4531
864.691	4504
864.823	4489
864.954	4500
865.086	4527
865.217	4417
865.349	4424
865.48	4451
865.612	4523
865.743	4679
865.875	4436
866.006	4428
866.137	4432
866.269	4485
866.4	4447
866.531	4428
866.662	4417
866.793	4390
866.924	4428
867.055	4485
867.186	4462
867.317	4402
867.448	4348
867.579	4409
867.71	4383
867.841	4352
867.972	4436
868.103	4485
868.233	4417
868.364	4405
868.495	4470
868.625	4668
868.756	4736
868.886	4569
869.017	4554
869.147	4812
869.278	4782
869.408	4664
869.539	4588
869.669	4702
869.799	4637
869.929	4767
870.06	4763
870.19	4976
870.32	4957
870.45	4923
870.58	5003
870.71	5041
870.84	5090
870.97	4896
871.1	4972
871.23	5128
871.36	5113
871.489	5029
871.619	5098
871.749	5041
871.879	5102
872.008	5181
872.138	5052
872.267	4961
872.397	4835
872.526	4793
872.656	4698
872.785	4824
872.915	4946
873.044	5025
873.173	4915
873.303	4972
873.432	4949
873.561	4965
873.69	4870
873.819	4858
873.948	4870
874.077	4801
874.206	4763
874.335	4801
874.464	4896
874.593	5010
874.722	4953
874.851	5121
874.979	5064
875.108	5014
875.237	4873
875.365	4873
875.494	4900
875.623	4953
875.751	4835
875.88	4934
876.008	4995
876.136	4999
876.265	5197
876.393	5406
876.521	5246
876.65	5193
876.778	5109
876.906	5071
877.034	4995
877.162	5056
877.29	4972
877.418	5075
877.546	5029
877.674	5029
877.802	5045
877.93	4995
878.058	4877
878.185	4866
878.313	4911
878.441	4984
878.568	4805
878.696	4919
878.824	4896
878.951	4984
879.079	5162
879.206	5292
879.333	5067
879.461	4999
879.588	4934
879.715	5128
879.842	5212
879.97	4980
880.097	4797
880.224	4721
880.351	4786
880.478	4831
880.605	4782
880.732	4793
880.859	5056
880.986	4873
881.112	4877
881.239	4752
881.366	4702
881.493	4626
881.619	4592
881.746	4618
881.872	4615
881.999	4599
882.125	4660
882.252	4755
882.378	4828
882.505	4915
882.631	4820
882.757	4645
882.883	4752
883.01	4744
883.136	4664
883.262	4580
883.388	4584
883.514	4824
883.64	4831
883.766	4790
883.892	4645
884.018	4721
884.143	4839
884.269	5018
884.395	4649
884.52	4584
884.646	4649
884.772	4512
884.897	4512
885.023	4656
885.148	4755
885.274	4877
885.399	4782
885.524	4653
885.65	4687
885.775	4717
885.9	4706
886.025	4835
886.15	4740
886.275	4706
886.4	4637
886.525	4763
886.65	4702
886.775	4664
886.9	4885
887.025	5094
887.149	4873
887.274	4672
887.399	4580
887.523	4611
887.648	4611
887.773	4611
887.897	4771
888.021	4748
888.146	4668
888.27	4835
888.395	4881
888.519	4854
888.643	4790
888.767	4889
888.891	4694
889.015	4615
889.139	4664
889.263	4637
889.387	4793
889.511	4919
889.635	4870
889.759	4694
889.883	4675
890.006	4771
890.13	4854
890.254	4664
890.377	4679
890.501	4573
890.624	4531
890.748	4694
890.871	4519
890.995	4432
891.118	4443
891.241	4542
891.364	4535
891.488	4641
891.611	4516
891.734	4516
891.857	4660
891.98	4588
892.103	4740
892.226	4675
892.349	4565
892.471	4485
892.594	4615
892.717	4622
892.839	4660
892.962	4618
893.085	4683
893.207	4592
893.33	4489
893.452	4542
893.575	4721
893.697	4596
893.819	4843
893.941	4889
894.064	4809
894.186	4546
894.308	4607
894.43	4740
894.552	4862
894.674	4782
894.796	4599
894.918	4622
895.04	4668
895.161	4767
895.283	4679
895.405	4577
895.526	4687
895.648	4740
895.769	4717
895.891	4763
896.012	4805
896.134	4748
896.255	4672
896.376	4668
896.498	4672
896.619	4698
896.74	4641
896.861	4725
896.982	4946
897.103	5102
897.224	4850
897.345	4797
897.466	4748
897.587	4759
897.708	4870
897.828	4774
897.949	4687
898.07	4660
898.19	4675
898.311	4854
898.431	4706
898.552	4797
898.672	4824
898.792	4816
898.913	4740
899.033	4634
899.153	4580
899.273	4466
899.393	4519
899.513	4607
899.633	4565
899.753	4603
899.873	4561
899.993	4622
900.113	4554
900.232	4637
900.352	4569
900.472	4497
900.591	4432
900.711	4535
900.83	4485
900.95	4634
901.069	4729
901.189	4603
901.308	4383
901.427	4356
901.546	4413
901.665	4519
901.784	4550
901.904	4436
902.023	4325
902.141	4230
902.26	4211
902.379	4322
902.498	4325
902.617	4268
902.735	4375
902.854	4428
902.973	4394
903.091	4261
903.21	4268
903.328	4386
903.446	4299
903.565	4352
903.683	4341
903.801	4325
903.919	4394
904.038	4455
904.156	4371
904.274	4485
904.392	4432
904.51	4443
904.627	4504
904.745	4596
904.863	4630
904.981	4440
905.098	4356
905.216	4379
905.334	4493
905.451	4424
905.569	4466
905.686	4554
905.803	4588
905.921	4421
906.038	4561
906.155	4478
906.272	4432
906.389	4481
906.506	4383
906.623	4405
906.74	4375
906.857	4352
906.974	4440
907.091	4584
907.208	4752
907.324	4603
907.441	4527
907.557	4318
907.674	4417
907.79	4341
907.907	4421
908.023	4550
908.139	4489
908.256	4504
908.372	4500
908.488	4474
908.604	4398
908.72	4348
908.836	4417
908.952	4398
909.068	4455
909.184	4550
909.3	4459
909.415	4615
909.531	4584
909.647	4421
909.762	4398
909.878	4386
909.993	4470
910.108	4428
910.224	4455
910.339	4523
910.454	4424
910.57	4417
910.685	4322
910.8	4603
910.915	4664
911.03	4550
911.145	4310
911.259	4333
911.374	4394
911.489	4348
911.604	4276
911.718	4204
911.833	4211
911.947	4147
912.062	4059
912.176	4227
912.291	4272
912.405	4287
912.519	4527
912.633	4538
912.748	4375
912.862	4383
912.976	4249
913.09	4124
913.204	4166
913.318	4295
913.431	4405
913.545	4371
913.659	4451
913.772	4390
913.886	4257
914	4272
914.113	4432
914.226	4443
914.34	4402
914.453	4291
914.566	4455
914.68	4360
914.793	4337
914.906	4185
915.019	4162
915.132	4116
915.245	4207
915.358	4219
915.47	4249
915.583	4280
915.696	4325
915.809	4436
915.921	4413
916.034	4287
916.146	4314
916.259	4177
916.371	4363
916.483	4375
916.595	4287
916.708	4356
916.82	4363
916.932	4318
917.044	4379
917.156	4348
917.268	4284
917.38	4314
917.491	4287
917.603	4356
917.715	4485
917.826	4451
917.938	4390
918.049	4291
918.161	4398
918.272	4569
918.384	4577
918.495	4447
918.606	4333
918.717	4325
918.828	4402
918.939	4375
919.05	4280
919.161	4333
919.272	4147
919.383	4284
919.494	4546
919.604	4641
919.715	4436
919.826	4390
919.936	4421
920.047	4512
920.157	4531
920.267	4729
920.378	4558
920.488	4523
920.598	4736
920.708	4896
920.818	4805
920.928	4816
921.038	4984
921.148	4908
921.258	4637
921.368	4599
921.477	4527
921.587	4440
921.697	4383
921.806	4565
921.916	4466
922.025	4314
922.134	4348
922.244	4299
922.353	4363
922.462	4215
922.571	4128
922.68	4063
922.789	3998
922.898	4090
923.007	4017
923.116	4139
923.224	4112
923.333	4112
923.442	4040
923.55	4040
923.659	4051
923.767	4120
923.876	4040
923.984	4116
924.092	4010
924.201	4101
924.309	4105
924.417	4162
924.525	4074
924.633	4131
924.741	5048
924.849	3941
924.956	4105
925.064	3983
925.172	3911
925.279	3941
925.387	4116
925.494	4082
925.602	4227
925.709	4200
925.816	4067
925.924	4139
926.031	4261
926.138	4196
926.245	4257
926.352	4071
926.459	4246
926.566	4348
926.673	4196
926.779	4105
926.886	4101
926.993	3994
927.099	3991
927.206	3972
927.312	3953
927.419	4036
927.525	4067
927.631	4074
927.737	4021
927.843	4002
927.95	3888
928.056	3991
928.162	3979
928.267	4101
928.373	4736
928.479	4139
928.585	3880
928.69	4032
928.796	4112
928.901	4002
929.007	3884
929.112	4044
929.218	3987
929.323	3953
929.428	3960
929.533	4124
929.638	3907
929.743	4006
929.848	4105
929.953	4021
930.058	4021
930.163	3800
930.267	3861
930.372	3987
930.477	3831
930.581	4116
930.685	3998
930.79	3850
930.894	3903
930.998	3892
931.103	4109
931.207	3732
931.311	3743
931.415	3690
931.519	3580
931.623	3530
