Data from test_V78500241_1812.txt Node
Date: Fri Mar 25 17:01:36 CST 2022
User: usil
Spectrometer: V785-0024
Trigger mode: 0
Integration Time (sec): 4.000000E-1
Scans to average: 1
Nonlinearity correction enabled: false
Boxcar width: 0
Storing dark spectrum: false
XAxis mode: Wavelengths
Number of Pixels in Spectrum: 1024
>>>>>Begin Spectral Data<<<<<
801.071	7921
801.214	8008
801.356	7826
801.499	7879
801.641	7799
801.783	7898
801.926	7894
802.068	7921
802.211	7963
802.353	8008
802.496	7830
802.638	7890
802.78	7890
802.923	7917
803.065	7906
803.208	7868
803.35	7974
803.492	8084
803.635	8180
803.777	8077
803.919	8145
804.061	8415
804.204	8138
804.346	8062
804.488	7955
804.63	8092
804.773	8123
804.915	8126
805.057	8282
805.199	8088
805.341	8191
805.483	8180
805.626	8180
805.768	8084
805.91	8176
806.052	8218
806.194	8084
806.336	8301
806.478	8119
806.62	8016
806.762	8103
806.904	8313
807.046	8476
807.188	8358
807.33	8301
807.472	8347
807.614	8195
807.756	8142
807.898	7963
808.04	7864
808.182	7879
808.324	7822
808.465	7830
808.607	8035
808.749	8123
808.891	8206
809.033	8252
809.174	8221
809.316	8035
809.458	7997
809.6	8088
809.741	7978
809.883	8001
810.025	8062
810.166	8069
810.308	7967
810.45	7951
810.591	7856
810.733	7715
810.875	7632
811.016	7499
811.158	7499
811.299	7578
811.441	7738
811.582	7670
811.724	7556
811.865	7544
812.007	7533
812.148	7529
812.29	7624
812.431	7723
812.573	7871
812.714	8039
812.855	8199
812.997	8157
813.138	8294
813.279	8172
813.421	8092
813.562	7951
813.703	7826
813.845	7731
813.986	7457
814.127	7206
814.268	7221
814.41	7221
814.551	7137
814.692	7209
814.833	7091
814.974	7042
815.115	7015
815.256	6966
815.397	6909
815.539	6897
815.68	6779
815.821	6730
815.962	6871
816.103	6779
816.244	6673
816.385	6642
816.526	6623
816.666	6513
816.807	6296
816.948	6372
817.089	6502
817.23	6441
817.371	6338
817.512	6391
817.653	6391
817.793	6273
817.934	6418
818.075	6479
818.216	6475
818.356	6456
818.497	6258
818.638	6098
818.778	6098
818.919	6178
819.06	6163
819.2	6254
819.341	6334
819.481	6365
819.622	6559
819.762	6684
819.903	6741
820.043	6578
820.184	6585
820.324	6582
820.465	6658
820.605	6650
820.746	6646
820.886	6502
821.026	6654
821.167	6665
821.307	6798
821.447	6814
821.588	6627
821.728	6555
821.868	6429
822.008	6327
822.149	6281
822.289	6346
822.429	6163
822.569	6053
822.709	6114
822.849	5927
822.99	5870
823.13	5977
823.27	5935
823.41	5840
823.55	5752
823.69	5752
823.83	5786
823.97	5649
824.11	5474
824.25	5547
824.389	5596
824.529	5581
824.669	5505
824.809	5630
824.949	5630
825.089	5608
825.228	5528
825.368	5360
825.508	5326
825.648	5349
825.787	5326
825.927	5364
826.067	5261
826.206	5307
826.346	5376
826.485	5421
826.625	5406
826.765	5539
826.904	5459
827.044	5208
827.183	5166
827.323	5109
827.462	5223
827.601	5155
827.741	5147
827.88	5239
828.02	5105
828.159	5185
828.298	5250
828.437	5322
828.577	5269
828.716	5497
828.855	5284
828.994	5159
829.134	5136
829.273	5189
829.412	5121
829.551	5124
829.69	5151
829.829	5235
829.968	5357
830.107	5231
830.246	5239
830.385	5143
830.524	5105
830.663	5105
830.802	4999
830.941	4915
831.08	4892
831.219	5025
831.357	4991
831.496	5102
831.635	4957
831.774	4843
831.913	4885
832.051	4736
832.19	4729
832.329	4881
832.467	4675
832.606	4607
832.744	4702
832.883	4714
833.022	4774
833.16	4759
833.299	4835
833.437	4847
833.576	4847
833.714	4843
833.852	4820
833.991	4824
834.129	4968
834.267	4896
834.406	4854
834.544	4953
834.682	5006
834.821	4942
834.959	5170
835.097	4987
835.235	5121
835.373	5060
835.511	5083
835.65	5037
835.788	5029
835.926	4911
836.064	4873
836.202	4850
836.34	5147
836.478	5239
836.615	5155
836.753	5181
836.891	5216
837.029	5220
837.167	5147
837.305	5185
837.443	5197
837.58	5094
837.718	5212
837.856	5201
837.993	5083
838.131	5208
838.269	5201
838.406	5227
838.544	5151
838.681	5006
838.819	5003
838.956	4911
839.094	4892
839.231	4911
839.369	5033
839.506	5433
839.643	5212
839.781	5064
839.918	5033
840.055	5037
840.193	5094
840.33	5071
840.467	5155
840.604	5155
840.742	5383
840.879	5083
841.016	5037
841.153	5105
841.29	5330
841.427	5349
841.564	5277
841.701	5303
841.838	5318
841.975	5235
842.112	5269
842.249	5117
842.385	5064
842.522	5311
842.659	5181
842.796	5124
842.933	5113
843.069	5143
843.206	5159
843.343	5250
843.479	5246
843.616	5277
843.752	5048
843.889	4987
844.025	5159
844.162	4991
844.298	5216
844.435	5079
844.571	5041
844.708	5216
844.844	5242
844.98	5345
845.117	5292
845.253	5136
845.389	5022
845.525	5094
845.661	5109
845.798	5037
845.934	5132
846.07	5052
846.206	5147
846.342	5284
846.478	5185
846.614	5025
846.75	4980
846.886	4934
847.022	5124
847.158	5056
847.294	5045
847.429	5109
847.565	5022
847.701	5337
847.837	4900
847.972	4809
848.108	5003
848.244	4942
848.379	4717
848.515	4660
848.65	4729
848.786	4740
848.921	4767
849.057	4850
849.192	4892
849.328	4778
849.463	4820
849.598	4824
849.734	4752
849.869	4653
850.004	4630
850.14	4649
850.275	4611
850.41	4542
850.545	4550
850.68	4565
850.815	4630
850.95	4611
851.085	4839
851.22	4748
851.355	4630
851.49	4626
851.625	4634
851.76	4637
851.895	4592
852.03	4504
852.165	4645
852.299	4748
852.434	4771
852.569	4744
852.703	4786
852.838	4843
852.973	4900
853.107	4930
853.242	4687
853.376	4668
853.511	4531
853.645	4618
853.78	4820
853.914	4672
854.048	4641
854.183	4714
854.317	4691
854.451	4816
854.585	4687
854.72	4615
854.854	4774
854.988	4603
855.122	4649
855.256	4550
855.39	4630
855.524	4752
855.658	4698
855.792	4679
855.926	4710
856.06	4706
856.194	4805
856.327	4706
856.461	4596
856.595	4622
856.729	4618
856.862	4725
856.996	4714
857.13	4710
857.263	4721
857.397	4816
857.53	4615
857.664	4691
857.797	4744
857.931	4801
858.064	4653
858.197	4710
858.331	4630
858.464	4599
858.597	4481
858.731	4592
858.864	4675
858.997	4607
859.13	4664
859.263	4706
859.396	4721
859.529	4538
859.662	4588
859.795	4550
859.928	4596
860.061	4687
860.194	4740
860.327	4569
860.46	4626
860.592	4691
860.725	4733
860.858	4755
860.99	4565
861.123	4470
861.256	4523
861.388	4558
861.521	5402
861.653	4402
861.786	4470
861.918	4478
862.05	4561
862.183	4607
862.315	4577
862.447	4596
862.58	4519
862.712	4356
862.844	4344
862.976	4478
863.108	4451
863.24	4904
863.372	4276
863.504	4417
863.636	4398
863.768	4478
863.9	4424
864.032	4375
864.164	4352
864.296	4447
864.428	4535
864.559	4538
864.691	4527
864.823	4531
864.954	4508
865.086	4516
865.217	4451
865.349	4413
865.48	4455
865.612	4470
865.743	4615
865.875	4497
866.006	4428
866.137	4470
866.269	4421
866.4	4421
866.531	4428
866.662	4386
866.793	4413
866.924	4402
867.055	4508
867.186	4478
867.317	4413
867.448	4367
867.579	4383
867.71	4352
867.841	4375
867.972	4440
868.103	4443
868.233	4478
868.364	4462
868.495	4459
868.625	4664
868.756	4752
868.886	4558
869.017	4584
869.147	4733
869.278	4812
869.408	4649
869.539	4615
869.669	4748
869.799	4637
869.929	4767
870.06	4687
870.19	4908
870.32	4892
870.45	4961
870.58	4953
870.71	5086
870.84	5041
870.97	4927
871.1	4877
871.23	5181
871.36	5113
871.489	4953
871.619	5086
871.749	5094
871.879	5094
872.008	5147
872.138	5037
872.267	4953
872.397	4820
872.526	4740
872.656	4691
872.785	4759
872.915	4961
873.044	5067
873.173	4927
873.303	4900
873.432	4972
873.561	4934
873.69	4870
873.819	4919
873.948	4881
874.077	4843
874.206	4763
874.335	4820
874.464	4927
874.593	5052
874.722	4927
874.851	5109
874.979	5037
875.108	4976
875.237	4873
875.365	4877
875.494	4873
875.623	4957
875.751	4801
875.88	4843
876.008	4942
876.136	5025
876.265	5201
876.393	5364
876.521	5212
876.65	5185
876.778	5197
876.906	5060
877.034	4976
877.162	5121
877.29	4999
877.418	5037
877.546	5056
877.674	5113
877.802	5022
877.93	4984
878.058	4961
878.185	4854
878.313	4961
878.441	4904
878.568	4839
878.696	4862
878.824	5014
878.951	4965
879.079	5155
879.206	5280
879.333	5086
879.461	4961
879.588	4991
879.715	5105
879.842	5231
879.97	5022
880.097	4805
880.224	4710
880.351	4782
880.478	4786
880.605	4843
880.732	4755
880.859	5105
880.986	4866
881.112	4904
881.239	4759
881.366	4691
881.493	4607
881.619	4538
881.746	4664
881.872	4653
881.999	4607
882.125	4645
882.252	4755
882.378	4812
882.505	4919
882.631	4774
882.757	4645
882.883	4710
883.01	4687
883.136	4637
883.262	4618
883.388	4603
883.514	4786
883.64	4805
883.766	4793
883.892	4694
884.018	4687
884.143	4938
884.269	5033
884.395	4668
884.52	4656
884.646	4630
884.772	4607
884.897	4569
885.023	4634
885.148	4828
885.274	4870
885.399	4782
885.524	4714
885.65	4702
885.775	4702
885.9	4679
886.025	4877
886.15	4767
886.275	4714
886.4	4645
886.525	4687
886.65	4634
886.775	4725
886.9	4870
887.025	5018
887.149	4793
887.274	4649
887.399	4580
887.523	4630
887.648	4599
887.773	4580
887.897	4752
888.021	4801
888.146	4717
888.27	4820
888.395	4885
888.519	4809
888.643	4816
888.767	4801
888.891	4694
889.015	4573
889.139	4656
889.263	4565
889.387	4740
889.511	4862
889.635	4771
889.759	4630
889.883	4626
890.006	4717
890.13	4843
890.254	4675
890.377	4706
890.501	4558
890.624	4508
890.748	4637
890.871	4500
890.995	4405
891.118	4436
891.241	4508
891.364	4577
891.488	4683
891.611	4538
891.734	4535
891.857	4573
891.98	4546
892.103	4664
892.226	4588
892.349	4531
892.471	4428
892.594	4535
892.717	4558
892.839	4573
892.962	4569
893.085	4626
893.207	4592
893.33	4455
893.452	4470
893.575	4675
893.697	4535
893.819	4778
893.941	4782
894.064	4755
894.186	4573
894.308	4630
894.43	4733
894.552	4809
894.674	4736
894.796	4508
894.918	4626
895.04	4577
895.161	4675
895.283	4668
895.405	4531
895.526	4622
895.648	4653
895.769	4649
895.891	4740
896.012	4714
896.134	4710
896.255	4656
896.376	4630
896.498	4592
896.619	4660
896.74	4542
896.861	4588
896.982	4911
897.103	5014
897.224	4824
897.345	4721
897.466	4603
897.587	4740
897.708	4885
897.828	4763
897.949	4645
898.07	4569
898.19	4679
898.311	4824
898.431	4668
898.552	4698
898.672	4847
898.792	4843
898.913	4717
899.033	4577
899.153	4485
899.273	4413
899.393	4478
899.513	4554
899.633	4485
899.753	4538
899.873	4512
899.993	4577
900.113	4497
900.232	4588
900.352	4527
900.472	4478
900.591	4409
900.711	4481
900.83	4459
900.95	4573
901.069	4649
901.189	4554
901.308	4379
901.427	4299
901.546	4455
901.665	4459
901.784	4538
901.904	4398
902.023	4306
902.141	4188
902.26	4185
902.379	4295
902.498	4253
902.617	4188
902.735	4371
902.854	4329
902.973	4329
903.091	4200
903.21	4211
903.328	4299
903.446	4284
903.565	4230
903.683	4356
903.801	4242
903.919	4356
904.038	4474
904.156	4299
904.274	4394
904.392	4367
904.51	4440
904.627	4489
904.745	4603
904.863	4611
904.981	4360
905.098	4276
905.216	4333
905.334	4443
905.451	4447
905.569	4428
905.686	4527
905.803	4535
905.921	4386
906.038	4577
906.155	4436
906.272	4348
906.389	4470
906.506	4306
906.623	4379
906.74	4386
906.857	4325
906.974	4344
907.091	4565
907.208	4637
907.324	4565
907.441	4474
907.557	4303
907.674	4322
907.79	4310
907.907	4344
908.023	4489
908.139	4474
908.256	4447
908.372	4443
908.488	4440
908.604	4344
908.72	4322
908.836	4344
908.952	4363
909.068	4409
909.184	4584
909.3	4459
909.415	4542
909.531	4531
909.647	4344
909.762	4383
909.878	4367
909.993	4432
910.108	4421
910.224	4383
910.339	4443
910.454	4360
910.57	4363
910.685	4310
910.8	4653
910.915	4577
911.03	4470
911.145	4303
911.259	4299
911.374	4394
911.489	4246
911.604	4268
911.718	4181
911.833	4196
911.947	4067
912.062	4013
912.176	4219
912.291	4276
912.405	4188
912.519	4455
912.633	4478
912.748	4375
912.862	4318
912.976	4223
913.09	4071
913.204	4173
913.318	4253
913.431	4367
913.545	4371
913.659	4398
913.772	4375
913.886	4219
914	4207
914.113	4363
914.226	4386
914.34	4371
914.453	4253
914.566	4409
914.68	4329
914.793	4356
914.906	4169
915.019	4109
915.132	4059
915.245	4105
915.358	4192
915.47	4211
915.583	4234
915.696	4253
915.809	4409
915.921	4428
916.034	4242
916.146	4242
916.259	4181
916.371	4333
916.483	4398
916.595	4238
916.708	4272
916.82	4344
916.932	4272
917.044	4287
917.156	4322
917.268	4200
917.38	4246
917.491	4253
917.603	4337
917.715	4405
917.826	4428
917.938	4299
918.049	4200
918.161	4379
918.272	4516
918.384	4466
918.495	4440
918.606	4337
918.717	4280
918.828	4295
918.939	4367
919.05	4227
919.161	4303
919.272	4086
919.383	4196
919.494	4432
919.604	4649
919.715	4443
919.826	4325
919.936	4398
920.047	4542
920.157	4466
920.267	4679
920.378	4546
920.488	4493
920.598	4656
920.708	4919
920.818	4740
920.928	4774
921.038	4923
921.148	4908
921.258	4603
921.368	4546
921.477	4466
921.587	4478
921.697	4344
921.806	4531
921.916	4436
922.025	4242
922.134	4280
922.244	4185
922.353	4322
922.462	4207
922.571	4116
922.68	4021
922.789	3956
922.898	4063
923.007	3941
923.116	4101
923.224	4025
923.333	4044
923.442	3991
923.55	3975
923.659	4013
923.767	4048
923.876	4006
923.984	4139
924.092	4013
924.201	4090
924.309	4093
924.417	4139
924.525	4006
924.633	4082
924.741	5056
924.849	3945
924.956	4116
925.064	3941
925.172	3846
925.279	3975
925.387	4044
925.494	4032
925.602	4196
925.709	4166
925.816	4040
925.924	4124
926.031	4230
926.138	4150
926.245	4230
926.352	4048
926.459	4207
926.566	4284
926.673	4192
926.779	4090
926.886	4090
926.993	3983
927.099	3945
927.206	3949
927.312	3915
927.419	4040
927.525	4010
927.631	4120
927.737	3987
927.843	3903
927.95	3846
928.056	3949
928.162	3998
928.267	4017
928.373	4596
928.479	4109
928.585	3846
928.69	4013
928.796	4124
928.901	3907
929.007	3846
929.112	4025
929.218	3964
929.323	3964
929.428	3911
929.533	4109
929.638	3941
929.743	3941
929.848	4051
929.953	4021
930.058	3934
930.163	3762
930.267	3793
930.372	3960
930.477	3789
930.581	4090
930.685	3937
930.79	3835
930.894	3888
930.998	3819
931.103	4063
931.207	3709
931.311	3675
931.415	3671
931.519	3511
931.623	3534
