Data from test_V78500241_959.txt Node
Date: Fri Mar 25 16:55:40 CST 2022
User: usil
Spectrometer: V785-0024
Trigger mode: 0
Integration Time (sec): 4.000000E-1
Scans to average: 1
Nonlinearity correction enabled: false
Boxcar width: 0
Storing dark spectrum: false
XAxis mode: Wavelengths
Number of Pixels in Spectrum: 1024
>>>>>Begin Spectral Data<<<<<
801.071	8062
801.214	8077
801.356	7879
801.499	7837
801.641	7788
801.783	7807
801.926	7982
802.068	7925
802.211	7894
802.353	7959
802.496	7833
802.638	7879
802.78	7936
802.923	7871
803.065	7841
803.208	7875
803.35	8012
803.492	8123
803.635	8225
803.777	8035
803.919	8084
804.061	8446
804.204	8077
804.346	8058
804.488	8020
804.63	8123
804.773	8005
804.915	8088
805.057	8343
805.199	8103
805.341	8176
805.483	8256
805.626	8202
805.768	8103
805.91	8218
806.052	8229
806.194	8111
806.336	8336
806.478	8077
806.62	8058
806.762	8142
806.904	8294
807.046	8393
807.188	8324
807.33	8309
807.472	8286
807.614	8142
807.756	8180
807.898	7978
808.04	7845
808.182	7917
808.324	7795
808.465	7894
808.607	8012
808.749	8107
808.891	8126
809.033	8237
809.174	8218
809.316	8065
809.458	8020
809.6	7951
809.741	8039
809.883	8043
810.025	8020
810.166	8027
810.308	7989
810.45	7982
810.591	7879
810.733	7677
810.875	7647
811.016	7559
811.158	7548
811.299	7597
811.441	7685
811.582	7605
811.724	7578
811.865	7575
812.007	7533
812.148	7552
812.29	7605
812.431	7750
812.573	7879
812.714	7959
812.855	8107
812.997	8202
813.138	8275
813.279	8214
813.421	8168
813.562	7970
813.703	7890
813.845	7761
813.986	7438
814.127	7274
814.268	7297
814.41	7194
814.551	7107
814.692	7217
814.833	7091
814.974	7053
815.115	7031
815.256	6996
815.397	6932
815.539	6977
815.68	6787
815.821	6757
815.962	6810
816.103	6844
816.244	6692
816.385	6677
816.526	6608
816.666	6460
816.807	6228
816.948	6429
817.089	6452
817.23	6403
817.371	6380
817.512	6365
817.653	6403
817.793	6391
817.934	6429
818.075	6486
818.216	6445
818.356	6384
818.497	6194
818.638	6148
818.778	6205
818.919	6148
819.06	6129
819.2	6296
819.341	6334
819.481	6399
819.622	6486
819.762	6772
819.903	6726
820.043	6646
820.184	6601
820.324	6486
820.465	6612
820.605	6696
820.746	6646
820.886	6471
821.026	6563
821.167	6734
821.307	6776
821.447	6703
821.588	6669
821.728	6604
821.868	6494
822.008	6338
822.149	6391
822.289	6327
822.429	6133
822.569	6030
822.709	6121
822.849	5870
822.99	5912
823.13	5920
823.27	5908
823.41	5775
823.55	5767
823.69	5752
823.83	5726
823.97	5661
824.11	5516
824.25	5501
824.389	5478
824.529	5596
824.669	5516
824.809	5615
824.949	5630
825.089	5596
825.228	5497
825.368	5387
825.508	5337
825.648	5337
825.787	5379
825.927	5307
826.067	5364
826.206	5273
826.346	5383
826.485	5391
826.625	5341
826.765	5474
826.904	5467
827.044	5239
827.183	5174
827.323	5143
827.462	5239
827.601	5132
827.741	5128
827.88	5212
828.02	5086
828.159	5220
828.298	5261
828.437	5345
828.577	5212
828.716	5501
828.855	5334
828.994	5147
829.134	5140
829.273	5136
829.412	5132
829.551	5162
829.69	5143
829.829	5216
829.968	5391
830.107	5261
830.246	5296
830.385	5216
830.524	5174
830.663	5029
830.802	4995
830.941	4816
831.08	4866
831.219	4984
831.357	4942
831.496	5124
831.635	4953
831.774	4839
831.913	4831
832.051	4702
832.19	4725
832.329	4850
832.467	4653
832.606	4622
832.744	4714
832.883	4683
833.022	4691
833.16	4782
833.299	4759
833.437	4812
833.576	4831
833.714	4854
833.852	4923
833.991	4896
834.129	4938
834.267	4885
834.406	4904
834.544	4942
834.682	4946
834.821	4961
834.959	5159
835.097	4991
835.235	5189
835.373	5090
835.511	5079
835.65	5022
835.788	4991
835.926	4919
836.064	4896
836.202	4904
836.34	5109
836.478	5197
836.615	5181
836.753	5155
836.891	5292
837.029	5227
837.167	5162
837.305	5178
837.443	5136
837.58	5098
837.718	5201
837.856	5151
837.993	5162
838.131	5239
838.269	5220
838.406	5212
838.544	5143
838.681	5037
838.819	4980
838.956	4850
839.094	4908
839.231	4976
839.369	5071
839.506	5440
839.643	5261
839.781	5064
839.918	4976
840.055	5147
840.193	5094
840.33	5075
840.467	5124
840.604	5155
840.742	5410
840.879	5102
841.016	5067
841.153	5147
841.29	5387
841.427	5383
841.564	5349
841.701	5330
841.838	5273
841.975	5197
842.112	5223
842.249	5189
842.385	5098
842.522	5326
842.659	5174
842.796	5151
842.933	5170
843.069	5121
843.206	5105
843.343	5265
843.479	5208
843.616	5223
843.752	4995
843.889	5022
844.025	5216
844.162	4976
844.298	5151
844.435	5060
844.571	5056
844.708	5212
844.844	5280
844.98	5288
845.117	5227
845.253	5094
845.389	5102
845.525	5178
845.661	5132
845.798	5033
845.934	5136
846.07	4999
846.206	5166
846.342	5292
846.478	5162
846.614	5048
846.75	4923
846.886	4946
847.022	5105
847.158	4980
847.294	5006
847.429	5071
847.565	5045
847.701	5322
847.837	4820
847.972	4744
848.108	4942
848.244	4911
848.379	4763
848.515	4706
848.65	4675
848.786	4733
848.921	4748
849.057	4850
849.192	4870
849.328	4828
849.463	4877
849.598	4778
849.734	4744
849.869	4687
850.004	4664
850.14	4596
850.275	4603
850.41	4535
850.545	4558
850.68	4626
850.815	4577
850.95	4603
851.085	4809
851.22	4714
851.355	4694
851.49	4599
851.625	4618
851.76	4584
851.895	4527
852.03	4516
852.165	4679
852.299	4721
852.434	4801
852.569	4698
852.703	4778
852.838	4824
852.973	4927
853.107	4930
853.242	4782
853.376	4710
853.511	4573
853.645	4603
853.78	4816
853.914	4691
854.048	4675
854.183	4577
854.317	4691
854.451	4767
854.585	4687
854.72	4603
854.854	4717
854.988	4603
855.122	4618
855.256	4497
855.39	4656
855.524	4755
855.658	4725
855.792	4645
855.926	4683
856.06	4733
856.194	4797
856.327	4664
856.461	4573
856.595	4565
856.729	4626
856.862	4759
856.996	4740
857.13	4717
857.263	4721
857.397	4763
857.53	4599
857.664	4706
857.797	4778
857.931	4736
858.064	4694
858.197	4683
858.331	4668
858.464	4607
858.597	4443
858.731	4573
858.864	4645
858.997	4607
859.13	4618
859.263	4611
859.396	4740
859.529	4565
859.662	4554
859.795	4478
859.928	4630
860.061	4702
860.194	4786
860.327	4588
860.46	4588
860.592	4675
860.725	4710
860.858	4748
860.99	4523
861.123	4527
861.256	4531
861.388	4554
861.521	5246
861.653	4478
861.786	4436
861.918	4428
862.05	4527
862.183	4504
862.315	4558
862.447	4615
862.58	4516
862.712	4363
862.844	4344
862.976	4466
863.108	4478
863.24	4881
863.372	4375
863.504	4398
863.636	4390
863.768	4443
863.9	4436
864.032	4276
864.164	4405
864.296	4413
864.428	4500
864.559	4531
864.691	4519
864.823	4523
864.954	4497
865.086	4462
865.217	4421
865.349	4405
865.48	4451
865.612	4447
865.743	4607
865.875	4474
866.006	4481
866.137	4474
866.269	4409
866.4	4398
866.531	4394
866.662	4360
866.793	4367
866.924	4398
867.055	4516
867.186	4447
867.317	4363
867.448	4348
867.579	4363
867.71	4367
867.841	4352
867.972	4455
868.103	4451
868.233	4462
868.364	4424
868.495	4459
868.625	4664
868.756	4755
868.886	4569
869.017	4634
869.147	4805
869.278	4725
869.408	4618
869.539	4630
869.669	4733
869.799	4637
869.929	4759
870.06	4736
870.19	4965
870.32	4873
870.45	4885
870.58	4995
870.71	5109
870.84	5090
870.97	4915
871.1	4843
871.23	5090
871.36	5094
871.489	5048
871.619	5067
871.749	5086
871.879	5105
872.008	5128
872.138	5075
872.267	4949
872.397	4820
872.526	4721
872.656	4714
872.785	4809
872.915	4904
873.044	5003
873.173	4908
873.303	4949
873.432	4900
873.561	4965
873.69	4896
873.819	4889
873.948	4919
874.077	4828
874.206	4748
874.335	4801
874.464	4927
874.593	5052
874.722	4957
874.851	5056
874.979	5006
875.108	5018
875.237	4854
875.365	4854
875.494	4858
875.623	4961
875.751	4797
875.88	4896
876.008	4923
876.136	5018
876.265	5208
876.393	5318
876.521	5265
876.65	5159
876.778	5121
876.906	5083
877.034	5045
877.162	4999
877.29	4984
877.418	5048
877.546	4995
877.674	4995
877.802	5018
877.93	5003
878.058	4949
878.185	4892
878.313	4942
878.441	4946
878.568	4774
878.696	4847
878.824	4946
878.951	4972
879.079	5136
879.206	5288
879.333	5083
879.461	4949
879.588	4980
879.715	5121
879.842	5246
879.97	4961
880.097	4786
880.224	4698
880.351	4812
880.478	4831
880.605	4763
880.732	4801
880.859	5052
880.986	4866
881.112	4877
881.239	4740
881.366	4656
881.493	4630
881.619	4573
881.746	4653
881.872	4611
881.999	4634
882.125	4694
882.252	4812
882.378	4790
882.505	4984
882.631	4786
882.757	4641
882.883	4725
883.01	4763
883.136	4683
883.262	4577
883.388	4656
883.514	4816
883.64	4870
883.766	4774
883.892	4649
884.018	4702
884.143	4828
884.269	4984
884.395	4672
884.52	4622
884.646	4645
884.772	4561
884.897	4489
885.023	4637
885.148	4755
885.274	4854
885.399	4824
885.524	4721
885.65	4706
885.775	4782
885.9	4668
886.025	4831
886.15	4778
886.275	4721
886.4	4664
886.525	4668
886.65	4649
886.775	4702
886.9	4889
887.025	5045
887.149	4790
887.274	4660
887.399	4558
887.523	4611
887.648	4607
887.773	4550
887.897	4767
888.021	4763
888.146	4645
888.27	4812
888.395	4850
888.519	4767
888.643	4740
888.767	4801
888.891	4618
889.015	4538
889.139	4660
889.263	4588
889.387	4725
889.511	4835
889.635	4778
889.759	4626
889.883	4592
890.006	4744
890.13	4778
890.254	4565
890.377	4691
890.501	4542
890.624	4470
890.748	4622
890.871	4470
890.995	4447
891.118	4348
891.241	4523
891.364	4516
891.488	4592
891.611	4481
891.734	4546
891.857	4573
891.98	4569
892.103	4664
892.226	4592
892.349	4451
892.471	4402
892.594	4538
892.717	4561
892.839	4542
892.962	4569
893.085	4653
893.207	4538
893.33	4466
893.452	4554
893.575	4615
893.697	4550
893.819	4801
893.941	4805
894.064	4778
894.186	4634
894.308	4588
894.43	4752
894.552	4828
894.674	4767
894.796	4550
894.918	4611
895.04	4630
895.161	4736
895.283	4668
895.405	4573
895.526	4599
895.648	4668
895.769	4637
895.891	4702
896.012	4752
896.134	4653
896.255	4675
896.376	4618
896.498	4573
896.619	4637
896.74	4584
896.861	4588
896.982	4919
897.103	5124
897.224	4850
897.345	4740
897.466	4653
897.587	4725
897.708	4858
897.828	4755
897.949	4664
898.07	4535
898.19	4622
898.311	4816
898.431	4615
898.552	4733
898.672	4778
898.792	4744
898.913	4698
899.033	4622
899.153	4546
899.273	4421
899.393	4485
899.513	4531
899.633	4546
899.753	4554
899.873	4470
899.993	4588
900.113	4516
900.232	4565
900.352	4546
900.472	4500
900.591	4386
900.711	4466
900.83	4379
900.95	4573
901.069	4660
901.189	4497
901.308	4322
901.427	4299
901.546	4367
901.665	4462
901.784	4527
901.904	4394
902.023	4299
902.141	4169
902.26	4185
902.379	4287
902.498	4249
902.617	4238
902.735	4337
902.854	4352
902.973	4322
903.091	4196
903.21	4230
903.328	4223
903.446	4272
903.565	4230
903.683	4325
903.801	4291
903.919	4375
904.038	4455
904.156	4322
904.274	4413
904.392	4394
904.51	4466
904.627	4443
904.745	4558
904.863	4569
904.981	4413
905.098	4291
905.216	4360
905.334	4409
905.451	4409
905.569	4424
905.686	4519
905.803	4577
905.921	4413
906.038	4577
906.155	4504
906.272	4375
906.389	4428
906.506	4325
906.623	4417
906.74	4371
906.857	4265
906.974	4314
907.091	4599
907.208	4618
907.324	4592
907.441	4466
907.557	4367
907.674	4306
907.79	4337
907.907	4344
908.023	4474
908.139	4485
908.256	4497
908.372	4481
908.488	4451
908.604	4348
908.72	4310
908.836	4325
908.952	4379
909.068	4417
909.184	4592
909.3	4455
909.415	4588
909.531	4565
909.647	4371
909.762	4348
909.878	4341
909.993	4432
910.108	4383
910.224	4348
910.339	4474
910.454	4424
910.57	4329
910.685	4284
910.8	4607
910.915	4626
911.03	4455
911.145	4314
911.259	4329
911.374	4379
911.489	4337
911.604	4295
911.718	4162
911.833	4196
911.947	4044
912.062	3998
912.176	4219
912.291	4234
912.405	4246
912.519	4451
912.633	4455
912.748	4329
912.862	4306
912.976	4200
913.09	4093
913.204	4162
913.318	4261
913.431	4356
913.545	4325
913.659	4451
913.772	4329
913.886	4268
914	4200
914.113	4306
914.226	4424
914.34	4371
914.453	4242
914.566	4421
914.68	4303
914.793	4329
914.906	4207
915.019	4082
915.132	4059
915.245	4169
915.358	4204
915.47	4246
915.583	4265
915.696	4284
915.809	4402
915.921	4383
916.034	4242
916.146	4242
916.259	4265
916.371	4371
916.483	4322
916.595	4246
916.708	4284
916.82	4322
916.932	4314
917.044	4314
917.156	4314
917.268	4238
917.38	4238
917.491	4284
917.603	4295
917.715	4386
917.826	4478
917.938	4344
918.049	4249
918.161	4413
918.272	4554
918.384	4550
918.495	4409
918.606	4333
918.717	4249
918.828	4344
918.939	4379
919.05	4253
919.161	4276
919.272	4082
919.383	4227
919.494	4447
919.604	4622
919.715	4421
919.826	4325
919.936	4432
920.047	4558
920.157	4478
920.267	4691
920.378	4523
920.488	4493
920.598	4736
920.708	4915
920.818	4809
920.928	4748
921.038	4953
921.148	4904
921.258	4580
921.368	4531
921.477	4474
921.587	4440
921.697	4329
921.806	4538
921.916	4394
922.025	4276
922.134	4246
922.244	4188
922.353	4318
922.462	4135
922.571	4086
922.68	3983
922.789	3979
922.898	4010
923.007	3983
923.116	4101
923.224	4044
923.333	4036
923.442	3998
923.55	3968
923.659	4006
923.767	4097
923.876	3979
923.984	4074
924.092	4010
924.201	4082
924.309	4032
924.417	4120
924.525	4032
924.633	4074
924.741	5090
924.849	3884
924.956	4082
925.064	3953
925.172	3918
925.279	3937
925.387	4097
925.494	4063
925.602	4204
925.709	4158
925.816	4048
925.924	4162
926.031	4249
926.138	4154
926.245	4204
926.352	4074
926.459	4249
926.566	4257
926.673	4128
926.779	4074
926.886	4082
926.993	3983
927.099	3953
927.206	3915
927.312	3949
927.419	4021
927.525	4017
927.631	4109
927.737	3949
927.843	3953
927.95	3842
928.056	3907
928.162	4021
928.267	4025
928.373	4660
928.479	4128
928.585	3835
928.69	4029
928.796	4067
928.901	3949
929.007	3800
929.112	3991
929.218	3926
929.323	3964
929.428	3922
929.533	4120
929.638	3915
929.743	3991
929.848	4002
929.953	3987
930.058	3937
930.163	3778
930.267	3842
930.372	3975
930.477	3797
930.581	4063
930.685	3926
930.79	3789
930.894	3854
930.998	3846
931.103	3994
931.207	3709
931.311	3732
931.415	3675
931.519	3542
931.623	3534
