Data from test_V78500241_2770.txt Node
Date: Fri Mar 25 17:08:15 CST 2022
User: usil
Spectrometer: V785-0024
Trigger mode: 0
Integration Time (sec): 4.000000E-1
Scans to average: 1
Nonlinearity correction enabled: false
Boxcar width: 0
Storing dark spectrum: false
XAxis mode: Wavelengths
Number of Pixels in Spectrum: 1024
>>>>>Begin Spectral Data<<<<<
801.071	8058
801.214	7974
801.356	7894
801.499	7890
801.641	7852
801.783	7883
801.926	7989
802.068	7982
802.211	8054
802.353	8039
802.496	7875
802.638	7883
802.78	7913
802.923	7932
803.065	7826
803.208	7849
803.35	8024
803.492	8187
803.635	8191
803.777	8050
803.919	8142
804.061	8457
804.204	8153
804.346	8100
804.488	8069
804.63	8046
804.773	8069
804.915	8119
805.057	8313
805.199	8157
805.341	8187
805.483	8290
805.626	8172
805.768	8153
805.91	8256
806.052	8206
806.194	8149
806.336	8313
806.478	8081
806.62	8088
806.762	8153
806.904	8259
807.046	8415
807.188	8374
807.33	8313
807.472	8377
807.614	8149
807.756	8119
807.898	8081
808.04	7909
808.182	7963
808.324	7909
808.465	7967
808.607	8073
808.749	8138
808.891	8248
809.033	8347
809.174	8225
809.316	8058
809.458	8054
809.6	7906
809.741	7951
809.883	8005
810.025	8107
810.166	8092
810.308	8081
810.45	8008
810.591	7955
810.733	7761
810.875	7715
811.016	7552
811.158	7518
811.299	7632
811.441	7795
811.582	7704
811.724	7540
811.865	7556
812.007	7639
812.148	7628
812.29	7609
812.431	7757
812.573	7814
812.714	7993
812.855	8221
812.997	8191
813.138	8336
813.279	8119
813.421	8134
813.562	7997
813.703	7845
813.845	7776
813.986	7460
814.127	7289
814.268	7221
814.41	7168
814.551	7137
814.692	7274
814.833	7133
814.974	7145
815.115	7168
815.256	6973
815.397	6897
815.539	6894
815.68	6859
815.821	6818
815.962	6833
816.103	6852
816.244	6783
816.385	6662
816.526	6608
816.666	6506
816.807	6399
816.948	6452
817.089	6540
817.23	6540
817.371	6426
817.512	6395
817.653	6350
817.793	6327
817.934	6452
818.075	6448
818.216	6395
818.356	6426
818.497	6209
818.638	6159
818.778	6155
818.919	6136
819.06	6182
819.2	6353
819.341	6365
819.481	6369
819.622	6513
819.762	6715
819.903	6703
820.043	6578
820.184	6582
820.324	6589
820.465	6757
820.605	6677
820.746	6677
820.886	6513
821.026	6654
821.167	6722
821.307	6848
821.447	6749
821.588	6654
821.728	6563
821.868	6506
822.008	6327
822.149	6399
822.289	6365
822.429	6197
822.569	6064
822.709	6152
822.849	5885
822.99	5916
823.13	5958
823.27	5908
823.41	5821
823.55	5802
823.69	5775
823.83	5756
823.97	5691
824.11	5520
824.25	5532
824.389	5585
824.529	5570
824.669	5482
824.809	5638
824.949	5653
825.089	5619
825.228	5581
825.368	5364
825.508	5364
825.648	5315
825.787	5387
825.927	5444
826.067	5315
826.206	5265
826.346	5349
826.485	5417
826.625	5395
826.765	5554
826.904	5444
827.044	5231
827.183	5223
827.323	5174
827.462	5288
827.601	5147
827.741	5193
827.88	5223
828.02	5128
828.159	5299
828.298	5296
828.437	5337
828.577	5254
828.716	5463
828.855	5315
828.994	5181
829.134	5193
829.273	5124
829.412	5128
829.551	5109
829.69	5204
829.829	5231
829.968	5376
830.107	5296
830.246	5273
830.385	5189
830.524	5105
830.663	5105
830.802	4972
830.941	4919
831.08	4843
831.219	4957
831.357	4976
831.496	5162
831.635	4930
831.774	4881
831.913	4862
832.051	4790
832.19	4740
832.329	4881
832.467	4752
832.606	4660
832.744	4710
832.883	4725
833.022	4683
833.16	4801
833.299	4786
833.437	4850
833.576	4812
833.714	4885
833.852	4900
833.991	4900
834.129	4946
834.267	4919
834.406	4877
834.544	4908
834.682	4984
834.821	4980
834.959	5166
835.097	5003
835.235	5147
835.373	5067
835.511	5113
835.65	5045
835.788	5052
835.926	4942
836.064	4877
836.202	4915
836.34	5193
836.478	5227
836.615	5121
836.753	5208
836.891	5261
837.029	5261
837.167	5162
837.305	5170
837.443	5136
837.58	5121
837.718	5258
837.856	5193
837.993	5159
838.131	5189
838.269	5231
838.406	5159
838.544	5147
838.681	5010
838.819	5041
838.956	4908
839.094	4961
839.231	4999
839.369	5117
839.506	5452
839.643	5261
839.781	5052
839.918	4995
840.055	5140
840.193	5124
840.33	5083
840.467	5197
840.604	5185
840.742	5440
840.879	5090
841.016	5098
841.153	5102
841.29	5387
841.427	5322
841.564	5292
841.701	5417
841.838	5288
841.975	5239
842.112	5265
842.249	5159
842.385	5132
842.522	5292
842.659	5197
842.796	5079
842.933	5212
843.069	5155
843.206	5136
843.343	5315
843.479	5239
843.616	5265
843.752	5056
843.889	5029
844.025	5181
844.162	5029
844.298	5216
844.435	5056
844.571	4991
844.708	5208
844.844	5303
844.98	5318
845.117	5326
845.253	5185
845.389	5071
845.525	5174
845.661	5147
845.798	5045
845.934	5140
846.07	5056
846.206	5204
846.342	5288
846.478	5204
846.614	5083
846.75	4961
846.886	4949
847.022	5174
847.158	5060
847.294	5045
847.429	5083
847.565	5041
847.701	5296
847.837	4862
847.972	4759
848.108	4995
848.244	4942
848.379	4790
848.515	4763
848.65	4721
848.786	4736
848.921	4763
849.057	4862
849.192	4885
849.328	4870
849.463	4892
849.598	4835
849.734	4752
849.869	4702
850.004	4641
850.14	4698
850.275	4622
850.41	4516
850.545	4584
850.68	4630
850.815	4641
850.95	4645
851.085	4847
851.22	4733
851.355	4691
851.49	4611
851.625	4611
851.76	4656
851.895	4561
852.03	4535
852.165	4660
852.299	4736
852.434	4793
852.569	4748
852.703	4752
852.838	4790
852.973	4938
853.107	4949
853.242	4763
853.376	4683
853.511	4554
853.645	4668
853.78	4831
853.914	4626
854.048	4683
854.183	4626
854.317	4729
854.451	4828
854.585	4698
854.72	4607
854.854	4752
854.988	4569
855.122	4615
855.256	4550
855.39	4626
855.524	4797
855.658	4725
855.792	4664
855.926	4710
856.06	4733
856.194	4820
856.327	4717
856.461	4634
856.595	4618
856.729	4618
856.862	4759
856.996	4672
857.13	4755
857.263	4736
857.397	4774
857.53	4653
857.664	4736
857.797	4767
857.931	4790
858.064	4637
858.197	4725
858.331	4675
858.464	4561
858.597	4519
858.731	4634
858.864	4630
858.997	4615
859.13	4649
859.263	4672
859.396	4675
859.529	4561
859.662	4615
859.795	4554
859.928	4630
860.061	4740
860.194	4755
860.327	4630
860.46	4588
860.592	4721
860.725	4748
860.858	4702
860.99	4558
861.123	4523
861.256	4497
861.388	4615
861.521	5322
861.653	4455
861.786	4398
861.918	4478
862.05	4508
862.183	4580
862.315	4622
862.447	4645
862.58	4508
862.712	4409
862.844	4295
862.976	4489
863.108	4466
863.24	4797
863.372	4375
863.504	4390
863.636	4379
863.768	4489
863.9	4455
864.032	4360
864.164	4375
864.296	4462
864.428	4527
864.559	4531
864.691	4561
864.823	4493
864.954	4493
865.086	4474
865.217	4466
865.349	4428
865.48	4485
865.612	4527
865.743	4641
865.875	4462
866.006	4405
866.137	4451
866.269	4424
866.4	4421
866.531	4428
866.662	4348
866.793	4371
866.924	4409
867.055	4519
867.186	4459
867.317	4417
867.448	4329
867.579	4421
867.71	4394
867.841	4375
867.972	4485
868.103	4466
868.233	4459
868.364	4436
868.495	4478
868.625	4637
868.756	4767
868.886	4611
869.017	4611
869.147	4729
869.278	4740
869.408	4649
869.539	4615
869.669	4694
869.799	4714
869.929	4767
870.06	4782
870.19	4911
870.32	4946
870.45	4938
870.58	5041
870.71	5067
870.84	5105
870.97	4961
871.1	4908
871.23	5132
871.36	5128
871.489	5033
871.619	5048
871.749	5113
871.879	5132
872.008	5204
872.138	5041
872.267	4957
872.397	4759
872.526	4797
872.656	4706
872.785	4778
872.915	4927
873.044	5025
873.173	4984
873.303	5003
873.432	4915
873.561	4934
873.69	4908
873.819	4824
873.948	4911
874.077	4831
874.206	4782
874.335	4847
874.464	4976
874.593	5033
874.722	4965
874.851	5075
874.979	5075
875.108	5048
875.237	4949
875.365	4889
875.494	4892
875.623	4980
875.751	4843
875.88	4911
876.008	4976
876.136	5067
876.265	5201
876.393	5345
876.521	5258
876.65	5208
876.778	5170
876.906	5018
877.034	5025
877.162	5033
877.29	4961
877.418	5060
877.546	5056
877.674	5033
877.802	5033
877.93	5018
878.058	4938
878.185	4839
878.313	4995
878.441	4930
878.568	4790
878.696	4881
878.824	4965
878.951	5029
879.079	5109
879.206	5280
879.333	5113
879.461	4991
879.588	4942
879.715	5121
879.842	5212
879.97	4991
880.097	4778
880.224	4771
880.351	4786
880.478	4835
880.605	4782
880.732	4771
880.859	5094
880.986	4915
881.112	4942
881.239	4831
881.366	4687
881.493	4580
881.619	4615
881.746	4641
881.872	4683
881.999	4634
882.125	4626
882.252	4793
882.378	4835
882.505	4984
882.631	4771
882.757	4706
882.883	4706
883.01	4698
883.136	4656
883.262	4637
883.388	4599
883.514	4774
883.64	4831
883.766	4774
883.892	4660
884.018	4714
884.143	4839
884.269	5010
884.395	4672
884.52	4611
884.646	4641
884.772	4596
884.897	4542
885.023	4634
885.148	4820
885.274	4889
885.399	4839
885.524	4691
885.65	4755
885.775	4717
885.9	4725
886.025	4843
886.15	4805
886.275	4710
886.4	4645
886.525	4729
886.65	4672
886.775	4706
886.9	4896
887.025	5037
887.149	4774
887.274	4675
887.399	4592
887.523	4649
887.648	4615
887.773	4592
887.897	4752
888.021	4771
888.146	4641
888.27	4831
888.395	4881
888.519	4824
888.643	4850
888.767	4828
888.891	4694
889.015	4641
889.139	4634
889.263	4634
889.387	4736
889.511	4911
889.635	4774
889.759	4675
889.883	4630
890.006	4714
890.13	4843
890.254	4618
890.377	4637
890.501	4542
890.624	4546
890.748	4634
890.871	4508
890.995	4447
891.118	4375
891.241	4504
891.364	4531
891.488	4637
891.611	4500
891.734	4527
891.857	4577
891.98	4508
892.103	4672
892.226	4607
892.349	4519
892.471	4417
892.594	4542
892.717	4569
892.839	4573
892.962	4584
893.085	4596
893.207	4577
893.33	4447
893.452	4500
893.575	4637
893.697	4645
893.819	4755
893.941	4824
894.064	4805
894.186	4607
894.308	4569
894.43	4721
894.552	4831
894.674	4736
894.796	4580
894.918	4622
895.04	4569
895.161	4717
895.283	4668
895.405	4603
895.526	4622
895.648	4710
895.769	4691
895.891	4714
896.012	4744
896.134	4748
896.255	4656
896.376	4653
896.498	4599
896.619	4706
896.74	4596
896.861	4645
896.982	4885
897.103	5064
897.224	4873
897.345	4710
897.466	4683
897.587	4729
897.708	4831
897.828	4790
897.949	4645
898.07	4561
898.19	4660
898.311	4839
898.431	4675
898.552	4714
898.672	4782
898.792	4786
898.913	4763
899.033	4691
899.153	4500
899.273	4424
899.393	4485
899.513	4558
899.633	4497
899.753	4550
899.873	4478
899.993	4523
900.113	4561
900.232	4561
900.352	4497
900.472	4527
900.591	4383
900.711	4538
900.83	4436
900.95	4599
901.069	4702
901.189	4550
901.308	4398
901.427	4344
901.546	4413
901.665	4462
901.784	4523
901.904	4348
902.023	4344
902.141	4249
902.26	4150
902.379	4276
902.498	4257
902.617	4249
902.735	4371
902.854	4390
902.973	4379
903.091	4196
903.21	4234
903.328	4310
903.446	4246
903.565	4234
903.683	4318
903.801	4295
903.919	4379
904.038	4455
904.156	4337
904.274	4481
904.392	4371
904.51	4421
904.627	4421
904.745	4546
904.863	4599
904.981	4398
905.098	4318
905.216	4360
905.334	4478
905.451	4394
905.569	4402
905.686	4554
905.803	4611
905.921	4424
906.038	4546
906.155	4459
906.272	4363
906.389	4413
906.506	4402
906.623	4375
906.74	4402
906.857	4291
906.974	4405
907.091	4538
907.208	4664
907.324	4626
907.441	4493
907.557	4310
907.674	4360
907.79	4303
907.907	4413
908.023	4474
908.139	4485
908.256	4375
908.372	4489
908.488	4455
908.604	4310
908.72	4303
908.836	4344
908.952	4402
909.068	4470
909.184	4561
909.3	4546
909.415	4607
909.531	4577
909.647	4322
909.762	4375
909.878	4363
909.993	4440
910.108	4402
910.224	4451
910.339	4489
910.454	4383
910.57	4367
910.685	4322
910.8	4668
910.915	4618
911.03	4493
911.145	4272
911.259	4306
911.374	4409
911.489	4272
911.604	4303
911.718	4200
911.833	4219
911.947	4124
912.062	4032
912.176	4253
912.291	4177
912.405	4230
912.519	4443
912.633	4493
912.748	4344
912.862	4318
912.976	4227
913.09	4139
913.204	4166
913.318	4303
913.431	4363
913.545	4390
913.659	4451
913.772	4333
913.886	4261
914	4219
914.113	4394
914.226	4421
914.34	4383
914.453	4234
914.566	4421
914.68	4306
914.793	4280
914.906	4196
915.019	4143
915.132	4090
915.245	4185
915.358	4211
915.47	4219
915.583	4287
915.696	4287
915.809	4405
915.921	4394
916.034	4280
916.146	4246
916.259	4207
916.371	4371
916.483	4352
916.595	4230
916.708	4314
916.82	4314
916.932	4341
917.044	4310
917.156	4303
917.268	4181
917.38	4329
917.491	4272
917.603	4375
917.715	4424
917.826	4413
917.938	4306
918.049	4287
918.161	4421
918.272	4550
918.384	4542
918.495	4485
918.606	4310
918.717	4253
918.828	4375
918.939	4394
919.05	4223
919.161	4325
919.272	4192
919.383	4204
919.494	4481
919.604	4561
919.715	4459
919.826	4394
919.936	4394
920.047	4523
920.157	4470
920.267	4748
920.378	4497
920.488	4462
920.598	4748
920.708	4904
920.818	4805
920.928	4771
921.038	4965
921.148	4911
921.258	4588
921.368	4588
921.477	4462
921.587	4478
921.697	4440
921.806	4550
921.916	4497
922.025	4246
922.134	4295
922.244	4234
922.353	4291
922.462	4192
922.571	4162
922.68	4025
922.789	3922
922.898	4021
923.007	3983
923.116	4109
923.224	4036
923.333	4036
923.442	3983
923.55	3975
923.659	4017
923.767	4082
923.876	3994
923.984	4082
924.092	4002
924.201	4101
924.309	4093
924.417	4097
924.525	4029
924.633	4139
924.741	4854
924.849	3861
924.956	4124
925.064	3945
925.172	3934
925.279	3991
925.387	4067
925.494	4059
925.602	4257
925.709	4219
925.816	4036
925.924	4143
926.031	4238
926.138	4169
926.245	4200
926.352	4055
926.459	4280
926.566	4367
926.673	4147
926.779	4051
926.886	4131
926.993	4021
927.099	4021
927.206	3934
927.312	3972
927.419	4055
927.525	4025
927.631	4067
927.737	3979
927.843	3907
927.95	3831
928.056	3972
928.162	4002
928.267	4078
928.373	4618
928.479	4105
928.585	3842
928.69	3979
928.796	4067
928.901	3934
929.007	3861
929.112	3953
929.218	3975
929.323	3987
929.428	3922
929.533	4120
929.638	3922
929.743	3949
929.848	4051
929.953	3998
930.058	3926
930.163	3762
930.267	3812
930.372	3956
930.477	3812
930.581	4090
930.685	3975
930.79	3857
930.894	3865
930.998	3861
931.103	4002
931.207	3736
931.311	3656
931.415	3671
931.519	3545
931.623	3526
