Data from test_V78500241_1658.txt Node
Date: Fri Mar 25 17:00:31 CST 2022
User: usil
Spectrometer: V785-0024
Trigger mode: 0
Integration Time (sec): 4.000000E-1
Scans to average: 1
Nonlinearity correction enabled: false
Boxcar width: 0
Storing dark spectrum: false
XAxis mode: Wavelengths
Number of Pixels in Spectrum: 1024
>>>>>Begin Spectral Data<<<<<
801.071	8005
801.214	7944
801.356	7871
801.499	7925
801.641	7746
801.783	7811
801.926	7921
802.068	7932
802.211	8043
802.353	8020
802.496	7795
802.638	7841
802.78	7856
802.923	7936
803.065	7803
803.208	7879
803.35	7936
803.492	8115
803.635	8161
803.777	8050
803.919	8164
804.061	8473
804.204	8183
804.346	7982
804.488	8001
804.63	8043
804.773	8046
804.915	8126
805.057	8377
805.199	8183
805.341	8271
805.483	8195
805.626	8248
805.768	8054
805.91	8237
806.052	8271
806.194	8157
806.336	8324
806.478	8088
806.62	8092
806.762	8176
806.904	8298
807.046	8503
807.188	8404
807.33	8328
807.472	8347
807.614	8244
807.756	8145
807.898	8043
808.04	7986
808.182	7974
808.324	7959
808.465	7902
808.607	8119
808.749	8134
808.891	8183
809.033	8362
809.174	8256
809.316	8134
809.458	8111
809.6	8065
809.741	8024
809.883	8081
810.025	8126
810.166	8073
810.308	7989
810.45	7978
810.591	7879
810.733	7742
810.875	7750
811.016	7567
811.158	7563
811.299	7609
811.441	7715
811.582	7765
811.724	7556
811.865	7632
812.007	7590
812.148	7609
812.29	7677
812.431	7803
812.573	7944
812.714	8046
812.855	8168
812.997	8218
813.138	8313
813.279	8195
813.421	8123
813.562	7993
813.703	7921
813.845	7784
813.986	7434
814.127	7324
814.268	7187
814.41	7152
814.551	7171
814.692	7289
814.833	7141
814.974	7107
815.115	7129
815.256	7038
815.397	6973
815.539	6962
815.68	6825
815.821	6833
815.962	6901
816.103	6818
816.244	6711
816.385	6658
816.526	6601
816.666	6498
816.807	6338
816.948	6429
817.089	6506
817.23	6460
817.371	6327
817.512	6395
817.653	6410
817.793	6384
817.934	6403
818.075	6498
818.216	6407
818.356	6467
818.497	6254
818.638	6152
818.778	6186
818.919	6182
819.06	6155
819.2	6304
819.341	6315
819.481	6372
819.622	6589
819.762	6726
819.903	6738
820.043	6673
820.184	6635
820.324	6650
820.465	6734
820.605	6783
820.746	6658
820.886	6566
821.026	6722
821.167	6783
821.307	6802
821.447	6711
821.588	6722
821.728	6536
821.868	6513
822.008	6372
822.149	6369
822.289	6388
822.429	6178
822.569	6148
822.709	6110
822.849	5897
822.99	5961
823.13	5984
823.27	5908
823.41	5786
823.55	5828
823.69	5764
823.83	5748
823.97	5718
824.11	5482
824.25	5501
824.389	5585
824.529	5604
824.669	5524
824.809	5737
824.949	5638
825.089	5665
825.228	5554
825.368	5376
825.508	5368
825.648	5368
825.787	5421
825.927	5414
826.067	5277
826.206	5303
826.346	5417
826.485	5433
826.625	5474
826.765	5554
826.904	5478
827.044	5239
827.183	5212
827.323	5151
827.462	5231
827.601	5166
827.741	5208
827.88	5277
828.02	5109
828.159	5292
828.298	5349
828.437	5360
828.577	5357
828.716	5512
828.855	5315
828.994	5170
829.134	5181
829.273	5208
829.412	5197
829.551	5189
829.69	5239
829.829	5337
829.968	5387
830.107	5315
830.246	5303
830.385	5140
830.524	5132
830.663	5151
830.802	4961
830.941	4938
831.08	4927
831.219	5014
831.357	5003
831.496	5143
831.635	4968
831.774	4850
831.913	4949
832.051	4759
832.19	4782
832.329	4847
832.467	4790
832.606	4664
832.744	4771
832.883	4801
833.022	4687
833.16	4828
833.299	4858
833.437	4843
833.576	4854
833.714	4870
833.852	4850
833.991	4942
834.129	4980
834.267	4949
834.406	4854
834.544	4991
834.682	4991
834.821	4965
834.959	5105
835.097	4965
835.235	5174
835.373	5086
835.511	5098
835.65	5052
835.788	5048
835.926	4923
836.064	4870
836.202	4949
836.34	5208
836.478	5250
836.615	5124
836.753	5239
836.891	5307
837.029	5273
837.167	5239
837.305	5162
837.443	5174
837.58	5098
837.718	5303
837.856	5204
837.993	5113
838.131	5223
838.269	5239
838.406	5185
838.544	5220
838.681	5098
838.819	5052
838.956	4946
839.094	4919
839.231	5006
839.369	5109
839.506	5425
839.643	5258
839.781	5071
839.918	5029
840.055	5105
840.193	5083
840.33	5132
840.467	5193
840.604	5185
840.742	5448
840.879	5083
841.016	5102
841.153	5147
841.29	5372
841.427	5376
841.564	5326
841.701	5345
841.838	5273
841.975	5277
842.112	5292
842.249	5124
842.385	5136
842.522	5345
842.659	5208
842.796	5162
842.933	5151
843.069	5174
843.206	5197
843.343	5326
843.479	5227
843.616	5280
843.752	5041
843.889	5048
844.025	5246
844.162	5045
844.298	5273
844.435	5052
844.571	5109
844.708	5201
844.844	5284
844.98	5318
845.117	5318
845.253	5189
845.389	5113
845.525	5216
845.661	5143
845.798	5083
845.934	5185
846.07	5094
846.206	5204
846.342	5288
846.478	5147
846.614	5018
846.75	5018
846.886	4949
847.022	5162
847.158	5067
847.294	5102
847.429	5086
847.565	5094
847.701	5322
847.837	4854
847.972	4824
848.108	4949
848.244	4953
848.379	4782
848.515	4729
848.65	4767
848.786	4725
848.921	4824
849.057	4904
849.192	4911
849.328	4790
849.463	4858
849.598	4790
849.734	4755
849.869	4725
850.004	4622
850.14	4653
850.275	4596
850.41	4565
850.545	4550
850.68	4645
850.815	4603
850.95	4588
851.085	4873
851.22	4744
851.355	4660
851.49	4626
851.625	4637
851.76	4622
851.895	4558
852.03	4596
852.165	4683
852.299	4755
852.434	4805
852.569	4786
852.703	4759
852.838	4839
852.973	4934
853.107	4938
853.242	4755
853.376	4675
853.511	4542
853.645	4607
853.78	4866
853.914	4721
854.048	4656
854.183	4653
854.317	4733
854.451	4873
854.585	4717
854.72	4664
854.854	4748
854.988	4615
855.122	4664
855.256	4519
855.39	4664
855.524	4786
855.658	4740
855.792	4672
855.926	4748
856.06	4786
856.194	4816
856.327	4729
856.461	4615
856.595	4611
856.729	4630
856.862	4729
856.996	4675
857.13	4809
857.263	4740
857.397	4843
857.53	4626
857.664	4725
857.797	4797
857.931	4805
858.064	4698
858.197	4755
858.331	4649
858.464	4653
858.597	4542
858.731	4607
858.864	4626
858.997	4634
859.13	4649
859.263	4675
859.396	4717
859.529	4603
859.662	4546
859.795	4546
859.928	4645
860.061	4786
860.194	4790
860.327	4577
860.46	4599
860.592	4630
860.725	4778
860.858	4736
860.99	4607
861.123	4523
861.256	4565
861.388	4630
861.521	5299
861.653	4462
861.786	4474
861.918	4485
862.05	4531
862.183	4550
862.315	4603
862.447	4656
862.58	4538
862.712	4443
862.844	4329
862.976	4466
863.108	4443
863.24	4740
863.372	4398
863.504	4421
863.636	4443
863.768	4527
863.9	4440
864.032	4394
864.164	4440
864.296	4538
864.428	4588
864.559	4607
864.691	4470
864.823	4542
864.954	4531
865.086	4493
865.217	4421
865.349	4440
865.48	4504
865.612	4470
865.743	4668
865.875	4485
866.006	4386
866.137	4500
866.269	4493
866.4	4485
866.531	4405
866.662	4409
866.793	4398
866.924	4394
867.055	4512
867.186	4462
867.317	4428
867.448	4417
867.579	4402
867.71	4409
867.841	4356
867.972	4485
868.103	4493
868.233	4432
868.364	4466
868.495	4550
868.625	4717
868.756	4786
868.886	4565
869.017	4630
869.147	4763
869.278	4831
869.408	4698
869.539	4630
869.669	4733
869.799	4634
869.929	4805
870.06	4736
870.19	4946
870.32	4908
870.45	4953
870.58	5018
870.71	5132
870.84	5086
870.97	4968
871.1	4908
871.23	5128
871.36	5121
871.489	5067
871.619	5060
871.749	5079
871.879	5159
872.008	5193
872.138	5056
872.267	4930
872.397	4835
872.526	4847
872.656	4679
872.785	4767
872.915	4942
873.044	5037
873.173	4900
873.303	4934
873.432	4942
873.561	4919
873.69	4873
873.819	4942
873.948	4881
874.077	4847
874.206	4782
874.335	4778
874.464	4915
874.593	5025
874.722	4980
874.851	5090
874.979	5083
875.108	5025
875.237	4923
875.365	4854
875.494	4870
875.623	4946
875.751	4793
875.88	4839
876.008	4965
876.136	5025
876.265	5170
876.393	5349
876.521	5261
876.65	5201
876.778	5124
876.906	5037
877.034	5010
877.162	5064
877.29	4972
877.418	5041
877.546	5006
877.674	5022
877.802	4984
877.93	4999
878.058	4919
878.185	4877
878.313	4995
878.441	4995
878.568	4858
878.696	4892
878.824	4987
878.951	5010
879.079	5128
879.206	5372
879.333	5143
879.461	4995
879.588	4980
879.715	5155
879.842	5223
879.97	5025
880.097	4820
880.224	4744
880.351	4824
880.478	4805
880.605	4786
880.732	4850
880.859	5113
880.986	4908
881.112	4946
881.239	4820
881.366	4683
881.493	4599
881.619	4649
881.746	4698
881.872	4694
881.999	4668
882.125	4721
882.252	4793
882.378	4835
882.505	4984
882.631	4881
882.757	4691
882.883	4755
883.01	4755
883.136	4698
883.262	4630
883.388	4668
883.514	4831
883.64	4870
883.766	4843
883.892	4687
884.018	4767
884.143	4915
884.269	4995
884.395	4763
884.52	4626
884.646	4656
884.772	4622
884.897	4588
885.023	4691
885.148	4797
885.274	4908
885.399	4877
885.524	4748
885.65	4740
885.775	4801
885.9	4733
886.025	4877
886.15	4835
886.275	4771
886.4	4637
886.525	4736
886.65	4752
886.775	4710
886.9	4980
887.025	5086
887.149	4816
887.274	4694
887.399	4596
887.523	4656
887.648	4634
887.773	4637
887.897	4786
888.021	4793
888.146	4721
888.27	4870
888.395	4930
888.519	4805
888.643	4812
888.767	4847
888.891	4782
889.015	4660
889.139	4660
889.263	4637
889.387	4767
889.511	4938
889.635	4782
889.759	4729
889.883	4683
890.006	4820
890.13	4885
890.254	4645
890.377	4755
890.501	4561
890.624	4580
890.748	4675
890.871	4569
890.995	4451
891.118	4428
891.241	4523
891.364	4542
891.488	4660
891.611	4584
891.734	4580
891.857	4607
891.98	4607
892.103	4710
892.226	4618
892.349	4550
892.471	4481
892.594	4580
892.717	4660
892.839	4592
892.962	4618
893.085	4698
893.207	4615
893.33	4504
893.452	4592
893.575	4687
893.697	4615
893.819	4862
893.941	4877
894.064	4824
894.186	4577
894.308	4580
894.43	4767
894.552	4850
894.674	4740
894.796	4584
894.918	4596
895.04	4573
895.161	4710
895.283	4691
895.405	4637
895.526	4675
895.648	4687
895.769	4706
895.891	4752
896.012	4759
896.134	4725
896.255	4664
896.376	4664
896.498	4618
896.619	4710
896.74	4653
896.861	4687
896.982	4911
897.103	5067
897.224	4892
897.345	4805
897.466	4687
897.587	4748
897.708	4908
897.828	4816
897.949	4740
898.07	4569
898.19	4637
898.311	4866
898.431	4687
898.552	4675
898.672	4828
898.792	4835
898.913	4755
899.033	4683
899.153	4561
899.273	4462
899.393	4538
899.513	4603
899.633	4580
899.753	4615
899.873	4577
899.993	4573
900.113	4569
900.232	4596
900.352	4588
900.472	4500
900.591	4455
900.711	4565
900.83	4519
900.95	4649
901.069	4687
901.189	4573
901.308	4352
901.427	4398
901.546	4360
901.665	4478
901.784	4512
901.904	4424
902.023	4383
902.141	4249
902.26	4196
902.379	4310
902.498	4268
902.617	4253
902.735	4405
902.854	4421
902.973	4356
903.091	4272
903.21	4230
903.328	4303
903.446	4318
903.565	4303
903.683	4409
903.801	4352
903.919	4478
904.038	4466
904.156	4371
904.274	4447
904.392	4432
904.51	4497
904.627	4462
904.745	4630
904.863	4702
904.981	4421
905.098	4314
905.216	4405
905.334	4451
905.451	4497
905.569	4470
905.686	4596
905.803	4565
905.921	4440
906.038	4569
906.155	4493
906.272	4451
906.389	4493
906.506	4383
906.623	4432
906.74	4421
906.857	4322
906.974	4413
907.091	4596
907.208	4698
907.324	4607
907.441	4523
907.557	4367
907.674	4421
907.79	4295
907.907	4413
908.023	4504
908.139	4523
908.256	4398
908.372	4554
908.488	4497
908.604	4383
908.72	4318
908.836	4402
908.952	4386
909.068	4455
909.184	4626
909.3	4508
909.415	4577
909.531	4573
909.647	4352
909.762	4383
909.878	4356
909.993	4451
910.108	4462
910.224	4436
910.339	4512
910.454	4402
910.57	4428
910.685	4325
910.8	4694
910.915	4675
911.03	4512
911.145	4306
911.259	4325
911.374	4386
911.489	4295
911.604	4314
911.718	4173
911.833	4261
911.947	4128
912.062	4093
912.176	4265
912.291	4291
912.405	4276
912.519	4527
912.633	4535
912.748	4405
912.862	4310
912.976	4211
913.09	4093
913.204	4162
913.318	4287
913.431	4402
913.545	4344
913.659	4451
913.772	4424
913.886	4306
914	4276
914.113	4386
914.226	4436
914.34	4424
914.453	4227
914.566	4398
914.68	4299
914.793	4314
914.906	4166
915.019	4158
915.132	4120
915.245	4204
915.358	4230
915.47	4204
915.583	4314
915.696	4348
915.809	4432
915.921	4405
916.034	4295
916.146	4314
916.259	4223
916.371	4386
916.483	4363
916.595	4314
916.708	4390
916.82	4363
916.932	4322
917.044	4352
917.156	4341
917.268	4219
917.38	4238
917.491	4287
917.603	4356
917.715	4421
917.826	4455
917.938	4341
918.049	4276
918.161	4402
918.272	4554
918.384	4538
918.495	4478
918.606	4295
918.717	4242
918.828	4390
918.939	4360
919.05	4268
919.161	4341
919.272	4112
919.383	4223
919.494	4466
919.604	4584
919.715	4512
919.826	4398
919.936	4413
920.047	4516
920.157	4516
920.267	4691
920.378	4493
920.488	4500
920.598	4755
920.708	4877
920.818	4771
920.928	4805
921.038	4976
921.148	4949
921.258	4626
921.368	4561
921.477	4497
921.587	4497
921.697	4390
921.806	4535
921.916	4504
922.025	4295
922.134	4272
922.244	4265
922.353	4356
922.462	4223
922.571	4150
922.68	3994
922.789	3956
922.898	4025
923.007	3991
923.116	4112
923.224	4082
923.333	4154
923.442	4044
923.55	3972
923.659	4078
923.767	4154
923.876	3991
923.984	4162
924.092	4010
924.201	4120
924.309	4105
924.417	4128
924.525	4055
924.633	4139
924.741	4930
924.849	3949
924.956	4135
925.064	3960
925.172	3930
925.279	3937
925.387	4097
925.494	4063
925.602	4265
925.709	4207
925.816	4048
925.924	4120
926.031	4276
926.138	4158
926.245	4238
926.352	4135
926.459	4238
926.566	4341
926.673	4150
926.779	4086
926.886	4082
926.993	3994
927.099	3945
927.206	3968
927.312	3979
927.419	4074
927.525	4044
927.631	4105
927.737	4013
927.843	3949
927.95	3880
928.056	3953
928.162	3987
928.267	4059
928.373	4630
928.479	4173
928.585	3896
928.69	4074
928.796	4055
928.901	3979
929.007	3880
929.112	4044
929.218	4010
929.323	3968
929.428	3964
929.533	4124
929.638	3941
929.743	3964
929.848	4032
929.953	3975
930.058	3968
930.163	3812
930.267	3823
930.372	3956
930.477	3816
930.581	4078
930.685	4006
930.79	3854
930.894	3892
930.998	3857
931.103	4059
931.207	3724
931.311	3709
931.415	3633
931.519	3526
931.623	3542
