Data from test_V78500241_2585.txt Node
Date: Fri Mar 25 17:06:58 CST 2022
User: usil
Spectrometer: V785-0024
Trigger mode: 0
Integration Time (sec): 4.000000E-1
Scans to average: 1
Nonlinearity correction enabled: false
Boxcar width: 0
Storing dark spectrum: false
XAxis mode: Wavelengths
Number of Pixels in Spectrum: 1024
>>>>>Begin Spectral Data<<<<<
801.071	7974
801.214	8016
801.356	7951
801.499	7883
801.641	7776
801.783	7849
801.926	7909
802.068	7993
802.211	7955
802.353	8016
802.496	7864
802.638	7898
802.78	8001
802.923	7993
803.065	7909
803.208	7913
803.35	7970
803.492	8145
803.635	8180
803.777	8092
803.919	8191
804.061	8454
804.204	8153
804.346	8092
804.488	8001
804.63	8107
804.773	8046
804.915	8138
805.057	8317
805.199	8153
805.341	8256
805.483	8320
805.626	8210
805.768	8161
805.91	8221
806.052	8237
806.194	8077
806.336	8339
806.478	8065
806.62	8054
806.762	8218
806.904	8317
807.046	8454
807.188	8393
807.33	8218
807.472	8343
807.614	8115
807.756	8161
807.898	8073
808.04	7917
808.182	7894
808.324	7883
808.465	7993
808.607	8092
808.749	8187
808.891	8172
809.033	8377
809.174	8237
809.316	8126
809.458	8077
809.6	8020
809.741	7997
809.883	8020
810.025	8081
810.166	8069
810.308	7970
810.45	8005
810.591	7898
810.733	7761
810.875	7658
811.016	7521
811.158	7472
811.299	7590
811.441	7742
811.582	7715
811.724	7556
811.865	7521
812.007	7639
812.148	7689
812.29	7662
812.431	7723
812.573	7837
812.714	7970
812.855	8073
812.997	8225
813.138	8347
813.279	8119
813.421	8115
813.562	7970
813.703	7818
813.845	7784
813.986	7502
814.127	7274
814.268	7236
814.41	7213
814.551	7228
814.692	7263
814.833	7061
814.974	7133
815.115	7145
815.256	7042
815.397	6973
815.539	6996
815.68	6829
815.821	6840
815.962	6943
816.103	6818
816.244	6749
816.385	6616
816.526	6665
816.666	6536
816.807	6281
816.948	6494
817.089	6513
817.23	6490
817.371	6429
817.512	6376
817.653	6433
817.793	6391
817.934	6414
818.075	6456
818.216	6414
818.356	6418
818.497	6209
818.638	6114
818.778	6171
818.919	6171
819.06	6155
819.2	6311
819.341	6338
819.481	6441
819.622	6566
819.762	6722
819.903	6673
820.043	6654
820.184	6597
820.324	6604
820.465	6722
820.605	6734
820.746	6627
820.886	6467
821.026	6688
821.167	6783
821.307	6791
821.447	6779
821.588	6768
821.728	6631
821.868	6475
822.008	6270
822.149	6426
822.289	6407
822.429	6190
822.569	6247
822.709	6175
822.849	5942
822.99	5973
823.13	5923
823.27	5901
823.41	5840
823.55	5802
823.69	5794
823.83	5832
823.97	5672
824.11	5581
824.25	5459
824.389	5543
824.529	5619
824.669	5570
824.809	5665
824.949	5676
825.089	5608
825.228	5581
825.368	5455
825.508	5364
825.648	5368
825.787	5402
825.927	5376
826.067	5357
826.206	5292
826.346	5402
826.485	5398
826.625	5410
826.765	5577
826.904	5455
827.044	5239
827.183	5185
827.323	5193
827.462	5280
827.601	5185
827.741	5201
827.88	5212
828.02	5113
828.159	5296
828.298	5292
828.437	5387
828.577	5269
828.716	5463
828.855	5345
828.994	5204
829.134	5220
829.273	5189
829.412	5166
829.551	5162
829.69	5136
829.829	5265
829.968	5398
830.107	5231
830.246	5288
830.385	5201
830.524	5117
830.663	5037
830.802	5003
830.941	4892
831.08	4881
831.219	4976
831.357	4976
831.496	5162
831.635	4927
831.774	4850
831.913	4839
832.051	4793
832.19	4801
832.329	4797
832.467	4710
832.606	4660
832.744	4748
832.883	4740
833.022	4782
833.16	4778
833.299	4793
833.437	4812
833.576	4847
833.714	4870
833.852	4877
833.991	4923
834.129	4961
834.267	4942
834.406	4908
834.544	4995
834.682	4961
834.821	4968
834.959	5166
835.097	4965
835.235	5132
835.373	5105
835.511	5094
835.65	5037
835.788	5006
835.926	4900
836.064	4877
836.202	4949
836.34	5170
836.478	5269
836.615	5105
836.753	5231
836.891	5334
837.029	5242
837.167	5223
837.305	5201
837.443	5166
837.58	5121
837.718	5235
837.856	5208
837.993	5140
838.131	5242
838.269	5227
838.406	5193
838.544	5193
838.681	4980
838.819	5014
838.956	4870
839.094	4904
839.231	5010
839.369	5056
839.506	5429
839.643	5235
839.781	5094
839.918	4991
840.055	5109
840.193	5151
840.33	5086
840.467	5064
840.604	5124
840.742	5436
840.879	5098
841.016	5033
841.153	5227
841.29	5353
841.427	5353
841.564	5337
841.701	5364
841.838	5299
841.975	5269
842.112	5303
842.249	5162
842.385	5124
842.522	5341
842.659	5174
842.796	5105
842.933	5147
843.069	5132
843.206	5128
843.343	5296
843.479	5181
843.616	5254
843.752	5033
843.889	4980
844.025	5288
844.162	5018
844.298	5189
844.435	5064
844.571	5067
844.708	5147
844.844	5269
844.98	5353
845.117	5273
845.253	5075
845.389	5033
845.525	5181
845.661	5216
845.798	5045
845.934	5143
846.07	5090
846.206	5227
846.342	5353
846.478	5201
846.614	5033
846.75	5022
846.886	4942
847.022	5132
847.158	5075
847.294	5079
847.429	5113
847.565	5052
847.701	5277
847.837	4873
847.972	4778
848.108	4965
848.244	4908
848.379	4812
848.515	4767
848.65	4687
848.786	4733
848.921	4790
849.057	4881
849.192	4904
849.328	4805
849.463	4835
849.598	4759
849.734	4790
849.869	4698
850.004	4622
850.14	4645
850.275	4577
850.41	4588
850.545	4538
850.68	4596
850.815	4618
850.95	4611
851.085	4870
851.22	4736
851.355	4679
851.49	4596
851.625	4656
851.76	4637
851.895	4596
852.03	4577
852.165	4649
852.299	4710
852.434	4774
852.569	4778
852.703	4759
852.838	4843
852.973	4980
853.107	4934
853.242	4752
853.376	4691
853.511	4542
853.645	4626
853.78	4797
853.914	4653
854.048	4710
854.183	4637
854.317	4668
854.451	4873
854.585	4744
854.72	4653
854.854	4763
854.988	4637
855.122	4694
855.256	4550
855.39	4672
855.524	4736
855.658	4729
855.792	4763
855.926	4702
856.06	4733
856.194	4793
856.327	4668
856.461	4653
856.595	4584
856.729	4611
856.862	4744
856.996	4687
857.13	4725
857.263	4755
857.397	4812
857.53	4679
857.664	4729
857.797	4793
857.931	4797
858.064	4672
858.197	4725
858.331	4664
858.464	4637
858.597	4546
858.731	4611
858.864	4679
858.997	4565
859.13	4675
859.263	4687
859.396	4710
859.529	4561
859.662	4558
859.795	4519
859.928	4603
860.061	4767
860.194	4790
860.327	4596
860.46	4611
860.592	4679
860.725	4714
860.858	4702
860.99	4569
861.123	4542
861.256	4508
861.388	4577
861.521	5284
861.653	4455
861.786	4421
861.918	4474
862.05	4527
862.183	4554
862.315	4634
862.447	4664
862.58	4523
862.712	4386
862.844	4322
862.976	4447
863.108	4451
863.24	4729
863.372	4303
863.504	4417
863.636	4402
863.768	4500
863.9	4394
864.032	4405
864.164	4409
864.296	4455
864.428	4569
864.559	4561
864.691	4519
864.823	4554
864.954	4497
865.086	4497
865.217	4417
865.349	4436
865.48	4470
865.612	4478
865.743	4596
865.875	4455
866.006	4413
866.137	4436
866.269	4447
866.4	4417
866.531	4451
866.662	4363
866.793	4409
866.924	4390
867.055	4489
867.186	4523
867.317	4455
867.448	4379
867.579	4421
867.71	4379
867.841	4379
867.972	4436
868.103	4424
868.233	4470
868.364	4493
868.495	4474
868.625	4687
868.756	4721
868.886	4558
869.017	4588
869.147	4790
869.278	4774
869.408	4626
869.539	4622
869.669	4702
869.799	4637
869.929	4725
870.06	4740
870.19	4930
870.32	4896
870.45	4934
870.58	4957
870.71	5140
870.84	5113
870.97	4987
871.1	4923
871.23	5155
871.36	5151
871.489	5014
871.619	5147
871.749	5105
871.879	5094
872.008	5239
872.138	5003
872.267	5022
872.397	4820
872.526	4790
872.656	4717
872.785	4866
872.915	4953
873.044	4995
873.173	4984
873.303	4961
873.432	4965
873.561	4942
873.69	4866
873.819	4862
873.948	4938
874.077	4801
874.206	4774
874.335	4782
874.464	4938
874.593	5060
874.722	4946
874.851	5071
874.979	5075
875.108	5060
875.237	4946
875.365	4877
875.494	4908
875.623	4968
875.751	4816
875.88	4930
876.008	5006
876.136	5037
876.265	5189
876.393	5372
876.521	5246
876.65	5223
876.778	5189
876.906	5090
877.034	5037
877.162	5003
877.29	5048
877.418	5071
877.546	5045
877.674	5052
877.802	5006
877.93	5037
878.058	4991
878.185	4892
878.313	4957
878.441	4980
878.568	4850
878.696	4885
878.824	4953
878.951	4968
879.079	5117
879.206	5337
879.333	5109
879.461	4995
879.588	4942
879.715	5121
879.842	5254
879.97	5041
880.097	4805
880.224	4771
880.351	4790
880.478	4824
880.605	4793
880.732	4793
880.859	5067
880.986	4870
881.112	4938
881.239	4801
881.366	4668
881.493	4611
881.619	4565
881.746	4622
881.872	4649
881.999	4714
882.125	4714
882.252	4752
882.378	4866
882.505	4972
882.631	4839
882.757	4645
882.883	4748
883.01	4717
883.136	4649
883.262	4603
883.388	4664
883.514	4790
883.64	4858
883.766	4782
883.892	4733
884.018	4710
884.143	4961
884.269	5037
884.395	4668
884.52	4664
884.646	4603
884.772	4565
884.897	4523
885.023	4615
885.148	4786
885.274	4870
885.399	4797
885.524	4702
885.65	4679
885.775	4748
885.9	4717
886.025	4866
886.15	4759
886.275	4721
886.4	4611
886.525	4733
886.65	4717
886.775	4683
886.9	4831
887.025	5056
887.149	4812
887.274	4649
887.399	4558
887.523	4592
887.648	4584
887.773	4603
887.897	4763
888.021	4801
888.146	4740
888.27	4854
888.395	4873
888.519	4771
888.643	4816
888.767	4809
888.891	4717
889.015	4546
889.139	4664
889.263	4596
889.387	4790
889.511	4805
889.635	4812
889.759	4622
889.883	4653
890.006	4759
890.13	4843
890.254	4634
890.377	4721
890.501	4538
890.624	4493
890.748	4641
890.871	4508
890.995	4485
891.118	4402
891.241	4500
891.364	4554
891.488	4664
891.611	4478
891.734	4523
891.857	4637
891.98	4573
892.103	4672
892.226	4603
892.349	4535
892.471	4402
892.594	4538
892.717	4615
892.839	4569
892.962	4577
893.085	4637
893.207	4596
893.33	4489
893.452	4504
893.575	4683
893.697	4580
893.819	4771
893.941	4828
894.064	4752
894.186	4569
894.308	4580
894.43	4687
894.552	4812
894.674	4717
894.796	4596
894.918	4573
895.04	4573
895.161	4725
895.283	4645
895.405	4558
895.526	4630
895.648	4691
895.769	4683
895.891	4675
896.012	4721
896.134	4710
896.255	4683
896.376	4668
896.498	4615
896.619	4691
896.74	4611
896.861	4641
896.982	4946
897.103	5052
897.224	4843
897.345	4725
897.466	4698
897.587	4733
897.708	4870
897.828	4786
897.949	4675
898.07	4577
898.19	4668
898.311	4824
898.431	4679
898.552	4725
898.672	4820
898.792	4831
898.913	4759
899.033	4618
899.153	4542
899.273	4459
899.393	4516
899.513	4531
899.633	4523
899.753	4531
899.873	4527
899.993	4611
900.113	4558
900.232	4592
900.352	4531
900.472	4527
900.591	4386
900.711	4481
900.83	4421
900.95	4580
901.069	4675
901.189	4538
901.308	4363
901.427	4314
901.546	4360
901.665	4485
901.784	4451
901.904	4409
902.023	4314
902.141	4196
902.26	4211
902.379	4306
902.498	4272
902.617	4268
902.735	4371
902.854	4409
902.973	4306
903.091	4238
903.21	4219
903.328	4303
903.446	4234
903.565	4291
903.683	4379
903.801	4249
903.919	4386
904.038	4447
904.156	4265
904.274	4421
904.392	4485
904.51	4470
904.627	4485
904.745	4561
904.863	4641
904.981	4394
905.098	4295
905.216	4386
905.334	4428
905.451	4462
905.569	4481
905.686	4523
905.803	4573
905.921	4394
906.038	4546
906.155	4432
906.272	4409
906.389	4459
906.506	4371
906.623	4417
906.74	4424
906.857	4303
906.974	4337
907.091	4569
907.208	4675
907.324	4596
907.441	4516
907.557	4383
907.674	4325
907.79	4356
907.907	4344
908.023	4478
908.139	4485
908.256	4432
908.372	4478
908.488	4405
908.604	4352
908.72	4352
908.836	4341
908.952	4409
909.068	4409
909.184	4516
909.3	4504
909.415	4607
909.531	4546
909.647	4386
909.762	4348
909.878	4329
909.993	4447
910.108	4409
910.224	4363
910.339	4459
910.454	4402
910.57	4417
910.685	4280
910.8	4641
910.915	4630
911.03	4497
911.145	4344
911.259	4310
911.374	4398
911.489	4295
911.604	4295
911.718	4188
911.833	4211
911.947	4055
912.062	4063
912.176	4169
912.291	4238
912.405	4249
912.519	4493
912.633	4440
912.748	4367
912.862	4337
912.976	4204
913.09	4143
913.204	4181
913.318	4238
913.431	4394
913.545	4344
913.659	4424
913.772	4352
913.886	4249
914	4230
914.113	4314
914.226	4424
914.34	4333
914.453	4211
914.566	4409
914.68	4291
914.793	4348
914.906	4135
915.019	4090
915.132	4051
915.245	4177
915.358	4204
915.47	4227
915.583	4257
915.696	4295
915.809	4424
915.921	4413
916.034	4257
916.146	4242
916.259	4181
916.371	4356
916.483	4341
916.595	4295
916.708	4314
916.82	4356
916.932	4329
917.044	4322
917.156	4318
917.268	4238
917.38	4261
917.491	4238
917.603	4394
917.715	4440
917.826	4474
917.938	4356
918.049	4246
918.161	4386
918.272	4516
918.384	4554
918.495	4489
918.606	4329
918.717	4257
918.828	4284
918.939	4394
919.05	4230
919.161	4383
919.272	4097
919.383	4230
919.494	4428
919.604	4603
919.715	4386
919.826	4329
919.936	4375
920.047	4558
920.157	4519
920.267	4687
920.378	4546
920.488	4489
920.598	4717
920.708	4908
920.818	4744
920.928	4759
921.038	4961
921.148	4934
921.258	4653
921.368	4561
921.477	4531
921.587	4443
921.697	4348
921.806	4531
921.916	4440
922.025	4234
922.134	4261
922.244	4238
922.353	4337
922.462	4154
922.571	4124
922.68	4013
922.789	3998
922.898	4044
923.007	4044
923.116	4124
923.224	4036
923.333	4086
923.442	4036
923.55	3994
923.659	4055
923.767	4101
923.876	3979
923.984	4063
924.092	3972
924.201	4017
924.309	4124
924.417	4147
924.525	4048
924.633	4093
924.741	5056
924.849	3899
924.956	4135
925.064	3998
925.172	3918
925.279	3937
925.387	4044
925.494	4093
925.602	4162
925.709	4192
925.816	4029
925.924	4112
926.031	4230
926.138	4188
926.245	4215
926.352	4093
926.459	4227
926.566	4291
926.673	4143
926.779	4093
926.886	4055
926.993	3945
927.099	3941
927.206	3907
927.312	3972
927.419	4086
927.525	4032
927.631	4124
927.737	3975
927.843	3960
927.95	3835
928.056	3968
928.162	3983
928.267	4063
928.373	4618
928.479	4112
928.585	3854
928.69	4055
928.796	4101
928.901	3949
929.007	3861
929.112	3972
929.218	3994
929.323	3968
929.428	3930
929.533	4147
929.638	3918
929.743	3953
929.848	4025
929.953	3994
930.058	3926
930.163	3766
930.267	3785
930.372	3934
930.477	3808
930.581	4029
930.685	3945
930.79	3804
930.894	3873
930.998	3857
931.103	4036
931.207	3694
931.311	3705
931.415	3663
931.519	3511
931.623	3538
