Data from test_V78500241_2537.txt Node
Date: Fri Mar 25 17:06:38 CST 2022
User: usil
Spectrometer: V785-0024
Trigger mode: 0
Integration Time (sec): 4.000000E-1
Scans to average: 1
Nonlinearity correction enabled: false
Boxcar width: 0
Storing dark spectrum: false
XAxis mode: Wavelengths
Number of Pixels in Spectrum: 1024
>>>>>Begin Spectral Data<<<<<
801.071	8084
801.214	8081
801.356	7849
801.499	7909
801.641	7830
801.783	7788
801.926	7947
802.068	7982
802.211	7989
802.353	8005
802.496	7868
802.638	7940
802.78	7894
802.923	7963
803.065	7894
803.208	7967
803.35	8001
803.492	8088
803.635	8248
803.777	8081
803.919	8187
804.061	8419
804.204	8229
804.346	8084
804.488	7940
804.63	8046
804.773	8084
804.915	8157
805.057	8347
805.199	8191
805.341	8221
805.483	8286
805.626	8229
805.768	8214
805.91	8248
806.052	8298
806.194	8157
806.336	8305
806.478	8058
806.62	8046
806.762	8065
806.904	8248
807.046	8541
807.188	8347
807.33	8332
807.472	8332
807.614	8199
807.756	8206
807.898	8035
808.04	7898
808.182	7906
808.324	7894
808.465	7970
808.607	8096
808.749	8210
808.891	8324
809.033	8366
809.174	8164
809.316	8123
809.458	8062
809.6	7982
809.741	8043
809.883	8062
810.025	8130
810.166	8100
810.308	8054
810.45	8073
810.591	7871
810.733	7727
810.875	7666
811.016	7563
811.158	7434
811.299	7647
811.441	7792
811.582	7776
811.724	7636
811.865	7521
812.007	7616
812.148	7609
812.29	7681
812.431	7746
812.573	7940
812.714	7947
812.855	8130
812.997	8202
813.138	8256
813.279	8161
813.421	8168
813.562	8016
813.703	7909
813.845	7731
813.986	7483
814.127	7301
814.268	7213
814.41	7274
814.551	7190
814.692	7289
814.833	7156
814.974	7141
815.115	7156
815.256	6996
815.397	6947
815.539	7008
815.68	6875
815.821	6852
815.962	6909
816.103	6844
816.244	6779
816.385	6627
816.526	6589
816.666	6490
816.807	6338
816.948	6433
817.089	6521
817.23	6456
817.371	6372
817.512	6399
817.653	6479
817.793	6384
817.934	6441
818.075	6528
818.216	6467
818.356	6445
818.497	6228
818.638	6125
818.778	6216
818.919	6178
819.06	6209
819.2	6403
819.341	6429
819.481	6445
819.622	6551
819.762	6837
819.903	6726
820.043	6681
820.184	6654
820.324	6601
820.465	6764
820.605	6692
820.746	6730
820.886	6506
821.026	6684
821.167	6715
821.307	6810
821.447	6825
821.588	6684
821.728	6608
821.868	6513
822.008	6395
822.149	6342
822.289	6384
822.429	6216
822.569	6076
822.709	6144
822.849	5996
822.99	5923
823.13	5965
823.27	5984
823.41	5813
823.55	5897
823.69	5775
823.83	5817
823.97	5676
824.11	5524
824.25	5543
824.389	5623
824.529	5649
824.669	5486
824.809	5657
824.949	5688
825.089	5642
825.228	5577
825.368	5429
825.508	5322
825.648	5334
825.787	5364
825.927	5379
826.067	5250
826.206	5349
826.346	5395
826.485	5376
826.625	5452
826.765	5532
826.904	5551
827.044	5254
827.183	5239
827.323	5174
827.462	5265
827.601	5181
827.741	5197
827.88	5204
828.02	5113
828.159	5254
828.298	5326
828.437	5379
828.577	5322
828.716	5516
828.855	5414
828.994	5201
829.134	5170
829.273	5201
829.412	5166
829.551	5147
829.69	5197
829.829	5318
829.968	5376
830.107	5299
830.246	5280
830.385	5201
830.524	5155
830.663	5143
830.802	5025
830.941	4949
831.08	4919
831.219	5006
831.357	4949
831.496	5174
831.635	4953
831.774	4850
831.913	4892
832.051	4717
832.19	4774
832.329	4870
832.467	4679
832.606	4672
832.744	4714
832.883	4748
833.022	4797
833.16	4793
833.299	4854
833.437	4843
833.576	4881
833.714	4904
833.852	4843
833.991	4957
834.129	4946
834.267	4972
834.406	4965
834.544	4995
834.682	5014
834.821	4987
834.959	5151
835.097	5086
835.235	5181
835.373	5143
835.511	5113
835.65	5086
835.788	5025
835.926	4904
836.064	4900
836.202	4953
836.34	5170
836.478	5254
836.615	5155
836.753	5261
836.891	5277
837.029	5284
837.167	5223
837.305	5208
837.443	5208
837.58	5132
837.718	5254
837.856	5242
837.993	5185
838.131	5269
838.269	5216
838.406	5185
838.544	5193
838.681	5071
838.819	5018
838.956	4919
839.094	4915
839.231	5003
839.369	5117
839.506	5436
839.643	5315
839.781	5105
839.918	5048
840.055	5098
840.193	5075
840.33	5147
840.467	5113
840.604	5181
840.742	5486
840.879	5105
841.016	5124
841.153	5159
841.29	5406
841.427	5326
841.564	5318
841.701	5402
841.838	5326
841.975	5258
842.112	5284
842.249	5128
842.385	5124
842.522	5345
842.659	5208
842.796	5132
842.933	5220
843.069	5208
843.206	5147
843.343	5296
843.479	5231
843.616	5288
843.752	5037
843.889	5003
844.025	5242
844.162	5102
844.298	5254
844.435	5117
844.571	5098
844.708	5208
844.844	5296
844.98	5296
845.117	5337
845.253	5201
845.389	5083
845.525	5193
845.661	5071
845.798	5064
845.934	5147
846.07	5060
846.206	5155
846.342	5292
846.478	5235
846.614	5052
846.75	5014
846.886	4976
847.022	5132
847.158	5075
847.294	5083
847.429	5098
847.565	5045
847.701	5330
847.837	4828
847.972	4862
848.108	4976
848.244	4930
848.379	4797
848.515	4759
848.65	4831
848.786	4755
848.921	4843
849.057	4889
849.192	4923
849.328	4847
849.463	4889
849.598	4809
849.734	4782
849.869	4717
850.004	4626
850.14	4649
850.275	4664
850.41	4485
850.545	4573
850.68	4611
850.815	4603
850.95	4649
851.085	4831
851.22	4679
851.355	4653
851.49	4622
851.625	4702
851.76	4641
851.895	4599
852.03	4554
852.165	4645
852.299	4736
852.434	4805
852.569	4797
852.703	4774
852.838	4843
852.973	4957
853.107	4949
853.242	4771
853.376	4687
853.511	4531
853.645	4622
853.78	4816
853.914	4698
854.048	4683
854.183	4653
854.317	4733
854.451	4889
854.585	4687
854.72	4622
854.854	4786
854.988	4611
855.122	4656
855.256	4489
855.39	4660
855.524	4763
855.658	4675
855.792	4664
855.926	4672
856.06	4752
856.194	4824
856.327	4660
856.461	4622
856.595	4645
856.729	4653
856.862	4778
856.996	4721
857.13	4717
857.263	4755
857.397	4778
857.53	4702
857.664	4714
857.797	4801
857.931	4774
858.064	4736
858.197	4729
858.331	4702
858.464	4634
858.597	4504
858.731	4679
858.864	4660
858.997	4637
859.13	4668
859.263	4664
859.396	4736
859.529	4577
859.662	4531
859.795	4535
859.928	4611
860.061	4771
860.194	4820
860.327	4668
860.46	4577
860.592	4729
860.725	4759
860.858	4752
860.99	4573
861.123	4538
861.256	4504
861.388	4573
861.521	5193
861.653	4485
861.786	4500
861.918	4497
862.05	4523
862.183	4558
862.315	4645
862.447	4656
862.58	4527
862.712	4413
862.844	4379
862.976	4466
863.108	4466
863.24	4774
863.372	4341
863.504	4440
863.636	4424
863.768	4481
863.9	4451
864.032	4413
864.164	4428
864.296	4481
864.428	4561
864.559	4584
864.691	4542
864.823	4565
864.954	4504
865.086	4531
865.217	4500
865.349	4409
865.48	4485
865.612	4466
865.743	4641
865.875	4485
866.006	4428
866.137	4508
866.269	4451
866.4	4451
866.531	4413
866.662	4440
866.793	4424
866.924	4413
867.055	4447
867.186	4443
867.317	4409
867.448	4379
867.579	4383
867.71	4443
867.841	4402
867.972	4451
868.103	4455
868.233	4440
868.364	4474
868.495	4500
868.625	4733
868.756	4763
868.886	4596
869.017	4687
869.147	4744
869.278	4824
869.408	4626
869.539	4637
869.669	4733
869.799	4634
869.929	4752
870.06	4748
870.19	4991
870.32	4938
870.45	4927
870.58	5041
870.71	5098
870.84	5064
870.97	4927
871.1	4984
871.23	5216
871.36	5193
871.489	5041
871.619	5029
871.749	5064
871.879	5147
872.008	5162
872.138	5056
872.267	4968
872.397	4847
872.526	4824
872.656	4778
872.785	4824
872.915	4949
873.044	5064
873.173	4965
873.303	4957
873.432	4919
873.561	4984
873.69	4892
873.819	4862
873.948	4889
874.077	4839
874.206	4790
874.335	4805
874.464	4942
874.593	5060
874.722	4965
874.851	5075
874.979	5094
875.108	5071
875.237	4889
875.365	4930
875.494	4900
875.623	5010
875.751	4862
875.88	4892
876.008	4972
876.136	5048
876.265	5178
876.393	5322
876.521	5242
876.65	5250
876.778	5174
876.906	5090
877.034	5029
877.162	5056
877.29	4984
877.418	5109
877.546	5071
877.674	5041
877.802	5037
877.93	5102
878.058	4968
878.185	4870
878.313	4961
878.441	4953
878.568	4790
878.696	4862
878.824	5056
878.951	5029
879.079	5113
879.206	5288
879.333	5102
879.461	4942
879.588	5052
879.715	5143
879.842	5277
879.97	5006
880.097	4778
880.224	4729
880.351	4824
880.478	4870
880.605	4786
880.732	4790
880.859	5083
880.986	4870
881.112	4904
881.239	4831
881.366	4656
881.493	4580
881.619	4618
881.746	4603
881.872	4626
881.999	4653
882.125	4721
882.252	4805
882.378	4858
882.505	4923
882.631	4820
882.757	4664
882.883	4691
883.01	4702
883.136	4664
883.262	4672
883.388	4649
883.514	4816
883.64	4820
883.766	4774
883.892	4714
884.018	4683
884.143	4968
884.269	4984
884.395	4645
884.52	4641
884.646	4653
884.772	4573
884.897	4542
885.023	4645
885.148	4790
885.274	4862
885.399	4831
885.524	4664
885.65	4710
885.775	4771
885.9	4714
886.025	4820
886.15	4782
886.275	4721
886.4	4630
886.525	4706
886.65	4679
886.775	4660
886.9	4908
887.025	5045
887.149	4797
887.274	4637
887.399	4558
887.523	4645
887.648	4580
887.773	4630
887.897	4755
888.021	4820
888.146	4691
888.27	4801
888.395	4885
888.519	4824
888.643	4828
888.767	4828
888.891	4702
889.015	4618
889.139	4656
889.263	4634
889.387	4729
889.511	4873
889.635	4748
889.759	4656
889.883	4656
890.006	4752
890.13	4835
890.254	4634
890.377	4683
890.501	4561
890.624	4519
890.748	4588
890.871	4538
890.995	4470
891.118	4436
891.241	4493
891.364	4519
891.488	4641
891.611	4500
891.734	4546
891.857	4599
891.98	4569
892.103	4622
892.226	4588
892.349	4538
892.471	4413
892.594	4561
892.717	4645
892.839	4558
892.962	4607
893.085	4672
893.207	4637
893.33	4432
893.452	4569
893.575	4679
893.697	4584
893.819	4805
893.941	4801
894.064	4763
894.186	4542
894.308	4596
894.43	4687
894.552	4816
894.674	4771
894.796	4542
894.918	4577
895.04	4558
895.161	4683
895.283	4736
895.405	4565
895.526	4649
895.648	4668
895.769	4714
895.891	4744
896.012	4740
896.134	4698
896.255	4710
896.376	4622
896.498	4607
896.619	4653
896.74	4588
896.861	4687
896.982	4911
897.103	5090
897.224	4843
897.345	4740
897.466	4683
897.587	4675
897.708	4854
897.828	4759
897.949	4687
898.07	4584
898.19	4641
898.311	4843
898.431	4694
898.552	4752
898.672	4809
898.792	4801
898.913	4767
899.033	4634
899.153	4500
899.273	4440
899.393	4493
899.513	4538
899.633	4558
899.753	4592
899.873	4474
899.993	4531
900.113	4596
900.232	4558
900.352	4535
900.472	4470
900.591	4466
900.711	4485
900.83	4405
900.95	4584
901.069	4691
901.189	4493
901.308	4360
901.427	4287
901.546	4398
901.665	4489
901.784	4493
901.904	4413
902.023	4356
902.141	4166
902.26	4177
902.379	4276
902.498	4265
902.617	4219
902.735	4310
902.854	4424
902.973	4318
903.091	4211
903.21	4215
903.328	4314
903.446	4234
903.565	4272
903.683	4325
903.801	4318
903.919	4390
904.038	4440
904.156	4329
904.274	4451
904.392	4405
904.51	4462
904.627	4485
904.745	4599
904.863	4618
904.981	4394
905.098	4299
905.216	4341
905.334	4440
905.451	4443
905.569	4455
905.686	4565
905.803	4580
905.921	4428
906.038	4573
906.155	4462
906.272	4386
906.389	4383
906.506	4348
906.623	4402
906.74	4413
906.857	4303
906.974	4432
907.091	4561
907.208	4706
907.324	4630
907.441	4527
907.557	4325
907.674	4303
907.79	4337
907.907	4394
908.023	4531
908.139	4504
908.256	4428
908.372	4489
908.488	4459
908.604	4314
908.72	4352
908.836	4375
908.952	4360
909.068	4455
909.184	4558
909.3	4481
909.415	4618
909.531	4535
909.647	4344
909.762	4379
909.878	4318
909.993	4436
910.108	4352
910.224	4367
910.339	4443
910.454	4352
910.57	4337
910.685	4265
910.8	4588
910.915	4611
911.03	4493
911.145	4344
911.259	4344
911.374	4356
911.489	4257
911.604	4249
911.718	4169
911.833	4188
911.947	4032
912.062	4067
912.176	4188
912.291	4276
912.405	4280
912.519	4474
912.633	4489
912.748	4379
912.862	4314
912.976	4219
913.09	4112
913.204	4188
913.318	4238
913.431	4344
913.545	4356
913.659	4398
913.772	4375
913.886	4230
914	4227
914.113	4383
914.226	4459
914.34	4390
914.453	4227
914.566	4413
914.68	4337
914.793	4295
914.906	4158
915.019	4116
915.132	4055
915.245	4200
915.358	4192
915.47	4204
915.583	4249
915.696	4299
915.809	4367
915.921	4417
916.034	4261
916.146	4219
916.259	4207
916.371	4383
916.483	4405
916.595	4246
916.708	4318
916.82	4310
916.932	4367
917.044	4333
917.156	4344
917.268	4261
917.38	4268
917.491	4219
917.603	4303
917.715	4424
917.826	4386
917.938	4348
918.049	4272
918.161	4424
918.272	4569
918.384	4512
918.495	4443
918.606	4337
918.717	4257
918.828	4284
918.939	4383
919.05	4223
919.161	4344
919.272	4116
919.383	4227
919.494	4455
919.604	4603
919.715	4455
919.826	4379
919.936	4413
920.047	4565
920.157	4546
920.267	4679
920.378	4542
920.488	4500
920.598	4698
920.708	4881
920.818	4767
920.928	4755
921.038	4934
921.148	4900
921.258	4653
921.368	4596
921.477	4436
921.587	4466
921.697	4379
921.806	4538
921.916	4455
922.025	4261
922.134	4272
922.244	4204
922.353	4287
922.462	4143
922.571	4147
922.68	4002
922.789	3960
922.898	4036
923.007	3975
923.116	4071
923.224	4048
923.333	4101
923.442	3994
923.55	3964
923.659	4036
923.767	4082
923.876	3964
923.984	4116
924.092	3972
924.201	4055
924.309	4086
924.417	4128
924.525	4044
924.633	4105
924.741	5064
924.849	3922
924.956	4124
925.064	3979
925.172	3888
925.279	3972
925.387	4071
925.494	4063
925.602	4181
925.709	4135
925.816	4025
925.924	4063
926.031	4211
926.138	4158
926.245	4185
926.352	4105
926.459	4246
926.566	4303
926.673	4139
926.779	4055
926.886	4067
926.993	3987
927.099	3991
927.206	3888
927.312	3934
927.419	4074
927.525	3994
927.631	4093
927.737	3956
927.843	3896
927.95	3827
928.056	3968
928.162	3975
928.267	4090
928.373	4596
928.479	4120
928.585	3911
928.69	3987
928.796	4055
928.901	3915
929.007	3876
929.112	3998
929.218	3960
929.323	3964
929.428	3922
929.533	4090
929.638	3880
929.743	3975
929.848	4063
929.953	3998
930.058	3941
930.163	3797
930.267	3812
930.372	3968
930.477	3789
930.581	4109
930.685	3949
930.79	3827
930.894	3896
930.998	3838
931.103	3987
931.207	3694
931.311	3694
931.415	3667
931.519	3492
931.623	3530
