Data from test_V78500241_620.txt Node
Date: Fri Mar 25 16:53:18 CST 2022
User: usil
Spectrometer: V785-0024
Trigger mode: 0
Integration Time (sec): 4.000000E-1
Scans to average: 1
Nonlinearity correction enabled: false
Boxcar width: 0
Storing dark spectrum: false
XAxis mode: Wavelengths
Number of Pixels in Spectrum: 1024
>>>>>Begin Spectral Data<<<<<
801.071	8092
801.214	8016
801.356	7799
801.499	7879
801.641	7788
801.783	7807
801.926	7974
802.068	8020
802.211	7967
802.353	8062
802.496	7890
802.638	7913
802.78	7913
802.923	7921
803.065	7769
803.208	7837
803.35	7947
803.492	8027
803.635	8172
803.777	7978
803.919	8046
804.061	8408
804.204	8191
804.346	8027
804.488	7936
804.63	8031
804.773	8008
804.915	8088
805.057	8279
805.199	8081
805.341	8290
805.483	8294
805.626	8214
805.768	8100
805.91	8210
806.052	8180
806.194	8073
806.336	8358
806.478	8081
806.62	8103
806.762	8172
806.904	8244
807.046	8461
807.188	8419
807.33	8309
807.472	8259
807.614	8214
807.756	8153
807.898	7951
808.04	7822
808.182	7887
808.324	7917
808.465	7898
808.607	8020
808.749	8103
808.891	8161
809.033	8259
809.174	8103
809.316	8016
809.458	8039
809.6	8035
809.741	7993
809.883	8001
810.025	8096
810.166	8024
810.308	7997
810.45	8035
810.591	7868
810.733	7715
810.875	7715
811.016	7567
811.158	7582
811.299	7552
811.441	7696
811.582	7643
811.724	7594
811.865	7567
812.007	7597
812.148	7582
812.29	7628
812.431	7731
812.573	7837
812.714	8046
812.855	8111
812.997	8218
813.138	8313
813.279	8233
813.421	8153
813.562	8008
813.703	7909
813.845	7769
813.986	7540
814.127	7381
814.268	7312
814.41	7217
814.551	7107
814.692	7122
814.833	7008
814.974	7034
815.115	7099
815.256	6939
815.397	6871
815.539	6973
815.68	6837
815.821	6810
815.962	6867
816.103	6867
816.244	6707
816.385	6582
816.526	6551
816.666	6544
816.807	6350
816.948	6437
817.089	6452
817.23	6376
817.371	6403
817.512	6315
817.653	6410
817.793	6399
817.934	6475
818.075	6433
818.216	6399
818.356	6399
818.497	6292
818.638	6117
818.778	6152
818.919	6155
819.06	6175
819.2	6323
819.341	6296
819.481	6372
819.622	6441
819.762	6707
819.903	6715
820.043	6612
820.184	6525
820.324	6536
820.465	6658
820.605	6642
820.746	6654
820.886	6437
821.026	6662
821.167	6681
821.307	6764
821.447	6722
821.588	6616
821.728	6601
821.868	6475
822.008	6270
822.149	6289
822.289	6327
822.429	6110
822.569	6083
822.709	6144
822.849	5893
822.99	5866
823.13	5904
823.27	5950
823.41	5779
823.55	5775
823.69	5760
823.83	5737
823.97	5638
824.11	5554
824.25	5482
824.389	5566
824.529	5528
824.669	5459
824.809	5608
824.949	5638
825.089	5585
825.228	5509
825.368	5357
825.508	5296
825.648	5345
825.787	5353
825.927	5410
826.067	5299
826.206	5269
826.346	5376
826.485	5391
826.625	5391
826.765	5532
826.904	5417
827.044	5239
827.183	5197
827.323	5098
827.462	5189
827.601	5136
827.741	5170
827.88	5185
828.02	5079
828.159	5250
828.298	5292
828.437	5334
828.577	5280
828.716	5474
828.855	5284
828.994	5170
829.134	5140
829.273	5193
829.412	5159
829.551	5109
829.69	5208
829.829	5246
829.968	5296
830.107	5170
830.246	5239
830.385	5147
830.524	5105
830.663	5067
830.802	4991
830.941	4866
831.08	4862
831.219	4961
831.357	4946
831.496	5151
831.635	4942
831.774	4809
831.913	4790
832.051	4729
832.19	4736
832.329	4847
832.467	4664
832.606	4649
832.744	4706
832.883	4675
833.022	4717
833.16	4782
833.299	4771
833.437	4786
833.576	4828
833.714	4771
833.852	4866
833.991	4862
834.129	4953
834.267	4957
834.406	4866
834.544	4953
834.682	4980
834.821	4923
834.959	5143
835.097	4949
835.235	5147
835.373	5041
835.511	5098
835.65	5037
835.788	5014
835.926	4858
836.064	4881
836.202	4915
836.34	5147
836.478	5204
836.615	5086
836.753	5193
836.891	5242
837.029	5212
837.167	5155
837.305	5132
837.443	5201
837.58	5033
837.718	5197
837.856	5189
837.993	5185
838.131	5223
838.269	5220
838.406	5220
838.544	5216
838.681	5003
838.819	5025
838.956	4923
839.094	4915
839.231	4946
839.369	5071
839.506	5421
839.643	5254
839.781	5079
839.918	5022
840.055	5147
840.193	5151
840.33	5109
840.467	5083
840.604	5193
840.742	5493
840.879	5102
841.016	5079
841.153	5124
841.29	5364
841.427	5357
841.564	5315
841.701	5318
841.838	5277
841.975	5212
842.112	5269
842.249	5155
842.385	5094
842.522	5299
842.659	5113
842.796	5162
842.933	5193
843.069	5155
843.206	5151
843.343	5299
843.479	5231
843.616	5303
843.752	5022
843.889	5010
844.025	5201
844.162	5056
844.298	5208
844.435	5033
844.571	5006
844.708	5151
844.844	5296
844.98	5334
845.117	5239
845.253	5136
845.389	5064
845.525	5128
845.661	5147
845.798	5060
845.934	5174
846.07	5052
846.206	5159
846.342	5246
846.478	5174
846.614	5003
846.75	4965
846.886	4934
847.022	5102
847.158	5022
847.294	5060
847.429	5155
847.565	5003
847.701	5307
847.837	4847
847.972	4801
848.108	4927
848.244	4900
848.379	4774
848.515	4717
848.65	4752
848.786	4733
848.921	4759
849.057	4873
849.192	4862
849.328	4771
849.463	4847
849.598	4858
849.734	4733
849.869	4668
850.004	4641
850.14	4645
850.275	4611
850.41	4508
850.545	4565
850.68	4641
850.815	4630
850.95	4615
851.085	4835
851.22	4725
851.355	4691
851.49	4584
851.625	4622
851.76	4592
851.895	4565
852.03	4516
852.165	4637
852.299	4729
852.434	4748
852.569	4717
852.703	4744
852.838	4831
852.973	4900
853.107	4911
853.242	4691
853.376	4672
853.511	4508
853.645	4603
853.78	4812
853.914	4679
854.048	4675
854.183	4607
854.317	4710
854.451	4866
854.585	4683
854.72	4622
854.854	4778
854.988	4611
855.122	4603
855.256	4523
855.39	4649
855.524	4820
855.658	4736
855.792	4714
855.926	4710
856.06	4767
856.194	4809
856.327	4691
856.461	4584
856.595	4630
856.729	4641
856.862	4755
856.996	4668
857.13	4710
857.263	4706
857.397	4831
857.53	4660
857.664	4714
857.797	4771
857.931	4801
858.064	4672
858.197	4763
858.331	4683
858.464	4592
858.597	4535
858.731	4615
858.864	4599
858.997	4622
859.13	4626
859.263	4668
859.396	4721
859.529	4558
859.662	4558
859.795	4535
859.928	4596
860.061	4721
860.194	4752
860.327	4580
860.46	4538
860.592	4683
860.725	4733
860.858	4740
860.99	4538
861.123	4504
861.256	4538
861.388	4615
861.521	5311
861.653	4489
861.786	4466
861.918	4451
862.05	4512
862.183	4542
862.315	4592
862.447	4653
862.58	4569
862.712	4386
862.844	4299
862.976	4519
863.108	4436
863.24	4915
863.372	4337
863.504	4402
863.636	4436
863.768	4485
863.9	4417
864.032	4367
864.164	4394
864.296	4493
864.428	4516
864.559	4573
864.691	4512
864.823	4516
864.954	4504
865.086	4512
865.217	4489
865.349	4398
865.48	4470
865.612	4512
865.743	4634
865.875	4493
866.006	4402
866.137	4474
866.269	4436
866.4	4405
866.531	4424
866.662	4383
866.793	4367
866.924	4409
867.055	4531
867.186	4523
867.317	4409
867.448	4405
867.579	4390
867.71	4405
867.841	4386
867.972	4432
868.103	4436
868.233	4493
868.364	4459
868.495	4497
868.625	4702
868.756	4812
868.886	4561
869.017	4653
869.147	4744
869.278	4710
869.408	4622
869.539	4622
869.669	4702
869.799	4668
869.929	4759
870.06	4725
870.19	4999
870.32	4889
870.45	4953
870.58	4999
870.71	5067
870.84	5083
870.97	4908
871.1	4938
871.23	5094
871.36	5113
871.489	4999
871.619	5041
871.749	5140
871.879	5162
872.008	5204
872.138	5014
872.267	4938
872.397	4793
872.526	4820
872.656	4698
872.785	4824
872.915	4953
873.044	5071
873.173	4942
873.303	4980
873.432	4908
873.561	4942
873.69	4885
873.819	4847
873.948	4946
874.077	4820
874.206	4786
874.335	4816
874.464	4930
874.593	5037
874.722	4946
874.851	5113
874.979	5018
875.108	4999
875.237	4908
875.365	4896
875.494	4908
875.623	5033
875.751	4805
875.88	4870
876.008	4980
876.136	5029
876.265	5174
876.393	5357
876.521	5208
876.65	5227
876.778	5128
876.906	5067
877.034	5060
877.162	4976
877.29	4896
877.418	5048
877.546	5052
877.674	5041
877.802	5041
877.93	4991
878.058	4961
878.185	4847
878.313	4957
878.441	4934
878.568	4790
878.696	4850
878.824	4938
878.951	4987
879.079	5117
879.206	5220
879.333	5094
879.461	5010
879.588	5010
879.715	5166
879.842	5208
879.97	5025
880.097	4778
880.224	4733
880.351	4850
880.478	4805
880.605	4801
880.732	4755
880.859	5109
880.986	4892
881.112	4927
881.239	4786
881.366	4626
881.493	4615
881.619	4596
881.746	4618
881.872	4653
881.999	4634
882.125	4694
882.252	4805
882.378	4790
882.505	4984
882.631	4812
882.757	4683
882.883	4725
883.01	4733
883.136	4656
883.262	4615
883.388	4603
883.514	4801
883.64	4881
883.766	4809
883.892	4687
884.018	4691
884.143	4892
884.269	4995
884.395	4683
884.52	4615
884.646	4607
884.772	4573
884.897	4645
885.023	4660
885.148	4748
885.274	4873
885.399	4767
885.524	4702
885.65	4729
885.775	4710
885.9	4668
886.025	4839
886.15	4801
886.275	4748
886.4	4645
886.525	4710
886.65	4687
886.775	4649
886.9	4873
887.025	5060
887.149	4790
887.274	4630
887.399	4588
887.523	4630
887.648	4546
887.773	4558
887.897	4733
888.021	4744
888.146	4683
888.27	4816
888.395	4930
888.519	4786
888.643	4786
888.767	4862
888.891	4675
889.015	4611
889.139	4675
889.263	4588
889.387	4767
889.511	4862
889.635	4797
889.759	4618
889.883	4634
890.006	4714
890.13	4831
890.254	4599
890.377	4710
890.501	4561
890.624	4527
890.748	4599
890.871	4462
890.995	4424
891.118	4451
891.241	4489
891.364	4538
891.488	4611
891.611	4508
891.734	4542
891.857	4607
891.98	4481
892.103	4645
892.226	4615
892.349	4508
892.471	4447
892.594	4546
892.717	4599
892.839	4531
892.962	4634
893.085	4645
893.207	4588
893.33	4462
893.452	4519
893.575	4649
893.697	4580
893.819	4809
893.941	4824
894.064	4736
894.186	4596
894.308	4584
894.43	4744
894.552	4786
894.674	4725
894.796	4535
894.918	4588
895.04	4558
895.161	4653
895.283	4645
895.405	4558
895.526	4672
895.648	4637
895.769	4660
895.891	4725
896.012	4729
896.134	4717
896.255	4721
896.376	4622
896.498	4596
896.619	4649
896.74	4546
896.861	4653
896.982	4904
897.103	5060
897.224	4828
897.345	4710
897.466	4618
897.587	4744
897.708	4881
897.828	4774
897.949	4637
898.07	4561
898.19	4672
898.311	4790
898.431	4668
898.552	4698
898.672	4847
898.792	4831
898.913	4683
899.033	4607
899.153	4500
899.273	4394
899.393	4504
899.513	4516
899.633	4554
899.753	4584
899.873	4489
899.993	4580
900.113	4512
900.232	4554
900.352	4554
900.472	4504
900.591	4413
900.711	4512
900.83	4481
900.95	4607
901.069	4706
901.189	4561
901.308	4405
901.427	4314
901.546	4432
901.665	4470
901.784	4519
901.904	4470
902.023	4344
902.141	4219
902.26	4192
902.379	4348
902.498	4242
902.617	4242
902.735	4413
902.854	4413
902.973	4383
903.091	4211
903.21	4238
903.328	4360
903.446	4329
903.565	4299
903.683	4360
903.801	4306
903.919	4428
904.038	4481
904.156	4322
904.274	4504
904.392	4481
904.51	4428
904.627	4535
904.745	4634
904.863	4679
904.981	4440
905.098	4363
905.216	4466
905.334	4478
905.451	4462
905.569	4478
905.686	4599
905.803	4584
905.921	4436
906.038	4542
906.155	4535
906.272	4459
906.389	4508
906.506	4379
906.623	4421
906.74	4424
906.857	4329
906.974	4405
907.091	4618
907.208	4714
907.324	4615
907.441	4527
907.557	4402
907.674	4394
907.79	4314
907.907	4481
908.023	4550
908.139	4535
908.256	4466
908.372	4481
908.488	4489
908.604	4394
908.72	4371
908.836	4432
908.952	4413
909.068	4428
909.184	4645
909.3	4535
909.415	4607
909.531	4599
909.647	4413
909.762	4363
909.878	4402
909.993	4497
910.108	4462
910.224	4440
910.339	4497
910.454	4436
910.57	4367
910.685	4341
910.8	4698
910.915	4611
911.03	4504
911.145	4337
911.259	4348
911.374	4455
911.489	4337
911.604	4306
911.718	4223
911.833	4242
911.947	4135
912.062	4044
912.176	4219
912.291	4295
912.405	4291
912.519	4531
912.633	4542
912.748	4421
912.862	4371
912.976	4238
913.09	4112
913.204	4204
913.318	4280
913.431	4413
913.545	4402
913.659	4519
913.772	4417
913.886	4276
914	4314
914.113	4405
914.226	4436
914.34	4424
914.453	4257
914.566	4462
914.68	4306
914.793	4352
914.906	4150
915.019	4154
915.132	4124
915.245	4215
915.358	4227
915.47	4280
915.583	4299
915.696	4322
915.809	4455
915.921	4459
916.034	4223
916.146	4257
916.259	4253
916.371	4451
916.483	4398
916.595	4325
916.708	4325
916.82	4375
916.932	4344
917.044	4363
917.156	4348
917.268	4280
917.38	4344
917.491	4344
917.603	4405
917.715	4417
917.826	4497
917.938	4402
918.049	4295
918.161	4497
918.272	4546
918.384	4577
918.495	4489
918.606	4314
918.717	4227
918.828	4383
918.939	4363
919.05	4280
919.161	4367
919.272	4169
919.383	4272
919.494	4485
919.604	4664
919.715	4440
919.826	4424
919.936	4394
920.047	4519
920.157	4508
920.267	4778
920.378	4535
920.488	4462
920.598	4740
920.708	4881
920.818	4786
920.928	4828
921.038	4923
921.148	4930
921.258	4653
921.368	4603
921.477	4531
921.587	4497
921.697	4405
921.806	4580
921.916	4459
922.025	4322
922.134	4348
922.244	4268
922.353	4428
922.462	4230
922.571	4181
922.68	4029
922.789	4048
922.898	4071
923.007	4055
923.116	4131
923.224	4120
923.333	4124
923.442	4032
923.55	4044
923.659	4063
923.767	4120
923.876	4067
923.984	4185
924.092	3991
924.201	4082
924.309	4135
924.417	4158
924.525	4112
924.633	4188
924.741	5090
924.849	3972
924.956	4150
925.064	4006
925.172	3918
925.279	3983
925.387	4074
925.494	4059
925.602	4287
925.709	4185
925.816	4078
925.924	4181
926.031	4268
926.138	4200
926.245	4234
926.352	4131
926.459	4287
926.566	4333
926.673	4200
926.779	4078
926.886	4116
926.993	3994
927.099	3945
927.206	3953
927.312	3975
927.419	4135
927.525	4055
927.631	4120
927.737	3991
927.843	3987
927.95	3846
928.056	3945
928.162	4006
928.267	4093
928.373	4774
928.479	4109
928.585	3896
928.69	4055
928.796	4090
928.901	4006
929.007	3873
929.112	4071
929.218	3998
929.323	3983
929.428	3949
929.533	4204
929.638	3960
929.743	3994
929.848	4101
929.953	4040
930.058	3926
930.163	3808
930.267	3850
930.372	3991
930.477	3857
930.581	4150
930.685	3994
930.79	3850
930.894	3892
930.998	3926
931.103	4051
931.207	3713
931.311	3705
931.415	3705
931.519	3530
931.623	3568
