Data from test_V78500241_2327.txt Node
Date: Fri Mar 25 17:05:10 CST 2022
User: usil
Spectrometer: V785-0024
Trigger mode: 0
Integration Time (sec): 4.000000E-1
Scans to average: 1
Nonlinearity correction enabled: false
Boxcar width: 0
Storing dark spectrum: false
XAxis mode: Wavelengths
Number of Pixels in Spectrum: 1024
>>>>>Begin Spectral Data<<<<<
801.071	8088
801.214	8111
801.356	7875
801.499	7898
801.641	7772
801.783	7921
801.926	7970
802.068	7967
802.211	8005
802.353	8031
802.496	7871
802.638	7849
802.78	7944
802.923	7951
803.065	7898
803.208	7826
803.35	7928
803.492	8103
803.635	8168
803.777	8062
803.919	8142
804.061	8473
804.204	8183
804.346	8062
804.488	7974
804.63	8130
804.773	8096
804.915	8126
805.057	8343
805.199	8237
805.341	8240
805.483	8240
805.626	8301
805.768	8142
805.91	8153
806.052	8199
806.194	8123
806.336	8324
806.478	8077
806.62	8016
806.762	8123
806.904	8279
807.046	8480
807.188	8339
807.33	8362
807.472	8400
807.614	8237
807.756	8202
807.898	8035
808.04	8005
808.182	7928
808.324	7921
808.465	7967
808.607	8081
808.749	8130
808.891	8172
809.033	8313
809.174	8191
809.316	8077
809.458	8065
809.6	8050
809.741	8092
809.883	8084
810.025	8138
810.166	8065
810.308	8039
810.45	8027
810.591	7879
810.733	7784
810.875	7658
811.016	7521
811.158	7487
811.299	7578
811.441	7738
811.582	7677
811.724	7628
811.865	7567
812.007	7651
812.148	7670
812.29	7651
812.431	7776
812.573	7868
812.714	7974
812.855	8157
812.997	8176
813.138	8294
813.279	8199
813.421	8065
813.562	7932
813.703	7830
813.845	7784
813.986	7449
814.127	7274
814.268	7232
814.41	7228
814.551	7221
814.692	7202
814.833	7084
814.974	7164
815.115	7171
815.256	6977
815.397	6909
815.539	6935
815.68	6783
815.821	6795
815.962	6878
816.103	6882
816.244	6707
816.385	6639
816.526	6578
816.666	6563
816.807	6319
816.948	6422
817.089	6433
817.23	6502
817.371	6414
817.512	6414
817.653	6384
817.793	6376
817.934	6460
818.075	6513
818.216	6407
818.356	6407
818.497	6273
818.638	6159
818.778	6216
818.919	6155
819.06	6194
819.2	6372
819.341	6357
819.481	6395
819.622	6589
819.762	6753
819.903	6700
820.043	6639
820.184	6623
820.324	6642
820.465	6791
820.605	6681
820.746	6757
820.886	6551
821.026	6658
821.167	6749
821.307	6814
821.447	6821
821.588	6726
821.728	6627
821.868	6574
822.008	6327
822.149	6350
822.289	6388
822.429	6159
822.569	6098
822.709	6148
822.849	5920
822.99	5927
823.13	5965
823.27	5908
823.41	5844
823.55	5786
823.69	5783
823.83	5840
823.97	5760
824.11	5623
824.25	5490
824.389	5543
824.529	5627
824.669	5539
824.809	5657
824.949	5634
825.089	5665
825.228	5589
825.368	5436
825.508	5360
825.648	5402
825.787	5387
825.927	5406
826.067	5337
826.206	5280
826.346	5391
826.485	5421
826.625	5395
826.765	5566
826.904	5528
827.044	5280
827.183	5223
827.323	5147
827.462	5235
827.601	5159
827.741	5242
827.88	5258
828.02	5105
828.159	5220
828.298	5318
828.437	5360
828.577	5311
828.716	5528
828.855	5379
828.994	5178
829.134	5071
829.273	5185
829.412	5128
829.551	5124
829.69	5155
829.829	5212
829.968	5376
830.107	5280
830.246	5277
830.385	5174
830.524	5162
830.663	5037
830.802	5014
830.941	4915
831.08	4858
831.219	5006
831.357	5006
831.496	5155
831.635	4961
831.774	4835
831.913	4892
832.051	4736
832.19	4801
832.329	4900
832.467	4729
832.606	4615
832.744	4733
832.883	4687
833.022	4763
833.16	4797
833.299	4870
833.437	4843
833.576	4835
833.714	4831
833.852	4847
833.991	4877
834.129	4968
834.267	4984
834.406	4908
834.544	5006
834.682	4980
834.821	4980
834.959	5220
835.097	5014
835.235	5170
835.373	5121
835.511	5147
835.65	5029
835.788	5041
835.926	4927
836.064	4847
836.202	4953
836.34	5147
836.478	5250
836.615	5140
836.753	5174
836.891	5326
837.029	5250
837.167	5197
837.305	5178
837.443	5151
837.58	5109
837.718	5220
837.856	5132
837.993	5151
838.131	5254
838.269	5246
838.406	5235
838.544	5231
838.681	5033
838.819	4991
838.956	4946
839.094	4938
839.231	4976
839.369	5090
839.506	5463
839.643	5277
839.781	5102
839.918	4991
840.055	5151
840.193	5132
840.33	5155
840.467	5140
840.604	5193
840.742	5395
840.879	5079
841.016	5086
841.153	5086
841.29	5372
841.427	5330
841.564	5376
841.701	5387
841.838	5258
841.975	5239
842.112	5261
842.249	5151
842.385	5102
842.522	5334
842.659	5170
842.796	5155
842.933	5280
843.069	5178
843.206	5223
843.343	5326
843.479	5223
843.616	5296
843.752	5075
843.889	5025
844.025	5239
844.162	5045
844.298	5250
844.435	5086
844.571	5117
844.708	5246
844.844	5258
844.98	5296
845.117	5307
845.253	5128
845.389	5098
845.525	5189
845.661	5132
845.798	5109
845.934	5174
846.07	5041
846.206	5231
846.342	5265
846.478	5208
846.614	5025
846.75	4991
846.886	4968
847.022	5155
847.158	5014
847.294	5079
847.429	5105
847.565	5033
847.701	5303
847.837	4862
847.972	4835
848.108	4965
848.244	4991
848.379	4793
848.515	4778
848.65	4736
848.786	4774
848.921	4763
849.057	4850
849.192	4892
849.328	4843
849.463	4854
849.598	4828
849.734	4801
849.869	4679
850.004	4622
850.14	4649
850.275	4675
850.41	4538
850.545	4588
850.68	4626
850.815	4626
850.95	4675
851.085	4812
851.22	4733
851.355	4694
851.49	4641
851.625	4660
851.76	4577
851.895	4550
852.03	4500
852.165	4668
852.299	4748
852.434	4801
852.569	4736
852.703	4782
852.838	4881
852.973	4938
853.107	4927
853.242	4729
853.376	4691
853.511	4588
853.645	4622
853.78	4759
853.914	4664
854.048	4763
854.183	4615
854.317	4721
854.451	4839
854.585	4660
854.72	4694
854.854	4774
854.988	4573
855.122	4679
855.256	4504
855.39	4687
855.524	4801
855.658	4698
855.792	4687
855.926	4694
856.06	4767
856.194	4714
856.327	4664
856.461	4649
856.595	4630
856.729	4645
856.862	4759
856.996	4660
857.13	4729
857.263	4790
857.397	4805
857.53	4626
857.664	4687
857.797	4717
857.931	4771
858.064	4725
858.197	4717
858.331	4664
858.464	4618
858.597	4527
858.731	4634
858.864	4660
858.997	4630
859.13	4664
859.263	4656
859.396	4687
859.529	4603
859.662	4588
859.795	4538
859.928	4675
860.061	4740
860.194	4782
860.327	4546
860.46	4573
860.592	4763
860.725	4714
860.858	4714
860.99	4630
861.123	4516
861.256	4542
861.388	4634
861.521	5364
861.653	4436
861.786	4455
861.918	4436
862.05	4497
862.183	4554
862.315	4603
862.447	4683
862.58	4569
862.712	4405
862.844	4322
862.976	4504
863.108	4428
863.24	4847
863.372	4344
863.504	4424
863.636	4432
863.768	4470
863.9	4413
864.032	4363
864.164	4375
864.296	4497
864.428	4516
864.559	4607
864.691	4504
864.823	4561
864.954	4466
865.086	4493
865.217	4462
865.349	4440
865.48	4447
865.612	4447
865.743	4653
865.875	4546
866.006	4413
866.137	4462
866.269	4493
866.4	4459
866.531	4421
866.662	4424
866.793	4443
866.924	4443
867.055	4500
867.186	4443
867.317	4421
867.448	4344
867.579	4405
867.71	4398
867.841	4352
867.972	4478
868.103	4489
868.233	4424
868.364	4405
868.495	4512
868.625	4622
868.756	4759
868.886	4569
869.017	4569
869.147	4786
869.278	4759
869.408	4656
869.539	4611
869.669	4755
869.799	4683
869.929	4744
870.06	4793
870.19	4934
870.32	4911
870.45	4923
870.58	4965
870.71	5117
870.84	5128
870.97	4900
871.1	4904
871.23	5124
871.36	5102
871.489	5037
871.619	5075
871.749	5025
871.879	5086
872.008	5178
872.138	5094
872.267	4934
872.397	4892
872.526	4790
872.656	4656
872.785	4797
872.915	4938
873.044	5045
873.173	4915
873.303	4949
873.432	4923
873.561	4942
873.69	4885
873.819	4843
873.948	4919
874.077	4774
874.206	4752
874.335	4812
874.464	4953
874.593	5045
874.722	4953
874.851	5113
874.979	5067
875.108	5018
875.237	4923
875.365	4870
875.494	4900
875.623	4946
875.751	4816
875.88	4892
876.008	5014
876.136	4980
876.265	5208
876.393	5353
876.521	5231
876.65	5227
876.778	5140
876.906	5071
877.034	5006
877.162	5060
877.29	4995
877.418	5041
877.546	5048
877.674	5090
877.802	4991
877.93	5018
878.058	4915
878.185	4881
878.313	4957
878.441	4908
878.568	4812
878.696	4919
878.824	4957
878.951	5006
879.079	5102
879.206	5311
879.333	5105
879.461	4999
879.588	5003
879.715	5178
879.842	5227
879.97	5014
880.097	4797
880.224	4725
880.351	4759
880.478	4786
880.605	4801
880.732	4816
880.859	5056
880.986	4885
881.112	4911
881.239	4767
881.366	4694
881.493	4603
881.619	4573
881.746	4660
881.872	4637
881.999	4626
882.125	4656
882.252	4767
882.378	4824
882.505	4961
882.631	4790
882.757	4687
882.883	4694
883.01	4752
883.136	4683
883.262	4558
883.388	4645
883.514	4812
883.64	4858
883.766	4824
883.892	4698
884.018	4691
884.143	4896
884.269	4995
884.395	4710
884.52	4603
884.646	4653
884.772	4599
884.897	4535
885.023	4641
885.148	4706
885.274	4908
885.399	4835
885.524	4721
885.65	4656
885.775	4725
885.9	4660
886.025	4847
886.15	4774
886.275	4698
886.4	4618
886.525	4771
886.65	4725
886.775	4672
886.9	4908
887.025	5033
887.149	4801
887.274	4668
887.399	4596
887.523	4516
887.648	4573
887.773	4554
887.897	4767
888.021	4778
888.146	4664
888.27	4778
888.395	4877
888.519	4816
888.643	4835
888.767	4805
888.891	4653
889.015	4607
889.139	4660
889.263	4561
889.387	4744
889.511	4911
889.635	4801
889.759	4588
889.883	4668
890.006	4710
890.13	4801
890.254	4653
890.377	4672
890.501	4519
890.624	4512
890.748	4668
890.871	4504
890.995	4440
891.118	4402
891.241	4561
891.364	4542
891.488	4588
891.611	4497
891.734	4542
891.857	4580
891.98	4478
892.103	4664
892.226	4596
892.349	4489
892.471	4432
892.594	4508
892.717	4584
892.839	4569
892.962	4588
893.085	4679
893.207	4588
893.33	4443
893.452	4500
893.575	4679
893.697	4573
893.819	4812
893.941	4820
894.064	4725
894.186	4592
894.308	4603
894.43	4698
894.552	4843
894.674	4748
894.796	4550
894.918	4622
895.04	4538
895.161	4691
895.283	4717
895.405	4588
895.526	4577
895.648	4656
895.769	4733
895.891	4698
896.012	4748
896.134	4706
896.255	4687
896.376	4649
896.498	4615
896.619	4668
896.74	4599
896.861	4630
896.982	4946
897.103	5025
897.224	4835
897.345	4801
897.466	4618
897.587	4721
897.708	4850
897.828	4733
897.949	4645
898.07	4580
898.19	4653
898.311	4801
898.431	4683
898.552	4702
898.672	4809
898.792	4835
898.913	4740
899.033	4645
899.153	4569
899.273	4383
899.393	4474
899.513	4485
899.633	4462
899.753	4561
899.873	4516
899.993	4573
900.113	4565
900.232	4622
900.352	4565
900.472	4455
900.591	4383
900.711	4504
900.83	4413
900.95	4622
901.069	4664
901.189	4527
901.308	4390
901.427	4314
901.546	4363
901.665	4481
901.784	4535
901.904	4390
902.023	4333
902.141	4196
902.26	4147
902.379	4314
902.498	4276
902.617	4204
902.735	4341
902.854	4390
902.973	4356
903.091	4204
903.21	4238
903.328	4303
903.446	4295
903.565	4310
903.683	4341
903.801	4280
903.919	4402
904.038	4440
904.156	4318
904.274	4459
904.392	4417
904.51	4356
904.627	4409
904.745	4573
904.863	4634
904.981	4394
905.098	4295
905.216	4363
905.334	4409
905.451	4413
905.569	4451
905.686	4554
905.803	4550
905.921	4390
906.038	4565
906.155	4462
906.272	4363
906.389	4455
906.506	4390
906.623	4360
906.74	4417
906.857	4306
906.974	4367
907.091	4531
907.208	4687
907.324	4504
907.441	4523
907.557	4360
907.674	4310
907.79	4314
907.907	4337
908.023	4504
908.139	4443
908.256	4508
908.372	4512
908.488	4451
908.604	4363
908.72	4352
908.836	4363
908.952	4375
909.068	4371
909.184	4569
909.3	4512
909.415	4546
909.531	4569
909.647	4390
909.762	4360
909.878	4405
909.993	4428
910.108	4398
910.224	4440
910.339	4535
910.454	4356
910.57	4405
910.685	4333
910.8	4618
910.915	4599
911.03	4481
911.145	4310
911.259	4318
911.374	4379
911.489	4310
911.604	4318
911.718	4185
911.833	4177
911.947	4109
912.062	4090
912.176	4185
912.291	4219
912.405	4249
912.519	4470
912.633	4512
912.748	4356
912.862	4318
912.976	4215
913.09	4074
913.204	4169
913.318	4238
913.431	4379
913.545	4405
913.659	4432
913.772	4333
913.886	4268
914	4242
914.113	4371
914.226	4428
914.34	4379
914.453	4215
914.566	4421
914.68	4314
914.793	4306
914.906	4166
915.019	4139
915.132	4078
915.245	4192
915.358	4196
915.47	4227
915.583	4291
915.696	4249
915.809	4394
915.921	4394
916.034	4215
916.146	4223
916.259	4249
916.371	4356
916.483	4371
916.595	4272
916.708	4314
916.82	4318
916.932	4314
917.044	4295
917.156	4333
917.268	4280
917.38	4287
917.491	4257
917.603	4375
917.715	4459
917.826	4443
917.938	4341
918.049	4230
918.161	4402
918.272	4508
918.384	4516
918.495	4462
918.606	4287
918.717	4246
918.828	4325
918.939	4337
919.05	4265
919.161	4325
919.272	4120
919.383	4238
919.494	4455
919.604	4637
919.715	4443
919.826	4383
919.936	4390
920.047	4466
920.157	4478
920.267	4660
920.378	4554
920.488	4485
920.598	4706
920.708	4850
920.818	4691
920.928	4759
921.038	4896
921.148	4881
921.258	4607
921.368	4550
921.477	4470
921.587	4428
921.697	4390
921.806	4500
921.916	4424
922.025	4310
922.134	4249
922.244	4227
922.353	4344
922.462	4173
922.571	4158
922.68	4017
922.789	4032
922.898	4048
923.007	4002
923.116	4067
923.224	4055
923.333	4090
923.442	3983
923.55	3979
923.659	4029
923.767	4109
923.876	4036
923.984	4116
924.092	3937
924.201	4074
924.309	4074
924.417	4150
924.525	4032
924.633	4109
924.741	5018
924.849	3896
924.956	4109
925.064	3979
925.172	3899
925.279	3953
925.387	4082
925.494	4040
925.602	4207
925.709	4162
925.816	4032
925.924	4101
926.031	4230
926.138	4177
926.245	4215
926.352	4090
926.459	4223
926.566	4341
926.673	4090
926.779	4071
926.886	4074
926.993	4017
927.099	3956
927.206	3899
927.312	3949
927.419	4048
927.525	4059
927.631	4074
927.737	3975
927.843	3911
927.95	3789
928.056	3941
928.162	3945
928.267	4044
928.373	4630
928.479	4093
928.585	3861
928.69	4059
928.796	4048
928.901	3956
929.007	3861
929.112	3975
929.218	3979
929.323	3854
929.428	3968
929.533	4093
929.638	3918
929.743	3964
929.848	4032
929.953	3991
930.058	3915
930.163	3751
930.267	3819
930.372	3956
930.477	3831
930.581	4074
930.685	3915
930.79	3857
930.894	3880
930.998	3865
931.103	4071
931.207	3705
931.311	3698
931.415	3610
931.519	3504
931.623	3519
