Data from test_V78500241_1549.txt Node
Date: Fri Mar 25 16:59:46 CST 2022
User: usil
Spectrometer: V785-0024
Trigger mode: 0
Integration Time (sec): 4.000000E-1
Scans to average: 1
Nonlinearity correction enabled: false
Boxcar width: 0
Storing dark spectrum: false
XAxis mode: Wavelengths
Number of Pixels in Spectrum: 1024
>>>>>Begin Spectral Data<<<<<
801.071	8069
801.214	8005
801.356	7925
801.499	7860
801.641	7792
801.783	7868
801.926	7940
802.068	7894
802.211	8020
802.353	7944
802.496	7860
802.638	7822
802.78	7906
802.923	7970
803.065	7959
803.208	7883
803.35	8050
803.492	8073
803.635	8176
803.777	8008
803.919	8088
804.061	8423
804.204	8081
804.346	8073
804.488	7986
804.63	8069
804.773	8001
804.915	8062
805.057	8336
805.199	8153
805.341	8161
805.483	8237
805.626	8275
805.768	8107
805.91	8168
806.052	8233
806.194	8218
806.336	8358
806.478	8092
806.62	8020
806.762	8115
806.904	8279
807.046	8522
807.188	8366
807.33	8351
807.472	8279
807.614	8119
807.756	8168
807.898	8016
808.04	7947
808.182	7822
808.324	7830
808.465	7940
808.607	8096
808.749	8077
808.891	8237
809.033	8290
809.174	8191
809.316	8054
809.458	8073
809.6	8005
809.741	8096
809.883	8012
810.025	8062
810.166	8020
810.308	8065
810.45	8020
810.591	7868
810.733	7693
810.875	7613
811.016	7544
811.158	7495
811.299	7518
811.441	7715
811.582	7662
811.724	7552
811.865	7472
812.007	7533
812.148	7559
812.29	7613
812.431	7700
812.573	7860
812.714	7955
812.855	8062
812.997	8206
813.138	8294
813.279	8233
813.421	8077
813.562	7951
813.703	7864
813.845	7704
813.986	7441
814.127	7247
814.268	7263
814.41	7221
814.551	7114
814.692	7179
814.833	7133
814.974	7122
815.115	7118
815.256	6932
815.397	7015
815.539	6981
815.68	6787
815.821	6768
815.962	6852
816.103	6772
816.244	6662
816.385	6623
816.526	6642
816.666	6509
816.807	6376
816.948	6380
817.089	6490
817.23	6479
817.371	6315
817.512	6365
817.653	6361
817.793	6369
817.934	6452
818.075	6467
818.216	6467
818.356	6384
818.497	6235
818.638	6110
818.778	6148
818.919	6129
819.06	6163
819.2	6319
819.341	6331
819.481	6407
819.622	6486
819.762	6677
819.903	6719
820.043	6635
820.184	6597
820.324	6589
820.465	6787
820.605	6692
820.746	6620
820.886	6536
821.026	6757
821.167	6738
821.307	6783
821.447	6764
821.588	6677
821.728	6540
821.868	6563
822.008	6391
822.149	6334
822.289	6327
822.429	6106
822.569	6182
822.709	6129
822.849	5923
822.99	5904
823.13	5866
823.27	5897
823.41	5790
823.55	5752
823.69	5703
823.83	5794
823.97	5653
824.11	5535
824.25	5490
824.389	5608
824.529	5600
824.669	5570
824.809	5657
824.949	5642
825.089	5585
825.228	5524
825.368	5372
825.508	5379
825.648	5322
825.787	5368
825.927	5391
826.067	5315
826.206	5315
826.346	5364
826.485	5402
826.625	5391
826.765	5558
826.904	5474
827.044	5227
827.183	5151
827.323	5121
827.462	5258
827.601	5185
827.741	5159
827.88	5277
828.02	5105
828.159	5265
828.298	5280
828.437	5349
828.577	5311
828.716	5463
828.855	5303
828.994	5132
829.134	5159
829.273	5212
829.412	5109
829.551	5056
829.69	5159
829.829	5273
829.968	5410
830.107	5288
830.246	5242
830.385	5170
830.524	5185
830.663	5029
830.802	4980
830.941	4854
831.08	4839
831.219	4999
831.357	4976
831.496	5113
831.635	4911
831.774	4850
831.913	4858
832.051	4733
832.19	4721
832.329	4843
832.467	4679
832.606	4622
832.744	4733
832.883	4717
833.022	4729
833.16	4763
833.299	4797
833.437	4828
833.576	4831
833.714	4858
833.852	4919
833.991	4862
834.129	4946
834.267	4923
834.406	4911
834.544	5014
834.682	4999
834.821	4976
834.959	5174
835.097	5033
835.235	5124
835.373	5041
835.511	5079
835.65	5060
835.788	5014
835.926	4862
836.064	4862
836.202	4896
836.34	5204
836.478	5220
836.615	5071
836.753	5216
836.891	5235
837.029	5242
837.167	5212
837.305	5090
837.443	5136
837.58	5098
837.718	5242
837.856	5231
837.993	5128
838.131	5231
838.269	5204
838.406	5193
838.544	5185
838.681	5045
838.819	4953
838.956	4911
839.094	4850
839.231	4938
839.369	5060
839.506	5448
839.643	5273
839.781	5113
839.918	5006
840.055	5079
840.193	5071
840.33	5113
840.467	5181
840.604	5193
840.742	5402
840.879	5098
841.016	5086
841.153	5105
841.29	5383
841.427	5337
841.564	5273
841.701	5368
841.838	5239
841.975	5231
842.112	5288
842.249	5132
842.385	5083
842.522	5311
842.659	5128
842.796	5166
842.933	5231
843.069	5132
843.206	5136
843.343	5258
843.479	5261
843.616	5242
843.752	5056
843.889	5075
844.025	5235
844.162	5003
844.298	5235
844.435	5090
844.571	5071
844.708	5185
844.844	5398
844.98	5330
845.117	5322
845.253	5132
845.389	5060
845.525	5132
845.661	5132
845.798	4968
845.934	5109
846.07	5056
846.206	5223
846.342	5341
846.478	5181
846.614	4987
846.75	4934
846.886	4930
847.022	5212
847.158	5010
847.294	5075
847.429	5109
847.565	5045
847.701	5318
847.837	4835
847.972	4763
848.108	4923
848.244	4965
848.379	4763
848.515	4793
848.65	4755
848.786	4748
848.921	4790
849.057	4892
849.192	4904
849.328	4870
849.463	4816
849.598	4790
849.734	4774
849.869	4725
850.004	4660
850.14	4698
850.275	4588
850.41	4516
850.545	4584
850.68	4618
850.815	4641
850.95	4637
851.085	4835
851.22	4733
851.355	4649
851.49	4626
851.625	4596
851.76	4596
851.895	4535
852.03	4512
852.165	4668
852.299	4721
852.434	4733
852.569	4767
852.703	4839
852.838	4797
852.973	4919
853.107	4961
853.242	4687
853.376	4672
853.511	4588
853.645	4580
853.78	4820
853.914	4717
854.048	4679
854.183	4649
854.317	4672
854.451	4881
854.585	4687
854.72	4618
854.854	4714
854.988	4607
855.122	4626
855.256	4542
855.39	4679
855.524	4740
855.658	4736
855.792	4706
855.926	4687
856.06	4740
856.194	4778
856.327	4725
856.461	4599
856.595	4656
856.729	4645
856.862	4729
856.996	4653
857.13	4740
857.263	4767
857.397	4782
857.53	4656
857.664	4717
857.797	4778
857.931	4801
858.064	4763
858.197	4740
858.331	4649
858.464	4607
858.597	4569
858.731	4615
858.864	4622
858.997	4599
859.13	4668
859.263	4660
859.396	4702
859.529	4580
859.662	4550
859.795	4542
859.928	4607
860.061	4725
860.194	4740
860.327	4607
860.46	4531
860.592	4710
860.725	4694
860.858	4664
860.99	4580
861.123	4531
861.256	4508
861.388	4569
861.521	5201
861.653	4451
861.786	4455
861.918	4436
862.05	4516
862.183	4577
862.315	4596
862.447	4599
862.58	4535
862.712	4432
862.844	4344
862.976	4451
863.108	4497
863.24	4774
863.372	4314
863.504	4421
863.636	4421
863.768	4485
863.9	4424
864.032	4367
864.164	4413
864.296	4474
864.428	4554
864.559	4565
864.691	4497
864.823	4508
864.954	4504
865.086	4516
865.217	4481
865.349	4409
865.48	4455
865.612	4504
865.743	4599
865.875	4504
866.006	4413
866.137	4424
866.269	4474
866.4	4455
866.531	4413
866.662	4428
866.793	4405
866.924	4424
867.055	4485
867.186	4447
867.317	4424
867.448	4360
867.579	4386
867.71	4390
867.841	4352
867.972	4455
868.103	4432
868.233	4466
868.364	4432
868.495	4489
868.625	4664
868.756	4771
868.886	4558
869.017	4596
869.147	4778
869.278	4790
869.408	4672
869.539	4679
869.669	4755
869.799	4653
869.929	4759
870.06	4714
870.19	4938
870.32	4919
870.45	4930
870.58	4957
870.71	5109
870.84	5094
870.97	4949
871.1	4873
871.23	5143
871.36	5124
871.489	4968
871.619	5098
871.749	5090
871.879	5090
872.008	5151
872.138	5025
872.267	5006
872.397	4824
872.526	4843
872.656	4744
872.785	4797
872.915	4961
873.044	5010
873.173	4987
873.303	4957
873.432	4953
873.561	4927
873.69	4881
873.819	4870
873.948	4904
874.077	4824
874.206	4733
874.335	4828
874.464	4889
874.593	5064
874.722	4923
874.851	5090
874.979	5014
875.108	5014
875.237	4915
875.365	4915
875.494	4904
875.623	4953
875.751	4824
875.88	4908
876.008	4965
876.136	5037
876.265	5193
876.393	5303
876.521	5269
876.65	5223
876.778	5102
876.906	5109
877.034	5033
877.162	5045
877.29	4968
877.418	5079
877.546	5045
877.674	5064
877.802	4980
877.93	5022
878.058	4968
878.185	4923
878.313	4946
878.441	4953
878.568	4733
878.696	4858
878.824	4892
878.951	4999
879.079	5136
879.206	5250
879.333	5102
879.461	4946
879.588	5033
879.715	5102
879.842	5189
879.97	4972
880.097	4805
880.224	4729
880.351	4786
880.478	4843
880.605	4828
880.732	4763
880.859	5052
880.986	4915
881.112	4900
881.239	4744
881.366	4691
881.493	4607
881.619	4596
881.746	4607
881.872	4653
881.999	4679
882.125	4675
882.252	4755
882.378	4782
882.505	4949
882.631	4733
882.757	4668
882.883	4702
883.01	4706
883.136	4649
883.262	4634
883.388	4596
883.514	4801
883.64	4881
883.766	4774
883.892	4675
884.018	4710
884.143	4885
884.269	5010
884.395	4683
884.52	4577
884.646	4679
884.772	4596
884.897	4558
885.023	4637
885.148	4816
885.274	4850
885.399	4763
885.524	4668
885.65	4706
885.775	4752
885.9	4679
886.025	4831
886.15	4797
886.275	4687
886.4	4664
886.525	4717
886.65	4675
886.775	4687
886.9	4828
887.025	5041
887.149	4835
887.274	4694
887.399	4599
887.523	4603
887.648	4569
887.773	4607
887.897	4721
888.021	4793
888.146	4694
888.27	4828
888.395	4923
888.519	4797
888.643	4797
888.767	4850
888.891	4725
889.015	4592
889.139	4573
889.263	4626
889.387	4748
889.511	4862
889.635	4774
889.759	4641
889.883	4630
890.006	4714
890.13	4835
890.254	4607
890.377	4672
890.501	4527
890.624	4535
890.748	4599
890.871	4504
890.995	4424
891.118	4402
891.241	4527
891.364	4531
891.488	4607
891.611	4478
891.734	4466
891.857	4584
891.98	4538
892.103	4626
892.226	4538
892.349	4485
892.471	4417
892.594	4538
892.717	4565
892.839	4584
892.962	4550
893.085	4649
893.207	4565
893.33	4440
893.452	4542
893.575	4664
893.697	4516
893.819	4771
893.941	4847
894.064	4694
894.186	4577
894.308	4573
894.43	4721
894.552	4843
894.674	4721
894.796	4527
894.918	4607
895.04	4584
895.161	4683
895.283	4649
895.405	4550
895.526	4664
895.648	4717
895.769	4691
895.891	4725
896.012	4702
896.134	4721
896.255	4641
896.376	4653
896.498	4630
896.619	4675
896.74	4596
896.861	4687
896.982	4892
897.103	5014
897.224	4854
897.345	4733
897.466	4672
897.587	4702
897.708	4843
897.828	4820
897.949	4706
898.07	4573
898.19	4596
898.311	4854
898.431	4637
898.552	4774
898.672	4778
898.792	4759
898.913	4744
899.033	4573
899.153	4489
899.273	4459
899.393	4554
899.513	4546
899.633	4504
899.753	4554
899.873	4500
899.993	4561
900.113	4546
900.232	4611
900.352	4538
900.472	4588
900.591	4390
900.711	4474
900.83	4413
900.95	4580
901.069	4675
901.189	4573
901.308	4371
901.427	4360
901.546	4367
901.665	4470
901.784	4519
901.904	4394
902.023	4299
902.141	4177
902.26	4166
902.379	4280
902.498	4246
902.617	4215
902.735	4367
902.854	4344
902.973	4352
903.091	4177
903.21	4200
903.328	4325
903.446	4253
903.565	4276
903.683	4333
903.801	4261
903.919	4379
904.038	4413
904.156	4223
904.274	4436
904.392	4383
904.51	4421
904.627	4459
904.745	4561
904.863	4615
904.981	4379
905.098	4280
905.216	4360
905.334	4432
905.451	4417
905.569	4443
905.686	4527
905.803	4603
905.921	4398
906.038	4588
906.155	4436
906.272	4379
906.389	4466
906.506	4360
906.623	4371
906.74	4428
906.857	4284
906.974	4363
907.091	4500
907.208	4694
907.324	4558
907.441	4538
907.557	4348
907.674	4337
907.79	4329
907.907	4375
908.023	4504
908.139	4485
908.256	4424
908.372	4443
908.488	4451
908.604	4383
908.72	4333
908.836	4367
908.952	4363
909.068	4409
909.184	4630
909.3	4508
909.415	4588
909.531	4554
909.647	4352
909.762	4379
909.878	4329
909.993	4455
910.108	4459
910.224	4371
910.339	4485
910.454	4428
910.57	4344
910.685	4306
910.8	4618
910.915	4565
911.03	4481
911.145	4341
911.259	4383
911.374	4348
911.489	4257
911.604	4272
911.718	4166
911.833	4246
911.947	4036
912.062	3964
912.176	4227
912.291	4227
912.405	4219
912.519	4497
912.633	4489
912.748	4390
912.862	4253
912.976	4223
913.09	4090
913.204	4154
913.318	4238
913.431	4356
913.545	4367
913.659	4432
913.772	4375
913.886	4234
914	4215
914.113	4375
914.226	4402
914.34	4405
914.453	4249
914.566	4421
914.68	4318
914.793	4333
914.906	4166
915.019	4109
915.132	4093
915.245	4192
915.358	4211
915.47	4230
915.583	4257
915.696	4310
915.809	4367
915.921	4409
916.034	4242
916.146	4268
916.259	4257
916.371	4371
916.483	4333
916.595	4207
916.708	4383
916.82	4348
916.932	4329
917.044	4325
917.156	4329
917.268	4196
917.38	4246
917.491	4299
917.603	4341
917.715	4443
917.826	4428
917.938	4352
918.049	4249
918.161	4363
918.272	4474
918.384	4523
918.495	4440
918.606	4276
918.717	4238
918.828	4295
918.939	4329
919.05	4261
919.161	4310
919.272	4143
919.383	4200
919.494	4386
919.604	4580
919.715	4428
919.826	4310
919.936	4402
920.047	4565
920.157	4489
920.267	4691
920.378	4546
920.488	4504
920.598	4706
920.708	4870
920.818	4698
920.928	4755
921.038	4923
921.148	4923
921.258	4637
921.368	4554
921.477	4466
921.587	4466
921.697	4360
921.806	4508
921.916	4443
922.025	4253
922.134	4265
922.244	4249
922.353	4291
922.462	4185
922.571	4131
922.68	3998
922.789	3998
922.898	4002
923.007	3975
923.116	4120
923.224	4044
923.333	4147
923.442	3937
923.55	4013
923.659	4036
923.767	4063
923.876	3983
923.984	4131
924.092	3918
924.201	4048
924.309	4109
924.417	4116
924.525	4082
924.633	4097
924.741	4850
924.849	3915
924.956	4082
925.064	3968
925.172	3907
925.279	3941
925.387	4067
925.494	4036
925.602	4188
925.709	4173
925.816	4002
925.924	4162
926.031	4204
926.138	4188
926.245	4192
926.352	4090
926.459	4257
926.566	4276
926.673	4162
926.779	4048
926.886	4071
926.993	3979
927.099	3960
927.206	3903
927.312	3991
927.419	4093
927.525	4032
927.631	4051
927.737	3956
927.843	3953
927.95	3854
928.056	3918
928.162	3983
928.267	4029
928.373	4596
928.479	4086
928.585	3854
928.69	4063
928.796	4036
928.901	3934
929.007	3846
929.112	4002
929.218	3979
929.323	3930
929.428	3918
929.533	4124
929.638	3880
929.743	3937
929.848	4078
929.953	3960
930.058	3903
930.163	3747
930.267	3827
930.372	3934
930.477	3808
930.581	4055
930.685	3922
930.79	3823
930.894	3892
930.998	3884
931.103	4002
931.207	3759
931.311	3675
931.415	3625
931.519	3515
931.623	3591
