Data from test_V78500241_1751.txt Node
Date: Fri Mar 25 17:01:10 CST 2022
User: usil
Spectrometer: V785-0024
Trigger mode: 0
Integration Time (sec): 4.000000E-1
Scans to average: 1
Nonlinearity correction enabled: false
Boxcar width: 0
Storing dark spectrum: false
XAxis mode: Wavelengths
Number of Pixels in Spectrum: 1024
>>>>>Begin Spectral Data<<<<<
801.071	7944
801.214	7921
801.356	7864
801.499	7879
801.641	7780
801.783	7784
801.926	8016
802.068	7928
802.211	7986
802.353	8020
802.496	7944
802.638	7856
802.78	7883
802.923	7890
803.065	7852
803.208	7875
803.35	7947
803.492	8065
803.635	8157
803.777	7970
803.919	8134
804.061	8457
804.204	8119
804.346	8043
804.488	7986
804.63	8073
804.773	7986
804.915	8107
805.057	8317
805.199	8119
805.341	8210
805.483	8294
805.626	8248
805.768	8073
805.91	8199
806.052	8195
806.194	8164
806.336	8206
806.478	8092
806.62	8050
806.762	8176
806.904	8279
807.046	8412
807.188	8343
807.33	8286
807.472	8332
807.614	8183
807.756	8202
807.898	8005
808.04	7845
808.182	7864
808.324	7932
808.465	7917
808.607	8050
808.749	8096
808.891	8161
809.033	8259
809.174	8244
809.316	8054
809.458	8008
809.6	8016
809.741	8054
809.883	8096
810.025	8043
810.166	8043
810.308	7967
810.45	7997
810.591	7799
810.733	7750
810.875	7685
811.016	7525
811.158	7491
811.299	7571
811.441	7731
811.582	7590
811.724	7586
811.865	7571
812.007	7605
812.148	7620
812.29	7662
812.431	7750
812.573	7887
812.714	7963
812.855	8130
812.997	8218
813.138	8347
813.279	8259
813.421	8096
813.562	8001
813.703	7833
813.845	7731
813.986	7381
814.127	7228
814.268	7190
814.41	7221
814.551	7156
814.692	7175
814.833	7076
814.974	7118
815.115	7065
815.256	6985
815.397	6909
815.539	6989
815.68	6814
815.821	6730
815.962	6806
816.103	6810
816.244	6730
816.385	6665
816.526	6585
816.666	6502
816.807	6315
816.948	6452
817.089	6456
817.23	6418
817.371	6384
817.512	6319
817.653	6331
817.793	6338
817.934	6369
818.075	6460
818.216	6384
818.356	6342
818.497	6266
818.638	6102
818.778	6167
818.919	6140
819.06	6171
819.2	6300
819.341	6350
819.481	6365
819.622	6498
819.762	6772
819.903	6688
820.043	6646
820.184	6563
820.324	6536
820.465	6612
820.605	6688
820.746	6646
820.886	6494
821.026	6623
821.167	6696
821.307	6753
821.447	6741
821.588	6639
821.728	6566
821.868	6479
822.008	6315
822.149	6357
822.289	6350
822.429	6163
822.569	6095
822.709	6144
822.849	5942
822.99	5889
823.13	5863
823.27	5855
823.41	5771
823.55	5771
823.69	5783
823.83	5748
823.97	5619
824.11	5512
824.25	5501
824.389	5577
824.529	5558
824.669	5512
824.809	5608
824.949	5604
825.089	5554
825.228	5512
825.368	5357
825.508	5318
825.648	5337
825.787	5372
825.927	5414
826.067	5345
826.206	5318
826.346	5353
826.485	5421
826.625	5410
826.765	5566
826.904	5490
827.044	5204
827.183	5193
827.323	5136
827.462	5197
827.601	5124
827.741	5181
827.88	5231
828.02	5083
828.159	5223
828.298	5273
828.437	5364
828.577	5280
828.716	5509
828.855	5254
828.994	5174
829.134	5166
829.273	5212
829.412	5140
829.551	5121
829.69	5193
829.829	5235
829.968	5364
830.107	5269
830.246	5261
830.385	5136
830.524	5086
830.663	5079
830.802	4968
830.941	4839
831.08	4801
831.219	4987
831.357	4972
831.496	5147
831.635	4915
831.774	4835
831.913	4850
832.051	4752
832.19	4752
832.329	4809
832.467	4710
832.606	4641
832.744	4706
832.883	4698
833.022	4740
833.16	4816
833.299	4805
833.437	4843
833.576	4763
833.714	4850
833.852	4900
833.991	4889
834.129	4946
834.267	4942
834.406	4896
834.544	4965
834.682	4949
834.821	4976
834.959	5166
835.097	4995
835.235	5166
835.373	5094
835.511	5090
835.65	5025
835.788	5022
835.926	4877
836.064	4847
836.202	4885
836.34	5132
836.478	5197
836.615	5121
836.753	5250
836.891	5246
837.029	5242
837.167	5231
837.305	5128
837.443	5155
837.58	5086
837.718	5227
837.856	5185
837.993	5159
838.131	5246
838.269	5193
838.406	5170
838.544	5181
838.681	5037
838.819	5041
838.956	4911
839.094	4923
839.231	4938
839.369	5018
839.506	5410
839.643	5242
839.781	5029
839.918	5025
840.055	5094
840.193	5067
840.33	5102
840.467	5147
840.604	5143
840.742	5463
840.879	5048
841.016	5071
841.153	5102
841.29	5345
841.427	5353
841.564	5318
841.701	5322
841.838	5277
841.975	5216
842.112	5250
842.249	5121
842.385	5048
842.522	5334
842.659	5151
842.796	5151
842.933	5162
843.069	5162
843.206	5136
843.343	5315
843.479	5250
843.616	5273
843.752	5045
843.889	4991
844.025	5220
844.162	5006
844.298	5235
844.435	5121
844.571	5014
844.708	5231
844.844	5273
844.98	5353
845.117	5315
845.253	5132
845.389	5151
845.525	5140
845.661	5151
845.798	5014
845.934	5086
846.07	5052
846.206	5231
846.342	5242
846.478	5155
846.614	4976
846.75	4980
846.886	4946
847.022	5151
847.158	5033
847.294	5033
847.429	5109
847.565	5033
847.701	5337
847.837	4843
847.972	4744
848.108	4961
848.244	4908
848.379	4752
848.515	4668
848.65	4725
848.786	4759
848.921	4744
849.057	4831
849.192	4915
849.328	4820
849.463	4812
849.598	4793
849.734	4782
849.869	4710
850.004	4645
850.14	4672
850.275	4637
850.41	4481
850.545	4535
850.68	4634
850.815	4618
850.95	4637
851.085	4847
851.22	4759
851.355	4683
851.49	4584
851.625	4641
851.76	4618
851.895	4588
852.03	4546
852.165	4645
852.299	4702
852.434	4786
852.569	4748
852.703	4793
852.838	4850
852.973	4919
853.107	4923
853.242	4786
853.376	4592
853.511	4542
853.645	4592
853.78	4790
853.914	4721
854.048	4694
854.183	4641
854.317	4729
854.451	4866
854.585	4679
854.72	4634
854.854	4744
854.988	4615
855.122	4622
855.256	4508
855.39	4656
855.524	4740
855.658	4729
855.792	4736
855.926	4755
856.06	4752
856.194	4786
856.327	4721
856.461	4622
856.595	4611
856.729	4611
856.862	4748
856.996	4683
857.13	4706
857.263	4797
857.397	4805
857.53	4668
857.664	4740
857.797	4733
857.931	4793
858.064	4645
858.197	4752
858.331	4626
858.464	4588
858.597	4519
858.731	4626
858.864	4649
858.997	4558
859.13	4618
859.263	4668
859.396	4687
859.529	4569
859.662	4558
859.795	4558
859.928	4656
860.061	4733
860.194	4721
860.327	4569
860.46	4561
860.592	4702
860.725	4725
860.858	4729
860.99	4542
861.123	4542
861.256	4493
861.388	4596
861.521	5315
861.653	4489
861.786	4451
861.918	4497
862.05	4470
862.183	4554
862.315	4531
862.447	4611
862.58	4561
862.712	4386
862.844	4329
862.976	4466
863.108	4413
863.24	4892
863.372	4344
863.504	4413
863.636	4405
863.768	4455
863.9	4405
864.032	4409
864.164	4390
864.296	4443
864.428	4546
864.559	4565
864.691	4527
864.823	4508
864.954	4459
865.086	4508
865.217	4440
865.349	4409
865.48	4466
865.612	4478
865.743	4645
865.875	4440
866.006	4379
866.137	4462
866.269	4443
866.4	4386
866.531	4428
866.662	4421
866.793	4383
866.924	4367
867.055	4436
867.186	4455
867.317	4398
867.448	4337
867.579	4341
867.71	4341
867.841	4363
867.972	4462
868.103	4447
868.233	4440
868.364	4421
868.495	4455
868.625	4634
868.756	4733
868.886	4588
869.017	4649
869.147	4759
869.278	4698
869.408	4656
869.539	4596
869.669	4721
869.799	4649
869.929	4752
870.06	4748
870.19	4923
870.32	4934
870.45	4927
870.58	4999
870.71	5071
870.84	5128
870.97	4889
871.1	4866
871.23	5098
871.36	5132
871.489	5048
871.619	5045
871.749	5090
871.879	5128
872.008	5155
872.138	5056
872.267	4961
872.397	4816
872.526	4843
872.656	4691
872.785	4828
872.915	4984
873.044	5006
873.173	4934
873.303	4961
873.432	4885
873.561	4938
873.69	4809
873.819	4828
873.948	4870
874.077	4831
874.206	4763
874.335	4801
874.464	4858
874.593	5003
874.722	4904
874.851	5041
874.979	5029
875.108	5064
875.237	4961
875.365	4904
875.494	4839
875.623	4942
875.751	4843
875.88	4877
876.008	4999
876.136	5010
876.265	5223
876.393	5288
876.521	5303
876.65	5265
876.778	5166
876.906	5041
877.034	5022
877.162	5022
877.29	4968
877.418	5083
877.546	5029
877.674	5022
877.802	4987
877.93	4984
878.058	4968
878.185	4828
878.313	4965
878.441	4927
878.568	4824
878.696	4873
878.824	4923
878.951	5003
879.079	5159
879.206	5292
879.333	5098
879.461	4957
879.588	5025
879.715	5064
879.842	5212
879.97	5003
880.097	4805
880.224	4740
880.351	4729
880.478	4850
880.605	4797
880.732	4797
880.859	5098
880.986	4919
881.112	4938
881.239	4763
881.366	4656
881.493	4626
881.619	4550
881.746	4664
881.872	4653
881.999	4672
882.125	4691
882.252	4748
882.378	4839
882.505	4972
882.631	4843
882.757	4683
882.883	4721
883.01	4721
883.136	4668
883.262	4565
883.388	4607
883.514	4839
883.64	4843
883.766	4790
883.892	4656
884.018	4721
884.143	4858
884.269	5029
884.395	4679
884.52	4618
884.646	4660
884.772	4561
884.897	4599
885.023	4630
885.148	4790
885.274	4854
885.399	4774
885.524	4698
885.65	4679
885.775	4774
885.9	4740
886.025	4850
886.15	4755
886.275	4687
886.4	4683
886.525	4725
886.65	4656
886.775	4668
886.9	4892
887.025	5025
887.149	4805
887.274	4687
887.399	4596
887.523	4535
887.648	4542
887.773	4573
887.897	4721
888.021	4752
888.146	4660
888.27	4793
888.395	4927
888.519	4771
888.643	4759
888.767	4816
888.891	4706
889.015	4550
889.139	4645
889.263	4569
889.387	4752
889.511	4847
889.635	4755
889.759	4649
889.883	4618
890.006	4733
890.13	4790
890.254	4565
890.377	4714
890.501	4584
890.624	4519
890.748	4630
890.871	4462
890.995	4413
891.118	4428
891.241	4538
891.364	4580
891.488	4660
891.611	4500
891.734	4474
891.857	4626
891.98	4561
892.103	4683
892.226	4588
892.349	4535
892.471	4428
892.594	4538
892.717	4618
892.839	4615
892.962	4599
893.085	4691
893.207	4584
893.33	4462
893.452	4500
893.575	4653
893.697	4565
893.819	4797
893.941	4809
894.064	4744
894.186	4554
894.308	4554
894.43	4755
894.552	4801
894.674	4771
894.796	4569
894.918	4550
895.04	4554
895.161	4660
895.283	4645
895.405	4580
895.526	4641
895.648	4668
895.769	4675
895.891	4748
896.012	4717
896.134	4672
896.255	4687
896.376	4626
896.498	4615
896.619	4596
896.74	4603
896.861	4630
896.982	4938
897.103	5045
897.224	4847
897.345	4763
897.466	4615
897.587	4710
897.708	4870
897.828	4805
897.949	4672
898.07	4565
898.19	4634
898.311	4835
898.431	4630
898.552	4717
898.672	4801
898.792	4790
898.913	4748
899.033	4569
899.153	4516
899.273	4402
899.393	4493
899.513	4519
899.633	4459
899.753	4538
899.873	4459
899.993	4611
900.113	4554
900.232	4588
900.352	4497
900.472	4519
900.591	4394
900.711	4500
900.83	4417
900.95	4630
901.069	4683
901.189	4527
901.308	4398
901.427	4371
901.546	4344
901.665	4447
901.784	4504
901.904	4383
902.023	4299
902.141	4204
902.26	4223
902.379	4295
902.498	4211
902.617	4219
902.735	4402
902.854	4379
902.973	4325
903.091	4268
903.21	4204
903.328	4295
903.446	4280
903.565	4215
903.683	4379
903.801	4265
903.919	4352
904.038	4417
904.156	4299
904.274	4398
904.392	4402
904.51	4421
904.627	4462
904.745	4550
904.863	4649
904.981	4421
905.098	4379
905.216	4394
905.334	4413
905.451	4440
905.569	4443
905.686	4527
905.803	4573
905.921	4390
906.038	4577
906.155	4466
906.272	4409
906.389	4470
906.506	4268
906.623	4356
906.74	4413
906.857	4341
906.974	4371
907.091	4599
907.208	4687
907.324	4592
907.441	4497
907.557	4318
907.674	4371
907.79	4348
907.907	4375
908.023	4500
908.139	4451
908.256	4409
908.372	4436
908.488	4436
908.604	4310
908.72	4322
908.836	4325
908.952	4348
909.068	4394
909.184	4508
909.3	4447
909.415	4573
909.531	4569
909.647	4379
909.762	4348
909.878	4344
909.993	4451
910.108	4398
910.224	4390
910.339	4497
910.454	4413
910.57	4394
910.685	4310
910.8	4668
910.915	4588
911.03	4512
911.145	4295
911.259	4329
911.374	4386
911.489	4295
911.604	4272
911.718	4158
911.833	4204
911.947	4048
912.062	4013
912.176	4162
912.291	4215
912.405	4257
912.519	4497
912.633	4462
912.748	4413
912.862	4310
912.976	4238
913.09	4124
913.204	4154
913.318	4253
913.431	4390
913.545	4333
913.659	4421
913.772	4386
913.886	4257
914	4249
914.113	4314
914.226	4402
914.34	4352
914.453	4242
914.566	4402
914.68	4306
914.793	4306
914.906	4196
915.019	4139
915.132	4055
915.245	4120
915.358	4219
915.47	4204
915.583	4230
915.696	4363
915.809	4409
915.921	4421
916.034	4318
916.146	4234
916.259	4227
916.371	4371
916.483	4303
916.595	4234
916.708	4329
916.82	4329
916.932	4287
917.044	4356
917.156	4272
917.268	4227
917.38	4314
917.491	4257
917.603	4306
917.715	4440
917.826	4462
917.938	4303
918.049	4211
918.161	4409
918.272	4554
918.384	4523
918.495	4459
918.606	4299
918.717	4234
918.828	4344
918.939	4352
919.05	4291
919.161	4356
919.272	4120
919.383	4242
919.494	4417
919.604	4656
919.715	4440
919.826	4341
919.936	4409
920.047	4523
920.157	4481
920.267	4698
920.378	4535
920.488	4535
920.598	4687
920.708	4881
920.818	4752
920.928	4774
921.038	4957
921.148	4923
921.258	4645
921.368	4622
921.477	4489
921.587	4428
921.697	4417
921.806	4550
921.916	4459
922.025	4253
922.134	4230
922.244	4249
922.353	4322
922.462	4162
922.571	4150
922.68	4010
922.789	3941
922.898	4044
923.007	3987
923.116	4093
923.224	4078
923.333	4105
923.442	3953
923.55	3953
923.659	4025
923.767	4131
923.876	3991
923.984	4105
924.092	3983
924.201	4059
924.309	4078
924.417	4124
924.525	4032
924.633	4101
924.741	4915
924.849	3899
924.956	4185
925.064	3983
925.172	3892
925.279	3991
925.387	4032
925.494	4036
925.602	4192
925.709	4173
925.816	3991
925.924	4105
926.031	4200
926.138	4177
926.245	4215
926.352	4082
926.459	4177
926.566	4265
926.673	4158
926.779	4051
926.886	4082
926.993	3979
927.099	3907
927.206	3873
927.312	3945
927.419	4032
927.525	4017
927.631	4078
927.737	3937
927.843	3964
927.95	3831
928.056	3953
928.162	3972
928.267	4055
928.373	4615
928.479	4105
928.585	3869
928.69	3991
928.796	4093
928.901	3964
929.007	3831
929.112	3994
929.218	3983
929.323	3918
929.428	3941
929.533	4082
929.638	3930
929.743	3979
929.848	4071
929.953	4017
930.058	3911
930.163	3770
930.267	3865
930.372	3983
930.477	3831
930.581	4078
930.685	3930
930.79	3838
930.894	3857
930.998	3831
931.103	4006
931.207	3686
931.311	3732
931.415	3656
931.519	3553
931.623	3542
