Data from test_V78500241_1097.txt Node
Date: Fri Mar 25 16:56:37 CST 2022
User: usil
Spectrometer: V785-0024
Trigger mode: 0
Integration Time (sec): 4.000000E-1
Scans to average: 1
Nonlinearity correction enabled: false
Boxcar width: 0
Storing dark spectrum: false
XAxis mode: Wavelengths
Number of Pixels in Spectrum: 1024
>>>>>Begin Spectral Data<<<<<
801.071	8084
801.214	8069
801.356	7940
801.499	7864
801.641	7757
801.783	7818
801.926	7940
802.068	7890
802.211	7909
802.353	7986
802.496	7830
802.638	7887
802.78	7917
802.923	7936
803.065	7913
803.208	7909
803.35	7970
803.492	8149
803.635	8187
803.777	8111
803.919	8126
804.061	8461
804.204	8130
804.346	8115
804.488	7951
804.63	8054
804.773	8103
804.915	8081
805.057	8309
805.199	8180
805.341	8214
805.483	8225
805.626	8153
805.768	8123
805.91	8202
806.052	8229
806.194	8043
806.336	8271
806.478	8096
806.62	8081
806.762	8084
806.904	8187
807.046	8446
807.188	8336
807.33	8263
807.472	8324
807.614	8126
807.756	8187
807.898	7951
808.04	7864
808.182	7902
808.324	7887
808.465	7894
808.607	8027
808.749	8092
808.891	8210
809.033	8233
809.174	8244
809.316	8077
809.458	8031
809.6	7925
809.741	8043
809.883	7993
810.025	8020
810.166	8062
810.308	8050
810.45	8103
810.591	7879
810.733	7647
810.875	7613
811.016	7510
811.158	7495
811.299	7571
811.441	7689
811.582	7662
811.724	7609
811.865	7552
812.007	7533
812.148	7529
812.29	7639
812.431	7757
812.573	7875
812.714	8031
812.855	8145
812.997	8229
813.138	8355
813.279	8164
813.421	8096
813.562	8024
813.703	7864
813.845	7761
813.986	7491
814.127	7270
814.268	7270
814.41	7187
814.551	7190
814.692	7160
814.833	7061
814.974	7065
815.115	7061
815.256	6920
815.397	6947
815.539	6905
815.68	6852
815.821	6700
815.962	6837
816.103	6795
816.244	6715
816.385	6616
816.526	6631
816.666	6536
816.807	6270
816.948	6464
817.089	6479
817.23	6445
817.371	6323
817.512	6407
817.653	6422
817.793	6380
817.934	6388
818.075	6388
818.216	6414
818.356	6376
818.497	6228
818.638	6121
818.778	6152
818.919	6140
819.06	6155
819.2	6258
819.341	6273
819.481	6437
819.622	6517
819.762	6825
819.903	6681
820.043	6623
820.184	6532
820.324	6601
820.465	6639
820.605	6753
820.746	6604
820.886	6475
821.026	6566
821.167	6703
821.307	6791
821.447	6791
821.588	6616
821.728	6578
821.868	6464
822.008	6315
822.149	6437
822.289	6304
822.429	6171
822.569	6038
822.709	6087
822.849	5916
822.99	5935
823.13	5954
823.27	5904
823.41	5790
823.55	5821
823.69	5775
823.83	5726
823.97	5619
824.11	5539
824.25	5467
824.389	5600
824.529	5592
824.669	5505
824.809	5604
824.949	5665
825.089	5589
825.228	5554
825.368	5330
825.508	5296
825.648	5315
825.787	5353
825.927	5337
826.067	5311
826.206	5292
826.346	5383
826.485	5474
826.625	5410
826.765	5528
826.904	5455
827.044	5197
827.183	5166
827.323	5075
827.462	5242
827.601	5204
827.741	5162
827.88	5201
828.02	5117
828.159	5220
828.298	5242
828.437	5330
828.577	5299
828.716	5532
828.855	5261
828.994	5174
829.134	5136
829.273	5208
829.412	5151
829.551	5155
829.69	5193
829.829	5231
829.968	5364
830.107	5250
830.246	5258
830.385	5197
830.524	5098
830.663	5067
830.802	4946
830.941	4850
831.08	4858
831.219	4930
831.357	4995
831.496	5128
831.635	4980
831.774	4828
831.913	4816
832.051	4649
832.19	4729
832.329	4839
832.467	4675
832.606	4615
832.744	4725
832.883	4702
833.022	4710
833.16	4782
833.299	4835
833.437	4824
833.576	4839
833.714	4805
833.852	4835
833.991	4873
834.129	4923
834.267	4995
834.406	4892
834.544	4949
834.682	4904
834.821	4972
834.959	5159
835.097	4938
835.235	5155
835.373	5086
835.511	5105
835.65	5029
835.788	4995
835.926	4831
836.064	4858
836.202	4930
836.34	5132
836.478	5246
836.615	5121
836.753	5216
836.891	5250
837.029	5208
837.167	5189
837.305	5128
837.443	5155
837.58	5075
837.718	5242
837.856	5151
837.993	5185
838.131	5201
838.269	5185
838.406	5201
838.544	5178
838.681	4995
838.819	5014
838.956	4854
839.094	4972
839.231	4980
839.369	5075
839.506	5440
839.643	5269
839.781	5071
839.918	5010
840.055	5067
840.193	5064
840.33	5140
840.467	5121
840.604	5151
840.742	5398
840.879	5102
841.016	5048
841.153	5102
841.29	5360
841.427	5334
841.564	5280
841.701	5391
841.838	5265
841.975	5242
842.112	5265
842.249	5136
842.385	5086
842.522	5315
842.659	5212
842.796	5155
842.933	5174
843.069	5155
843.206	5140
843.343	5296
843.479	5174
843.616	5212
843.752	5075
843.889	4999
844.025	5166
844.162	5048
844.298	5193
844.435	5048
844.571	5052
844.708	5170
844.844	5242
844.98	5299
845.117	5296
845.253	5128
845.389	5121
845.525	5098
845.661	5086
845.798	5010
845.934	5136
846.07	5048
846.206	5223
846.342	5258
846.478	5204
846.614	5010
846.75	4965
846.886	4930
847.022	5185
847.158	4972
847.294	5060
847.429	5090
847.565	5079
847.701	5357
847.837	4805
847.972	4740
848.108	4991
848.244	4877
848.379	4774
848.515	4717
848.65	4668
848.786	4725
848.921	4759
849.057	4854
849.192	4828
849.328	4801
849.463	4839
849.598	4748
849.734	4763
849.869	4683
850.004	4584
850.14	4626
850.275	4573
850.41	4538
850.545	4596
850.68	4618
850.815	4519
850.95	4622
851.085	4793
851.22	4717
851.355	4615
851.49	4596
851.625	4630
851.76	4615
851.895	4592
852.03	4508
852.165	4630
852.299	4694
852.434	4805
852.569	4759
852.703	4774
852.838	4809
852.973	4946
853.107	4908
853.242	4733
853.376	4679
853.511	4554
853.645	4637
853.78	4790
853.914	4694
854.048	4645
854.183	4649
854.317	4645
854.451	4854
854.585	4649
854.72	4599
854.854	4710
854.988	4531
855.122	4615
855.256	4538
855.39	4599
855.524	4774
855.658	4733
855.792	4668
855.926	4725
856.06	4729
856.194	4759
856.327	4691
856.461	4588
856.595	4611
856.729	4637
856.862	4748
856.996	4649
857.13	4710
857.263	4725
857.397	4771
857.53	4702
857.664	4706
857.797	4748
857.931	4793
858.064	4748
858.197	4748
858.331	4607
858.464	4607
858.597	4512
858.731	4668
858.864	4653
858.997	4607
859.13	4607
859.263	4645
859.396	4668
859.529	4573
859.662	4558
859.795	4554
859.928	4637
860.061	4736
860.194	4717
860.327	4535
860.46	4588
860.592	4687
860.725	4748
860.858	4714
860.99	4523
861.123	4512
861.256	4523
861.388	4565
861.521	5349
861.653	4440
861.786	4409
861.918	4455
862.05	4470
862.183	4565
862.315	4596
862.447	4603
862.58	4512
862.712	4409
862.844	4303
862.976	4447
863.108	4402
863.24	4736
863.372	4367
863.504	4405
863.636	4386
863.768	4466
863.9	4428
864.032	4367
864.164	4386
864.296	4428
864.428	4558
864.559	4573
864.691	4493
864.823	4546
864.954	4497
865.086	4512
865.217	4436
865.349	4390
865.48	4436
865.612	4500
865.743	4592
865.875	4470
866.006	4451
866.137	4432
866.269	4390
866.4	4413
866.531	4424
866.662	4352
866.793	4413
866.924	4402
867.055	4432
867.186	4443
867.317	4428
867.448	4356
867.579	4348
867.71	4394
867.841	4379
867.972	4440
868.103	4485
868.233	4447
868.364	4436
868.495	4504
868.625	4672
868.756	4679
868.886	4535
869.017	4573
869.147	4755
869.278	4778
869.408	4664
869.539	4611
869.669	4679
869.799	4668
869.929	4740
870.06	4755
870.19	4900
870.32	4938
870.45	4900
870.58	4972
870.71	5064
870.84	5041
870.97	4930
871.1	4892
871.23	5102
871.36	5136
871.489	4987
871.619	5079
871.749	5113
871.879	5128
872.008	5105
872.138	5067
872.267	4946
872.397	4847
872.526	4744
872.656	4698
872.785	4831
872.915	4965
873.044	5018
873.173	4953
873.303	4942
873.432	4927
873.561	4934
873.69	4889
873.819	4831
873.948	4858
874.077	4858
874.206	4721
874.335	4797
874.464	4885
874.593	5052
874.722	4972
874.851	5052
874.979	5033
875.108	4984
875.237	4854
875.365	4873
875.494	4873
875.623	4957
875.751	4793
875.88	4824
876.008	4923
876.136	5003
876.265	5155
876.393	5345
876.521	5220
876.65	5220
876.778	5136
876.906	5018
877.034	5010
877.162	4965
877.29	4999
877.418	4984
877.546	5018
877.674	4980
877.802	5037
877.93	4968
878.058	4965
878.185	4889
878.313	4927
878.441	4896
878.568	4771
878.696	4801
878.824	4930
878.951	4968
879.079	5060
879.206	5261
879.333	5067
879.461	4976
879.588	4991
879.715	5094
879.842	5235
879.97	4980
880.097	4782
880.224	4725
880.351	4774
880.478	4812
880.605	4793
880.732	4774
880.859	5071
880.986	4889
881.112	4881
881.239	4782
881.366	4645
881.493	4554
881.619	4542
881.746	4618
881.872	4561
881.999	4649
882.125	4694
882.252	4748
882.378	4843
882.505	4915
882.631	4748
882.757	4683
882.883	4725
883.01	4710
883.136	4694
883.262	4550
883.388	4607
883.514	4816
883.64	4816
883.766	4733
883.892	4660
884.018	4687
884.143	4873
884.269	4968
884.395	4691
884.52	4584
884.646	4649
884.772	4542
884.897	4470
885.023	4596
885.148	4755
885.274	4831
885.399	4733
885.524	4725
885.65	4691
885.775	4778
885.9	4687
886.025	4805
886.15	4740
886.275	4698
886.4	4691
886.525	4698
886.65	4668
886.775	4721
886.9	4911
887.025	5025
887.149	4786
887.274	4672
887.399	4573
887.523	4565
887.648	4622
887.773	4535
887.897	4736
888.021	4816
888.146	4645
888.27	4805
888.395	4850
888.519	4755
888.643	4820
888.767	4805
888.891	4653
889.015	4573
889.139	4626
889.263	4645
889.387	4733
889.511	4866
889.635	4793
889.759	4622
889.883	4649
890.006	4763
890.13	4873
890.254	4622
890.377	4691
890.501	4573
890.624	4550
890.748	4653
890.871	4531
890.995	4443
891.118	4440
891.241	4535
891.364	4569
891.488	4622
891.611	4538
891.734	4584
891.857	4626
891.98	4577
892.103	4660
892.226	4596
892.349	4554
892.471	4466
892.594	4622
892.717	4634
892.839	4577
892.962	4649
893.085	4672
893.207	4618
893.33	4474
893.452	4573
893.575	4725
893.697	4588
893.819	4816
893.941	4873
894.064	4778
894.186	4599
894.308	4599
894.43	4782
894.552	4904
894.674	4748
894.796	4577
894.918	4611
895.04	4596
895.161	4740
895.283	4698
895.405	4603
895.526	4664
895.648	4771
895.769	4664
895.891	4771
896.012	4771
896.134	4694
896.255	4687
896.376	4664
896.498	4634
896.619	4706
896.74	4656
896.861	4645
896.982	4942
897.103	5105
897.224	4873
897.345	4805
897.466	4694
897.587	4786
897.708	4896
897.828	4805
897.949	4694
898.07	4508
898.19	4656
898.311	4839
898.431	4710
898.552	4774
898.672	4858
898.792	4805
898.913	4774
899.033	4637
899.153	4535
899.273	4481
899.393	4538
899.513	4561
899.633	4554
899.753	4561
899.873	4538
899.993	4618
900.113	4519
900.232	4592
900.352	4599
900.472	4470
900.591	4455
900.711	4554
900.83	4512
900.95	4599
901.069	4759
901.189	4538
901.308	4375
901.427	4333
901.546	4409
901.665	4504
901.784	4516
901.904	4440
902.023	4291
902.141	4219
902.26	4246
902.379	4284
902.498	4261
902.617	4280
902.735	4363
902.854	4447
902.973	4375
903.091	4211
903.21	4268
903.328	4390
903.446	4306
903.565	4303
903.683	4383
903.801	4314
903.919	4459
904.038	4459
904.156	4341
904.274	4443
904.392	4424
904.51	4455
904.627	4531
904.745	4603
904.863	4664
904.981	4398
905.098	4322
905.216	4402
905.334	4417
905.451	4478
905.569	4462
905.686	4607
905.803	4615
905.921	4398
906.038	4588
906.155	4558
906.272	4428
906.389	4497
906.506	4379
906.623	4409
906.74	4367
906.857	4352
906.974	4379
907.091	4580
907.208	4694
907.324	4592
907.441	4523
907.557	4363
907.674	4341
907.79	4333
907.907	4398
908.023	4512
908.139	4527
908.256	4451
908.372	4516
908.488	4455
908.604	4390
908.72	4390
908.836	4447
908.952	4348
909.068	4451
909.184	4626
909.3	4535
909.415	4558
909.531	4577
909.647	4394
909.762	4398
909.878	4329
909.993	4459
910.108	4512
910.224	4402
910.339	4481
910.454	4402
910.57	4379
910.685	4337
910.8	4679
910.915	4622
911.03	4508
911.145	4352
911.259	4394
911.374	4398
911.489	4310
911.604	4310
911.718	4207
911.833	4230
911.947	4135
912.062	4040
912.176	4223
912.291	4284
912.405	4280
912.519	4535
912.633	4558
912.748	4386
912.862	4341
912.976	4242
913.09	4093
913.204	4215
913.318	4230
913.431	4367
913.545	4402
913.659	4432
913.772	4367
913.886	4272
914	4280
914.113	4466
914.226	4451
914.34	4432
914.453	4306
914.566	4538
914.68	4333
914.793	4386
914.906	4196
915.019	4169
915.132	4105
915.245	4211
915.358	4291
915.47	4223
915.583	4310
915.696	4329
915.809	4405
915.921	4424
916.034	4344
916.146	4268
916.259	4265
916.371	4413
916.483	4367
916.595	4276
916.708	4268
916.82	4325
916.932	4310
917.044	4352
917.156	4325
917.268	4268
917.38	4341
917.491	4242
917.603	4348
917.715	4356
917.826	4474
917.938	4367
918.049	4287
918.161	4383
918.272	4550
918.384	4554
918.495	4474
918.606	4341
918.717	4234
918.828	4363
918.939	4341
919.05	4276
919.161	4363
919.272	4135
919.383	4249
919.494	4440
919.604	4649
919.715	4455
919.826	4417
919.936	4402
920.047	4523
920.157	4493
920.267	4721
920.378	4599
920.488	4542
920.598	4759
920.708	4904
920.818	4755
920.928	4778
921.038	4942
921.148	4953
921.258	4664
921.368	4512
921.477	4466
921.587	4474
921.697	4371
921.806	4527
921.916	4481
922.025	4295
922.134	4246
922.244	4257
922.353	4363
922.462	4177
922.571	4166
922.68	4059
922.789	3991
922.898	4074
923.007	4013
923.116	4090
923.224	4059
923.333	4093
923.442	4032
923.55	3998
923.659	4025
923.767	4147
923.876	4029
923.984	4158
924.092	4006
924.201	4086
924.309	4082
924.417	4158
924.525	4093
924.633	4097
924.741	4946
924.849	3934
924.956	4086
925.064	4006
925.172	3926
925.279	4006
925.387	4051
925.494	4063
925.602	4227
925.709	4200
925.816	4036
925.924	4124
926.031	4211
926.138	4162
926.245	4185
926.352	4120
926.459	4265
926.566	4280
926.673	4181
926.779	4090
926.886	4128
926.993	3983
927.099	3987
927.206	3937
927.312	3949
927.419	4048
927.525	4032
927.631	4071
927.737	3956
927.843	3930
927.95	3857
928.056	3972
928.162	4010
928.267	4090
928.373	4725
928.479	4109
928.585	3880
928.69	4051
928.796	4082
928.901	3964
929.007	3827
929.112	4029
929.218	3998
929.323	3964
929.428	3937
929.533	4071
929.638	3941
929.743	3956
929.848	4090
929.953	3994
930.058	3937
930.163	3804
930.267	3865
930.372	3998
930.477	3793
930.581	4090
930.685	3949
930.79	3827
930.894	3945
930.998	3888
931.103	4063
931.207	3743
931.311	3713
931.415	3705
931.519	3526
931.623	3553
