Data from test_V78500241_1358.txt Node
Date: Fri Mar 25 16:58:26 CST 2022
User: usil
Spectrometer: V785-0024
Trigger mode: 0
Integration Time (sec): 4.000000E-1
Scans to average: 1
Nonlinearity correction enabled: false
Boxcar width: 0
Storing dark spectrum: false
XAxis mode: Wavelengths
Number of Pixels in Spectrum: 1024
>>>>>Begin Spectral Data<<<<<
801.071	8016
801.214	7967
801.356	7887
801.499	7868
801.641	7776
801.783	7822
801.926	7993
802.068	7944
802.211	7982
802.353	7997
802.496	7837
802.638	7879
802.78	7947
802.923	7978
803.065	7936
803.208	7902
803.35	8001
803.492	8062
803.635	8248
803.777	8058
803.919	8123
804.061	8469
804.204	8161
804.346	8054
804.488	8027
804.63	8103
804.773	8073
804.915	8168
805.057	8328
805.199	8199
805.341	8210
805.483	8320
805.626	8218
805.768	8123
805.91	8244
806.052	8275
806.194	8145
806.336	8332
806.478	8024
806.62	7993
806.762	8191
806.904	8370
807.046	8511
807.188	8305
807.33	8355
807.472	8362
807.614	8206
807.756	8149
807.898	8069
808.04	7913
808.182	7890
808.324	7959
808.465	8012
808.607	8069
808.749	8130
808.891	8164
809.033	8381
809.174	8233
809.316	8062
809.458	7982
809.6	8039
809.741	8096
809.883	8065
810.025	8126
810.166	8088
810.308	8005
810.45	8065
810.591	7887
810.733	7742
810.875	7757
811.016	7563
811.158	7487
811.299	7636
811.441	7738
811.582	7704
811.724	7620
811.865	7518
812.007	7609
812.148	7594
812.29	7651
812.431	7742
812.573	7890
812.714	8031
812.855	8134
812.997	8202
813.138	8343
813.279	8229
813.421	8100
813.562	8069
813.703	7906
813.845	7818
813.986	7499
814.127	7308
814.268	7278
814.41	7164
814.551	7217
814.692	7190
814.833	7110
814.974	7099
815.115	7122
815.256	6981
815.397	6993
815.539	6951
815.68	6810
815.821	6798
815.962	6837
816.103	6844
816.244	6726
816.385	6642
816.526	6593
816.666	6502
816.807	6350
816.948	6441
817.089	6521
817.23	6441
817.371	6407
817.512	6399
817.653	6452
817.793	6372
817.934	6429
818.075	6509
818.216	6445
818.356	6414
818.497	6258
818.638	6235
818.778	6144
818.919	6216
819.06	6178
819.2	6346
819.341	6369
819.481	6338
819.622	6593
819.762	6745
819.903	6662
820.043	6536
820.184	6528
820.324	6635
820.465	6791
820.605	6673
820.746	6662
820.886	6525
821.026	6604
821.167	6726
821.307	6829
821.447	6787
821.588	6707
821.728	6540
821.868	6513
822.008	6319
822.149	6376
822.289	6319
822.429	6175
822.569	6045
822.709	6129
822.849	5954
822.99	5965
823.13	5973
823.27	5923
823.41	5844
823.55	5794
823.69	5779
823.83	5836
823.97	5710
824.11	5547
824.25	5577
824.389	5539
824.529	5596
824.669	5528
824.809	5634
824.949	5634
825.089	5630
825.228	5638
825.368	5376
825.508	5368
825.648	5364
825.787	5402
825.927	5368
826.067	5315
826.206	5368
826.346	5410
826.485	5410
826.625	5459
826.765	5577
826.904	5520
827.044	5254
827.183	5269
827.323	5208
827.462	5261
827.601	5162
827.741	5220
827.88	5254
828.02	5113
828.159	5216
828.298	5349
828.437	5368
828.577	5254
828.716	5493
828.855	5318
828.994	5166
829.134	5147
829.273	5220
829.412	5147
829.551	5140
829.69	5204
829.829	5273
829.968	5402
830.107	5284
830.246	5242
830.385	5178
830.524	5185
830.663	5090
830.802	4972
830.941	4934
831.08	4915
831.219	5014
831.357	4995
831.496	5197
831.635	4942
831.774	4885
831.913	4839
832.051	4717
832.19	4721
832.329	4889
832.467	4759
832.606	4649
832.744	4710
832.883	4763
833.022	4763
833.16	4748
833.299	4828
833.437	4843
833.576	4858
833.714	4843
833.852	4873
833.991	4915
834.129	4984
834.267	4968
834.406	4896
834.544	4972
834.682	4968
834.821	4923
834.959	5143
835.097	5022
835.235	5162
835.373	5102
835.511	5105
835.65	5071
835.788	5071
835.926	4896
836.064	4885
836.202	4942
836.34	5151
836.478	5227
836.615	5159
836.753	5220
836.891	5284
837.029	5296
837.167	5246
837.305	5166
837.443	5136
837.58	5067
837.718	5280
837.856	5212
837.993	5208
838.131	5250
838.269	5155
838.406	5231
838.544	5197
838.681	5132
838.819	5014
838.956	4889
839.094	4911
839.231	4942
839.369	5086
839.506	5425
839.643	5280
839.781	5014
839.918	5041
840.055	5124
840.193	5155
840.33	5155
840.467	5105
840.604	5189
840.742	5452
840.879	5045
841.016	5064
841.153	5174
841.29	5349
841.427	5372
841.564	5292
841.701	5318
841.838	5311
841.975	5212
842.112	5303
842.249	5155
842.385	5102
842.522	5368
842.659	5197
842.796	5193
842.933	5166
843.069	5162
843.206	5162
843.343	5330
843.479	5231
843.616	5242
843.752	5041
843.889	5029
844.025	5212
844.162	4995
844.298	5189
844.435	5025
844.571	5071
844.708	5197
844.844	5292
844.98	5330
845.117	5284
845.253	5166
845.389	5109
845.525	5178
845.661	5136
845.798	5086
845.934	5079
846.07	5075
846.206	5231
846.342	5261
846.478	5174
846.614	5052
846.75	4984
846.886	4968
847.022	5136
847.158	5041
847.294	5045
847.429	5079
847.565	5041
847.701	5322
847.837	4847
847.972	4805
848.108	4991
848.244	4961
848.379	4809
848.515	4740
848.65	4778
848.786	4771
848.921	4805
849.057	4904
849.192	4908
849.328	4843
849.463	4839
849.598	4801
849.734	4744
849.869	4698
850.004	4630
850.14	4668
850.275	4653
850.41	4558
850.545	4596
850.68	4599
850.815	4637
850.95	4649
851.085	4816
851.22	4714
851.355	4683
851.49	4603
851.625	4592
851.76	4626
851.895	4584
852.03	4550
852.165	4607
852.299	4744
852.434	4778
852.569	4744
852.703	4790
852.838	4889
852.973	4896
853.107	4885
853.242	4744
853.376	4660
853.511	4512
853.645	4656
853.78	4812
853.914	4698
854.048	4694
854.183	4622
854.317	4706
854.451	4881
854.585	4710
854.72	4645
854.854	4736
854.988	4580
855.122	4649
855.256	4531
855.39	4679
855.524	4774
855.658	4733
855.792	4664
855.926	4683
856.06	4763
856.194	4873
856.327	4660
856.461	4618
856.595	4588
856.729	4698
856.862	4748
856.996	4675
857.13	4801
857.263	4801
857.397	4782
857.53	4565
857.664	4740
857.797	4774
857.931	4748
858.064	4725
858.197	4729
858.331	4611
858.464	4607
858.597	4538
858.731	4599
858.864	4618
858.997	4599
859.13	4668
859.263	4698
859.396	4660
859.529	4653
859.662	4577
859.795	4538
859.928	4634
860.061	4774
860.194	4767
860.327	4618
860.46	4542
860.592	4691
860.725	4687
860.858	4767
860.99	4573
861.123	4561
861.256	4489
861.388	4611
861.521	5345
861.653	4481
861.786	4409
861.918	4516
862.05	4523
862.183	4512
862.315	4611
862.447	4637
862.58	4531
862.712	4417
862.844	4325
862.976	4493
863.108	4462
863.24	4889
863.372	4398
863.504	4402
863.636	4352
863.768	4512
863.9	4447
864.032	4367
864.164	4390
864.296	4447
864.428	4565
864.559	4577
864.691	4523
864.823	4519
864.954	4485
865.086	4542
865.217	4432
865.349	4383
865.48	4455
865.612	4493
865.743	4653
865.875	4489
866.006	4451
866.137	4485
866.269	4402
866.4	4470
866.531	4447
866.662	4394
866.793	4417
866.924	4432
867.055	4493
867.186	4489
867.317	4432
867.448	4356
867.579	4356
867.71	4383
867.841	4383
867.972	4489
868.103	4451
868.233	4405
868.364	4485
868.495	4466
868.625	4641
868.756	4778
868.886	4573
869.017	4675
869.147	4790
869.278	4740
869.408	4714
869.539	4592
869.669	4706
869.799	4656
869.929	4767
870.06	4725
870.19	4972
870.32	4889
870.45	4881
870.58	4976
870.71	5102
870.84	5113
870.97	4946
871.1	4908
871.23	5159
871.36	5147
871.489	5079
871.619	5025
871.749	5121
871.879	5147
872.008	5151
872.138	5033
872.267	4980
872.397	4858
872.526	4862
872.656	4740
872.785	4797
872.915	4965
873.044	5052
873.173	4972
873.303	4995
873.432	4930
873.561	4949
873.69	4915
873.819	4896
873.948	4942
874.077	4858
874.206	4771
874.335	4839
874.464	4911
874.593	5075
874.722	4976
874.851	5052
874.979	5003
875.108	5060
875.237	4949
875.365	4900
875.494	4885
875.623	4949
875.751	4831
875.88	4877
876.008	4934
876.136	4991
876.265	5143
876.393	5307
876.521	5246
876.65	5220
876.778	5159
876.906	5079
877.034	5029
877.162	5003
877.29	4953
877.418	5048
877.546	5041
877.674	5048
877.802	4995
877.93	4984
878.058	4938
878.185	4858
878.313	4987
878.441	4938
878.568	4790
878.696	4896
878.824	4942
878.951	4961
879.079	5159
879.206	5311
879.333	5155
879.461	4980
879.588	5006
879.715	5121
879.842	5235
879.97	4991
880.097	4782
880.224	4763
880.351	4790
880.478	4854
880.605	4786
880.732	4755
880.859	5060
880.986	4949
881.112	4885
881.239	4809
881.366	4702
881.493	4626
881.619	4546
881.746	4645
881.872	4683
881.999	4649
882.125	4698
882.252	4812
882.378	4809
882.505	4995
882.631	4809
882.757	4683
882.883	4717
883.01	4740
883.136	4637
883.262	4637
883.388	4607
883.514	4805
883.64	4854
883.766	4740
883.892	4706
884.018	4675
884.143	4930
884.269	5018
884.395	4660
884.52	4664
884.646	4668
884.772	4592
884.897	4546
885.023	4672
885.148	4812
885.274	4839
885.399	4835
885.524	4733
885.65	4679
885.775	4736
885.9	4672
886.025	4850
886.15	4786
886.275	4729
886.4	4683
886.525	4717
886.65	4656
886.775	4698
886.9	4934
887.025	5014
887.149	4820
887.274	4588
887.399	4626
887.523	4626
887.648	4542
887.773	4569
887.897	4755
888.021	4797
888.146	4710
888.27	4812
888.395	4889
888.519	4759
888.643	4816
888.767	4797
888.891	4664
889.015	4607
889.139	4672
889.263	4637
889.387	4759
889.511	4839
889.635	4763
889.759	4660
889.883	4653
890.006	4717
890.13	4790
890.254	4626
890.377	4660
890.501	4554
890.624	4481
890.748	4622
890.871	4489
890.995	4405
891.118	4394
891.241	4531
891.364	4531
891.488	4550
891.611	4535
891.734	4535
891.857	4584
891.98	4561
892.103	4660
892.226	4607
892.349	4485
892.471	4447
892.594	4550
892.717	4584
892.839	4561
892.962	4573
893.085	4664
893.207	4592
893.33	4489
893.452	4516
893.575	4675
893.697	4580
893.819	4774
893.941	4797
894.064	4733
894.186	4546
894.308	4603
894.43	4710
894.552	4835
894.674	4740
894.796	4519
894.918	4618
895.04	4531
895.161	4717
895.283	4675
895.405	4554
895.526	4607
895.648	4675
895.769	4683
895.891	4729
896.012	4759
896.134	4733
896.255	4668
896.376	4653
896.498	4618
896.619	4714
896.74	4649
896.861	4611
896.982	4938
897.103	5048
897.224	4831
897.345	4748
897.466	4675
897.587	4691
897.708	4847
897.828	4752
897.949	4675
898.07	4584
898.19	4664
898.311	4816
898.431	4668
898.552	4733
898.672	4824
898.792	4771
898.913	4721
899.033	4611
899.153	4451
899.273	4421
899.393	4535
899.513	4516
899.633	4561
899.753	4531
899.873	4462
899.993	4569
900.113	4481
900.232	4588
900.352	4538
900.472	4485
900.591	4447
900.711	4478
900.83	4402
900.95	4596
901.069	4714
901.189	4508
901.308	4367
901.427	4299
901.546	4348
901.665	4443
901.784	4512
901.904	4344
902.023	4291
902.141	4181
902.26	4181
902.379	4280
902.498	4242
902.617	4238
902.735	4379
902.854	4375
902.973	4360
903.091	4211
903.21	4211
903.328	4280
903.446	4246
903.565	4257
903.683	4314
903.801	4329
903.919	4379
904.038	4394
904.156	4287
904.274	4432
904.392	4367
904.51	4432
904.627	4474
904.745	4584
904.863	4611
904.981	4424
905.098	4306
905.216	4337
905.334	4428
905.451	4371
905.569	4417
905.686	4577
905.803	4603
905.921	4398
906.038	4558
906.155	4478
906.272	4379
906.389	4462
906.506	4325
906.623	4398
906.74	4379
906.857	4291
906.974	4363
907.091	4603
907.208	4683
907.324	4550
907.441	4485
907.557	4348
907.674	4337
907.79	4325
907.907	4405
908.023	4497
908.139	4478
908.256	4459
908.372	4466
908.488	4447
908.604	4356
908.72	4352
908.836	4367
908.952	4329
909.068	4394
909.184	4550
909.3	4485
909.415	4546
909.531	4523
909.647	4379
909.762	4344
909.878	4325
909.993	4436
910.108	4413
910.224	4402
910.339	4466
910.454	4417
910.57	4356
910.685	4261
910.8	4645
910.915	4584
911.03	4481
911.145	4261
911.259	4314
911.374	4341
911.489	4249
911.604	4272
911.718	4135
911.833	4192
911.947	4040
912.062	4017
912.176	4192
912.291	4268
912.405	4249
912.519	4459
912.633	4459
912.748	4348
912.862	4306
912.976	4196
913.09	4093
913.204	4128
913.318	4253
913.431	4363
913.545	4386
913.659	4455
913.772	4314
913.886	4223
914	4211
914.113	4375
914.226	4436
914.34	4367
914.453	4280
914.566	4417
914.68	4306
914.793	4348
914.906	4128
915.019	4154
915.132	4036
915.245	4173
915.358	4200
915.47	4223
915.583	4246
915.696	4287
915.809	4398
915.921	4398
916.034	4249
916.146	4238
916.259	4219
916.371	4356
916.483	4314
916.595	4223
916.708	4265
916.82	4242
916.932	4310
917.044	4299
917.156	4341
917.268	4234
917.38	4253
917.491	4276
917.603	4352
917.715	4432
917.826	4436
917.938	4367
918.049	4188
918.161	4390
918.272	4500
918.384	4546
918.495	4409
918.606	4333
918.717	4249
918.828	4356
918.939	4394
919.05	4272
919.161	4295
919.272	4112
919.383	4219
919.494	4409
919.604	4599
919.715	4394
919.826	4379
919.936	4375
920.047	4512
920.157	4459
920.267	4714
920.378	4558
920.488	4500
920.598	4710
920.708	4904
920.818	4752
920.928	4736
921.038	4942
921.148	4972
921.258	4649
921.368	4531
921.477	4459
921.587	4440
921.697	4405
921.806	4531
921.916	4428
922.025	4284
922.134	4223
922.244	4227
922.353	4348
922.462	4177
922.571	4124
922.68	4006
922.789	3987
922.898	4017
923.007	3998
923.116	4097
923.224	4040
923.333	4078
923.442	3937
923.55	3991
923.659	4025
923.767	4063
923.876	3964
923.984	4124
924.092	3994
924.201	4090
924.309	4078
924.417	4090
924.525	4059
924.633	4097
924.741	5029
924.849	3915
924.956	4101
925.064	3945
925.172	3918
925.279	3930
925.387	3987
925.494	4063
925.602	4204
925.709	4154
925.816	4048
925.924	4131
926.031	4257
926.138	4169
926.245	4211
926.352	4097
926.459	4246
926.566	4295
926.673	4177
926.779	4082
926.886	4086
926.993	3964
927.099	3949
927.206	3960
927.312	3953
927.419	4071
927.525	4055
927.631	4063
927.737	3983
927.843	3937
927.95	3812
928.056	3896
928.162	3953
928.267	4040
928.373	4656
928.479	4063
928.585	3835
928.69	3968
928.796	4044
928.901	3956
929.007	3835
929.112	4002
929.218	3998
929.323	3994
929.428	3949
929.533	4097
929.638	3876
929.743	3972
929.848	4071
929.953	4017
930.058	3892
930.163	3751
930.267	3846
930.372	3934
930.477	3778
930.581	4059
930.685	3922
930.79	3831
930.894	3896
930.998	3854
931.103	4044
931.207	3717
931.311	3663
931.415	3656
931.519	3553
931.623	3564
