Data from test_V78500241_664.txt Node
Date: Fri Mar 25 16:53:37 CST 2022
User: usil
Spectrometer: V785-0024
Trigger mode: 0
Integration Time (sec): 4.000000E-1
Scans to average: 1
Nonlinearity correction enabled: false
Boxcar width: 0
Storing dark spectrum: false
XAxis mode: Wavelengths
Number of Pixels in Spectrum: 1024
>>>>>Begin Spectral Data<<<<<
801.071	7989
801.214	8001
801.356	7799
801.499	7792
801.641	7772
801.783	7811
801.926	7978
802.068	7978
802.211	7986
802.353	7925
802.496	7963
802.638	7894
802.78	7970
802.923	7890
803.065	7868
803.208	7780
803.35	7951
803.492	8134
803.635	8096
803.777	7993
803.919	8115
804.061	8351
804.204	8062
804.346	8012
804.488	7997
804.63	8046
804.773	8024
804.915	8119
805.057	8332
805.199	8206
805.341	8199
805.483	8317
805.626	8233
805.768	8073
805.91	8218
806.052	8157
806.194	8046
806.336	8305
806.478	8134
806.62	7993
806.762	8176
806.904	8301
807.046	8442
807.188	8374
807.33	8343
807.472	8351
807.614	8168
807.756	8119
807.898	7982
808.04	7852
808.182	7913
808.324	7890
808.465	7849
808.607	7997
808.749	8107
808.891	8187
809.033	8221
809.174	8176
809.316	7986
809.458	8088
809.6	7982
809.741	8039
809.883	8058
810.025	8096
810.166	8084
810.308	8050
810.45	8012
810.591	7875
810.733	7715
810.875	7689
811.016	7529
811.158	7506
811.299	7597
811.441	7689
811.582	7620
811.724	7563
811.865	7521
812.007	7571
812.148	7597
812.29	7632
812.431	7712
812.573	7814
812.714	7963
812.855	8126
812.997	8199
813.138	8324
813.279	8225
813.421	8172
813.562	8073
813.703	7909
813.845	7734
813.986	7571
814.127	7297
814.268	7232
814.41	7171
814.551	7103
814.692	7175
814.833	7023
814.974	7057
815.115	7099
815.256	6966
815.397	6909
815.539	6920
815.68	6901
815.821	6802
815.962	6871
816.103	6783
816.244	6715
816.385	6604
816.526	6620
816.666	6498
816.807	6213
816.948	6433
817.089	6513
817.23	6456
817.371	6308
817.512	6399
817.653	6414
817.793	6361
817.934	6467
818.075	6460
818.216	6365
818.356	6361
818.497	6289
818.638	6125
818.778	6171
818.919	6136
819.06	6144
819.2	6331
819.341	6311
819.481	6384
819.622	6528
819.762	6783
819.903	6741
820.043	6547
820.184	6521
820.324	6536
820.465	6654
820.605	6623
820.746	6623
820.886	6445
821.026	6635
821.167	6703
821.307	6825
821.447	6703
821.588	6608
821.728	6521
821.868	6483
822.008	6331
822.149	6308
822.289	6304
822.429	6148
822.569	6053
822.709	6079
822.849	5878
822.99	5984
823.13	5901
823.27	5901
823.41	5756
823.55	5745
823.69	5760
823.83	5745
823.97	5649
824.11	5551
824.25	5535
824.389	5543
824.529	5558
824.669	5516
824.809	5623
824.949	5657
825.089	5585
825.228	5520
825.368	5429
825.508	5299
825.648	5315
825.787	5368
825.927	5387
826.067	5299
826.206	5311
826.346	5364
826.485	5406
826.625	5429
826.765	5501
826.904	5463
827.044	5239
827.183	5197
827.323	5155
827.462	5235
827.601	5124
827.741	5143
827.88	5189
828.02	5067
828.159	5189
828.298	5345
828.437	5315
828.577	5220
828.716	5463
828.855	5368
828.994	5159
829.134	5136
829.273	5189
829.412	5105
829.551	5105
829.69	5189
829.829	5239
829.968	5341
830.107	5231
830.246	5254
830.385	5124
830.524	5094
830.663	5075
830.802	4953
830.941	4900
831.08	4862
831.219	5037
831.357	4949
831.496	5147
831.635	4908
831.774	4870
831.913	4812
832.051	4683
832.19	4778
832.329	4828
832.467	4687
832.606	4641
832.744	4660
832.883	4694
833.022	4736
833.16	4782
833.299	4828
833.437	4816
833.576	4816
833.714	4839
833.852	4839
833.991	4866
834.129	4923
834.267	4911
834.406	4877
834.544	4987
834.682	4930
834.821	4972
834.959	5105
835.097	4999
835.235	5147
835.373	5102
835.511	5048
835.65	5052
835.788	5003
835.926	4904
836.064	4881
836.202	4870
836.34	5212
836.478	5242
836.615	5086
836.753	5204
836.891	5239
837.029	5265
837.167	5189
837.305	5075
837.443	5143
837.58	5041
837.718	5197
837.856	5201
837.993	5048
838.131	5197
838.269	5174
838.406	5166
838.544	5193
838.681	5048
838.819	4999
838.956	4927
839.094	4896
839.231	4957
839.369	5105
839.506	5417
839.643	5201
839.781	5060
839.918	4999
840.055	5083
840.193	5060
840.33	5075
840.467	5155
840.604	5197
840.742	5406
840.879	5056
841.016	5113
841.153	5136
841.29	5345
841.427	5303
841.564	5292
841.701	5368
841.838	5273
841.975	5223
842.112	5296
842.249	5185
842.385	5090
842.522	5246
842.659	5166
842.796	5121
842.933	5109
843.069	5140
843.206	5159
843.343	5303
843.479	5258
843.616	5246
843.752	5041
843.889	4980
844.025	5185
844.162	4980
844.298	5220
844.435	5067
844.571	5014
844.708	5201
844.844	5284
844.98	5341
845.117	5220
845.253	5113
845.389	5075
845.525	5140
845.661	5147
845.798	5041
845.934	5189
846.07	5014
846.206	5181
846.342	5273
846.478	5170
846.614	5029
846.75	4953
846.886	4934
847.022	5166
847.158	5037
847.294	5071
847.429	5071
847.565	5079
847.701	5345
847.837	4839
847.972	4778
848.108	4995
848.244	4930
848.379	4763
848.515	4725
848.65	4710
848.786	4748
848.921	4809
849.057	4824
849.192	4923
849.328	4793
849.463	4881
849.598	4763
849.734	4771
849.869	4664
850.004	4603
850.14	4653
850.275	4618
850.41	4538
850.545	4554
850.68	4603
850.815	4622
850.95	4630
851.085	4786
851.22	4755
851.355	4668
851.49	4599
851.625	4611
851.76	4592
851.895	4584
852.03	4527
852.165	4683
852.299	4763
852.434	4828
852.569	4759
852.703	4797
852.838	4805
852.973	4949
853.107	4904
853.242	4721
853.376	4687
853.511	4538
853.645	4561
853.78	4805
853.914	4691
854.048	4675
854.183	4641
854.317	4668
854.451	4843
854.585	4675
854.72	4596
854.854	4733
854.988	4607
855.122	4641
855.256	4489
855.39	4664
855.524	4752
855.658	4660
855.792	4721
855.926	4771
856.06	4710
856.194	4786
856.327	4687
856.461	4584
856.595	4577
856.729	4683
856.862	4714
856.996	4656
857.13	4748
857.263	4767
857.397	4824
857.53	4634
857.664	4740
857.797	4786
857.931	4763
858.064	4645
858.197	4740
858.331	4649
858.464	4615
858.597	4519
858.731	4618
858.864	4630
858.997	4611
859.13	4618
859.263	4675
859.396	4702
859.529	4588
859.662	4535
859.795	4523
859.928	4603
860.061	4744
860.194	4721
860.327	4641
860.46	4565
860.592	4649
860.725	4721
860.858	4721
860.99	4622
861.123	4489
861.256	4500
861.388	4580
861.521	5318
861.653	4493
861.786	4417
861.918	4466
862.05	4538
862.183	4542
862.315	4569
862.447	4592
862.58	4565
862.712	4379
862.844	4303
862.976	4462
863.108	4478
863.24	4923
863.372	4344
863.504	4405
863.636	4440
863.768	4512
863.9	4405
864.032	4280
864.164	4402
864.296	4481
864.428	4531
864.559	4535
864.691	4512
864.823	4497
864.954	4516
865.086	4470
865.217	4455
865.349	4436
865.48	4500
865.612	4481
865.743	4622
865.875	4440
866.006	4443
866.137	4413
866.269	4447
866.4	4402
866.531	4436
866.662	4394
866.793	4424
866.924	4413
867.055	4542
867.186	4440
867.317	4413
867.448	4341
867.579	4379
867.71	4394
867.841	4348
867.972	4478
868.103	4470
868.233	4432
868.364	4428
868.495	4493
868.625	4649
868.756	4759
868.886	4611
869.017	4626
869.147	4793
869.278	4748
869.408	4637
869.539	4664
869.669	4706
869.799	4683
869.929	4763
870.06	4710
870.19	4957
870.32	4885
870.45	4915
870.58	5025
870.71	5071
870.84	5079
870.97	4919
871.1	4889
871.23	5132
871.36	5124
871.489	5010
871.619	5048
871.749	5064
871.879	5140
872.008	5216
872.138	5060
872.267	4968
872.397	4820
872.526	4790
872.656	4717
872.785	4763
872.915	4930
873.044	5033
873.173	4904
873.303	4949
873.432	4949
873.561	4953
873.69	4892
873.819	4850
873.948	4930
874.077	4809
874.206	4710
874.335	4824
874.464	4904
874.593	5022
874.722	4968
874.851	5086
874.979	5105
875.108	5056
875.237	4915
875.365	4881
875.494	4847
875.623	4972
875.751	4831
875.88	4923
876.008	4965
876.136	4991
876.265	5223
876.393	5311
876.521	5269
876.65	5220
876.778	5174
876.906	5060
877.034	5022
877.162	5022
877.29	5033
877.418	5098
877.546	5067
877.674	5014
877.802	5014
877.93	5014
878.058	4961
878.185	4831
878.313	4965
878.441	4953
878.568	4801
878.696	4862
878.824	4923
878.951	4965
879.079	5136
879.206	5303
879.333	5079
879.461	4953
879.588	4911
879.715	5109
879.842	5261
879.97	5060
880.097	4782
880.224	4759
880.351	4824
880.478	4812
880.605	4752
880.732	4820
880.859	5075
880.986	4923
881.112	4911
881.239	4759
881.366	4691
881.493	4607
881.619	4569
881.746	4618
881.872	4649
881.999	4653
882.125	4717
882.252	4805
882.378	4824
882.505	4976
882.631	4824
882.757	4675
882.883	4714
883.01	4759
883.136	4683
883.262	4550
883.388	4577
883.514	4824
883.64	4889
883.766	4774
883.892	4706
884.018	4744
884.143	4885
884.269	5014
884.395	4653
884.52	4618
884.646	4622
884.772	4634
884.897	4546
885.023	4691
885.148	4748
885.274	4858
885.399	4831
885.524	4721
885.65	4672
885.775	4763
885.9	4668
886.025	4824
886.15	4797
886.275	4748
886.4	4615
886.525	4729
886.65	4653
886.775	4691
886.9	4896
887.025	4968
887.149	4824
887.274	4675
887.399	4580
887.523	4588
887.648	4577
887.773	4569
887.897	4721
888.021	4809
888.146	4672
888.27	4752
888.395	4904
888.519	4793
888.643	4767
888.767	4793
888.891	4706
889.015	4611
889.139	4649
889.263	4603
889.387	4771
889.511	4843
889.635	4816
889.759	4592
889.883	4634
890.006	4771
890.13	4809
890.254	4577
890.377	4694
890.501	4554
890.624	4558
890.748	4580
890.871	4500
890.995	4478
891.118	4405
891.241	4519
891.364	4569
891.488	4626
891.611	4485
891.734	4519
891.857	4599
891.98	4504
892.103	4637
892.226	4615
892.349	4504
892.471	4459
892.594	4508
892.717	4634
892.839	4569
892.962	4599
893.085	4679
893.207	4584
893.33	4481
893.452	4523
893.575	4668
893.697	4554
893.819	4797
893.941	4774
894.064	4759
894.186	4558
894.308	4573
894.43	4729
894.552	4812
894.674	4748
894.796	4546
894.918	4565
895.04	4603
895.161	4668
895.283	4660
895.405	4558
895.526	4630
895.648	4752
895.769	4694
895.891	4691
896.012	4714
896.134	4755
896.255	4653
896.376	4656
896.498	4580
896.619	4683
896.74	4588
896.861	4607
896.982	4949
897.103	5079
897.224	4847
897.345	4782
897.466	4649
897.587	4733
897.708	4812
897.828	4710
897.949	4649
898.07	4535
898.19	4615
898.311	4816
898.431	4656
898.552	4725
898.672	4839
898.792	4793
898.913	4679
899.033	4634
899.153	4538
899.273	4405
899.393	4542
899.513	4542
899.633	4508
899.753	4516
899.873	4497
899.993	4554
900.113	4519
900.232	4603
900.352	4535
900.472	4500
900.591	4402
900.711	4497
900.83	4459
900.95	4645
901.069	4679
901.189	4523
901.308	4402
901.427	4284
901.546	4356
901.665	4493
901.784	4485
901.904	4363
902.023	4318
902.141	4181
902.26	4131
902.379	4295
902.498	4257
902.617	4215
902.735	4367
902.854	4318
902.973	4341
903.091	4215
903.21	4238
903.328	4303
903.446	4242
903.565	4276
903.683	4310
903.801	4234
903.919	4390
904.038	4424
904.156	4341
904.274	4436
904.392	4413
904.51	4417
904.627	4440
904.745	4615
904.863	4615
904.981	4375
905.098	4265
905.216	4363
905.334	4402
905.451	4432
905.569	4436
905.686	4565
905.803	4546
905.921	4405
906.038	4569
906.155	4504
906.272	4402
906.389	4443
906.506	4360
906.623	4379
906.74	4348
906.857	4322
906.974	4386
907.091	4550
907.208	4675
907.324	4607
907.441	4516
907.557	4329
907.674	4329
907.79	4337
907.907	4371
908.023	4523
908.139	4481
908.256	4497
908.372	4466
908.488	4451
908.604	4383
908.72	4356
908.836	4409
908.952	4318
909.068	4394
909.184	4554
909.3	4455
909.415	4577
909.531	4565
909.647	4383
909.762	4348
909.878	4360
909.993	4440
910.108	4390
910.224	4413
910.339	4459
910.454	4409
910.57	4367
910.685	4325
910.8	4668
910.915	4599
911.03	4459
911.145	4325
911.259	4322
911.374	4325
911.489	4303
911.604	4303
911.718	4109
911.833	4215
911.947	4112
912.062	4036
912.176	4249
912.291	4234
912.405	4272
912.519	4409
912.633	4478
912.748	4329
912.862	4306
912.976	4284
913.09	4078
913.204	4162
913.318	4257
913.431	4352
913.545	4356
913.659	4394
913.772	4341
913.886	4204
914	4242
914.113	4386
914.226	4489
914.34	4383
914.453	4249
914.566	4417
914.68	4356
914.793	4337
914.906	4166
915.019	4158
915.132	4044
915.245	4188
915.358	4246
915.47	4238
915.583	4306
915.696	4314
915.809	4390
915.921	4508
916.034	4272
916.146	4284
916.259	4246
916.371	4390
916.483	4375
916.595	4219
916.708	4356
916.82	4299
916.932	4344
917.044	4371
917.156	4341
917.268	4211
917.38	4280
917.491	4265
917.603	4299
917.715	4402
917.826	4455
917.938	4360
918.049	4261
918.161	4451
918.272	4500
918.384	4466
918.495	4459
918.606	4325
918.717	4280
918.828	4291
918.939	4356
919.05	4265
919.161	4310
919.272	4188
919.383	4242
919.494	4474
919.604	4675
919.715	4436
919.826	4333
919.936	4390
920.047	4538
920.157	4474
920.267	4668
920.378	4565
920.488	4504
920.598	4687
920.708	4904
920.818	4755
920.928	4752
921.038	4930
921.148	4885
921.258	4584
921.368	4558
921.477	4512
921.587	4489
921.697	4405
921.806	4542
921.916	4440
922.025	4287
922.134	4299
922.244	4219
922.353	4348
922.462	4200
922.571	4131
922.68	3979
922.789	3998
922.898	4059
923.007	3953
923.116	4086
923.224	4074
923.333	4093
923.442	3994
923.55	3991
923.659	4032
923.767	4071
923.876	3987
923.984	4116
924.092	3998
924.201	4048
924.309	4112
924.417	4063
924.525	4040
924.633	4078
924.741	5075
924.849	3896
924.956	4101
925.064	3975
925.172	3915
925.279	3964
925.387	4086
925.494	4097
925.602	4200
925.709	4204
925.816	4040
925.924	4139
926.031	4268
926.138	4147
926.245	4207
926.352	4135
926.459	4230
926.566	4341
926.673	4154
926.779	4090
926.886	4051
926.993	3975
927.099	3937
927.206	3884
927.312	3975
927.419	4059
927.525	4067
927.631	4124
927.737	3998
927.843	3987
927.95	3846
928.056	3922
928.162	3979
928.267	4059
928.373	4694
928.479	4116
928.585	3899
928.69	4006
928.796	4059
928.901	3979
929.007	3831
929.112	4002
929.218	4002
929.323	3991
929.428	3884
929.533	4101
929.638	3918
929.743	3922
929.848	4063
929.953	3987
930.058	3937
930.163	3781
930.267	3812
930.372	3972
930.477	3774
930.581	4082
930.685	3949
930.79	3797
930.894	3884
930.998	3892
931.103	4051
931.207	3720
931.311	3701
931.415	3690
931.519	3496
931.623	3542
