Data from test_V78500241_2737.txt Node
Date: Fri Mar 25 17:08:02 CST 2022
User: usil
Spectrometer: V785-0024
Trigger mode: 0
Integration Time (sec): 4.000000E-1
Scans to average: 1
Nonlinearity correction enabled: false
Boxcar width: 0
Storing dark spectrum: false
XAxis mode: Wavelengths
Number of Pixels in Spectrum: 1024
>>>>>Begin Spectral Data<<<<<
801.071	8005
801.214	8016
801.356	7845
801.499	7879
801.641	7864
801.783	7856
801.926	7993
802.068	7978
802.211	8024
802.353	8039
802.496	7830
802.638	7928
802.78	7944
802.923	7959
803.065	7864
803.208	7913
803.35	8005
803.492	8180
803.635	8191
803.777	8100
803.919	8153
804.061	8465
804.204	8138
804.346	8031
804.488	7959
804.63	8176
804.773	8062
804.915	8084
805.057	8267
805.199	8195
805.341	8161
805.483	8286
805.626	8237
805.768	8202
805.91	8229
806.052	8240
806.194	8088
806.336	8271
806.478	8077
806.62	8050
806.762	8149
806.904	8225
807.046	8507
807.188	8465
807.33	8320
807.472	8362
807.614	8199
807.756	8176
807.898	8035
808.04	7837
808.182	7883
808.324	7864
808.465	7947
808.607	8130
808.749	8210
808.891	8210
809.033	8355
809.174	8263
809.316	8157
809.458	8065
809.6	7993
809.741	8016
809.883	8020
810.025	8043
810.166	8058
810.308	8054
810.45	8001
810.591	7871
810.733	7788
810.875	7693
811.016	7537
811.158	7453
811.299	7609
811.441	7712
811.582	7647
811.724	7632
811.865	7563
812.007	7624
812.148	7658
812.29	7658
812.431	7753
812.573	7864
812.714	8031
812.855	8092
812.997	8259
813.138	8263
813.279	8187
813.421	8123
813.562	7951
813.703	7890
813.845	7795
813.986	7403
814.127	7308
814.268	7221
814.41	7209
814.551	7152
814.692	7236
814.833	7072
814.974	7065
815.115	7137
815.256	6935
815.397	6913
815.539	6947
815.68	6806
815.821	6745
815.962	6821
816.103	6806
816.244	6722
816.385	6623
816.526	6631
816.666	6494
816.807	6304
816.948	6498
817.089	6506
817.23	6460
817.371	6353
817.512	6391
817.653	6384
817.793	6407
817.934	6445
818.075	6479
818.216	6395
818.356	6403
818.497	6190
818.638	6098
818.778	6163
818.919	6098
819.06	6155
819.2	6331
819.341	6380
819.481	6365
819.622	6517
819.762	6730
819.903	6673
820.043	6616
820.184	6658
820.324	6578
820.465	6707
820.605	6700
820.746	6642
820.886	6544
821.026	6700
821.167	6635
821.307	6798
821.447	6749
821.588	6665
821.728	6582
821.868	6486
822.008	6296
822.149	6315
822.289	6327
822.429	6114
822.569	6068
822.709	6125
822.849	5950
822.99	5912
823.13	5927
823.27	5904
823.41	5779
823.55	5760
823.69	5771
823.83	5764
823.97	5638
824.11	5512
824.25	5547
824.389	5528
824.529	5596
824.669	5547
824.809	5649
824.949	5672
825.089	5558
825.228	5524
825.368	5406
825.508	5337
825.648	5326
825.787	5349
825.927	5383
826.067	5296
826.206	5292
826.346	5402
826.485	5398
826.625	5410
826.765	5524
826.904	5505
827.044	5227
827.183	5235
827.323	5117
827.462	5254
827.601	5151
827.741	5201
827.88	5212
828.02	5064
828.159	5231
828.298	5311
828.437	5368
828.577	5250
828.716	5486
828.855	5303
828.994	5162
829.134	5132
829.273	5162
829.412	5086
829.551	5124
829.69	5098
829.829	5235
829.968	5372
830.107	5277
830.246	5284
830.385	5174
830.524	5162
830.663	5094
830.802	4984
830.941	4900
831.08	4858
831.219	4987
831.357	4972
831.496	5140
831.635	4908
831.774	4889
831.913	4847
832.051	4717
832.19	4759
832.329	4801
832.467	4698
832.606	4607
832.744	4763
832.883	4763
833.022	4744
833.16	4767
833.299	4816
833.437	4809
833.576	4862
833.714	4835
833.852	4881
833.991	4839
834.129	4961
834.267	4984
834.406	4885
834.544	5018
834.682	4934
834.821	5003
834.959	5201
835.097	5029
835.235	5113
835.373	5071
835.511	5048
835.65	5079
835.788	5029
835.926	4885
836.064	4816
836.202	4938
836.34	5212
836.478	5254
836.615	5136
836.753	5208
836.891	5280
837.029	5280
837.167	5201
837.305	5151
837.443	5105
837.58	5045
837.718	5239
837.856	5185
837.993	5098
838.131	5220
838.269	5223
838.406	5197
838.544	5136
838.681	4999
838.819	5025
838.956	4889
839.094	4911
839.231	5006
839.369	5090
839.506	5398
839.643	5246
839.781	5067
839.918	4987
840.055	5124
840.193	5124
840.33	5132
840.467	5083
840.604	5216
840.742	5452
840.879	5079
841.016	5060
841.153	5143
841.29	5341
841.427	5326
841.564	5379
841.701	5360
841.838	5193
841.975	5208
842.112	5261
842.249	5113
842.385	5060
842.522	5307
842.659	5140
842.796	5166
842.933	5162
843.069	5155
843.206	5208
843.343	5296
843.479	5277
843.616	5322
843.752	5048
843.889	4995
844.025	5178
844.162	4999
844.298	5204
844.435	5075
844.571	5033
844.708	5197
844.844	5391
844.98	5299
845.117	5269
845.253	5159
845.389	5075
845.525	5140
845.661	5124
845.798	5052
845.934	5128
846.07	5037
846.206	5178
846.342	5277
846.478	5178
846.614	4995
846.75	4938
846.886	4934
847.022	5151
847.158	4984
847.294	5025
847.429	5067
847.565	5064
847.701	5322
847.837	4824
847.972	4831
848.108	4908
848.244	4908
848.379	4778
848.515	4710
848.65	4706
848.786	4759
848.921	4774
849.057	4801
849.192	4896
849.328	4805
849.463	4786
849.598	4805
849.734	4744
849.869	4714
850.004	4618
850.14	4656
850.275	4599
850.41	4569
850.545	4550
850.68	4584
850.815	4618
850.95	4607
851.085	4877
851.22	4778
851.355	4611
851.49	4607
851.625	4577
851.76	4664
851.895	4527
852.03	4546
852.165	4611
852.299	4725
852.434	4774
852.569	4740
852.703	4717
852.838	4839
852.973	4896
853.107	4900
853.242	4752
853.376	4679
853.511	4584
853.645	4672
853.78	4831
853.914	4630
854.048	4634
854.183	4668
854.317	4683
854.451	4805
854.585	4691
854.72	4660
854.854	4733
854.988	4592
855.122	4634
855.256	4523
855.39	4645
855.524	4771
855.658	4717
855.792	4675
855.926	4721
856.06	4759
856.194	4820
856.327	4672
856.461	4588
856.595	4561
856.729	4592
856.862	4740
856.996	4653
857.13	4774
857.263	4759
857.397	4793
857.53	4687
857.664	4698
857.797	4778
857.931	4752
858.064	4710
858.197	4740
858.331	4645
858.464	4588
858.597	4527
858.731	4622
858.864	4588
858.997	4607
859.13	4626
859.263	4687
859.396	4649
859.529	4573
859.662	4535
859.795	4542
859.928	4599
860.061	4763
860.194	4729
860.327	4611
860.46	4558
860.592	4687
860.725	4698
860.858	4687
860.99	4588
861.123	4527
861.256	4485
861.388	4584
861.521	5277
861.653	4481
861.786	4447
861.918	4451
862.05	4546
862.183	4527
862.315	4622
862.447	4618
862.58	4538
862.712	4367
862.844	4344
862.976	4508
863.108	4436
863.24	4759
863.372	4306
863.504	4421
863.636	4390
863.768	4489
863.9	4428
864.032	4337
864.164	4413
864.296	4447
864.428	4577
864.559	4580
864.691	4554
864.823	4489
864.954	4481
865.086	4519
865.217	4436
865.349	4455
865.48	4493
865.612	4497
865.743	4622
865.875	4459
866.006	4428
866.137	4474
866.269	4459
866.4	4413
866.531	4462
866.662	4409
866.793	4390
866.924	4447
867.055	4504
867.186	4440
867.317	4451
867.448	4398
867.579	4402
867.71	4413
867.841	4417
867.972	4470
868.103	4459
868.233	4481
868.364	4421
868.495	4485
868.625	4672
868.756	4740
868.886	4611
869.017	4596
869.147	4763
869.278	4839
869.408	4641
869.539	4664
869.669	4698
869.799	4653
869.929	4740
870.06	4710
870.19	4953
870.32	4892
870.45	5052
870.58	4987
870.71	5109
870.84	5124
870.97	4919
871.1	4881
871.23	5140
871.36	5147
871.489	4991
871.619	5033
871.749	5136
871.879	5162
872.008	5162
872.138	4999
872.267	4923
872.397	4858
872.526	4790
872.656	4752
872.785	4755
872.915	4946
873.044	5022
873.173	4892
873.303	5006
873.432	4949
873.561	4908
873.69	4915
873.819	4923
873.948	4938
874.077	4774
874.206	4755
874.335	4816
874.464	4904
874.593	5048
874.722	4946
874.851	5060
874.979	5052
875.108	5060
875.237	4938
875.365	4870
875.494	4896
875.623	4930
875.751	4881
875.88	4900
876.008	5014
876.136	5048
876.265	5178
876.393	5368
876.521	5178
876.65	5216
876.778	5128
876.906	5121
877.034	5010
877.162	5090
877.29	4980
877.418	5056
877.546	5045
877.674	5010
877.802	5056
877.93	5045
878.058	4934
878.185	4919
878.313	4991
878.441	4930
878.568	4873
878.696	4847
878.824	4953
878.951	4942
879.079	5094
879.206	5254
879.333	5060
879.461	4976
879.588	5010
879.715	5151
879.842	5280
879.97	4976
880.097	4790
880.224	4771
880.351	4774
880.478	4854
880.605	4801
880.732	4786
880.859	5060
880.986	4919
881.112	4904
881.239	4816
881.366	4637
881.493	4615
881.619	4558
881.746	4611
881.872	4702
881.999	4660
882.125	4706
882.252	4805
882.378	4889
882.505	4938
882.631	4847
882.757	4660
882.883	4736
883.01	4755
883.136	4660
883.262	4592
883.388	4584
883.514	4820
883.64	4847
883.766	4790
883.892	4687
884.018	4729
884.143	4889
884.269	5029
884.395	4626
884.52	4622
884.646	4649
884.772	4607
884.897	4588
885.023	4645
885.148	4744
885.274	4854
885.399	4805
885.524	4725
885.65	4698
885.775	4748
885.9	4660
886.025	4873
886.15	4736
886.275	4714
886.4	4683
886.525	4733
886.65	4675
886.775	4675
886.9	4934
887.025	5018
887.149	4793
887.274	4683
887.399	4546
887.523	4573
887.648	4565
887.773	4615
887.897	4744
888.021	4755
888.146	4634
888.27	4797
888.395	4911
888.519	4812
888.643	4805
888.767	4805
888.891	4588
889.015	4611
889.139	4683
889.263	4603
889.387	4740
889.511	4843
889.635	4763
889.759	4618
889.883	4634
890.006	4748
890.13	4786
890.254	4603
890.377	4641
890.501	4512
890.624	4546
890.748	4645
890.871	4497
890.995	4398
891.118	4356
891.241	4489
891.364	4573
891.488	4668
891.611	4512
891.734	4569
891.857	4573
891.98	4577
892.103	4599
892.226	4626
892.349	4489
892.471	4394
892.594	4527
892.717	4596
892.839	4558
892.962	4558
893.085	4675
893.207	4615
893.33	4455
893.452	4546
893.575	4683
893.697	4607
893.819	4755
893.941	4847
894.064	4744
894.186	4577
894.308	4580
894.43	4721
894.552	4786
894.674	4721
894.796	4546
894.918	4592
895.04	4573
895.161	4702
895.283	4672
895.405	4615
895.526	4698
895.648	4653
895.769	4710
895.891	4721
896.012	4782
896.134	4694
896.255	4714
896.376	4626
896.498	4630
896.619	4687
896.74	4588
896.861	4645
896.982	4896
897.103	5067
897.224	4870
897.345	4710
897.466	4630
897.587	4733
897.708	4873
897.828	4733
897.949	4664
898.07	4561
898.19	4611
898.311	4835
898.431	4694
898.552	4778
898.672	4805
898.792	4793
898.913	4710
899.033	4637
899.153	4516
899.273	4466
899.393	4455
899.513	4573
899.633	4512
899.753	4531
899.873	4558
899.993	4580
900.113	4558
900.232	4577
900.352	4535
900.472	4508
900.591	4390
900.711	4565
900.83	4432
900.95	4611
901.069	4710
901.189	4599
901.308	4375
901.427	4284
901.546	4352
901.665	4440
901.784	4519
901.904	4398
902.023	4333
902.141	4158
902.26	4188
902.379	4306
902.498	4200
902.617	4181
902.735	4375
902.854	4409
902.973	4394
903.091	4230
903.21	4249
903.328	4287
903.446	4249
903.565	4242
903.683	4398
903.801	4291
903.919	4405
904.038	4440
904.156	4306
904.274	4466
904.392	4398
904.51	4424
904.627	4478
904.745	4607
904.863	4577
904.981	4390
905.098	4280
905.216	4333
905.334	4421
905.451	4421
905.569	4478
905.686	4542
905.803	4542
905.921	4394
906.038	4573
906.155	4489
906.272	4383
906.389	4440
906.506	4341
906.623	4371
906.74	4394
906.857	4287
906.974	4344
907.091	4569
907.208	4733
907.324	4569
907.441	4500
907.557	4337
907.674	4352
907.79	4287
907.907	4421
908.023	4481
908.139	4462
908.256	4409
908.372	4424
908.488	4443
908.604	4363
908.72	4371
908.836	4356
908.952	4379
909.068	4462
909.184	4584
909.3	4489
909.415	4584
909.531	4531
909.647	4375
909.762	4363
909.878	4314
909.993	4459
910.108	4443
910.224	4443
910.339	4512
910.454	4421
910.57	4367
910.685	4322
910.8	4675
910.915	4577
911.03	4516
911.145	4333
911.259	4341
911.374	4375
911.489	4322
911.604	4265
911.718	4150
911.833	4188
911.947	4074
912.062	4017
912.176	4204
912.291	4230
912.405	4257
912.519	4489
912.633	4470
912.748	4440
912.862	4337
912.976	4181
913.09	4078
913.204	4169
913.318	4253
913.431	4398
913.545	4405
913.659	4440
913.772	4390
913.886	4211
914	4211
914.113	4379
914.226	4443
914.34	4394
914.453	4249
914.566	4413
914.68	4303
914.793	4322
914.906	4162
915.019	4181
915.132	4063
915.245	4234
915.358	4219
915.47	4268
915.583	4284
915.696	4310
915.809	4462
915.921	4424
916.034	4249
916.146	4249
916.259	4204
916.371	4367
916.483	4363
916.595	4280
916.708	4318
916.82	4314
916.932	4291
917.044	4329
917.156	4337
917.268	4257
917.38	4219
917.491	4246
917.603	4329
917.715	4451
917.826	4455
917.938	4299
918.049	4227
918.161	4428
918.272	4554
918.384	4531
918.495	4459
918.606	4299
918.717	4230
918.828	4363
918.939	4363
919.05	4261
919.161	4287
919.272	4109
919.383	4242
919.494	4443
919.604	4584
919.715	4440
919.826	4333
919.936	4383
920.047	4516
920.157	4466
920.267	4615
920.378	4516
920.488	4519
920.598	4679
920.708	4862
920.818	4752
920.928	4774
921.038	4923
921.148	4927
921.258	4634
921.368	4569
921.477	4500
921.587	4470
921.697	4398
921.806	4554
921.916	4390
922.025	4246
922.134	4257
922.244	4215
922.353	4348
922.462	4169
922.571	4097
922.68	4059
922.789	3972
922.898	4017
923.007	3960
923.116	4074
923.224	4048
923.333	4021
923.442	3972
923.55	3983
923.659	3994
923.767	4082
923.876	4048
923.984	4112
924.092	3991
924.201	4105
924.309	4120
924.417	4101
924.525	4063
924.633	4059
924.741	5075
924.849	3888
924.956	4109
925.064	3953
925.172	3937
925.279	3960
925.387	4044
925.494	4086
925.602	4177
925.709	4185
925.816	4021
925.924	4135
926.031	4227
926.138	4200
926.245	4196
926.352	4116
926.459	4253
926.566	4276
926.673	4162
926.779	4086
926.886	4036
926.993	3987
927.099	3987
927.206	3949
927.312	3941
927.419	4059
927.525	4021
927.631	4063
927.737	3994
927.843	3922
927.95	3819
928.056	3968
928.162	4017
928.267	4071
928.373	4687
928.479	4093
928.585	3873
928.69	3991
928.796	4090
928.901	3987
929.007	3850
929.112	3968
929.218	3960
929.323	3979
929.428	3953
929.533	4067
929.638	3903
929.743	3972
929.848	4078
929.953	3998
930.058	3903
930.163	3759
930.267	3804
930.372	3987
930.477	3762
930.581	4078
930.685	3918
930.79	3823
930.894	3876
930.998	3846
931.103	4032
931.207	3724
931.311	3698
931.415	3656
931.519	3523
931.623	3553
