Data from test_V78500241_1694.txt Node
Date: Fri Mar 25 17:00:46 CST 2022
User: usil
Spectrometer: V785-0024
Trigger mode: 0
Integration Time (sec): 4.000000E-1
Scans to average: 1
Nonlinearity correction enabled: false
Boxcar width: 0
Storing dark spectrum: false
XAxis mode: Wavelengths
Number of Pixels in Spectrum: 1024
>>>>>Begin Spectral Data<<<<<
801.071	7955
801.214	8035
801.356	7906
801.499	7830
801.641	7776
801.783	7845
801.926	7982
802.068	7947
802.211	7925
802.353	8008
802.496	7898
802.638	7852
802.78	7913
802.923	7932
803.065	7909
803.208	7875
803.35	7959
803.492	8077
803.635	8206
803.777	7932
803.919	8149
804.061	8484
804.204	8145
804.346	8062
804.488	7978
804.63	8123
804.773	7997
804.915	8111
805.057	8282
805.199	8183
805.341	8225
805.483	8244
805.626	8191
805.768	8081
805.91	8206
806.052	8210
806.194	8195
806.336	8290
806.478	8119
806.62	8119
806.762	8096
806.904	8229
807.046	8564
807.188	8408
807.33	8256
807.472	8324
807.614	8153
807.756	8119
807.898	8035
808.04	7879
808.182	7894
808.324	7932
808.465	7883
808.607	8065
808.749	8115
808.891	8252
809.033	8279
809.174	8164
809.316	8088
809.458	8092
809.6	7974
809.741	8046
809.883	8031
810.025	8069
810.166	8058
810.308	8043
810.45	8012
810.591	7883
810.733	7715
810.875	7734
811.016	7533
811.158	7575
811.299	7552
811.441	7727
811.582	7712
811.724	7590
811.865	7620
812.007	7609
812.148	7636
812.29	7677
812.431	7811
812.573	7932
812.714	8035
812.855	8153
812.997	8214
813.138	8339
813.279	8172
813.421	8073
813.562	8008
813.703	7788
813.845	7772
813.986	7407
814.127	7240
814.268	7278
814.41	7137
814.551	7156
814.692	7240
814.833	7095
814.974	7107
815.115	7168
815.256	7061
815.397	6886
815.539	7004
815.68	6810
815.821	6787
815.962	6913
816.103	6818
816.244	6726
816.385	6635
816.526	6662
816.666	6490
816.807	6308
816.948	6445
817.089	6498
817.23	6433
817.371	6338
817.512	6384
817.653	6342
817.793	6334
817.934	6410
818.075	6452
818.216	6448
818.356	6388
818.497	6311
818.638	6079
818.778	6159
818.919	6152
819.06	6133
819.2	6334
819.341	6308
819.481	6403
819.622	6544
819.762	6707
819.903	6700
820.043	6635
820.184	6559
820.324	6639
820.465	6692
820.605	6650
820.746	6665
820.886	6498
821.026	6658
821.167	6741
821.307	6783
821.447	6791
821.588	6703
821.728	6582
821.868	6486
822.008	6327
822.149	6422
822.289	6391
822.429	6155
822.569	6072
822.709	6133
822.849	5927
822.99	5897
823.13	5942
823.27	5904
823.41	5817
823.55	5783
823.69	5786
823.83	5817
823.97	5665
824.11	5505
824.25	5543
824.389	5554
824.529	5619
824.669	5528
824.809	5668
824.949	5722
825.089	5634
825.228	5619
825.368	5417
825.508	5368
825.648	5372
825.787	5444
825.927	5406
826.067	5284
826.206	5265
826.346	5357
826.485	5376
826.625	5391
826.765	5570
826.904	5493
827.044	5254
827.183	5166
827.323	5124
827.462	5307
827.601	5239
827.741	5193
827.88	5201
828.02	5124
828.159	5201
828.298	5337
828.437	5368
828.577	5299
828.716	5459
828.855	5280
828.994	5147
829.134	5174
829.273	5170
829.412	5185
829.551	5121
829.69	5204
829.829	5277
829.968	5364
830.107	5242
830.246	5246
830.385	5204
830.524	5132
830.663	5052
830.802	4961
830.941	4911
831.08	4889
831.219	5003
831.357	4999
831.496	5181
831.635	4972
831.774	4892
831.913	4858
832.051	4725
832.19	4729
832.329	4801
832.467	4755
832.606	4672
832.744	4721
832.883	4771
833.022	4752
833.16	4809
833.299	4820
833.437	4843
833.576	4835
833.714	4847
833.852	4904
833.991	4870
834.129	4934
834.267	4984
834.406	4866
834.544	4953
834.682	4942
834.821	5018
834.959	5155
835.097	4987
835.235	5166
835.373	5113
835.511	5056
835.65	5025
835.788	5075
835.926	4866
836.064	4889
836.202	4930
836.34	5128
836.478	5284
836.615	5117
836.753	5239
836.891	5269
837.029	5231
837.167	5204
837.305	5136
837.443	5151
837.58	5067
837.718	5246
837.856	5170
837.993	5086
838.131	5193
838.269	5181
838.406	5223
838.544	5147
838.681	5010
838.819	5029
838.956	4885
839.094	4911
839.231	4972
839.369	5105
839.506	5429
839.643	5277
839.781	5067
839.918	5045
840.055	5117
840.193	5098
840.33	5174
840.467	5147
840.604	5178
840.742	5402
840.879	5025
841.016	5075
841.153	5151
841.29	5353
841.427	5353
841.564	5307
841.701	5376
841.838	5242
841.975	5280
842.112	5303
842.249	5128
842.385	5117
842.522	5353
842.659	5193
842.796	5185
842.933	5189
843.069	5147
843.206	5151
843.343	5288
843.479	5254
843.616	5292
843.752	5006
843.889	4965
844.025	5201
844.162	5045
844.298	5140
844.435	5117
844.571	5029
844.708	5201
844.844	5280
844.98	5311
845.117	5242
845.253	5132
845.389	5041
845.525	5174
845.661	5105
845.798	5060
845.934	5128
846.07	5067
846.206	5159
846.342	5318
846.478	5197
846.614	5056
846.75	5003
846.886	4965
847.022	5151
847.158	5018
847.294	5060
847.429	5094
847.565	5048
847.701	5372
847.837	4858
847.972	4801
848.108	4949
848.244	4946
848.379	4755
848.515	4733
848.65	4687
848.786	4725
848.921	4774
849.057	4885
849.192	4915
849.328	4831
849.463	4870
849.598	4725
849.734	4744
849.869	4698
850.004	4668
850.14	4641
850.275	4607
850.41	4535
850.545	4546
850.68	4618
850.815	4660
850.95	4603
851.085	4831
851.22	4729
851.355	4679
851.49	4607
851.625	4634
851.76	4603
851.895	4504
852.03	4550
852.165	4603
852.299	4755
852.434	4767
852.569	4752
852.703	4721
852.838	4866
852.973	4980
853.107	4934
853.242	4725
853.376	4630
853.511	4584
853.645	4637
853.78	4809
853.914	4668
854.048	4679
854.183	4630
854.317	4679
854.451	4801
854.585	4660
854.72	4660
854.854	4664
854.988	4558
855.122	4603
855.256	4519
855.39	4660
855.524	4725
855.658	4714
855.792	4717
855.926	4763
856.06	4694
856.194	4843
856.327	4702
856.461	4558
856.595	4641
856.729	4603
856.862	4774
856.996	4679
857.13	4717
857.263	4721
857.397	4816
857.53	4660
857.664	4717
857.797	4755
857.931	4744
858.064	4687
858.197	4733
858.331	4584
858.464	4653
858.597	4535
858.731	4622
858.864	4630
858.997	4615
859.13	4603
859.263	4675
859.396	4694
859.529	4615
859.662	4554
859.795	4558
859.928	4641
860.061	4759
860.194	4740
860.327	4645
860.46	4550
860.592	4698
860.725	4702
860.858	4679
860.99	4558
861.123	4481
861.256	4508
861.388	4622
861.521	5181
861.653	4542
861.786	4402
861.918	4493
862.05	4485
862.183	4569
862.315	4611
862.447	4694
862.58	4577
862.712	4394
862.844	4291
862.976	4497
863.108	4474
863.24	4866
863.372	4360
863.504	4432
863.636	4383
863.768	4493
863.9	4451
864.032	4394
864.164	4363
864.296	4459
864.428	4580
864.559	4573
864.691	4535
864.823	4512
864.954	4523
865.086	4512
865.217	4417
865.349	4398
865.48	4470
865.612	4500
865.743	4584
865.875	4493
866.006	4390
866.137	4508
866.269	4459
866.4	4409
866.531	4398
866.662	4379
866.793	4344
866.924	4455
867.055	4447
867.186	4432
867.317	4394
867.448	4303
867.579	4421
867.71	4394
867.841	4360
867.972	4447
868.103	4459
868.233	4451
868.364	4462
868.495	4504
868.625	4649
868.756	4744
868.886	4508
869.017	4611
869.147	4778
869.278	4744
869.408	4622
869.539	4672
869.669	4736
869.799	4618
869.929	4744
870.06	4717
870.19	4984
870.32	4927
870.45	4942
870.58	4957
870.71	5071
870.84	5094
870.97	4885
871.1	4904
871.23	5159
871.36	5109
871.489	5018
871.619	5094
871.749	5094
871.879	5060
872.008	5174
872.138	5022
872.267	4980
872.397	4816
872.526	4729
872.656	4687
872.785	4774
872.915	4934
873.044	4980
873.173	4908
873.303	4946
873.432	4927
873.561	4934
873.69	4873
873.819	4911
873.948	4919
874.077	4816
874.206	4729
874.335	4748
874.464	4919
874.593	5079
874.722	4987
874.851	5010
874.979	5041
875.108	5029
875.237	4915
875.365	4889
875.494	4866
875.623	4946
875.751	4786
875.88	4843
876.008	4961
876.136	5079
876.265	5208
876.393	5315
876.521	5250
876.65	5220
876.778	5166
876.906	5083
877.034	5006
877.162	5037
877.29	4999
877.418	5033
877.546	5014
877.674	5075
877.802	5048
877.93	5033
878.058	4934
878.185	4896
878.313	4976
878.441	4968
878.568	4816
878.696	4870
878.824	4923
878.951	4995
879.079	5151
879.206	5326
879.333	5105
879.461	4980
879.588	5022
879.715	5128
879.842	5204
879.97	5014
880.097	4759
880.224	4744
880.351	4843
880.478	4824
880.605	4790
880.732	4790
880.859	5113
880.986	4866
881.112	4900
881.239	4771
881.366	4641
881.493	4599
881.619	4565
881.746	4603
881.872	4637
881.999	4653
882.125	4656
882.252	4767
882.378	4843
882.505	4965
882.631	4782
882.757	4702
882.883	4752
883.01	4736
883.136	4691
883.262	4592
883.388	4626
883.514	4809
883.64	4862
883.766	4782
883.892	4653
884.018	4698
884.143	4885
884.269	4965
884.395	4656
884.52	4588
884.646	4611
884.772	4611
884.897	4569
885.023	4675
885.148	4820
885.274	4889
885.399	4847
885.524	4752
885.65	4710
885.775	4778
885.9	4691
886.025	4858
886.15	4767
886.275	4714
886.4	4683
886.525	4774
886.65	4717
886.775	4694
886.9	4904
887.025	5010
887.149	4797
887.274	4656
887.399	4592
887.523	4615
887.648	4542
887.773	4577
887.897	4771
888.021	4809
888.146	4717
888.27	4805
888.395	4850
888.519	4835
888.643	4812
888.767	4816
888.891	4664
889.015	4603
889.139	4687
889.263	4611
889.387	4729
889.511	4824
889.635	4786
889.759	4664
889.883	4649
890.006	4767
890.13	4843
890.254	4618
890.377	4679
890.501	4542
890.624	4489
890.748	4565
890.871	4500
890.995	4405
891.118	4394
891.241	4546
891.364	4599
891.488	4668
891.611	4523
891.734	4516
891.857	4596
891.98	4573
892.103	4634
892.226	4569
892.349	4558
892.471	4470
892.594	4596
892.717	4573
892.839	4573
892.962	4584
893.085	4603
893.207	4607
893.33	4447
893.452	4504
893.575	4637
893.697	4592
893.819	4782
893.941	4847
894.064	4736
894.186	4565
894.308	4519
894.43	4706
894.552	4782
894.674	4733
894.796	4565
894.918	4615
895.04	4565
895.161	4729
895.283	4634
895.405	4558
895.526	4626
895.648	4694
895.769	4683
895.891	4687
896.012	4733
896.134	4706
896.255	4660
896.376	4615
896.498	4599
896.619	4649
896.74	4607
896.861	4694
896.982	4877
897.103	5086
897.224	4866
897.345	4706
897.466	4653
897.587	4714
897.708	4797
897.828	4755
897.949	4668
898.07	4577
898.19	4645
898.311	4816
898.431	4672
898.552	4771
898.672	4835
898.792	4801
898.913	4752
899.033	4615
899.153	4538
899.273	4428
899.393	4489
899.513	4527
899.633	4497
899.753	4535
899.873	4508
899.993	4550
900.113	4535
900.232	4618
900.352	4535
900.472	4462
900.591	4398
900.711	4474
900.83	4440
900.95	4630
901.069	4721
901.189	4523
901.308	4379
901.427	4352
901.546	4367
901.665	4443
901.784	4508
901.904	4409
902.023	4291
902.141	4181
902.26	4177
902.379	4325
902.498	4265
902.617	4238
902.735	4405
902.854	4405
902.973	4402
903.091	4219
903.21	4200
903.328	4318
903.446	4257
903.565	4276
903.683	4337
903.801	4295
903.919	4394
904.038	4394
904.156	4344
904.274	4375
904.392	4386
904.51	4447
904.627	4508
904.745	4550
904.863	4637
904.981	4413
905.098	4291
905.216	4398
905.334	4443
905.451	4432
905.569	4386
905.686	4497
905.803	4565
905.921	4413
906.038	4489
906.155	4493
906.272	4405
906.389	4459
906.506	4344
906.623	4394
906.74	4375
906.857	4291
906.974	4344
907.091	4527
907.208	4702
907.324	4550
907.441	4440
907.557	4318
907.674	4367
907.79	4348
907.907	4348
908.023	4470
908.139	4485
908.256	4436
908.372	4478
908.488	4455
908.604	4322
908.72	4314
908.836	4367
908.952	4367
909.068	4413
909.184	4554
909.3	4451
909.415	4558
909.531	4546
909.647	4367
909.762	4348
909.878	4344
909.993	4432
910.108	4428
910.224	4360
910.339	4497
910.454	4394
910.57	4360
910.685	4306
910.8	4622
910.915	4596
911.03	4481
911.145	4318
911.259	4318
911.374	4390
911.489	4291
911.604	4295
911.718	4154
911.833	4185
911.947	4051
912.062	4013
912.176	4204
912.291	4192
912.405	4268
912.519	4485
912.633	4489
912.748	4337
912.862	4291
912.976	4215
913.09	4051
913.204	4150
913.318	4234
913.431	4360
913.545	4383
913.659	4417
913.772	4287
913.886	4261
914	4230
914.113	4379
914.226	4436
914.34	4348
914.453	4215
914.566	4409
914.68	4310
914.793	4314
914.906	4196
915.019	4124
915.132	4082
915.245	4192
915.358	4192
915.47	4246
915.583	4257
915.696	4333
915.809	4405
915.921	4443
916.034	4242
916.146	4242
916.259	4227
916.371	4405
916.483	4337
916.595	4261
916.708	4341
916.82	4295
916.932	4291
917.044	4329
917.156	4291
917.268	4265
917.38	4253
917.491	4276
917.603	4352
917.715	4398
917.826	4390
917.938	4375
918.049	4246
918.161	4428
918.272	4535
918.384	4538
918.495	4466
918.606	4280
918.717	4223
918.828	4329
918.939	4356
919.05	4246
919.161	4299
919.272	4082
919.383	4211
919.494	4470
919.604	4653
919.715	4443
919.826	4341
919.936	4390
920.047	4546
920.157	4485
920.267	4637
920.378	4535
920.488	4516
920.598	4725
920.708	4873
920.818	4778
920.928	4740
921.038	4968
921.148	4908
921.258	4607
921.368	4527
921.477	4466
921.587	4489
921.697	4413
921.806	4512
921.916	4443
922.025	4249
922.134	4227
922.244	4196
922.353	4284
922.462	4158
922.571	4097
922.68	3991
922.789	3968
922.898	4029
923.007	3987
923.116	4105
923.224	4048
923.333	4029
923.442	4017
923.55	3991
923.659	4040
923.767	4112
923.876	4010
923.984	4112
924.092	3983
924.201	4051
924.309	4078
924.417	4097
924.525	4040
924.633	4090
924.741	4866
924.849	3915
924.956	4120
925.064	3960
925.172	3880
925.279	3991
925.387	4029
925.494	4032
925.602	4227
925.709	4154
925.816	4040
925.924	4131
926.031	4207
926.138	4116
926.245	4219
926.352	4090
926.459	4246
926.566	4310
926.673	4131
926.779	4093
926.886	4086
926.993	3953
927.099	3949
927.206	3930
927.312	3911
927.419	4032
927.525	4032
927.631	4059
927.737	3972
927.843	3945
927.95	3869
928.056	3987
928.162	3960
928.267	4067
928.373	4660
928.479	4154
928.585	3873
928.69	4032
928.796	4025
928.901	3960
929.007	3816
929.112	3979
929.218	3953
929.323	3915
929.428	3930
929.533	4071
929.638	3880
929.743	3972
929.848	4029
929.953	3994
930.058	3915
930.163	3770
930.267	3831
930.372	3953
930.477	3816
930.581	4051
930.685	3945
930.79	3804
930.894	3846
930.998	3861
931.103	3998
931.207	3694
931.311	3698
931.415	3652
931.519	3523
931.623	3561
