Data from test_V78500241_2315.txt Node
Date: Fri Mar 25 17:05:05 CST 2022
User: usil
Spectrometer: V785-0024
Trigger mode: 0
Integration Time (sec): 4.000000E-1
Scans to average: 1
Nonlinearity correction enabled: false
Boxcar width: 0
Storing dark spectrum: false
XAxis mode: Wavelengths
Number of Pixels in Spectrum: 1024
>>>>>Begin Spectral Data<<<<<
801.071	8073
801.214	8012
801.356	7871
801.499	7833
801.641	7852
801.783	7818
801.926	7997
802.068	7963
802.211	8005
802.353	8027
802.496	7921
802.638	7947
802.78	7947
802.923	7909
803.065	7898
803.208	7879
803.35	7970
803.492	8168
803.635	8206
803.777	8020
803.919	8096
804.061	8511
804.204	8115
804.346	8107
804.488	7967
804.63	8142
804.773	7997
804.915	8142
805.057	8343
805.199	8225
805.341	8195
805.483	8252
805.626	8305
805.768	8157
805.91	8218
806.052	8221
806.194	8138
806.336	8347
806.478	8046
806.62	8069
806.762	8164
806.904	8263
807.046	8450
807.188	8343
807.33	8279
807.472	8282
807.614	8187
807.756	8206
807.898	8027
808.04	7856
808.182	7898
808.324	7879
808.465	7921
808.607	7989
808.749	8111
808.891	8202
809.033	8286
809.174	8275
809.316	8062
809.458	8065
809.6	8062
809.741	7986
809.883	8073
810.025	8062
810.166	8115
810.308	8035
810.45	7974
810.591	7883
810.733	7746
810.875	7715
811.016	7533
811.158	7476
811.299	7556
811.441	7685
811.582	7731
811.724	7567
811.865	7533
812.007	7632
812.148	7616
812.29	7719
812.431	7803
812.573	7978
812.714	8001
812.855	8134
812.997	8233
813.138	8339
813.279	8145
813.421	8058
813.562	7936
813.703	7928
813.845	7772
813.986	7449
814.127	7339
814.268	7171
814.41	7190
814.551	7221
814.692	7236
814.833	7114
814.974	7076
815.115	7152
815.256	6970
815.397	7050
815.539	6954
815.68	6848
815.821	6757
815.962	6958
816.103	6818
816.244	6719
816.385	6582
816.526	6631
816.666	6544
816.807	6315
816.948	6445
817.089	6467
817.23	6471
817.371	6357
817.512	6380
817.653	6384
817.793	6338
817.934	6426
818.075	6471
818.216	6418
818.356	6441
818.497	6289
818.638	6152
818.778	6140
818.919	6152
819.06	6220
819.2	6311
819.341	6372
819.481	6429
819.622	6540
819.762	6764
819.903	6791
820.043	6566
820.184	6544
820.324	6604
820.465	6700
820.605	6719
820.746	6684
820.886	6547
821.026	6681
821.167	6696
821.307	6806
821.447	6757
821.588	6673
821.728	6582
821.868	6502
822.008	6353
822.149	6376
822.289	6365
822.429	6201
822.569	6163
822.709	6140
822.849	5935
822.99	5923
823.13	5935
823.27	5897
823.41	5775
823.55	5786
823.69	5832
823.83	5733
823.97	5680
824.11	5573
824.25	5539
824.389	5551
824.529	5562
824.669	5490
824.809	5642
824.949	5649
825.089	5672
825.228	5551
825.368	5455
825.508	5402
825.648	5379
825.787	5398
825.927	5429
826.067	5318
826.206	5242
826.346	5410
826.485	5459
826.625	5383
826.765	5558
826.904	5501
827.044	5364
827.183	5204
827.323	5094
827.462	5239
827.601	5189
827.741	5136
827.88	5208
828.02	5086
828.159	5227
828.298	5299
828.437	5357
828.577	5239
828.716	5486
828.855	5288
828.994	5212
829.134	5166
829.273	5235
829.412	5136
829.551	5208
829.69	5155
829.829	5277
829.968	5341
830.107	5239
830.246	5303
830.385	5162
830.524	5162
830.663	5113
830.802	4980
830.941	4904
831.08	4919
831.219	5029
831.357	4965
831.496	5159
831.635	4919
831.774	4816
831.913	4847
832.051	4748
832.19	4778
832.329	4809
832.467	4694
832.606	4664
832.744	4782
832.883	4740
833.022	4763
833.16	4820
833.299	4885
833.437	4885
833.576	4854
833.714	4843
833.852	4934
833.991	4881
834.129	4968
834.267	4934
834.406	4915
834.544	4961
834.682	5041
834.821	5045
834.959	5143
835.097	5029
835.235	5147
835.373	5045
835.511	5075
835.65	5033
835.788	5018
835.926	4919
836.064	4870
836.202	4934
836.34	5212
836.478	5204
836.615	5094
836.753	5193
836.891	5277
837.029	5307
837.167	5197
837.305	5170
837.443	5136
837.58	5052
837.718	5269
837.856	5227
837.993	5159
838.131	5254
838.269	5216
838.406	5216
838.544	5159
838.681	5064
838.819	5029
838.956	4870
839.094	4900
839.231	4999
839.369	5033
839.506	5440
839.643	5223
839.781	5045
839.918	5025
840.055	5045
840.193	5098
840.33	5124
840.467	5155
840.604	5223
840.742	5455
840.879	5094
841.016	5105
841.153	5166
841.29	5402
841.427	5330
841.564	5330
841.701	5414
841.838	5220
841.975	5239
842.112	5265
842.249	5121
842.385	5079
842.522	5326
842.659	5143
842.796	5162
842.933	5132
843.069	5143
843.206	5189
843.343	5311
843.479	5254
843.616	5296
843.752	5025
843.889	4999
844.025	5250
844.162	5060
844.298	5208
844.435	5052
844.571	4991
844.708	5143
844.844	5250
844.98	5296
845.117	5303
845.253	5143
845.389	5090
845.525	5155
845.661	5147
845.798	5045
845.934	5140
846.07	5037
846.206	5193
846.342	5353
846.478	5208
846.614	5010
846.75	4987
846.886	5006
847.022	5117
847.158	5025
847.294	5113
847.429	5128
847.565	5056
847.701	5349
847.837	4847
847.972	4820
848.108	4957
848.244	4953
848.379	4790
848.515	4763
848.65	4683
848.786	4763
848.921	4797
849.057	4908
849.192	4892
849.328	4801
849.463	4904
849.598	4828
849.734	4782
849.869	4679
850.004	4691
850.14	4630
850.275	4592
850.41	4558
850.545	4592
850.68	4622
850.815	4664
850.95	4626
851.085	4847
851.22	4714
851.355	4618
851.49	4580
851.625	4706
851.76	4637
851.895	4535
852.03	4531
852.165	4679
852.299	4649
852.434	4812
852.569	4721
852.703	4736
852.838	4866
852.973	4908
853.107	4942
853.242	4736
853.376	4653
853.511	4550
853.645	4615
853.78	4797
853.914	4691
854.048	4763
854.183	4607
854.317	4687
854.451	4847
854.585	4714
854.72	4611
854.854	4702
854.988	4558
855.122	4649
855.256	4523
855.39	4706
855.524	4828
855.658	4740
855.792	4675
855.926	4717
856.06	4809
856.194	4824
856.327	4702
856.461	4634
856.595	4599
856.729	4645
856.862	4752
856.996	4672
857.13	4733
857.263	4797
857.397	4824
857.53	4618
857.664	4748
857.797	4755
857.931	4824
858.064	4740
858.197	4759
858.331	4649
858.464	4569
858.597	4512
858.731	4649
858.864	4641
858.997	4649
859.13	4660
859.263	4702
859.396	4694
859.529	4622
859.662	4577
859.795	4550
859.928	4622
860.061	4759
860.194	4725
860.327	4664
860.46	4554
860.592	4645
860.725	4748
860.858	4725
860.99	4558
861.123	4489
861.256	4580
861.388	4626
861.521	5208
861.653	4489
861.786	4504
861.918	4455
862.05	4519
862.183	4500
862.315	4603
862.447	4641
862.58	4546
862.712	4459
862.844	4337
862.976	4447
863.108	4417
863.24	4831
863.372	4329
863.504	4451
863.636	4398
863.768	4500
863.9	4428
864.032	4386
864.164	4356
864.296	4436
864.428	4554
864.559	4588
864.691	4512
864.823	4512
864.954	4535
865.086	4493
865.217	4485
865.349	4440
865.48	4447
865.612	4447
865.743	4626
865.875	4493
866.006	4383
866.137	4478
866.269	4424
866.4	4432
866.531	4447
866.662	4432
866.793	4379
866.924	4443
867.055	4489
867.186	4493
867.317	4383
867.448	4386
867.579	4398
867.71	4363
867.841	4322
867.972	4455
868.103	4436
868.233	4421
868.364	4428
868.495	4497
868.625	4649
868.756	4717
868.886	4584
869.017	4607
869.147	4763
869.278	4782
869.408	4672
869.539	4607
869.669	4691
869.799	4634
869.929	4733
870.06	4733
870.19	4965
870.32	4892
870.45	4900
870.58	5048
870.71	5117
870.84	5098
870.97	4934
871.1	4873
871.23	5155
871.36	5113
871.489	5014
871.619	5067
871.749	5136
871.879	5124
872.008	5174
872.138	5086
872.267	4919
872.397	4873
872.526	4816
872.656	4675
872.785	4816
872.915	4919
873.044	5029
873.173	4953
873.303	4976
873.432	4908
873.561	4991
873.69	4889
873.819	4858
873.948	4873
874.077	4797
874.206	4774
874.335	4797
874.464	4923
874.593	5128
874.722	4908
874.851	5037
874.979	5098
875.108	4991
875.237	4892
875.365	4889
875.494	4885
875.623	4980
875.751	4843
875.88	4873
876.008	4995
876.136	5075
876.265	5204
876.393	5334
876.521	5250
876.65	5239
876.778	5189
876.906	5029
877.034	5010
877.162	5041
877.29	5018
877.418	5052
877.546	5025
877.674	5060
877.802	5006
877.93	5018
878.058	4911
878.185	4870
878.313	4984
878.441	4972
878.568	4812
878.696	4881
878.824	4987
878.951	5033
879.079	5098
879.206	5307
879.333	5102
879.461	4984
879.588	5003
879.715	5113
879.842	5254
879.97	5006
880.097	4778
880.224	4752
880.351	4809
880.478	4812
880.605	4801
880.732	4755
880.859	5113
880.986	4927
881.112	4927
881.239	4831
881.366	4656
881.493	4618
881.619	4596
881.746	4611
881.872	4668
881.999	4649
882.125	4694
882.252	4786
882.378	4831
882.505	4923
882.631	4778
882.757	4679
882.883	4736
883.01	4733
883.136	4630
883.262	4618
883.388	4615
883.514	4774
883.64	4828
883.766	4824
883.892	4687
884.018	4702
884.143	4930
884.269	5003
884.395	4641
884.52	4607
884.646	4622
884.772	4584
884.897	4592
885.023	4660
885.148	4790
885.274	4870
885.399	4801
885.524	4694
885.65	4675
885.775	4759
885.9	4710
886.025	4858
886.15	4744
886.275	4714
886.4	4664
886.525	4755
886.65	4672
886.775	4691
886.9	4889
887.025	5029
887.149	4831
887.274	4611
887.399	4561
887.523	4569
887.648	4538
887.773	4577
887.897	4793
888.021	4831
888.146	4710
888.27	4805
888.395	4953
888.519	4790
888.643	4835
888.767	4839
888.891	4660
889.015	4622
889.139	4626
889.263	4626
889.387	4782
889.511	4858
889.635	4797
889.759	4649
889.883	4679
890.006	4729
890.13	4793
890.254	4641
890.377	4649
890.501	4558
890.624	4523
890.748	4599
890.871	4523
890.995	4443
891.118	4421
891.241	4519
891.364	4580
891.488	4634
891.611	4459
891.734	4504
891.857	4580
891.98	4554
892.103	4622
892.226	4573
892.349	4500
892.471	4421
892.594	4516
892.717	4596
892.839	4596
892.962	4550
893.085	4660
893.207	4569
893.33	4413
893.452	4512
893.575	4672
893.697	4569
893.819	4759
893.941	4790
894.064	4767
894.186	4558
894.308	4554
894.43	4710
894.552	4801
894.674	4729
894.796	4554
894.918	4538
895.04	4538
895.161	4702
895.283	4691
895.405	4573
895.526	4634
895.648	4733
895.769	4683
895.891	4706
896.012	4778
896.134	4740
896.255	4630
896.376	4634
896.498	4622
896.619	4656
896.74	4592
896.861	4607
896.982	4831
897.103	5052
897.224	4767
897.345	4725
897.466	4683
897.587	4729
897.708	4839
897.828	4778
897.949	4687
898.07	4580
898.19	4618
898.311	4835
898.431	4702
898.552	4752
898.672	4805
898.792	4782
898.913	4778
899.033	4637
899.153	4516
899.273	4405
899.393	4466
899.513	4542
899.633	4500
899.753	4580
899.873	4527
899.993	4588
900.113	4569
900.232	4596
900.352	4550
900.472	4527
900.591	4390
900.711	4440
900.83	4428
900.95	4607
901.069	4660
901.189	4538
901.308	4348
901.427	4356
901.546	4367
901.665	4459
901.784	4504
901.904	4405
902.023	4265
902.141	4192
902.26	4192
902.379	4276
902.498	4249
902.617	4215
902.735	4348
902.854	4413
902.973	4367
903.091	4207
903.21	4257
903.328	4314
903.446	4246
903.565	4257
903.683	4329
903.801	4265
903.919	4424
904.038	4413
904.156	4333
904.274	4455
904.392	4413
904.51	4409
904.627	4451
904.745	4561
904.863	4565
904.981	4402
905.098	4310
905.216	4325
905.334	4424
905.451	4390
905.569	4417
905.686	4531
905.803	4535
905.921	4394
906.038	4538
906.155	4478
906.272	4402
906.389	4497
906.506	4322
906.623	4386
906.74	4390
906.857	4280
906.974	4344
907.091	4550
907.208	4618
907.324	4577
907.441	4531
907.557	4341
907.674	4272
907.79	4314
907.907	4421
908.023	4523
908.139	4481
908.256	4455
908.372	4466
908.488	4440
908.604	4329
908.72	4310
908.836	4356
908.952	4352
909.068	4405
909.184	4573
909.3	4481
909.415	4603
909.531	4554
909.647	4325
909.762	4379
909.878	4348
909.993	4428
910.108	4443
910.224	4413
910.339	4459
910.454	4409
910.57	4360
910.685	4257
910.8	4664
910.915	4599
911.03	4489
911.145	4314
911.259	4348
911.374	4375
911.489	4284
911.604	4303
911.718	4154
911.833	4200
911.947	4090
912.062	4013
912.176	4211
912.291	4242
912.405	4230
912.519	4478
912.633	4451
912.748	4383
912.862	4310
912.976	4192
913.09	4086
913.204	4177
913.318	4219
913.431	4386
913.545	4371
913.659	4413
913.772	4367
913.886	4276
914	4238
914.113	4363
914.226	4432
914.34	4394
914.453	4257
914.566	4413
914.68	4344
914.793	4337
914.906	4185
915.019	4120
915.132	4093
915.245	4158
915.358	4177
915.47	4207
915.583	4310
915.696	4299
915.809	4413
915.921	4447
916.034	4318
916.146	4272
916.259	4246
916.371	4379
916.483	4409
916.595	4230
916.708	4299
916.82	4344
916.932	4280
917.044	4303
917.156	4318
917.268	4192
917.38	4272
917.491	4253
917.603	4310
917.715	4409
917.826	4432
917.938	4352
918.049	4242
918.161	4394
918.272	4538
918.384	4531
918.495	4466
918.606	4287
918.717	4188
918.828	4333
918.939	4352
919.05	4215
919.161	4314
919.272	4154
919.383	4261
919.494	4500
919.604	4607
919.715	4409
919.826	4363
919.936	4432
920.047	4474
920.157	4455
920.267	4679
920.378	4535
920.488	4531
920.598	4721
920.708	4915
920.818	4778
920.928	4797
921.038	4953
921.148	4919
921.258	4603
921.368	4558
921.477	4497
921.587	4424
921.697	4341
921.806	4535
921.916	4409
922.025	4261
922.134	4287
922.244	4230
922.353	4322
922.462	4162
922.571	4150
922.68	4010
922.789	3975
922.898	4006
923.007	4040
923.116	4120
923.224	4048
923.333	4074
923.442	3998
923.55	3956
923.659	4002
923.767	4093
923.876	3987
923.984	4116
924.092	4006
924.201	4059
924.309	4055
924.417	4120
924.525	4048
924.633	4090
924.741	5048
924.849	3953
924.956	4150
925.064	3972
925.172	3896
925.279	3945
925.387	4105
925.494	4078
925.602	4173
925.709	4173
925.816	4002
925.924	4128
926.031	4291
926.138	4150
926.245	4204
926.352	4124
926.459	4246
926.566	4291
926.673	4173
926.779	4067
926.886	4082
926.993	3972
927.099	3953
927.206	3964
927.312	3941
927.419	4025
927.525	4013
927.631	4116
927.737	3945
927.843	3911
927.95	3850
928.056	3934
928.162	3968
928.267	4048
928.373	4649
928.479	4143
928.585	3850
928.69	4010
928.796	4051
928.901	3972
929.007	3873
929.112	3998
929.218	3979
929.323	3926
929.428	3979
929.533	4128
929.638	3907
929.743	3953
929.848	4051
929.953	3994
930.058	3926
930.163	3781
930.267	3838
930.372	4002
930.477	3800
930.581	4093
930.685	3953
930.79	3785
930.894	3873
930.998	3896
931.103	4025
931.207	3698
931.311	3671
931.415	3682
931.519	3557
931.623	3557
