Data from test_V78500241_613.txt Node
Date: Fri Mar 25 16:53:15 CST 2022
User: usil
Spectrometer: V785-0024
Trigger mode: 0
Integration Time (sec): 4.000000E-1
Scans to average: 1
Nonlinearity correction enabled: false
Boxcar width: 0
Storing dark spectrum: false
XAxis mode: Wavelengths
Number of Pixels in Spectrum: 1024
>>>>>Begin Spectral Data<<<<<
801.071	7997
801.214	7947
801.356	7871
801.499	7784
801.641	7780
801.783	7845
801.926	8024
802.068	7978
802.211	7947
802.353	8027
802.496	7845
802.638	7944
802.78	7913
802.923	7932
803.065	7818
803.208	7883
803.35	7986
803.492	8043
803.635	8107
803.777	8008
803.919	8088
804.061	8374
804.204	8172
804.346	8050
804.488	7909
804.63	8149
804.773	8016
804.915	8062
805.057	8256
805.199	8115
805.341	8199
805.483	8343
805.626	8142
805.768	8065
805.91	8119
806.052	8237
806.194	8100
806.336	8210
806.478	8096
806.62	8088
806.762	8065
806.904	8294
807.046	8454
807.188	8339
807.33	8294
807.472	8286
807.614	8149
807.756	8084
807.898	7955
808.04	7879
808.182	7928
808.324	7947
808.465	7830
808.607	8084
808.749	8134
808.891	8221
809.033	8275
809.174	8161
809.316	8103
809.458	8103
809.6	7959
809.741	8012
809.883	8035
810.025	8035
810.166	8103
810.308	8012
810.45	8027
810.591	7955
810.733	7708
810.875	7613
811.016	7537
811.158	7533
811.299	7624
811.441	7704
811.582	7609
811.724	7563
811.865	7537
812.007	7620
812.148	7590
812.29	7639
812.431	7772
812.573	7890
812.714	7967
812.855	8180
812.997	8180
813.138	8298
813.279	8256
813.421	8142
813.562	8012
813.703	7875
813.845	7765
813.986	7480
814.127	7362
814.268	7312
814.41	7259
814.551	7164
814.692	7171
814.833	7088
814.974	7057
815.115	7019
815.256	6935
815.397	6970
815.539	6939
815.68	6840
815.821	6749
815.962	6913
816.103	6795
816.244	6814
816.385	6707
816.526	6654
816.666	6506
816.807	6285
816.948	6437
817.089	6525
817.23	6418
817.371	6334
817.512	6346
817.653	6395
817.793	6319
817.934	6433
818.075	6452
818.216	6429
818.356	6372
818.497	6228
818.638	6129
818.778	6129
818.919	6129
819.06	6201
819.2	6300
819.341	6311
819.481	6357
819.622	6551
819.762	6749
819.903	6700
820.043	6604
820.184	6544
820.324	6570
820.465	6646
820.605	6620
820.746	6612
820.886	6441
821.026	6620
821.167	6707
821.307	6745
821.447	6772
821.588	6665
821.728	6593
821.868	6426
822.008	6296
822.149	6319
822.289	6365
822.429	6159
822.569	6117
822.709	6083
822.849	5863
822.99	5904
823.13	5912
823.27	5920
823.41	5752
823.55	5756
823.69	5779
823.83	5836
823.97	5668
824.11	5551
824.25	5471
824.389	5532
824.529	5532
824.669	5501
824.809	5634
824.949	5699
825.089	5638
825.228	5554
825.368	5436
825.508	5318
825.648	5364
825.787	5372
825.927	5341
826.067	5315
826.206	5318
826.346	5417
826.485	5353
826.625	5376
826.765	5539
826.904	5482
827.044	5303
827.183	5193
827.323	5113
827.462	5277
827.601	5181
827.741	5132
827.88	5132
828.02	5136
828.159	5250
828.298	5258
828.437	5277
828.577	5269
828.716	5452
828.855	5349
828.994	5105
829.134	5113
829.273	5155
829.412	5166
829.551	5121
829.69	5178
829.829	5223
829.968	5417
830.107	5242
830.246	5220
830.385	5185
830.524	5128
830.663	5094
830.802	5003
830.941	4919
831.08	4870
831.219	4930
831.357	4930
831.496	5201
831.635	4968
831.774	4839
831.913	4854
832.051	4744
832.19	4725
832.329	4847
832.467	4710
832.606	4630
832.744	4706
832.883	4694
833.022	4733
833.16	4763
833.299	4797
833.437	4812
833.576	4812
833.714	4858
833.852	4858
833.991	4881
834.129	4942
834.267	4961
834.406	4904
834.544	4961
834.682	4976
834.821	4957
834.959	5159
835.097	4999
835.235	5143
835.373	5102
835.511	5102
835.65	5060
835.788	5003
835.926	4828
836.064	4877
836.202	4892
836.34	5201
836.478	5254
836.615	5079
836.753	5242
836.891	5250
837.029	5239
837.167	5181
837.305	5155
837.443	5121
837.58	5018
837.718	5208
837.856	5174
837.993	5155
838.131	5265
838.269	5159
838.406	5170
838.544	5117
838.681	5006
838.819	5052
838.956	4854
839.094	4908
839.231	5006
839.369	5147
839.506	5406
839.643	5277
839.781	5121
839.918	5014
840.055	5117
840.193	5117
840.33	5136
840.467	5178
840.604	5170
840.742	5444
840.879	5136
841.016	5071
841.153	5166
841.29	5349
841.427	5334
841.564	5299
841.701	5364
841.838	5235
841.975	5265
842.112	5246
842.249	5174
842.385	5083
842.522	5360
842.659	5178
842.796	5166
842.933	5185
843.069	5174
843.206	5140
843.343	5311
843.479	5239
843.616	5254
843.752	5056
843.889	5033
844.025	5162
844.162	5033
844.298	5231
844.435	5098
844.571	5060
844.708	5197
844.844	5322
844.98	5334
845.117	5318
845.253	5102
845.389	5052
845.525	5143
845.661	5136
845.798	5003
845.934	5162
846.07	5060
846.206	5231
846.342	5318
846.478	5193
846.614	4984
846.75	4919
846.886	4942
847.022	5102
847.158	4995
847.294	5052
847.429	5079
847.565	5113
847.701	5326
847.837	4885
847.972	4786
848.108	4896
848.244	4968
848.379	4771
848.515	4755
848.65	4725
848.786	4767
848.921	4759
849.057	4889
849.192	4862
849.328	4790
849.463	4850
849.598	4763
849.734	4790
849.869	4679
850.004	4656
850.14	4641
850.275	4607
850.41	4508
850.545	4550
850.68	4634
850.815	4618
850.95	4618
851.085	4831
851.22	4710
851.355	4637
851.49	4615
851.625	4622
851.76	4611
851.895	4580
852.03	4558
852.165	4626
852.299	4744
852.434	4782
852.569	4691
852.703	4767
852.838	4835
852.973	4953
853.107	4908
853.242	4744
853.376	4664
853.511	4561
853.645	4634
853.78	4805
853.914	4714
854.048	4683
854.183	4672
854.317	4679
854.451	4805
854.585	4603
854.72	4611
854.854	4797
854.988	4607
855.122	4668
855.256	4527
855.39	4656
855.524	4828
855.658	4687
855.792	4698
855.926	4721
856.06	4763
856.194	4771
856.327	4733
856.461	4664
856.595	4660
856.729	4599
856.862	4755
856.996	4664
857.13	4683
857.263	4767
857.397	4782
857.53	4645
857.664	4679
857.797	4801
857.931	4755
858.064	4721
858.197	4733
858.331	4656
858.464	4637
858.597	4523
858.731	4626
858.864	4672
858.997	4611
859.13	4630
859.263	4634
859.396	4694
859.529	4611
859.662	4573
859.795	4535
859.928	4630
860.061	4729
860.194	4767
860.327	4580
860.46	4611
860.592	4748
860.725	4744
860.858	4717
860.99	4615
861.123	4577
861.256	4504
861.388	4634
861.521	5398
861.653	4470
861.786	4413
861.918	4443
862.05	4489
862.183	4527
862.315	4618
862.447	4668
862.58	4512
862.712	4398
862.844	4367
862.976	4440
863.108	4421
863.24	4847
863.372	4306
863.504	4428
863.636	4394
863.768	4508
863.9	4436
864.032	4322
864.164	4390
864.296	4432
864.428	4535
864.559	4577
864.691	4550
864.823	4538
864.954	4447
865.086	4504
865.217	4470
865.349	4447
865.48	4436
865.612	4516
865.743	4645
865.875	4489
866.006	4447
866.137	4478
866.269	4440
866.4	4436
866.531	4390
866.662	4402
866.793	4409
866.924	4440
867.055	4512
867.186	4417
867.317	4405
867.448	4371
867.579	4402
867.71	4398
867.841	4409
867.972	4459
868.103	4485
868.233	4394
868.364	4478
868.495	4470
868.625	4691
868.756	4740
868.886	4577
869.017	4668
869.147	4771
869.278	4752
869.408	4691
869.539	4637
869.669	4691
869.799	4679
869.929	4786
870.06	4831
870.19	4972
870.32	4896
870.45	4923
870.58	5018
870.71	5086
870.84	5045
870.97	4953
871.1	4877
871.23	5201
871.36	5121
871.489	4976
871.619	5094
871.749	5083
871.879	5098
872.008	5220
872.138	5090
872.267	5029
872.397	4877
872.526	4824
872.656	4710
872.785	4843
872.915	4930
873.044	5067
873.173	4942
873.303	4976
873.432	4972
873.561	4923
873.69	4896
873.819	4877
873.948	4892
874.077	4793
874.206	4759
874.335	4774
874.464	4911
874.593	5041
874.722	4957
874.851	5109
874.979	5048
875.108	5064
875.237	4877
875.365	4843
875.494	4881
875.623	5014
875.751	4873
875.88	4889
876.008	4957
876.136	5022
876.265	5201
876.393	5299
876.521	5223
876.65	5273
876.778	5140
876.906	5086
877.034	4995
877.162	5033
877.29	4999
877.418	5041
877.546	5071
877.674	5075
877.802	5029
877.93	4999
878.058	4965
878.185	4850
878.313	4927
878.441	4885
878.568	4797
878.696	4870
878.824	4927
878.951	5010
879.079	5147
879.206	5318
879.333	5121
879.461	5003
879.588	4995
879.715	5124
879.842	5201
879.97	5025
880.097	4812
880.224	4755
880.351	4790
880.478	4755
880.605	4816
880.732	4786
880.859	5067
880.986	4885
881.112	4885
881.239	4755
881.366	4668
881.493	4603
881.619	4626
881.746	4660
881.872	4668
881.999	4656
882.125	4702
882.252	4812
882.378	4820
882.505	4942
882.631	4854
882.757	4630
882.883	4736
883.01	4702
883.136	4630
883.262	4630
883.388	4603
883.514	4801
883.64	4866
883.766	4778
883.892	4683
884.018	4740
884.143	4904
884.269	4968
884.395	4687
884.52	4622
884.646	4645
884.772	4626
884.897	4546
885.023	4702
885.148	4793
885.274	4847
885.399	4858
885.524	4721
885.65	4683
885.775	4759
885.9	4672
886.025	4843
886.15	4763
886.275	4736
886.4	4714
886.525	4710
886.65	4702
886.775	4714
886.9	4927
887.025	5060
887.149	4816
887.274	4668
887.399	4599
887.523	4561
887.648	4588
887.773	4535
887.897	4793
888.021	4797
888.146	4675
888.27	4831
888.395	4930
888.519	4809
888.643	4812
888.767	4839
888.891	4683
889.015	4645
889.139	4694
889.263	4607
889.387	4774
889.511	4866
889.635	4793
889.759	4656
889.883	4630
890.006	4717
890.13	4812
890.254	4634
890.377	4668
890.501	4569
890.624	4554
890.748	4603
890.871	4493
890.995	4436
891.118	4383
891.241	4542
891.364	4542
891.488	4622
891.611	4500
891.734	4561
891.857	4573
891.98	4588
892.103	4645
892.226	4592
892.349	4516
892.471	4451
892.594	4558
892.717	4584
892.839	4550
892.962	4618
893.085	4679
893.207	4565
893.33	4443
893.452	4538
893.575	4618
893.697	4561
893.819	4755
893.941	4744
894.064	4736
894.186	4611
894.308	4599
894.43	4744
894.552	4828
894.674	4717
894.796	4546
894.918	4630
895.04	4569
895.161	4675
895.283	4691
895.405	4558
895.526	4615
895.648	4706
895.769	4717
895.891	4778
896.012	4744
896.134	4717
896.255	4683
896.376	4645
896.498	4596
896.619	4698
896.74	4615
896.861	4660
896.982	4881
897.103	5060
897.224	4824
897.345	4774
897.466	4603
897.587	4725
897.708	4847
897.828	4801
897.949	4687
898.07	4615
898.19	4679
898.311	4850
898.431	4702
898.552	4755
898.672	4797
898.792	4831
898.913	4717
899.033	4618
899.153	4531
899.273	4421
899.393	4516
899.513	4478
899.633	4554
899.753	4519
899.873	4497
899.993	4603
900.113	4519
900.232	4565
900.352	4569
900.472	4489
900.591	4371
900.711	4500
900.83	4455
900.95	4630
901.069	4717
901.189	4569
901.308	4390
901.427	4360
901.546	4394
901.665	4421
901.784	4599
901.904	4363
902.023	4314
902.141	4211
902.26	4158
902.379	4276
902.498	4257
902.617	4227
902.735	4386
902.854	4394
902.973	4314
903.091	4253
903.21	4238
903.328	4318
903.446	4299
903.565	4268
903.683	4325
903.801	4268
903.919	4398
904.038	4432
904.156	4306
904.274	4386
904.392	4383
904.51	4447
904.627	4428
904.745	4569
904.863	4599
904.981	4409
905.098	4295
905.216	4356
905.334	4443
905.451	4402
905.569	4451
905.686	4550
905.803	4508
905.921	4428
906.038	4512
906.155	4462
906.272	4383
906.389	4470
906.506	4322
906.623	4356
906.74	4394
906.857	4333
906.974	4424
907.091	4584
907.208	4668
907.324	4618
907.441	4485
907.557	4333
907.674	4272
907.79	4276
907.907	4356
908.023	4512
908.139	4580
908.256	4447
908.372	4493
908.488	4409
908.604	4352
908.72	4306
908.836	4379
908.952	4348
909.068	4447
909.184	4641
909.3	4481
909.415	4542
909.531	4504
909.647	4352
909.762	4348
909.878	4318
909.993	4443
910.108	4402
910.224	4394
910.339	4421
910.454	4398
910.57	4390
910.685	4333
910.8	4672
910.915	4584
911.03	4474
911.145	4337
911.259	4352
911.374	4383
911.489	4295
911.604	4291
911.718	4162
911.833	4223
911.947	4059
912.062	4040
912.176	4238
912.291	4265
912.405	4306
912.519	4489
912.633	4516
912.748	4405
912.862	4295
912.976	4185
913.09	4082
913.204	4120
913.318	4249
913.431	4421
913.545	4356
913.659	4447
913.772	4367
913.886	4223
914	4242
914.113	4405
914.226	4436
914.34	4356
914.453	4188
914.566	4405
914.68	4344
914.793	4322
914.906	4147
915.019	4109
915.132	4082
915.245	4120
915.358	4234
915.47	4249
915.583	4280
915.696	4276
915.809	4333
915.921	4440
916.034	4284
916.146	4200
916.259	4242
916.371	4379
916.483	4310
916.595	4211
916.708	4325
916.82	4333
916.932	4337
917.044	4333
917.156	4318
917.268	4246
917.38	4306
917.491	4337
917.603	4375
917.715	4379
917.826	4424
917.938	4409
918.049	4253
918.161	4417
918.272	4523
918.384	4500
918.495	4436
918.606	4341
918.717	4287
918.828	4348
918.939	4386
919.05	4280
919.161	4287
919.272	4128
919.383	4230
919.494	4436
919.604	4615
919.715	4440
919.826	4402
919.936	4383
920.047	4523
920.157	4519
920.267	4694
920.378	4504
920.488	4485
920.598	4759
920.708	4892
920.818	4729
920.928	4782
921.038	4923
921.148	4938
921.258	4653
921.368	4508
921.477	4538
921.587	4443
921.697	4390
921.806	4573
921.916	4428
922.025	4242
922.134	4280
922.244	4238
922.353	4337
922.462	4192
922.571	4185
922.68	3983
922.789	3991
922.898	4040
923.007	3979
923.116	4029
923.224	4048
923.333	4067
923.442	3972
923.55	3987
923.659	4067
923.767	4078
923.876	4017
923.984	4147
924.092	3964
924.201	4105
924.309	4086
924.417	4093
924.525	4025
924.633	4097
924.741	5003
924.849	3941
924.956	4116
925.064	3968
925.172	3911
925.279	3949
925.387	4109
925.494	4086
925.602	4192
925.709	4154
925.816	4078
925.924	4150
926.031	4234
926.138	4128
926.245	4211
926.352	4086
926.459	4204
926.566	4299
926.673	4154
926.779	4086
926.886	4101
926.993	3953
927.099	3930
927.206	3907
927.312	3953
927.419	4059
927.525	3994
927.631	4071
927.737	3956
927.843	3926
927.95	3831
928.056	3964
928.162	3991
928.267	4059
928.373	4660
928.479	4139
928.585	3865
928.69	4010
928.796	4055
928.901	3983
929.007	3846
929.112	3964
929.218	3987
929.323	3968
929.428	3972
929.533	4055
929.638	3945
929.743	3956
929.848	4021
929.953	3991
930.058	3899
930.163	3789
930.267	3835
930.372	3945
930.477	3785
930.581	4124
930.685	3964
930.79	3816
930.894	3884
930.998	3896
931.103	3991
931.207	3652
931.311	3717
931.415	3705
931.519	3500
931.623	3591
