Data from test_V78500241_323.txt Node
Date: Fri Mar 25 16:51:14 CST 2022
User: usil
Spectrometer: V785-0024
Trigger mode: 0
Integration Time (sec): 4.000000E-1
Scans to average: 1
Nonlinearity correction enabled: false
Boxcar width: 0
Storing dark spectrum: false
XAxis mode: Wavelengths
Number of Pixels in Spectrum: 1024
>>>>>Begin Spectral Data<<<<<
801.071	8084
801.214	8046
801.356	7963
801.499	7898
801.641	7826
801.783	7921
801.926	7944
802.068	8020
802.211	8008
802.353	8058
802.496	7860
802.638	7932
802.78	8043
802.923	7894
803.065	7898
803.208	7898
803.35	7917
803.492	8073
803.635	8096
803.777	7982
803.919	8149
804.061	8434
804.204	8187
804.346	7982
804.488	8008
804.63	8100
804.773	7936
804.915	8062
805.057	8275
805.199	8164
805.341	8237
805.483	8252
805.626	8225
805.768	8035
805.91	8187
806.052	8259
806.194	8096
806.336	8332
806.478	8157
806.62	8107
806.762	8176
806.904	8320
807.046	8457
807.188	8317
807.33	8229
807.472	8317
807.614	8103
807.756	8077
807.898	8058
808.04	7868
808.182	7925
808.324	7967
808.465	7944
808.607	8103
808.749	8191
808.891	8267
809.033	8290
809.174	8210
809.316	8008
809.458	8046
809.6	8008
809.741	8054
809.883	8039
810.025	8096
810.166	8096
810.308	8031
810.45	8058
810.591	7837
810.733	7769
810.875	7681
811.016	7518
811.158	7499
811.299	7601
811.441	7803
811.582	7681
811.724	7632
811.865	7567
812.007	7628
812.148	7632
812.29	7601
812.431	7780
812.573	7864
812.714	7959
812.855	8119
812.997	8218
813.138	8282
813.279	8221
813.421	8103
813.562	8092
813.703	7909
813.845	7757
813.986	7468
814.127	7324
814.268	7225
814.41	7156
814.551	7171
814.692	7198
814.833	7080
814.974	7122
815.115	7088
815.256	6958
815.397	6897
815.539	6939
815.68	6840
815.821	6810
815.962	6848
816.103	6814
816.244	6707
816.385	6601
816.526	6642
816.666	6540
816.807	6323
816.948	6460
817.089	6528
817.23	6483
817.371	6376
817.512	6414
817.653	6426
817.793	6369
817.934	6452
818.075	6460
818.216	6460
818.356	6353
818.497	6273
818.638	6121
818.778	6155
818.919	6114
819.06	6152
819.2	6304
819.341	6350
819.481	6342
819.622	6506
819.762	6745
819.903	6673
820.043	6654
820.184	6544
820.324	6574
820.465	6616
820.605	6654
820.746	6658
820.886	6544
821.026	6665
821.167	6730
821.307	6719
821.447	6798
821.588	6700
821.728	6551
821.868	6582
822.008	6331
822.149	6403
822.289	6353
822.429	6167
822.569	6121
822.709	6087
822.849	5939
822.99	5920
823.13	5912
823.27	5923
823.41	5851
823.55	5760
823.69	5699
823.83	5710
823.97	5638
824.11	5524
824.25	5512
824.389	5611
824.529	5608
824.669	5532
824.809	5638
824.949	5661
825.089	5630
825.228	5611
825.368	5357
825.508	5376
825.648	5345
825.787	5395
825.927	5410
826.067	5288
826.206	5280
826.346	5421
826.485	5414
826.625	5440
826.765	5532
826.904	5482
827.044	5269
827.183	5239
827.323	5132
827.462	5239
827.601	5140
827.741	5181
827.88	5166
828.02	5105
828.159	5197
828.298	5254
828.437	5334
828.577	5318
828.716	5497
828.855	5326
828.994	5155
829.134	5155
829.273	5201
829.412	5162
829.551	5117
829.69	5151
829.829	5261
829.968	5345
830.107	5239
830.246	5220
830.385	5201
830.524	5151
830.663	5060
830.802	4949
830.941	4911
831.08	4942
831.219	4999
831.357	4946
831.496	5193
831.635	4976
831.774	4889
831.913	4885
832.051	4805
832.19	4797
832.329	4812
832.467	4740
832.606	4630
832.744	4710
832.883	4797
833.022	4729
833.16	4774
833.299	4847
833.437	4809
833.576	4828
833.714	4805
833.852	4881
833.991	4904
834.129	4934
834.267	4938
834.406	4866
834.544	4968
834.682	4965
834.821	4919
834.959	5216
835.097	4995
835.235	5147
835.373	5090
835.511	5079
835.65	5052
835.788	4976
835.926	4900
836.064	4805
836.202	4908
836.34	5178
836.478	5212
836.615	5117
836.753	5231
836.891	5299
837.029	5288
837.167	5178
837.305	5151
837.443	5124
837.58	5132
837.718	5258
837.856	5204
837.993	5128
838.131	5258
838.269	5231
838.406	5223
838.544	5197
838.681	5018
838.819	5029
838.956	4873
839.094	4949
839.231	5052
839.369	5113
839.506	5417
839.643	5197
839.781	5102
839.918	5060
840.055	5071
840.193	5113
840.33	5071
840.467	5147
840.604	5201
840.742	5452
840.879	5102
841.016	5128
841.153	5155
841.29	5383
841.427	5383
841.564	5318
841.701	5357
841.838	5269
841.975	5250
842.112	5261
842.249	5140
842.385	5102
842.522	5337
842.659	5155
842.796	5204
842.933	5204
843.069	5159
843.206	5143
843.343	5337
843.479	5269
843.616	5299
843.752	5037
843.889	5033
844.025	5197
844.162	5018
844.298	5185
844.435	5121
844.571	5094
844.708	5208
844.844	5303
844.98	5353
845.117	5269
845.253	5128
845.389	5086
845.525	5170
845.661	5147
845.798	5121
845.934	5113
846.07	5064
846.206	5204
846.342	5280
846.478	5242
846.614	5022
846.75	5018
846.886	4965
847.022	5159
847.158	5033
847.294	5071
847.429	5121
847.565	4987
847.701	5341
847.837	4862
847.972	4850
848.108	4976
848.244	4957
848.379	4831
848.515	4740
848.65	4706
848.786	4721
848.921	4763
849.057	4858
849.192	4889
849.328	4793
849.463	4847
849.598	4786
849.734	4752
849.869	4691
850.004	4634
850.14	4645
850.275	4653
850.41	4538
850.545	4558
850.68	4622
850.815	4664
850.95	4634
851.085	4812
851.22	4752
851.355	4721
851.49	4630
851.625	4561
851.76	4656
851.895	4599
852.03	4512
852.165	4672
852.299	4687
852.434	4778
852.569	4733
852.703	4786
852.838	4835
852.973	4927
853.107	4919
853.242	4771
853.376	4641
853.511	4615
853.645	4630
853.78	4824
853.914	4679
854.048	4672
854.183	4664
854.317	4645
854.451	4850
854.585	4656
854.72	4641
854.854	4752
854.988	4615
855.122	4687
855.256	4523
855.39	4664
855.524	4809
855.658	4744
855.792	4714
855.926	4759
856.06	4767
856.194	4824
856.327	4679
856.461	4569
856.595	4634
856.729	4622
856.862	4736
856.996	4702
857.13	4717
857.263	4763
857.397	4839
857.53	4660
857.664	4744
857.797	4755
857.931	4793
858.064	4687
858.197	4790
858.331	4683
858.464	4603
858.597	4497
858.731	4626
858.864	4656
858.997	4626
859.13	4664
859.263	4630
859.396	4660
859.529	4584
859.662	4596
859.795	4569
859.928	4641
860.061	4778
860.194	4778
860.327	4634
860.46	4550
860.592	4691
860.725	4683
860.858	4748
860.99	4580
861.123	4500
861.256	4527
861.388	4641
861.521	5326
861.653	4455
861.786	4447
861.918	4432
862.05	4512
862.183	4542
862.315	4622
862.447	4702
862.58	4485
862.712	4413
862.844	4356
862.976	4481
863.108	4417
863.24	4877
863.372	4341
863.504	4379
863.636	4455
863.768	4500
863.9	4424
864.032	4390
864.164	4386
864.296	4523
864.428	4542
864.559	4588
864.691	4542
864.823	4508
864.954	4512
865.086	4478
865.217	4394
865.349	4409
865.48	4451
865.612	4485
865.743	4596
865.875	4455
866.006	4405
866.137	4512
866.269	4493
866.4	4470
866.531	4432
866.662	4432
866.793	4417
866.924	4451
867.055	4481
867.186	4478
867.317	4413
867.448	4421
867.579	4413
867.71	4394
867.841	4352
867.972	4489
868.103	4440
868.233	4428
868.364	4428
868.495	4451
868.625	4675
868.756	4740
868.886	4580
869.017	4618
869.147	4774
869.278	4736
869.408	4687
869.539	4660
869.669	4740
869.799	4622
869.929	4759
870.06	4706
870.19	4987
870.32	4938
870.45	4889
870.58	5045
870.71	5105
870.84	5159
870.97	4949
871.1	4889
871.23	5140
871.36	5102
871.489	5025
871.619	5010
871.749	5079
871.879	5109
872.008	5204
872.138	5128
872.267	4968
872.397	4824
872.526	4805
872.656	4710
872.785	4812
872.915	4946
873.044	5033
873.173	5022
873.303	4999
873.432	4991
873.561	5003
873.69	4923
873.819	4835
873.948	4904
874.077	4809
874.206	4748
874.335	4820
874.464	4927
874.593	5113
874.722	4965
874.851	5083
874.979	5060
875.108	5037
875.237	4896
875.365	4839
875.494	4908
875.623	4968
875.751	4812
875.88	4866
876.008	5014
876.136	5067
876.265	5223
876.393	5345
876.521	5246
876.65	5212
876.778	5151
876.906	5151
877.034	5083
877.162	5079
877.29	4984
877.418	5056
877.546	4976
877.674	5041
877.802	5014
877.93	5041
878.058	4930
878.185	4793
878.313	4968
878.441	4949
878.568	4797
878.696	4881
878.824	4968
878.951	4995
879.079	5113
879.206	5227
879.333	5105
879.461	4953
879.588	5048
879.715	5128
879.842	5197
879.97	4991
880.097	4824
880.224	4729
880.351	4805
880.478	4839
880.605	4812
880.732	4755
880.859	5113
880.986	4908
881.112	4919
881.239	4801
881.366	4694
881.493	4584
881.619	4649
881.746	4634
881.872	4653
881.999	4660
882.125	4672
882.252	4744
882.378	4892
882.505	4965
882.631	4801
882.757	4641
882.883	4755
883.01	4744
883.136	4668
883.262	4611
883.388	4599
883.514	4797
883.64	4877
883.766	4801
883.892	4683
884.018	4698
884.143	4908
884.269	5052
884.395	4744
884.52	4649
884.646	4641
884.772	4603
884.897	4580
885.023	4675
885.148	4831
885.274	4854
885.399	4793
885.524	4698
885.65	4702
885.775	4759
885.9	4698
886.025	4904
886.15	4771
886.275	4710
886.4	4668
886.525	4656
886.65	4679
886.775	4698
886.9	4896
887.025	5010
887.149	4801
887.274	4649
887.399	4565
887.523	4645
887.648	4580
887.773	4588
887.897	4748
888.021	4793
888.146	4702
888.27	4801
888.395	4873
888.519	4771
888.643	4820
888.767	4843
888.891	4668
889.015	4565
889.139	4672
889.263	4611
889.387	4771
889.511	4873
889.635	4767
889.759	4637
889.883	4660
890.006	4687
890.13	4790
890.254	4622
890.377	4687
890.501	4538
890.624	4489
890.748	4637
890.871	4474
890.995	4421
891.118	4394
891.241	4542
891.364	4538
891.488	4592
891.611	4481
891.734	4512
891.857	4558
891.98	4565
892.103	4656
892.226	4596
892.349	4535
892.471	4440
892.594	4558
892.717	4599
892.839	4546
892.962	4538
893.085	4683
893.207	4603
893.33	4443
893.452	4519
893.575	4656
893.697	4554
893.819	4717
893.941	4816
894.064	4778
894.186	4630
894.308	4565
894.43	4729
894.552	4862
894.674	4767
894.796	4516
894.918	4622
895.04	4565
895.161	4706
895.283	4672
895.405	4573
895.526	4675
895.648	4725
895.769	4706
895.891	4721
896.012	4771
896.134	4752
896.255	4744
896.376	4653
896.498	4675
896.619	4660
896.74	4645
896.861	4687
896.982	4927
897.103	5094
897.224	4873
897.345	4809
897.466	4721
897.587	4797
897.708	4927
897.828	4835
897.949	4710
898.07	4618
898.19	4653
898.311	4896
898.431	4721
898.552	4797
898.672	4896
898.792	4858
898.913	4790
899.033	4641
899.153	4554
899.273	4497
899.393	4527
899.513	4558
899.633	4546
899.753	4592
899.873	4542
899.993	4622
900.113	4607
900.232	4626
900.352	4588
900.472	4554
900.591	4489
900.711	4516
900.83	4451
900.95	4637
901.069	4736
901.189	4573
901.308	4409
901.427	4394
901.546	4466
901.665	4508
901.784	4592
901.904	4466
902.023	4375
902.141	4249
902.26	4257
902.379	4306
902.498	4318
902.617	4303
902.735	4459
902.854	4447
902.973	4443
903.091	4242
903.21	4284
903.328	4356
903.446	4344
903.565	4303
903.683	4436
903.801	4318
903.919	4436
904.038	4489
904.156	4352
904.274	4455
904.392	4417
904.51	4504
904.627	4519
904.745	4637
904.863	4706
904.981	4428
905.098	4341
905.216	4436
905.334	4470
905.451	4481
905.569	4485
905.686	4626
905.803	4698
905.921	4455
906.038	4622
906.155	4481
906.272	4440
906.389	4531
906.506	4363
906.623	4409
906.74	4440
906.857	4348
906.974	4428
907.091	4565
907.208	4740
907.324	4607
907.441	4554
907.557	4379
907.674	4402
907.79	4394
907.907	4474
908.023	4527
908.139	4523
908.256	4516
908.372	4516
908.488	4474
908.604	4443
908.72	4310
908.836	4417
908.952	4451
909.068	4470
909.184	4592
909.3	4519
909.415	4622
909.531	4580
909.647	4405
909.762	4367
909.878	4394
909.993	4474
910.108	4432
910.224	4459
910.339	4485
910.454	4409
910.57	4443
910.685	4341
910.8	4687
910.915	4603
911.03	4523
911.145	4337
911.259	4379
911.374	4462
911.489	4363
911.604	4341
911.718	4242
911.833	4291
911.947	4116
912.062	4078
912.176	4215
912.291	4265
912.405	4322
912.519	4485
912.633	4542
912.748	4375
912.862	4344
912.976	4223
913.09	4147
913.204	4207
913.318	4299
913.431	4383
913.545	4459
913.659	4432
913.772	4443
913.886	4299
914	4280
914.113	4428
914.226	4474
914.34	4443
914.453	4322
914.566	4451
914.68	4333
914.793	4371
914.906	4169
915.019	4211
915.132	4128
915.245	4249
915.358	4219
915.47	4295
915.583	4318
915.696	4352
915.809	4421
915.921	4405
916.034	4333
916.146	4291
916.259	4265
916.371	4405
916.483	4379
916.595	4295
916.708	4394
916.82	4375
916.932	4405
917.044	4367
917.156	4394
917.268	4272
917.38	4348
917.491	4276
917.603	4405
917.715	4405
917.826	4447
917.938	4424
918.049	4287
918.161	4459
918.272	4577
918.384	4577
918.495	4523
918.606	4325
918.717	4291
918.828	4367
918.939	4413
919.05	4284
919.161	4325
919.272	4154
919.383	4287
919.494	4470
919.604	4649
919.715	4451
919.826	4428
919.936	4466
920.047	4554
920.157	4531
920.267	4706
920.378	4592
920.488	4535
920.598	4752
920.708	4968
920.818	4805
920.928	4793
921.038	4930
921.148	4892
921.258	4679
921.368	4599
921.477	4550
921.587	4447
921.697	4390
921.806	4561
921.916	4497
922.025	4367
922.134	4272
922.244	4249
922.353	4386
922.462	4166
922.571	4177
922.68	4032
922.789	4059
922.898	4097
923.007	4082
923.116	4143
923.224	4105
923.333	4143
923.442	4055
923.55	4063
923.659	4071
923.767	4169
923.876	4051
923.984	4139
924.092	4032
924.201	4135
924.309	4158
924.417	4154
924.525	4074
924.633	4158
924.741	4923
924.849	3972
924.956	4166
925.064	3983
925.172	3922
925.279	3998
925.387	4101
925.494	4071
925.602	4234
925.709	4238
925.816	4078
925.924	4158
926.031	4261
926.138	4200
926.245	4238
926.352	4101
926.459	4306
926.566	4337
926.673	4207
926.779	4120
926.886	4143
926.993	3998
927.099	3991
927.206	4002
927.312	3945
927.419	4055
927.525	4097
927.631	4162
927.737	4002
927.843	3934
927.95	3884
928.056	4006
928.162	4025
928.267	4082
928.373	4706
928.479	4154
928.585	3903
928.69	4044
928.796	4135
928.901	4013
929.007	3876
929.112	4090
929.218	4006
929.323	4021
929.428	3972
929.533	4188
929.638	3949
929.743	3956
929.848	4097
929.953	4051
930.058	3972
930.163	3800
930.267	3857
930.372	4040
930.477	3838
930.581	4093
930.685	3979
930.79	3876
930.894	3960
930.998	3918
931.103	4074
931.207	3789
931.311	3720
931.415	3694
931.519	3553
931.623	3591
