Data from test_V78500241_2385.txt Node
Date: Fri Mar 25 17:05:35 CST 2022
User: usil
Spectrometer: V785-0024
Trigger mode: 0
Integration Time (sec): 4.000000E-1
Scans to average: 1
Nonlinearity correction enabled: false
Boxcar width: 0
Storing dark spectrum: false
XAxis mode: Wavelengths
Number of Pixels in Spectrum: 1024
>>>>>Begin Spectral Data<<<<<
801.071	8005
801.214	8016
801.356	7883
801.499	7811
801.641	7761
801.783	7803
801.926	7970
802.068	7944
802.211	7986
802.353	8024
802.496	7871
802.638	7902
802.78	7864
802.923	7818
803.065	7860
803.208	7909
803.35	7951
803.492	8096
803.635	8168
803.777	8058
803.919	8161
804.061	8484
804.204	8149
804.346	8069
804.488	7925
804.63	8138
804.773	8001
804.915	8130
805.057	8317
805.199	8142
805.341	8191
805.483	8286
805.626	8252
805.768	8199
805.91	8237
806.052	8237
806.194	8081
806.336	8267
806.478	8073
806.62	8050
806.762	8142
806.904	8301
807.046	8442
807.188	8400
807.33	8290
807.472	8328
807.614	8142
807.756	8180
807.898	7993
808.04	7890
808.182	7887
808.324	7856
808.465	7883
808.607	8084
808.749	8062
808.891	8214
809.033	8256
809.174	8214
809.316	8069
809.458	8081
809.6	8035
809.741	8050
809.883	8073
810.025	8115
810.166	8084
810.308	8024
810.45	7932
810.591	7826
810.733	7731
810.875	7609
811.016	7529
811.158	7529
811.299	7597
811.441	7685
811.582	7655
811.724	7476
811.865	7567
812.007	7578
812.148	7567
812.29	7620
812.431	7833
812.573	7852
812.714	8001
812.855	8138
812.997	8183
813.138	8282
813.279	8168
813.421	8073
813.562	8012
813.703	7799
813.845	7693
813.986	7415
814.127	7240
814.268	7141
814.41	7114
814.551	7194
814.692	7198
814.833	7084
814.974	7110
815.115	7103
815.256	6962
815.397	6973
815.539	6951
815.68	6829
815.821	6829
815.962	6852
816.103	6848
816.244	6715
816.385	6639
816.526	6570
816.666	6517
816.807	6273
816.948	6464
817.089	6517
817.23	6429
817.371	6429
817.512	6350
817.653	6384
817.793	6357
817.934	6429
818.075	6456
818.216	6376
818.356	6395
818.497	6228
818.638	6117
818.778	6175
818.919	6117
819.06	6091
819.2	6369
819.341	6289
819.481	6365
819.622	6517
819.762	6692
819.903	6620
820.043	6578
820.184	6528
820.324	6559
820.465	6726
820.605	6688
820.746	6726
820.886	6547
821.026	6681
821.167	6741
821.307	6833
821.447	6719
821.588	6700
821.728	6620
821.868	6540
822.008	6357
822.149	6391
822.289	6395
822.429	6171
822.569	6091
822.709	6159
822.849	5969
822.99	5920
823.13	5908
823.27	5950
823.41	5817
823.55	5748
823.69	5786
823.83	5786
823.97	5691
824.11	5608
824.25	5585
824.389	5558
824.529	5589
824.669	5551
824.809	5653
824.949	5680
825.089	5619
825.228	5581
825.368	5414
825.508	5372
825.648	5311
825.787	5398
825.927	5379
826.067	5330
826.206	5280
826.346	5364
826.485	5417
826.625	5349
826.765	5585
826.904	5474
827.044	5250
827.183	5212
827.323	5143
827.462	5239
827.601	5181
827.741	5284
827.88	5193
828.02	5094
828.159	5212
828.298	5360
828.437	5345
828.577	5265
828.716	5509
828.855	5326
828.994	5197
829.134	5124
829.273	5170
829.412	5102
829.551	5086
829.69	5170
829.829	5242
829.968	5402
830.107	5269
830.246	5307
830.385	5204
830.524	5128
830.663	5045
830.802	4957
830.941	4923
831.08	4873
831.219	5014
831.357	4957
831.496	5121
831.635	4927
831.774	4812
831.913	4896
832.051	4721
832.19	4691
832.329	4847
832.467	4698
832.606	4660
832.744	4664
832.883	4683
833.022	4729
833.16	4782
833.299	4812
833.437	4805
833.576	4870
833.714	4908
833.852	4831
833.991	4923
834.129	4949
834.267	5003
834.406	4953
834.544	4968
834.682	4961
834.821	4995
834.959	5159
835.097	5018
835.235	5117
835.373	5064
835.511	5067
835.65	5041
835.788	5048
835.926	4824
836.064	4911
836.202	4949
836.34	5227
836.478	5246
836.615	5121
836.753	5223
836.891	5341
837.029	5231
837.167	5235
837.305	5132
837.443	5117
837.58	5121
837.718	5242
837.856	5166
837.993	5140
838.131	5250
838.269	5212
838.406	5242
838.544	5178
838.681	4976
838.819	4995
838.956	4927
839.094	4915
839.231	4957
839.369	5022
839.506	5425
839.643	5254
839.781	5067
839.918	5083
840.055	5098
840.193	5098
840.33	5124
840.467	5098
840.604	5189
840.742	5414
840.879	5071
841.016	5067
841.153	5147
841.29	5398
841.427	5334
841.564	5337
841.701	5360
841.838	5307
841.975	5231
842.112	5269
842.249	5174
842.385	5117
842.522	5334
842.659	5193
842.796	5151
842.933	5227
843.069	5132
843.206	5159
843.343	5273
843.479	5242
843.616	5261
843.752	5056
843.889	4976
844.025	5155
844.162	5010
844.298	5185
844.435	5128
844.571	4991
844.708	5189
844.844	5284
844.98	5341
845.117	5269
845.253	5155
845.389	5113
845.525	5178
845.661	5159
845.798	4995
845.934	5113
846.07	5010
846.206	5197
846.342	5261
846.478	5174
846.614	5045
846.75	4987
846.886	4911
847.022	5170
847.158	4991
847.294	5064
847.429	5037
847.565	5048
847.701	5318
847.837	4824
847.972	4801
848.108	4942
848.244	4946
848.379	4733
848.515	4714
848.65	4645
848.786	4729
848.921	4801
849.057	4881
849.192	4885
849.328	4809
849.463	4805
849.598	4835
849.734	4748
849.869	4698
850.004	4615
850.14	4710
850.275	4641
850.41	4527
850.545	4569
850.68	4672
850.815	4679
850.95	4615
851.085	4816
851.22	4668
851.355	4668
851.49	4611
851.625	4668
851.76	4656
851.895	4538
852.03	4558
852.165	4698
852.299	4725
852.434	4740
852.569	4729
852.703	4755
852.838	4843
852.973	4915
853.107	4965
853.242	4710
853.376	4634
853.511	4535
853.645	4649
853.78	4820
853.914	4675
854.048	4687
854.183	4687
854.317	4694
854.451	4828
854.585	4668
854.72	4607
854.854	4755
854.988	4603
855.122	4679
855.256	4527
855.39	4664
855.524	4790
855.658	4698
855.792	4649
855.926	4733
856.06	4771
856.194	4778
856.327	4717
856.461	4588
856.595	4630
856.729	4630
856.862	4752
856.996	4653
857.13	4755
857.263	4736
857.397	4809
857.53	4664
857.664	4698
857.797	4793
857.931	4748
858.064	4706
858.197	4740
858.331	4668
858.464	4607
858.597	4573
858.731	4645
858.864	4634
858.997	4618
859.13	4656
859.263	4710
859.396	4710
859.529	4523
859.662	4554
859.795	4527
859.928	4641
860.061	4778
860.194	4778
860.327	4615
860.46	4516
860.592	4691
860.725	4714
860.858	4702
860.99	4554
861.123	4535
861.256	4531
861.388	4645
861.521	5349
861.653	4512
861.786	4405
861.918	4421
862.05	4546
862.183	4538
862.315	4622
862.447	4618
862.58	4573
862.712	4398
862.844	4363
862.976	4455
863.108	4440
863.24	4771
863.372	4356
863.504	4405
863.636	4413
863.768	4527
863.9	4424
864.032	4360
864.164	4409
864.296	4497
864.428	4554
864.559	4527
864.691	4508
864.823	4535
864.954	4516
865.086	4512
865.217	4459
865.349	4432
865.48	4474
865.612	4512
865.743	4592
865.875	4459
866.006	4443
866.137	4481
866.269	4478
866.4	4462
866.531	4451
866.662	4402
866.793	4383
866.924	4462
867.055	4516
867.186	4440
867.317	4379
867.448	4363
867.579	4360
867.71	4440
867.841	4360
867.972	4489
868.103	4459
868.233	4485
868.364	4436
868.495	4451
868.625	4660
868.756	4714
868.886	4523
869.017	4599
869.147	4767
869.278	4786
869.408	4622
869.539	4656
869.669	4740
869.799	4668
869.929	4752
870.06	4717
870.19	4923
870.32	4908
870.45	4949
870.58	4984
870.71	5124
870.84	5113
870.97	4942
871.1	4915
871.23	5132
871.36	5140
871.489	5014
871.619	5048
871.749	5094
871.879	5181
872.008	5189
872.138	5071
872.267	4976
872.397	4835
872.526	4771
872.656	4755
872.785	4812
872.915	4949
873.044	5018
873.173	4976
873.303	4915
873.432	5010
873.561	4984
873.69	4881
873.819	4870
873.948	4953
874.077	4847
874.206	4752
874.335	4771
874.464	4915
874.593	5067
874.722	4923
874.851	5117
874.979	5060
875.108	5060
875.237	4923
875.365	4866
875.494	4885
875.623	4961
875.751	4866
875.88	4919
876.008	4930
876.136	5018
876.265	5197
876.393	5376
876.521	5273
876.65	5261
876.778	5151
876.906	5056
877.034	5025
877.162	5071
877.29	5010
877.418	5052
877.546	5025
877.674	5064
877.802	4987
877.93	5029
878.058	4972
878.185	4900
878.313	4942
878.441	5003
878.568	4774
878.696	4877
878.824	4927
878.951	4938
879.079	5117
879.206	5254
879.333	5159
879.461	4965
879.588	5048
879.715	5136
879.842	5246
879.97	5010
880.097	4748
880.224	4767
880.351	4790
880.478	4820
880.605	4771
880.732	4790
880.859	5132
880.986	4896
881.112	4873
881.239	4812
881.366	4679
881.493	4634
881.619	4584
881.746	4603
881.872	4694
881.999	4694
882.125	4717
882.252	4790
882.378	4831
882.505	4915
882.631	4835
882.757	4656
882.883	4763
883.01	4717
883.136	4615
883.262	4645
883.388	4618
883.514	4786
883.64	4850
883.766	4828
883.892	4706
884.018	4752
884.143	4877
884.269	5003
884.395	4645
884.52	4626
884.646	4599
884.772	4615
884.897	4577
885.023	4660
885.148	4820
885.274	4904
885.399	4778
885.524	4790
885.65	4656
885.775	4725
885.9	4683
886.025	4797
886.15	4805
886.275	4733
886.4	4691
886.525	4717
886.65	4645
886.775	4694
886.9	4889
887.025	5064
887.149	4782
887.274	4634
887.399	4516
887.523	4607
887.648	4588
887.773	4580
887.897	4774
888.021	4782
888.146	4675
888.27	4824
888.395	4911
888.519	4759
888.643	4835
888.767	4816
888.891	4641
889.015	4592
889.139	4626
889.263	4618
889.387	4771
889.511	4915
889.635	4778
889.759	4603
889.883	4656
890.006	4782
890.13	4820
890.254	4615
890.377	4653
890.501	4554
890.624	4481
890.748	4668
890.871	4500
890.995	4459
891.118	4390
891.241	4512
891.364	4504
891.488	4634
891.611	4527
891.734	4519
891.857	4599
891.98	4550
892.103	4664
892.226	4554
892.349	4573
892.471	4413
892.594	4538
892.717	4565
892.839	4584
892.962	4596
893.085	4679
893.207	4573
893.33	4497
893.452	4573
893.575	4664
893.697	4592
893.819	4809
893.941	4809
894.064	4763
894.186	4565
894.308	4584
894.43	4763
894.552	4828
894.674	4740
894.796	4565
894.918	4580
895.04	4535
895.161	4717
895.283	4656
895.405	4569
895.526	4577
895.648	4656
895.769	4679
895.891	4721
896.012	4748
896.134	4645
896.255	4656
896.376	4668
896.498	4577
896.619	4664
896.74	4626
896.861	4649
896.982	4896
897.103	5083
897.224	4835
897.345	4767
897.466	4698
897.587	4759
897.708	4870
897.828	4786
897.949	4649
898.07	4554
898.19	4637
898.311	4820
898.431	4683
898.552	4759
898.672	4824
898.792	4801
898.913	4710
899.033	4588
899.153	4504
899.273	4440
899.393	4516
899.513	4481
899.633	4558
899.753	4519
899.873	4504
899.993	4546
900.113	4607
900.232	4588
900.352	4500
900.472	4493
900.591	4436
900.711	4447
900.83	4443
900.95	4592
901.069	4740
901.189	4519
901.308	4383
901.427	4310
901.546	4386
901.665	4440
901.784	4489
901.904	4398
902.023	4322
902.141	4204
902.26	4188
902.379	4265
902.498	4223
902.617	4215
902.735	4356
902.854	4379
902.973	4379
903.091	4196
903.21	4227
903.328	4276
903.446	4299
903.565	4246
903.683	4341
903.801	4276
903.919	4352
904.038	4432
904.156	4333
904.274	4394
904.392	4428
904.51	4436
904.627	4489
904.745	4611
904.863	4645
904.981	4405
905.098	4344
905.216	4367
905.334	4386
905.451	4405
905.569	4462
905.686	4561
905.803	4538
905.921	4383
906.038	4538
906.155	4474
906.272	4405
906.389	4497
906.506	4310
906.623	4398
906.74	4436
906.857	4310
906.974	4360
907.091	4573
907.208	4698
907.324	4565
907.441	4497
907.557	4348
907.674	4371
907.79	4322
907.907	4352
908.023	4421
908.139	4485
908.256	4436
908.372	4436
908.488	4478
908.604	4363
908.72	4356
908.836	4375
908.952	4409
909.068	4417
909.184	4531
909.3	4493
909.415	4592
909.531	4512
909.647	4356
909.762	4352
909.878	4314
909.993	4432
910.108	4398
910.224	4447
910.339	4512
910.454	4394
910.57	4379
910.685	4337
910.8	4615
910.915	4603
911.03	4470
911.145	4348
911.259	4325
911.374	4333
911.489	4268
911.604	4242
911.718	4173
911.833	4185
911.947	4124
912.062	4032
912.176	4177
912.291	4238
912.405	4249
912.519	4447
912.633	4466
912.748	4398
912.862	4333
912.976	4158
913.09	4128
913.204	4166
913.318	4261
913.431	4375
913.545	4386
913.659	4474
913.772	4363
913.886	4284
914	4200
914.113	4352
914.226	4440
914.34	4428
914.453	4211
914.566	4371
914.68	4257
914.793	4314
914.906	4158
915.019	4105
915.132	4071
915.245	4196
915.358	4223
915.47	4230
915.583	4249
915.696	4306
915.809	4394
915.921	4421
916.034	4246
916.146	4253
916.259	4204
916.371	4367
916.483	4383
916.595	4265
916.708	4303
916.82	4363
916.932	4295
917.044	4257
917.156	4322
917.268	4200
917.38	4276
917.491	4272
917.603	4344
917.715	4417
917.826	4436
917.938	4280
918.049	4238
918.161	4394
918.272	4519
918.384	4512
918.495	4424
918.606	4284
918.717	4268
918.828	4299
918.939	4329
919.05	4249
919.161	4268
919.272	4158
919.383	4230
919.494	4508
919.604	4599
919.715	4394
919.826	4371
919.936	4356
920.047	4565
920.157	4538
920.267	4729
920.378	4561
920.488	4481
920.598	4706
920.708	4885
920.818	4717
920.928	4755
921.038	4896
921.148	4904
921.258	4599
921.368	4558
921.477	4500
921.587	4432
921.697	4322
921.806	4542
921.916	4386
922.025	4253
922.134	4268
922.244	4219
922.353	4337
922.462	4173
922.571	4105
922.68	4002
922.789	3975
922.898	4013
923.007	3998
923.116	4048
923.224	4048
923.333	4097
923.442	4006
923.55	3972
923.659	4036
923.767	4082
923.876	3998
923.984	4078
924.092	3960
924.201	4074
924.309	4074
924.417	4105
924.525	4048
924.633	4097
924.741	5056
924.849	3888
924.956	4143
925.064	3964
925.172	3903
925.279	3915
925.387	4051
925.494	4025
925.602	4207
925.709	4143
925.816	4078
925.924	4154
926.031	4219
926.138	4131
926.245	4211
926.352	4067
926.459	4253
926.566	4303
926.673	4120
926.779	4086
926.886	4067
926.993	3930
927.099	3968
927.206	3941
927.312	3934
927.419	4074
927.525	4059
927.631	4109
927.737	3964
927.843	3930
927.95	3831
928.056	3945
928.162	4029
928.267	4021
928.373	4660
928.479	4116
928.585	3903
928.69	4017
928.796	4078
928.901	3907
929.007	3812
929.112	3979
929.218	3937
929.323	3949
929.428	3945
929.533	4093
929.638	3869
929.743	3979
929.848	4029
929.953	4032
930.058	3907
930.163	3759
930.267	3804
930.372	3968
930.477	3770
930.581	4112
930.685	3979
930.79	3793
930.894	3903
930.998	3857
931.103	3987
931.207	3698
931.311	3698
931.415	3663
931.519	3530
931.623	3507
