Data from test_V78500241_1617.txt Node
Date: Fri Mar 25 17:00:14 CST 2022
User: usil
Spectrometer: V785-0024
Trigger mode: 0
Integration Time (sec): 4.000000E-1
Scans to average: 1
Nonlinearity correction enabled: false
Boxcar width: 0
Storing dark spectrum: false
XAxis mode: Wavelengths
Number of Pixels in Spectrum: 1024
>>>>>Begin Spectral Data<<<<<
801.071	7955
801.214	7978
801.356	7845
801.499	7803
801.641	7772
801.783	7799
801.926	7921
802.068	7921
802.211	7970
802.353	7970
802.496	7830
802.638	7845
802.78	7909
802.923	7875
803.065	7837
803.208	7792
803.35	7974
803.492	8073
803.635	8199
803.777	8020
803.919	8119
804.061	8446
804.204	8195
804.346	8031
804.488	7967
804.63	8081
804.773	8020
804.915	8012
805.057	8275
805.199	8164
805.341	8157
805.483	8199
805.626	8214
805.768	8145
805.91	8259
806.052	8221
806.194	8111
806.336	8210
806.478	8084
806.62	8005
806.762	8077
806.904	8279
807.046	8484
807.188	8408
807.33	8214
807.472	8332
807.614	8180
807.756	8172
807.898	7944
808.04	7807
808.182	7898
808.324	7959
808.465	7917
808.607	8088
808.749	8065
808.891	8183
809.033	8244
809.174	8191
809.316	8016
809.458	7978
809.6	7978
809.741	8096
809.883	8008
810.025	8161
810.166	8012
810.308	7989
810.45	7967
810.591	7837
810.733	7742
810.875	7632
811.016	7521
811.158	7430
811.299	7582
811.441	7670
811.582	7643
811.724	7510
811.865	7521
812.007	7563
812.148	7632
812.29	7605
812.431	7772
812.573	7830
812.714	7921
812.855	8069
812.997	8134
813.138	8252
813.279	8149
813.421	8107
813.562	7909
813.703	7837
813.845	7666
813.986	7426
814.127	7263
814.268	7202
814.41	7164
814.551	7141
814.692	7209
814.833	7069
814.974	7110
815.115	7103
815.256	6962
815.397	6867
815.539	6924
815.68	6844
815.821	6764
815.962	6909
816.103	6798
816.244	6627
816.385	6566
816.526	6547
816.666	6525
816.807	6323
816.948	6407
817.089	6376
817.23	6399
817.371	6372
817.512	6323
817.653	6407
817.793	6369
817.934	6407
818.075	6479
818.216	6445
818.356	6426
818.497	6239
818.638	6133
818.778	6129
818.919	6045
819.06	6155
819.2	6372
819.341	6334
819.481	6369
819.622	6494
819.762	6684
819.903	6692
820.043	6547
820.184	6566
820.324	6536
820.465	6696
820.605	6681
820.746	6650
820.886	6460
821.026	6703
821.167	6700
821.307	6798
821.447	6764
821.588	6612
821.728	6566
821.868	6502
822.008	6300
822.149	6369
822.289	6350
822.429	6083
822.569	6076
822.709	6159
822.849	5912
822.99	5847
823.13	5882
823.27	5923
823.41	5809
823.55	5752
823.69	5760
823.83	5733
823.97	5653
824.11	5501
824.25	5551
824.389	5512
824.529	5558
824.669	5486
824.809	5604
824.949	5638
825.089	5623
825.228	5554
825.368	5398
825.508	5322
825.648	5326
825.787	5364
825.927	5334
826.067	5277
826.206	5284
826.346	5311
826.485	5402
826.625	5395
826.765	5512
826.904	5448
827.044	5269
827.183	5239
827.323	5109
827.462	5258
827.601	5159
827.741	5178
827.88	5174
828.02	5132
828.159	5246
828.298	5299
828.437	5326
828.577	5284
828.716	5471
828.855	5315
828.994	5220
829.134	5121
829.273	5216
829.412	5147
829.551	5109
829.69	5181
829.829	5201
829.968	5349
830.107	5242
830.246	5223
830.385	5197
830.524	5109
830.663	5052
830.802	5018
830.941	4854
831.08	4843
831.219	5003
831.357	4980
831.496	5162
831.635	4923
831.774	4831
831.913	4835
832.051	4717
832.19	4717
832.329	4774
832.467	4717
832.606	4641
832.744	4706
832.883	4691
833.022	4714
833.16	4736
833.299	4790
833.437	4858
833.576	4809
833.714	4812
833.852	4850
833.991	4881
834.129	4946
834.267	4949
834.406	4824
834.544	4953
834.682	4957
834.821	4972
834.959	5105
835.097	5029
835.235	5098
835.373	5048
835.511	5105
835.65	5048
835.788	4987
835.926	4873
836.064	4828
836.202	4911
836.34	5143
836.478	5242
836.615	5132
836.753	5166
836.891	5311
837.029	5269
837.167	5159
837.305	5189
837.443	5124
837.58	5113
837.718	5181
837.856	5140
837.993	5189
838.131	5212
838.269	5189
838.406	5166
838.544	5143
838.681	4999
838.819	4995
838.956	4889
839.094	4862
839.231	4949
839.369	5045
839.506	5364
839.643	5235
839.781	5086
839.918	5029
840.055	5094
840.193	5060
840.33	5090
840.467	5121
840.604	5094
840.742	5440
840.879	5079
841.016	5067
841.153	5132
841.29	5368
841.427	5322
841.564	5303
841.701	5315
841.838	5254
841.975	5201
842.112	5220
842.249	5113
842.385	5128
842.522	5322
842.659	5109
842.796	5117
842.933	5220
843.069	5132
843.206	5185
843.343	5307
843.479	5220
843.616	5227
843.752	5048
843.889	4987
844.025	5239
844.162	5003
844.298	5197
844.435	5029
844.571	5037
844.708	5155
844.844	5299
844.98	5337
845.117	5296
845.253	5098
845.389	5048
845.525	5159
845.661	5098
845.798	5037
845.934	5105
846.07	5052
846.206	5132
846.342	5242
846.478	5185
846.614	5048
846.75	4919
846.886	4934
847.022	5113
847.158	4995
847.294	5029
847.429	5098
847.565	4980
847.701	5330
847.837	4850
847.972	4778
848.108	4923
848.244	4919
848.379	4763
848.515	4744
848.65	4702
848.786	4736
848.921	4748
849.057	4801
849.192	4862
849.328	4816
849.463	4820
849.598	4752
849.734	4755
849.869	4675
850.004	4630
850.14	4645
850.275	4592
850.41	4527
850.545	4569
850.68	4618
850.815	4618
850.95	4637
851.085	4843
851.22	4721
851.355	4687
851.49	4592
851.625	4694
851.76	4675
851.895	4546
852.03	4500
852.165	4618
852.299	4744
852.434	4759
852.569	4725
852.703	4729
852.838	4824
852.973	4946
853.107	4892
853.242	4744
853.376	4577
853.511	4523
853.645	4565
853.78	4797
853.914	4599
854.048	4717
854.183	4691
854.317	4721
854.451	4801
854.585	4664
854.72	4596
854.854	4790
854.988	4603
855.122	4656
855.256	4485
855.39	4641
855.524	4820
855.658	4744
855.792	4721
855.926	4733
856.06	4740
856.194	4767
856.327	4656
856.461	4637
856.595	4618
856.729	4622
856.862	4767
856.996	4710
857.13	4714
857.263	4786
857.397	4740
857.53	4653
857.664	4710
857.797	4759
857.931	4767
858.064	4672
858.197	4679
858.331	4656
858.464	4569
858.597	4478
858.731	4626
858.864	4641
858.997	4573
859.13	4653
859.263	4679
859.396	4694
859.529	4546
859.662	4561
859.795	4497
859.928	4611
860.061	4744
860.194	4774
860.327	4558
860.46	4531
860.592	4691
860.725	4687
860.858	4706
860.99	4584
861.123	4527
861.256	4516
861.388	4626
861.521	5197
861.653	4470
861.786	4436
861.918	4428
862.05	4523
862.183	4519
862.315	4641
862.447	4634
862.58	4523
862.712	4371
862.844	4352
862.976	4497
863.108	4421
863.24	4790
863.372	4390
863.504	4402
863.636	4424
863.768	4466
863.9	4474
864.032	4325
864.164	4379
864.296	4466
864.428	4523
864.559	4504
864.691	4535
864.823	4531
864.954	4527
865.086	4558
865.217	4451
865.349	4394
865.48	4478
865.612	4462
865.743	4611
865.875	4440
866.006	4462
866.137	4428
866.269	4375
866.4	4451
866.531	4424
866.662	4356
866.793	4398
866.924	4398
867.055	4500
867.186	4474
867.317	4451
867.448	4398
867.579	4341
867.71	4398
867.841	4367
867.972	4474
868.103	4455
868.233	4409
868.364	4417
868.495	4478
868.625	4668
868.756	4752
868.886	4554
869.017	4630
869.147	4771
869.278	4729
869.408	4645
869.539	4615
869.669	4698
869.799	4626
869.929	4683
870.06	4668
870.19	4961
870.32	4870
870.45	4923
870.58	4984
870.71	5121
870.84	5079
870.97	4915
871.1	4911
871.23	5143
871.36	5105
871.489	5006
871.619	5037
871.749	5102
871.879	5128
872.008	5189
872.138	5075
872.267	4995
872.397	4850
872.526	4797
872.656	4717
872.785	4797
872.915	4942
873.044	5041
873.173	4915
873.303	4976
873.432	4919
873.561	4923
873.69	4885
873.819	4831
873.948	4885
874.077	4839
874.206	4748
874.335	4816
874.464	4915
874.593	5037
874.722	4949
874.851	5090
874.979	5056
875.108	5022
875.237	4904
875.365	4904
875.494	4843
875.623	4968
875.751	4774
875.88	4915
876.008	4976
876.136	5041
876.265	5143
876.393	5334
876.521	5261
876.65	5208
876.778	5159
876.906	5064
877.034	4968
877.162	5022
877.29	4984
877.418	5041
877.546	5060
877.674	5029
877.802	4984
877.93	5014
878.058	4919
878.185	4843
878.313	5037
878.441	4976
878.568	4831
878.696	4862
878.824	4980
878.951	4987
879.079	5098
879.206	5315
879.333	5117
879.461	4957
879.588	4934
879.715	5086
879.842	5235
879.97	4965
880.097	4797
880.224	4767
880.351	4820
880.478	4847
880.605	4816
880.732	4824
880.859	5052
880.986	4923
881.112	4896
881.239	4778
881.366	4660
881.493	4588
881.619	4558
881.746	4599
881.872	4641
881.999	4618
882.125	4694
882.252	4771
882.378	4797
882.505	4984
882.631	4771
882.757	4637
882.883	4691
883.01	4714
883.136	4694
883.262	4615
883.388	4622
883.514	4805
883.64	4900
883.766	4752
883.892	4649
884.018	4736
884.143	4850
884.269	4972
884.395	4653
884.52	4615
884.646	4599
884.772	4588
884.897	4508
885.023	4664
885.148	4729
885.274	4850
885.399	4809
885.524	4706
885.65	4687
885.775	4748
885.9	4675
886.025	4831
886.15	4843
886.275	4698
886.4	4645
886.525	4774
886.65	4672
886.775	4679
886.9	4938
887.025	5045
887.149	4835
887.274	4649
887.399	4504
887.523	4599
887.648	4599
887.773	4573
887.897	4759
888.021	4782
888.146	4664
888.27	4790
888.395	4923
888.519	4820
888.643	4824
888.767	4793
888.891	4653
889.015	4618
889.139	4691
889.263	4596
889.387	4778
889.511	4862
889.635	4839
889.759	4622
889.883	4630
890.006	4744
890.13	4801
890.254	4615
890.377	4668
890.501	4508
890.624	4516
890.748	4615
890.871	4478
890.995	4417
891.118	4383
891.241	4504
891.364	4558
891.488	4618
891.611	4478
891.734	4554
891.857	4634
891.98	4519
892.103	4573
892.226	4611
892.349	4512
892.471	4478
892.594	4573
892.717	4618
892.839	4584
892.962	4561
893.085	4683
893.207	4618
893.33	4417
893.452	4558
893.575	4664
893.697	4573
893.819	4771
893.941	4797
894.064	4793
894.186	4611
894.308	4554
894.43	4729
894.552	4828
894.674	4714
894.796	4580
894.918	4630
895.04	4489
895.161	4717
895.283	4653
895.405	4607
895.526	4615
895.648	4683
895.769	4691
895.891	4691
896.012	4763
896.134	4694
896.255	4649
896.376	4596
896.498	4542
896.619	4675
896.74	4603
896.861	4634
896.982	4938
897.103	5083
897.224	4843
897.345	4729
897.466	4698
897.587	4683
897.708	4866
897.828	4778
897.949	4714
898.07	4588
898.19	4626
898.311	4835
898.431	4641
898.552	4702
898.672	4828
898.792	4812
898.913	4748
899.033	4599
899.153	4497
899.273	4440
899.393	4478
899.513	4546
899.633	4504
899.753	4550
899.873	4485
899.993	4596
900.113	4500
900.232	4580
900.352	4512
900.472	4512
900.591	4333
900.711	4497
900.83	4413
900.95	4577
901.069	4687
901.189	4546
901.308	4363
901.427	4314
901.546	4390
901.665	4455
901.784	4504
901.904	4363
902.023	4322
902.141	4211
902.26	4192
902.379	4306
902.498	4196
902.617	4204
902.735	4367
902.854	4360
902.973	4333
903.091	4219
903.21	4249
903.328	4322
903.446	4242
903.565	4287
903.683	4356
903.801	4291
903.919	4432
904.038	4462
904.156	4329
904.274	4428
904.392	4379
904.51	4398
904.627	4459
904.745	4508
904.863	4599
904.981	4379
905.098	4280
905.216	4352
905.334	4455
905.451	4493
905.569	4447
905.686	4538
905.803	4558
905.921	4417
906.038	4569
906.155	4474
906.272	4367
906.389	4451
906.506	4344
906.623	4344
906.74	4348
906.857	4322
906.974	4375
907.091	4550
907.208	4683
907.324	4550
907.441	4512
907.557	4390
907.674	4344
907.79	4284
907.907	4394
908.023	4440
908.139	4417
908.256	4413
908.372	4417
908.488	4451
908.604	4318
908.72	4325
908.836	4333
908.952	4360
909.068	4443
909.184	4561
909.3	4500
909.415	4561
909.531	4603
909.647	4352
909.762	4386
909.878	4333
909.993	4432
910.108	4428
910.224	4394
910.339	4481
910.454	4409
910.57	4352
910.685	4360
910.8	4691
910.915	4603
911.03	4485
911.145	4287
911.259	4287
911.374	4383
911.489	4337
911.604	4280
911.718	4185
911.833	4227
911.947	4090
912.062	4059
912.176	4204
912.291	4272
912.405	4246
912.519	4462
912.633	4489
912.748	4379
912.862	4310
912.976	4196
913.09	4116
913.204	4185
913.318	4284
913.431	4371
913.545	4329
913.659	4455
913.772	4310
913.886	4234
914	4188
914.113	4383
914.226	4466
914.34	4394
914.453	4227
914.566	4424
914.68	4287
914.793	4287
914.906	4192
915.019	4109
915.132	4078
915.245	4185
915.358	4211
915.47	4257
915.583	4268
915.696	4287
915.809	4409
915.921	4440
916.034	4249
916.146	4200
916.259	4169
916.371	4363
916.483	4356
916.595	4242
916.708	4299
916.82	4303
916.932	4257
917.044	4322
917.156	4325
917.268	4234
917.38	4253
917.491	4291
917.603	4329
917.715	4413
917.826	4455
917.938	4318
918.049	4200
918.161	4398
918.272	4558
918.384	4527
918.495	4466
918.606	4303
918.717	4219
918.828	4314
918.939	4383
919.05	4276
919.161	4329
919.272	4090
919.383	4223
919.494	4466
919.604	4607
919.715	4402
919.826	4348
919.936	4421
920.047	4500
920.157	4493
920.267	4717
920.378	4527
920.488	4481
920.598	4672
920.708	4870
920.818	4736
920.928	4793
921.038	4995
921.148	4934
921.258	4656
921.368	4561
921.477	4455
921.587	4440
921.697	4363
921.806	4542
921.916	4417
922.025	4227
922.134	4234
922.244	4238
922.353	4352
922.462	4162
922.571	4105
922.68	3994
922.789	4002
922.898	4078
923.007	4010
923.116	4116
923.224	4040
923.333	4086
923.442	3979
923.55	3983
923.659	4036
923.767	4074
923.876	4006
923.984	4135
924.092	3964
924.201	4067
924.309	4097
924.417	4131
924.525	4040
924.633	4097
924.741	4904
924.849	3903
924.956	4109
925.064	3972
925.172	3876
925.279	3987
925.387	4063
925.494	4044
925.602	4162
925.709	4192
925.816	4063
925.924	4128
926.031	4234
926.138	4177
926.245	4200
926.352	4131
926.459	4227
926.566	4356
926.673	4181
926.779	4036
926.886	4071
926.993	3998
927.099	4002
927.206	3960
927.312	3934
927.419	4036
927.525	4040
927.631	4051
927.737	3968
927.843	3899
927.95	3835
928.056	3972
928.162	3975
928.267	4063
928.373	4550
928.479	4105
928.585	3857
928.69	4010
928.796	4055
928.901	3968
929.007	3857
929.112	4017
929.218	3953
929.323	3956
929.428	3956
929.533	4078
929.638	3934
929.743	3941
929.848	4006
929.953	3979
930.058	3880
930.163	3759
930.267	3831
930.372	3930
930.477	3778
930.581	4093
930.685	3926
930.79	3804
930.894	3915
930.998	3827
931.103	4006
931.207	3705
931.311	3705
931.415	3660
931.519	3481
931.623	3568
