Data from test_V78500241_265.txt Node
Date: Fri Mar 25 16:50:50 CST 2022
User: usil
Spectrometer: V785-0024
Trigger mode: 0
Integration Time (sec): 4.000000E-1
Scans to average: 1
Nonlinearity correction enabled: false
Boxcar width: 0
Storing dark spectrum: false
XAxis mode: Wavelengths
Number of Pixels in Spectrum: 1024
>>>>>Begin Spectral Data<<<<<
801.071	8084
801.214	7978
801.356	7841
801.499	7860
801.641	7860
801.783	7826
801.926	7974
802.068	7974
802.211	8046
802.353	8058
802.496	7875
802.638	7932
802.78	7963
802.923	7921
803.065	7818
803.208	7845
803.35	7970
803.492	8024
803.635	8161
803.777	7989
803.919	8161
804.061	8438
804.204	8180
804.346	8024
804.488	8024
804.63	8046
804.773	8039
804.915	8069
805.057	8248
805.199	8180
805.341	8233
805.483	8259
805.626	8180
805.768	8126
805.91	8115
806.052	8180
806.194	8039
806.336	8282
806.478	8084
806.62	8119
806.762	8107
806.904	8191
807.046	8351
807.188	8313
807.33	8263
807.472	8328
807.614	8073
807.756	8081
807.898	7970
808.04	7894
808.182	7913
808.324	7932
808.465	7951
808.607	8054
808.749	8115
808.891	8180
809.033	8389
809.174	8172
809.316	7974
809.458	8024
809.6	8031
809.741	8039
809.883	7967
810.025	8134
810.166	8035
810.308	8046
810.45	7963
810.591	7849
810.733	7769
810.875	7582
811.016	7525
811.158	7453
811.299	7586
811.441	7666
811.582	7693
811.724	7514
811.865	7460
812.007	7563
812.148	7651
812.29	7628
812.431	7761
812.573	7967
812.714	7951
812.855	8176
812.997	8237
813.138	8275
813.279	8115
813.421	8081
813.562	8035
813.703	7852
813.845	7723
813.986	7362
814.127	7217
814.268	7198
814.41	7179
814.551	7187
814.692	7187
814.833	7099
814.974	7065
815.115	7114
815.256	6947
815.397	6878
815.539	6966
815.68	6818
815.821	6779
815.962	6939
816.103	6818
816.244	6688
816.385	6612
816.526	6616
816.666	6528
816.807	6334
816.948	6399
817.089	6403
817.23	6441
817.371	6414
817.512	6369
817.653	6365
817.793	6357
817.934	6426
818.075	6467
818.216	6452
818.356	6407
818.497	6213
818.638	6072
818.778	6129
818.919	6106
819.06	6095
819.2	6300
819.341	6361
819.481	6289
819.622	6521
819.762	6662
819.903	6715
820.043	6574
820.184	6555
820.324	6585
820.465	6669
820.605	6665
820.746	6620
820.886	6456
821.026	6597
821.167	6726
821.307	6821
821.447	6726
821.588	6700
821.728	6627
821.868	6555
822.008	6369
822.149	6437
822.289	6410
822.429	6213
822.569	6152
822.709	6152
822.849	5984
822.99	5973
823.13	5935
823.27	5950
823.41	5863
823.55	5798
823.69	5790
823.83	5824
823.97	5661
824.11	5592
824.25	5547
824.389	5535
824.529	5676
824.669	5566
824.809	5699
824.949	5733
825.089	5653
825.228	5585
825.368	5433
825.508	5406
825.648	5455
825.787	5364
825.927	5391
826.067	5364
826.206	5360
826.346	5376
826.485	5478
826.625	5444
826.765	5573
826.904	5520
827.044	5318
827.183	5212
827.323	5204
827.462	5288
827.601	5193
827.741	5212
827.88	5261
828.02	5159
828.159	5258
828.298	5368
828.437	5414
828.577	5296
828.716	5543
828.855	5387
828.994	5189
829.134	5178
829.273	5204
829.412	5170
829.551	5166
829.69	5185
829.829	5265
829.968	5364
830.107	5296
830.246	5318
830.385	5223
830.524	5143
830.663	5098
830.802	5037
830.941	4938
831.08	4923
831.219	5029
831.357	5018
831.496	5204
831.635	4927
831.774	4839
831.913	4877
832.051	4782
832.19	4797
832.329	4900
832.467	4721
832.606	4656
832.744	4702
832.883	4740
833.022	4778
833.16	4854
833.299	4850
833.437	4866
833.576	4885
833.714	4892
833.852	4911
833.991	4930
834.129	4976
834.267	5003
834.406	4968
834.544	4938
834.682	5056
834.821	4946
834.959	5155
835.097	5025
835.235	5174
835.373	5109
835.511	5117
835.65	5086
835.788	5041
835.926	4873
836.064	4927
836.202	4984
836.34	5239
836.478	5265
836.615	5155
836.753	5239
836.891	5273
837.029	5280
837.167	5231
837.305	5227
837.443	5193
837.58	5170
837.718	5277
837.856	5242
837.993	5246
838.131	5269
838.269	5284
838.406	5197
838.544	5239
838.681	5105
838.819	5056
838.956	4949
839.094	4949
839.231	5010
839.369	5075
839.506	5505
839.643	5318
839.781	5094
839.918	5105
840.055	5143
840.193	5143
840.33	5147
840.467	5170
840.604	5242
840.742	5516
840.879	5151
841.016	5185
841.153	5170
841.29	5421
841.427	5387
841.564	5330
841.701	5345
841.838	5326
841.975	5277
842.112	5296
842.249	5113
842.385	5170
842.522	5364
842.659	5227
842.796	5174
842.933	5185
843.069	5162
843.206	5132
843.343	5349
843.479	5280
843.616	5292
843.752	5083
843.889	5075
844.025	5261
844.162	5067
844.298	5227
844.435	5155
844.571	5090
844.708	5231
844.844	5376
844.98	5318
845.117	5284
845.253	5140
845.389	5109
845.525	5201
845.661	5143
845.798	5105
845.934	5155
846.07	5159
846.206	5216
846.342	5330
846.478	5220
846.614	5056
846.75	4972
846.886	5048
847.022	5250
847.158	5056
847.294	5067
847.429	5212
847.565	5090
847.701	5303
847.837	4877
847.972	4839
848.108	4976
848.244	4957
848.379	4877
848.515	4793
848.65	4721
848.786	4797
848.921	4774
849.057	4904
849.192	4911
849.328	4847
849.463	4873
849.598	4786
849.734	4831
849.869	4740
850.004	4668
850.14	4687
850.275	4672
850.41	4569
850.545	4577
850.68	4592
850.815	4637
850.95	4683
851.085	4873
851.22	4778
851.355	4702
851.49	4645
851.625	4679
851.76	4622
851.895	4580
852.03	4565
852.165	4694
852.299	4752
852.434	4854
852.569	4790
852.703	4778
852.838	4847
852.973	4938
853.107	4908
853.242	4755
853.376	4664
853.511	4599
853.645	4637
853.78	4858
853.914	4710
854.048	4691
854.183	4706
854.317	4752
854.451	4870
854.585	4691
854.72	4656
854.854	4763
854.988	4649
855.122	4660
855.256	4554
855.39	4710
855.524	4816
855.658	4786
855.792	4759
855.926	4774
856.06	4759
856.194	4793
856.327	4771
856.461	4656
856.595	4691
856.729	4706
856.862	4828
856.996	4710
857.13	4736
857.263	4778
857.397	4786
857.53	4721
857.664	4755
857.797	4801
857.931	4847
858.064	4733
858.197	4782
858.331	4698
858.464	4637
858.597	4538
858.731	4691
858.864	4672
858.997	4599
859.13	4691
859.263	4679
859.396	4702
859.529	4596
859.662	4599
859.795	4588
859.928	4653
860.061	4828
860.194	4824
860.327	4626
860.46	4592
860.592	4736
860.725	4759
860.858	4748
860.99	4634
861.123	4508
861.256	4538
861.388	4626
861.521	5425
861.653	4485
861.786	4440
861.918	4535
862.05	4527
862.183	4558
862.315	4611
862.447	4645
862.58	4565
862.712	4413
862.844	4333
862.976	4531
863.108	4474
863.24	4904
863.372	4356
863.504	4443
863.636	4371
863.768	4493
863.9	4455
864.032	4390
864.164	4413
864.296	4466
864.428	4550
864.559	4603
864.691	4592
864.823	4596
864.954	4508
865.086	4516
865.217	4455
865.349	4436
865.48	4493
865.612	4538
865.743	4664
865.875	4508
866.006	4455
866.137	4508
866.269	4462
866.4	4462
866.531	4481
866.662	4386
866.793	4432
866.924	4485
867.055	4546
867.186	4447
867.317	4443
867.448	4409
867.579	4371
867.71	4447
867.841	4371
867.972	4459
868.103	4485
868.233	4447
868.364	4474
868.495	4447
868.625	4706
868.756	4767
868.886	4569
869.017	4637
869.147	4812
869.278	4790
869.408	4649
869.539	4706
869.669	4801
869.799	4706
869.929	4797
870.06	4752
870.19	4946
870.32	4946
870.45	4957
870.58	5071
870.71	5162
870.84	5121
870.97	4946
871.1	4915
871.23	5159
871.36	5166
871.489	5041
871.619	5105
871.749	5143
871.879	5155
872.008	5239
872.138	5121
872.267	4965
872.397	4873
872.526	4843
872.656	4744
872.785	4824
872.915	5025
873.044	5052
873.173	4934
873.303	4987
873.432	4984
873.561	4984
873.69	4885
873.819	4900
873.948	4972
874.077	4835
874.206	4816
874.335	4820
874.464	4976
874.593	5086
874.722	4968
874.851	5147
874.979	5045
875.108	5060
875.237	4942
875.365	4908
875.494	4915
875.623	4980
875.751	4870
875.88	4930
876.008	4980
876.136	5041
876.265	5193
876.393	5406
876.521	5277
876.65	5273
876.778	5090
876.906	5113
877.034	5033
877.162	5079
877.29	5014
877.418	5029
877.546	5075
877.674	5045
877.802	5052
877.93	5052
878.058	4946
878.185	4904
878.313	4991
878.441	4923
878.568	4835
878.696	4862
878.824	4961
878.951	4976
879.079	5124
879.206	5277
879.333	5140
879.461	5045
879.588	5037
879.715	5136
879.842	5231
879.97	5022
880.097	4790
880.224	4771
880.351	4862
880.478	4862
880.605	4801
880.732	4820
880.859	5113
880.986	4900
881.112	4866
881.239	4805
881.366	4679
881.493	4664
881.619	4607
881.746	4603
881.872	4626
881.999	4683
882.125	4740
882.252	4839
882.378	4824
882.505	4968
882.631	4816
882.757	4740
882.883	4790
883.01	4763
883.136	4637
883.262	4592
883.388	4653
883.514	4866
883.64	4873
883.766	4858
883.892	4710
884.018	4767
884.143	4908
884.269	5037
884.395	4702
884.52	4615
884.646	4736
884.772	4588
884.897	4603
885.023	4721
885.148	4839
885.274	4858
885.399	4816
885.524	4702
885.65	4774
885.775	4755
885.9	4729
886.025	4862
886.15	4816
886.275	4736
886.4	4698
886.525	4748
886.65	4653
886.775	4733
886.9	4938
887.025	5086
887.149	4820
887.274	4714
887.399	4577
887.523	4645
887.648	4607
887.773	4588
887.897	4771
888.021	4820
888.146	4721
888.27	4850
888.395	4946
888.519	4831
888.643	4831
888.767	4843
888.891	4721
889.015	4641
889.139	4653
889.263	4577
889.387	4839
889.511	4885
889.635	4839
889.759	4603
889.883	4672
890.006	4733
890.13	4850
890.254	4645
890.377	4672
890.501	4561
890.624	4485
890.748	4698
890.871	4531
890.995	4417
891.118	4409
891.241	4546
891.364	4558
891.488	4615
891.611	4462
891.734	4542
891.857	4607
891.98	4588
892.103	4645
892.226	4599
892.349	4519
892.471	4432
892.594	4592
892.717	4626
892.839	4588
892.962	4615
893.085	4706
893.207	4626
893.33	4497
893.452	4535
893.575	4714
893.697	4592
893.819	4809
893.941	4835
894.064	4771
894.186	4607
894.308	4641
894.43	4744
894.552	4877
894.674	4771
894.796	4577
894.918	4641
895.04	4584
895.161	4752
895.283	4672
895.405	4592
895.526	4664
895.648	4691
895.769	4729
895.891	4736
896.012	4675
896.134	4710
896.255	4714
896.376	4679
896.498	4599
896.619	4687
896.74	4630
896.861	4660
896.982	4930
897.103	5105
897.224	4831
897.345	4790
897.466	4698
897.587	4710
897.708	4858
897.828	4824
897.949	4698
898.07	4596
898.19	4645
898.311	4889
898.431	4687
898.552	4755
898.672	4790
898.792	4885
898.913	4767
899.033	4649
899.153	4554
899.273	4478
899.393	4516
899.513	4558
899.633	4516
899.753	4603
899.873	4527
899.993	4565
900.113	4561
900.232	4645
900.352	4561
900.472	4516
900.591	4421
900.711	4531
900.83	4485
900.95	4630
901.069	4694
901.189	4504
901.308	4394
901.427	4375
901.546	4383
901.665	4474
901.784	4538
901.904	4428
902.023	4348
902.141	4223
902.26	4185
902.379	4306
902.498	4268
902.617	4249
902.735	4405
902.854	4409
902.973	4413
903.091	4177
903.21	4185
903.328	4337
903.446	4280
903.565	4261
903.683	4348
903.801	4303
903.919	4428
904.038	4440
904.156	4284
904.274	4432
904.392	4413
904.51	4421
904.627	4485
904.745	4580
904.863	4660
904.981	4398
905.098	4295
905.216	4402
905.334	4421
905.451	4508
905.569	4481
905.686	4622
905.803	4554
905.921	4447
906.038	4561
906.155	4512
906.272	4424
906.389	4474
906.506	4325
906.623	4424
906.74	4405
906.857	4291
906.974	4379
907.091	4592
907.208	4672
907.324	4577
907.441	4546
907.557	4360
907.674	4375
907.79	4318
907.907	4402
908.023	4466
908.139	4470
908.256	4478
908.372	4462
908.488	4493
908.604	4379
908.72	4356
908.836	4363
908.952	4337
909.068	4421
909.184	4588
909.3	4474
909.415	4561
909.531	4569
909.647	4413
909.762	4398
909.878	4390
909.993	4443
910.108	4447
910.224	4394
910.339	4481
910.454	4409
910.57	4390
910.685	4341
910.8	4645
910.915	4615
911.03	4481
911.145	4367
911.259	4344
911.374	4344
911.489	4314
911.604	4322
911.718	4169
911.833	4219
911.947	4112
912.062	4025
912.176	4230
912.291	4280
912.405	4257
912.519	4478
912.633	4519
912.748	4375
912.862	4352
912.976	4230
913.09	4143
913.204	4150
913.318	4265
913.431	4417
913.545	4398
913.659	4459
913.772	4398
913.886	4295
914	4215
914.113	4379
914.226	4451
914.34	4386
914.453	4253
914.566	4459
914.68	4306
914.793	4325
914.906	4207
915.019	4158
915.132	4082
915.245	4196
915.358	4219
915.47	4272
915.583	4268
915.696	4287
915.809	4428
915.921	4394
916.034	4265
916.146	4246
916.259	4211
916.371	4421
916.483	4375
916.595	4257
916.708	4333
916.82	4344
916.932	4284
917.044	4356
917.156	4329
917.268	4230
917.38	4276
917.491	4299
917.603	4348
917.715	4428
917.826	4436
917.938	4341
918.049	4230
918.161	4421
918.272	4558
918.384	4550
918.495	4459
918.606	4341
918.717	4238
918.828	4348
918.939	4363
919.05	4246
919.161	4299
919.272	4154
919.383	4268
919.494	4436
919.604	4596
919.715	4447
919.826	4390
919.936	4405
920.047	4550
920.157	4489
920.267	4710
920.378	4550
920.488	4523
920.598	4698
920.708	4896
920.818	4767
920.928	4752
921.038	4915
921.148	4923
921.258	4618
921.368	4622
921.477	4523
921.587	4504
921.697	4417
921.806	4573
921.916	4451
922.025	4272
922.134	4268
922.244	4238
922.353	4322
922.462	4219
922.571	4162
922.68	3964
922.789	4048
922.898	4063
923.007	3983
923.116	4162
923.224	4055
923.333	4067
923.442	4013
923.55	3987
923.659	4082
923.767	4131
923.876	4059
923.984	4162
924.092	3994
924.201	4097
924.309	4139
924.417	4097
924.525	4093
924.633	4120
924.741	5086
924.849	3934
924.956	4116
925.064	3991
925.172	3880
925.279	4006
925.387	4078
925.494	4067
925.602	4219
925.709	4200
925.816	4048
925.924	4147
926.031	4173
926.138	4147
926.245	4196
926.352	4105
926.459	4272
926.566	4318
926.673	4188
926.779	4067
926.886	4071
926.993	3998
927.099	3991
927.206	3960
927.312	3949
927.419	4093
927.525	3998
927.631	4093
927.737	3987
927.843	3922
927.95	3873
928.056	3964
928.162	3983
928.267	4074
928.373	4687
928.479	4124
928.585	3911
928.69	3998
928.796	4040
928.901	3956
929.007	3869
929.112	4048
929.218	4013
929.323	3941
929.428	3926
929.533	4116
929.638	3937
929.743	3998
929.848	4074
929.953	4021
930.058	3937
930.163	3789
930.267	3842
930.372	3987
930.477	3816
930.581	4124
930.685	3956
930.79	3835
930.894	3876
930.998	3884
931.103	4105
931.207	3713
931.311	3732
931.415	3667
931.519	3542
931.623	3572
