Data from test_V78500241_826.txt Node
Date: Fri Mar 25 16:54:44 CST 2022
User: usil
Spectrometer: V785-0024
Trigger mode: 0
Integration Time (sec): 4.000000E-1
Scans to average: 1
Nonlinearity correction enabled: false
Boxcar width: 0
Storing dark spectrum: false
XAxis mode: Wavelengths
Number of Pixels in Spectrum: 1024
>>>>>Begin Spectral Data<<<<<
801.071	8008
801.214	7974
801.356	7795
801.499	7871
801.641	7704
801.783	7814
801.926	7978
802.068	7970
802.211	7936
802.353	7959
802.496	7864
802.638	7894
802.78	7871
802.923	7906
803.065	7871
803.208	7818
803.35	8046
803.492	8138
803.635	8195
803.777	7978
803.919	8088
804.061	8358
804.204	8103
804.346	8050
804.488	7978
804.63	8096
804.773	8016
804.915	8107
805.057	8233
805.199	8126
805.341	8168
805.483	8271
805.626	8145
805.768	8043
805.91	8252
806.052	8229
806.194	8077
806.336	8240
806.478	8107
806.62	8027
806.762	8096
806.904	8263
807.046	8442
807.188	8393
807.33	8298
807.472	8324
807.614	8172
807.756	8100
807.898	7925
808.04	7841
808.182	7928
808.324	7811
808.465	7921
808.607	8027
808.749	8008
808.891	8164
809.033	8294
809.174	8126
809.316	8039
809.458	8024
809.6	8001
809.741	7967
809.883	8001
810.025	8092
810.166	8046
810.308	8031
810.45	8027
810.591	7856
810.733	7742
810.875	7708
811.016	7499
811.158	7422
811.299	7567
811.441	7651
811.582	7655
811.724	7582
811.865	7460
812.007	7544
812.148	7537
812.29	7567
812.431	7696
812.573	7811
812.714	8001
812.855	8107
812.997	8183
813.138	8259
813.279	8206
813.421	8081
813.562	8054
813.703	7833
813.845	7780
813.986	7445
814.127	7255
814.268	7240
814.41	7187
814.551	7069
814.692	7057
814.833	7023
814.974	7065
815.115	7004
815.256	6954
815.397	6954
815.539	6939
815.68	6802
815.821	6764
815.962	6821
816.103	6776
816.244	6719
816.385	6631
816.526	6635
816.666	6532
816.807	6315
816.948	6372
817.089	6410
817.23	6445
817.371	6346
817.512	6361
817.653	6391
817.793	6304
817.934	6388
818.075	6471
818.216	6410
818.356	6365
818.497	6216
818.638	6121
818.778	6121
818.919	6155
819.06	6140
819.2	6323
819.341	6281
819.481	6315
819.622	6471
819.762	6703
819.903	6662
820.043	6578
820.184	6563
820.324	6502
820.465	6612
820.605	6620
820.746	6635
820.886	6475
821.026	6608
821.167	6654
821.307	6757
821.447	6738
821.588	6616
821.728	6563
821.868	6464
822.008	6365
822.149	6353
822.289	6334
822.429	6117
822.569	6068
822.709	6045
822.849	5935
822.99	5885
823.13	5946
823.27	5878
823.41	5752
823.55	5714
823.69	5752
823.83	5767
823.97	5630
824.11	5512
824.25	5455
824.389	5497
824.529	5573
824.669	5528
824.809	5634
824.949	5592
825.089	5596
825.228	5570
825.368	5410
825.508	5284
825.648	5269
825.787	5398
825.927	5368
826.067	5273
826.206	5307
826.346	5353
826.485	5436
826.625	5429
826.765	5532
826.904	5444
827.044	5254
827.183	5189
827.323	5067
827.462	5216
827.601	5140
827.741	5201
827.88	5166
828.02	5090
828.159	5193
828.298	5220
828.437	5337
828.577	5273
828.716	5448
828.855	5307
828.994	5174
829.134	5117
829.273	5151
829.412	5155
829.551	5121
829.69	5147
829.829	5181
829.968	5326
830.107	5246
830.246	5242
830.385	5181
830.524	5128
830.663	4995
830.802	4934
830.941	4854
831.08	4831
831.219	4968
831.357	4976
831.496	5136
831.635	4919
831.774	4885
831.913	4801
832.051	4721
832.19	4752
832.329	4828
832.467	4714
832.606	4603
832.744	4683
832.883	4733
833.022	4710
833.16	4748
833.299	4801
833.437	4820
833.576	4824
833.714	4816
833.852	4858
833.991	4839
834.129	4953
834.267	4923
834.406	4900
834.544	4949
834.682	4938
834.821	4919
834.959	5147
835.097	4987
835.235	5128
835.373	5041
835.511	5075
835.65	5018
835.788	4987
835.926	4923
836.064	4866
836.202	4892
836.34	5143
836.478	5174
836.615	5140
836.753	5231
836.891	5261
837.029	5231
837.167	5151
837.305	5132
837.443	5098
837.58	5022
837.718	5216
837.856	5151
837.993	5124
838.131	5189
838.269	5155
838.406	5216
838.544	5124
838.681	5037
838.819	5018
838.956	4835
839.094	4862
839.231	4965
839.369	5086
839.506	5402
839.643	5250
839.781	5010
839.918	5003
840.055	5045
840.193	5071
840.33	5105
840.467	5117
840.604	5174
840.742	5452
840.879	5098
841.016	5140
841.153	5136
841.29	5345
841.427	5387
841.564	5353
841.701	5379
841.838	5258
841.975	5220
842.112	5220
842.249	5105
842.385	5071
842.522	5360
842.659	5204
842.796	5162
842.933	5216
843.069	5143
843.206	5155
843.343	5357
843.479	5246
843.616	5322
843.752	5086
843.889	5033
844.025	5258
844.162	5018
844.298	5227
844.435	5128
844.571	5105
844.708	5193
844.844	5303
844.98	5364
845.117	5254
845.253	5174
845.389	5113
845.525	5174
845.661	5159
845.798	5041
845.934	5220
846.07	5083
846.206	5193
846.342	5299
846.478	5242
846.614	5079
846.75	5022
846.886	4957
847.022	5273
847.158	5090
847.294	5117
847.429	5102
847.565	5102
847.701	5341
847.837	4881
847.972	4828
848.108	5018
848.244	4957
848.379	4809
848.515	4782
848.65	4755
848.786	4782
848.921	4843
849.057	4862
849.192	4957
849.328	4839
849.463	4904
849.598	4824
849.734	4759
849.869	4714
850.004	4675
850.14	4672
850.275	4634
850.41	4542
850.545	4550
850.68	4580
850.815	4687
850.95	4611
851.085	4877
851.22	4767
851.355	4679
851.49	4660
851.625	4656
851.76	4664
851.895	4607
852.03	4607
852.165	4683
852.299	4774
852.434	4843
852.569	4774
852.703	4824
852.838	4896
852.973	4927
853.107	4927
853.242	4793
853.376	4691
853.511	4546
853.645	4615
853.78	4862
853.914	4721
854.048	4694
854.183	4634
854.317	4752
854.451	4854
854.585	4736
854.72	4634
854.854	4774
854.988	4569
855.122	4649
855.256	4554
855.39	4714
855.524	4778
855.658	4733
855.792	4706
855.926	4786
856.06	4790
856.194	4881
856.327	4691
856.461	4618
856.595	4698
856.729	4694
856.862	4759
856.996	4691
857.13	4763
857.263	4778
857.397	4801
857.53	4679
857.664	4752
857.797	4733
857.931	4801
858.064	4691
858.197	4752
858.331	4672
858.464	4596
858.597	4531
858.731	4675
858.864	4721
858.997	4588
859.13	4702
859.263	4637
859.396	4714
859.529	4603
859.662	4584
859.795	4561
859.928	4641
860.061	4755
860.194	4801
860.327	4645
860.46	4634
860.592	4675
860.725	4714
860.858	4740
860.99	4580
861.123	4550
861.256	4546
861.388	4588
861.521	5330
861.653	4527
861.786	4485
861.918	4451
862.05	4504
862.183	4569
862.315	4618
862.447	4679
862.58	4561
862.712	4459
862.844	4352
862.976	4432
863.108	4451
863.24	4805
863.372	4325
863.504	4451
863.636	4440
863.768	4508
863.9	4466
864.032	4390
864.164	4455
864.296	4432
864.428	4573
864.559	4561
864.691	4561
864.823	4497
864.954	4516
865.086	4554
865.217	4485
865.349	4421
865.48	4462
865.612	4493
865.743	4691
865.875	4527
866.006	4455
866.137	4497
866.269	4443
866.4	4485
866.531	4455
866.662	4386
866.793	4451
866.924	4451
867.055	4535
867.186	4466
867.317	4489
867.448	4447
867.579	4386
867.71	4409
867.841	4413
867.972	4455
868.103	4489
868.233	4462
868.364	4516
868.495	4493
868.625	4679
868.756	4778
868.886	4596
869.017	4630
869.147	4778
869.278	4786
869.408	4679
869.539	4664
869.669	4721
869.799	4664
869.929	4778
870.06	4793
870.19	4942
870.32	4923
870.45	4999
870.58	4968
870.71	5098
870.84	5098
870.97	4972
871.1	4843
871.23	5151
871.36	5185
871.489	5010
871.619	5117
871.749	5128
871.879	5151
872.008	5151
872.138	5045
872.267	5060
872.397	4835
872.526	4801
872.656	4721
872.785	4812
872.915	4984
873.044	5090
873.173	4892
873.303	5010
873.432	4984
873.561	5018
873.69	4877
873.819	4877
873.948	4927
874.077	4866
874.206	4816
874.335	4835
874.464	4991
874.593	5037
874.722	4968
874.851	5117
874.979	5124
875.108	4999
875.237	4980
875.365	4873
875.494	4889
875.623	5025
875.751	4877
875.88	4927
876.008	5022
876.136	5029
876.265	5201
876.393	5372
876.521	5246
876.65	5231
876.778	5185
876.906	5037
877.034	5022
877.162	5048
877.29	4984
877.418	5105
877.546	5136
877.674	5086
877.802	5056
877.93	5045
878.058	5006
878.185	4866
878.313	4980
878.441	4972
878.568	4793
878.696	4957
878.824	4938
878.951	5029
879.079	5143
879.206	5341
879.333	5166
879.461	4991
879.588	5033
879.715	5048
879.842	5280
879.97	5041
880.097	4752
880.224	4771
880.351	4835
880.478	4843
880.605	4812
880.732	4782
880.859	5121
880.986	4900
881.112	4889
881.239	4816
881.366	4687
881.493	4645
881.619	4653
881.746	4611
881.872	4645
881.999	4630
882.125	4736
882.252	4805
882.378	4847
882.505	4972
882.631	4786
882.757	4710
882.883	4774
883.01	4729
883.136	4668
883.262	4618
883.388	4645
883.514	4812
883.64	4862
883.766	4828
883.892	4698
884.018	4767
884.143	4896
884.269	5041
884.395	4698
884.52	4622
884.646	4683
884.772	4630
884.897	4531
885.023	4710
885.148	4782
885.274	4889
885.399	4801
885.524	4668
885.65	4714
885.775	4744
885.9	4744
886.025	4911
886.15	4809
886.275	4763
886.4	4664
886.525	4755
886.65	4752
886.775	4683
886.9	4946
887.025	5029
887.149	4816
887.274	4672
887.399	4596
887.523	4611
887.648	4558
887.773	4615
887.897	4786
888.021	4801
888.146	4717
888.27	4801
888.395	4885
888.519	4835
888.643	4809
888.767	4866
888.891	4687
889.015	4618
889.139	4634
889.263	4599
889.387	4771
889.511	4881
889.635	4824
889.759	4634
889.883	4630
890.006	4736
890.13	4881
890.254	4611
890.377	4679
890.501	4558
890.624	4554
890.748	4622
890.871	4508
890.995	4474
891.118	4398
891.241	4500
891.364	4512
891.488	4660
891.611	4550
891.734	4485
891.857	4653
891.98	4531
892.103	4634
892.226	4580
892.349	4516
892.471	4394
892.594	4561
892.717	4596
892.839	4645
892.962	4622
893.085	4675
893.207	4596
893.33	4466
893.452	4535
893.575	4698
893.697	4599
893.819	4820
893.941	4790
894.064	4782
894.186	4588
894.308	4588
894.43	4725
894.552	4839
894.674	4790
894.796	4580
894.918	4599
895.04	4558
895.161	4698
895.283	4687
895.405	4588
895.526	4664
895.648	4687
895.769	4675
895.891	4793
896.012	4717
896.134	4786
896.255	4675
896.376	4634
896.498	4558
896.619	4710
896.74	4584
896.861	4637
896.982	4930
897.103	5056
897.224	4828
897.345	4755
897.466	4664
897.587	4733
897.708	4820
897.828	4835
897.949	4706
898.07	4569
898.19	4641
898.311	4771
898.431	4668
898.552	4740
898.672	4862
898.792	4862
898.913	4744
899.033	4626
899.153	4558
899.273	4424
899.393	4474
899.513	4516
899.633	4561
899.753	4561
899.873	4481
899.993	4615
900.113	4588
900.232	4618
900.352	4565
900.472	4462
900.591	4409
900.711	4481
900.83	4436
900.95	4611
901.069	4649
901.189	4554
901.308	4379
901.427	4337
901.546	4390
901.665	4470
901.784	4523
901.904	4409
902.023	4356
902.141	4200
902.26	4196
902.379	4325
902.498	4223
902.617	4177
902.735	4402
902.854	4405
902.973	4383
903.091	4257
903.21	4253
903.328	4333
903.446	4246
903.565	4280
903.683	4371
903.801	4287
903.919	4424
904.038	4466
904.156	4348
904.274	4386
904.392	4459
904.51	4428
904.627	4523
904.745	4584
904.863	4641
904.981	4417
905.098	4344
905.216	4424
905.334	4424
905.451	4394
905.569	4428
905.686	4504
905.803	4577
905.921	4398
906.038	4573
906.155	4466
906.272	4409
906.389	4424
906.506	4322
906.623	4417
906.74	4424
906.857	4322
906.974	4390
907.091	4538
907.208	4729
907.324	4584
907.441	4527
907.557	4337
907.674	4363
907.79	4356
907.907	4379
908.023	4428
908.139	4497
908.256	4421
908.372	4462
908.488	4428
908.604	4333
908.72	4337
908.836	4371
908.952	4383
909.068	4421
909.184	4558
909.3	4474
909.415	4622
909.531	4558
909.647	4348
909.762	4344
909.878	4318
909.993	4402
910.108	4394
910.224	4443
910.339	4470
910.454	4348
910.57	4363
910.685	4337
910.8	4634
910.915	4573
911.03	4485
911.145	4363
911.259	4356
911.374	4405
911.489	4299
911.604	4299
911.718	4192
911.833	4211
911.947	4124
912.062	4067
912.176	4261
912.291	4276
912.405	4310
912.519	4478
912.633	4535
912.748	4409
912.862	4291
912.976	4223
913.09	4071
913.204	4200
913.318	4257
913.431	4390
913.545	4318
913.659	4478
913.772	4367
913.886	4287
914	4219
914.113	4371
914.226	4436
914.34	4360
914.453	4265
914.566	4417
914.68	4348
914.793	4337
914.906	4181
915.019	4150
915.132	4101
915.245	4234
915.358	4234
915.47	4227
915.583	4284
915.696	4318
915.809	4417
915.921	4421
916.034	4284
916.146	4253
916.259	4249
916.371	4383
916.483	4360
916.595	4242
916.708	4390
916.82	4367
916.932	4386
917.044	4367
917.156	4363
917.268	4276
917.38	4291
917.491	4303
917.603	4333
917.715	4402
917.826	4462
917.938	4375
918.049	4318
918.161	4390
918.272	4580
918.384	4577
918.495	4531
918.606	4322
918.717	4287
918.828	4390
918.939	4413
919.05	4325
919.161	4325
919.272	4166
919.383	4219
919.494	4500
919.604	4691
919.715	4466
919.826	4398
919.936	4443
920.047	4580
920.157	4504
920.267	4740
920.378	4592
920.488	4554
920.598	4816
920.708	4881
920.818	4767
920.928	4820
921.038	5041
921.148	4908
921.258	4641
921.368	4603
921.477	4531
921.587	4493
921.697	4379
921.806	4584
921.916	4424
922.025	4344
922.134	4306
922.244	4223
922.353	4405
922.462	4223
922.571	4173
922.68	4032
922.789	4055
922.898	4048
923.007	3979
923.116	4128
923.224	4124
923.333	4097
923.442	4040
923.55	4032
923.659	4071
923.767	4150
923.876	4036
923.984	4139
924.092	4025
924.201	4116
924.309	4093
924.417	4135
924.525	4074
924.633	4135
924.741	4877
924.849	3941
924.956	4154
925.064	4029
925.172	3972
925.279	3998
925.387	4086
925.494	4109
925.602	4215
925.709	4192
925.816	4109
925.924	4166
926.031	4299
926.138	4227
926.245	4249
926.352	4131
926.459	4268
926.566	4306
926.673	4181
926.779	4105
926.886	4090
926.993	4067
927.099	3991
927.206	3956
927.312	3945
927.419	4124
927.525	4059
927.631	4120
927.737	3975
927.843	3949
927.95	3884
928.056	3994
928.162	4032
928.267	4055
928.373	4698
928.479	4185
928.585	3926
928.69	4067
928.796	4120
928.901	4010
929.007	3930
929.112	4063
929.218	3983
929.323	3994
929.428	3937
929.533	4112
929.638	3918
929.743	3998
929.848	4109
929.953	4067
930.058	3945
930.163	3838
930.267	3907
930.372	4017
930.477	3842
930.581	4090
930.685	4010
930.79	3865
930.894	3945
930.998	3854
931.103	4078
931.207	3751
931.311	3774
931.415	3675
931.519	3595
931.623	3576
