Data from test_V78500241_46.txt Node
Date: Fri Mar 25 16:49:19 CST 2022
User: usil
Spectrometer: V785-0024
Trigger mode: 0
Integration Time (sec): 4.000000E-1
Scans to average: 1
Nonlinearity correction enabled: false
Boxcar width: 0
Storing dark spectrum: false
XAxis mode: Wavelengths
Number of Pixels in Spectrum: 1024
>>>>>Begin Spectral Data<<<<<
801.071	8115
801.214	8069
801.356	7928
801.499	7986
801.641	7822
801.783	7970
801.926	8088
802.068	8039
802.211	7974
802.353	8081
802.496	7993
802.638	7970
802.78	7974
802.923	8016
803.065	7909
803.208	7913
803.35	8016
803.492	8111
803.635	8168
803.777	7982
803.919	8153
804.061	8454
804.204	8123
804.346	8077
804.488	8005
804.63	8138
804.773	8024
804.915	8149
805.057	8347
805.199	8142
805.341	8286
805.483	8298
805.626	8294
805.768	8221
805.91	8309
806.052	8275
806.194	8149
806.336	8336
806.478	8130
806.62	8058
806.762	8176
806.904	8305
807.046	8488
807.188	8442
807.33	8313
807.472	8381
807.614	8210
807.756	8218
807.898	8027
808.04	7906
808.182	7898
808.324	8012
808.465	7871
808.607	8035
808.749	8153
808.891	8210
809.033	8324
809.174	8180
809.316	8039
809.458	8081
809.6	7963
809.741	8050
809.883	8005
810.025	8096
810.166	8138
810.308	8012
810.45	8073
810.591	7974
810.733	7795
810.875	7715
811.016	7552
811.158	7525
811.299	7746
811.441	7917
811.582	7742
811.724	7601
811.865	7537
812.007	7715
812.148	7670
812.29	7628
812.431	7807
812.573	7932
812.714	8062
812.855	8142
812.997	8305
813.138	8275
813.279	8180
813.421	8240
813.562	7989
813.703	7978
813.845	7883
813.986	7476
814.127	7274
814.268	7289
814.41	7232
814.551	7164
814.692	7244
814.833	7152
814.974	7194
815.115	7118
815.256	7069
815.397	6958
815.539	7015
815.68	6821
815.821	6848
815.962	6871
816.103	6901
816.244	6738
816.385	6635
816.526	6589
816.666	6532
816.807	6331
816.948	6566
817.089	6475
817.23	6467
817.371	6464
817.512	6391
817.653	6399
817.793	6365
817.934	6441
818.075	6525
818.216	6433
818.356	6418
818.497	6292
818.638	6144
818.778	6220
818.919	6224
819.06	6243
819.2	6372
819.341	6342
819.481	6467
819.622	6517
819.762	6825
819.903	6749
820.043	6601
820.184	6597
820.324	6612
820.465	6730
820.605	6719
820.746	6696
820.886	6597
821.026	6749
821.167	6753
821.307	6787
821.447	6802
821.588	6726
821.728	6612
821.868	6502
822.008	6376
822.149	6456
822.289	6399
822.429	6197
822.569	6136
822.709	6159
822.849	5908
822.99	5939
823.13	5961
823.27	5927
823.41	5870
823.55	5832
823.69	5771
823.83	5779
823.97	5748
824.11	5562
824.25	5554
824.389	5611
824.529	5592
824.669	5558
824.809	5642
824.949	5710
825.089	5688
825.228	5604
825.368	5414
825.508	5406
825.648	5372
825.787	5448
825.927	5379
826.067	5353
826.206	5330
826.346	5436
826.485	5478
826.625	5455
826.765	5573
826.904	5505
827.044	5284
827.183	5246
827.323	5159
827.462	5254
827.601	5216
827.741	5258
827.88	5326
828.02	5128
828.159	5227
828.298	5383
828.437	5379
828.577	5292
828.716	5528
828.855	5433
828.994	5181
829.134	5223
829.273	5193
829.412	5197
829.551	5128
829.69	5208
829.829	5299
829.968	5448
830.107	5307
830.246	5341
830.385	5208
830.524	5174
830.663	5105
830.802	5010
830.941	4934
831.08	4927
831.219	5052
831.357	4999
831.496	5189
831.635	4972
831.774	4927
831.913	4881
832.051	4820
832.19	4782
832.329	4889
832.467	4736
832.606	4668
832.744	4744
832.883	4793
833.022	4740
833.16	4881
833.299	4782
833.437	4828
833.576	4862
833.714	4873
833.852	4930
833.991	4919
834.129	4968
834.267	4976
834.406	4999
834.544	5037
834.682	5006
834.821	5014
834.959	5216
835.097	5037
835.235	5204
835.373	5086
835.511	5121
835.65	5079
835.788	5064
835.926	4984
836.064	4938
836.202	4972
836.34	5239
836.478	5227
836.615	5201
836.753	5277
836.891	5337
837.029	5299
837.167	5284
837.305	5212
837.443	5162
837.58	5090
837.718	5330
837.856	5254
837.993	5166
838.131	5261
838.269	5223
838.406	5197
838.544	5250
838.681	5048
838.819	5064
838.956	4885
839.094	4919
839.231	5006
839.369	5121
839.506	5448
839.643	5292
839.781	5094
839.918	5071
840.055	5094
840.193	5140
840.33	5132
840.467	5140
840.604	5254
840.742	5467
840.879	5102
841.016	5052
841.153	5201
841.29	5440
841.427	5402
841.564	5341
841.701	5463
841.838	5284
841.975	5303
842.112	5269
842.249	5185
842.385	5162
842.522	5372
842.659	5189
842.796	5170
842.933	5239
843.069	5189
843.206	5208
843.343	5311
843.479	5284
843.616	5376
843.752	5018
843.889	5071
844.025	5239
844.162	5071
844.298	5216
844.435	5083
844.571	5079
844.708	5269
844.844	5372
844.98	5349
845.117	5303
845.253	5147
845.389	5109
845.525	5170
845.661	5197
845.798	5079
845.934	5143
846.07	5124
846.206	5280
846.342	5273
846.478	5216
846.614	5083
846.75	5048
846.886	4987
847.022	5197
847.158	5079
847.294	5064
847.429	5162
847.565	5102
847.701	5341
847.837	4927
847.972	4850
848.108	4999
848.244	4995
848.379	4870
848.515	4786
848.65	4744
848.786	4771
848.921	4809
849.057	4923
849.192	4949
849.328	4854
849.463	4908
849.598	4847
849.734	4805
849.869	4717
850.004	4660
850.14	4717
850.275	4672
850.41	4523
850.545	4550
850.68	4599
850.815	4668
850.95	4664
851.085	4873
851.22	4801
851.355	4721
851.49	4691
851.625	4664
851.76	4649
851.895	4565
852.03	4649
852.165	4740
852.299	4717
852.434	4824
852.569	4786
852.703	4809
852.838	4854
852.973	4984
853.107	5018
853.242	4736
853.376	4710
853.511	4550
853.645	4653
853.78	4839
853.914	4755
854.048	4679
854.183	4656
854.317	4691
854.451	4858
854.585	4725
854.72	4717
854.854	4782
854.988	4656
855.122	4672
855.256	4569
855.39	4725
855.524	4809
855.658	4793
855.792	4740
855.926	4805
856.06	4797
856.194	4790
856.327	4698
856.461	4645
856.595	4710
856.729	4660
856.862	4820
856.996	4767
857.13	4767
857.263	4786
857.397	4831
857.53	4634
857.664	4740
857.797	4820
857.931	4797
858.064	4698
858.197	4748
858.331	4672
858.464	4664
858.597	4588
858.731	4668
858.864	4729
858.997	4618
859.13	4729
859.263	4706
859.396	4725
859.529	4675
859.662	4626
859.795	4569
859.928	4641
860.061	4805
860.194	4801
860.327	4672
860.46	4615
860.592	4752
860.725	4759
860.858	4729
860.99	4630
861.123	4565
861.256	4588
861.388	4649
861.521	5292
861.653	4561
861.786	4451
861.918	4500
862.05	4561
862.183	4565
862.315	4649
862.447	4702
862.58	4577
862.712	4394
862.844	4360
862.976	4512
863.108	4531
863.24	4919
863.372	4386
863.504	4436
863.636	4443
863.768	4531
863.9	4451
864.032	4360
864.164	4459
864.296	4538
864.428	4596
864.559	4584
864.691	4561
864.823	4561
864.954	4546
865.086	4512
865.217	4481
865.349	4447
865.48	4512
865.612	4546
865.743	4679
865.875	4481
866.006	4466
866.137	4459
866.269	4493
866.4	4500
866.531	4470
866.662	4451
866.793	4459
866.924	4478
867.055	4504
867.186	4523
867.317	4405
867.448	4386
867.579	4383
867.71	4443
867.841	4356
867.972	4481
868.103	4516
868.233	4455
868.364	4462
868.495	4565
868.625	4721
868.756	4812
868.886	4656
869.017	4641
869.147	4850
869.278	4774
869.408	4668
869.539	4706
869.669	4733
869.799	4656
869.929	4816
870.06	4759
870.19	4927
870.32	4957
870.45	4972
870.58	5045
870.71	5136
870.84	5117
870.97	4976
871.1	4953
871.23	5231
871.36	5151
871.489	5029
871.619	5098
871.749	5128
871.879	5143
872.008	5197
872.138	5124
872.267	4999
872.397	4919
872.526	4870
872.656	4771
872.785	4831
872.915	4987
873.044	5105
873.173	5006
873.303	4976
873.432	4930
873.561	5029
873.69	4889
873.819	4923
873.948	4965
874.077	4896
874.206	4763
874.335	4847
874.464	5014
874.593	5083
874.722	4961
874.851	5155
874.979	5102
875.108	5083
875.237	4911
875.365	4896
875.494	4961
875.623	5006
875.751	4957
875.88	4949
876.008	4980
876.136	5048
876.265	5265
876.393	5391
876.521	5269
876.65	5284
876.778	5197
876.906	5124
877.034	5098
877.162	5067
877.29	5056
877.418	5147
877.546	5094
877.674	5071
877.802	5052
877.93	5117
878.058	4999
878.185	4896
878.313	5010
878.441	4987
878.568	4809
878.696	4938
878.824	5018
878.951	5033
879.079	5166
879.206	5318
879.333	5147
879.461	5003
879.588	5067
879.715	5174
879.842	5246
879.97	5083
880.097	4847
880.224	4862
880.351	4839
880.478	4854
880.605	4809
880.732	4801
880.859	5105
880.986	4957
881.112	4961
881.239	4847
881.366	4698
881.493	4653
881.619	4649
881.746	4645
881.872	4714
881.999	4656
882.125	4786
882.252	4797
882.378	4831
882.505	4991
882.631	4843
882.757	4694
882.883	4706
883.01	4763
883.136	4725
883.262	4622
883.388	4675
883.514	4801
883.64	4911
883.766	4801
883.892	4733
884.018	4782
884.143	4934
884.269	5060
884.395	4706
884.52	4615
884.646	4683
884.772	4611
884.897	4637
885.023	4702
885.148	4820
885.274	4908
885.399	4885
885.524	4774
885.65	4706
885.775	4790
885.9	4729
886.025	4908
886.15	4820
886.275	4805
886.4	4706
886.525	4725
886.65	4691
886.775	4729
886.9	4946
887.025	5060
887.149	4831
887.274	4706
887.399	4653
887.523	4641
887.648	4611
887.773	4645
887.897	4774
888.021	4850
888.146	4733
888.27	4854
888.395	4934
888.519	4870
888.643	4854
888.767	4873
888.891	4706
889.015	4649
889.139	4679
889.263	4698
889.387	4752
889.511	4927
889.635	4843
889.759	4694
889.883	4752
890.006	4793
890.13	4889
890.254	4706
890.377	4710
890.501	4550
890.624	4538
890.748	4717
890.871	4561
890.995	4485
891.118	4405
891.241	4565
891.364	4599
891.488	4668
891.611	4516
891.734	4577
891.857	4691
891.98	4546
892.103	4694
892.226	4611
892.349	4618
892.471	4436
892.594	4603
892.717	4649
892.839	4641
892.962	4653
893.085	4691
893.207	4637
893.33	4516
893.452	4558
893.575	4691
893.697	4592
893.819	4820
893.941	4870
894.064	4820
894.186	4645
894.308	4603
894.43	4771
894.552	4854
894.674	4801
894.796	4607
894.918	4653
895.04	4637
895.161	4740
895.283	4683
895.405	4607
895.526	4679
895.648	4710
895.769	4721
895.891	4805
896.012	4763
896.134	4714
896.255	4660
896.376	4717
896.498	4653
896.619	4683
896.74	4691
896.861	4634
896.982	5033
897.103	5121
897.224	4850
897.345	4771
897.466	4714
897.587	4790
897.708	4908
897.828	4805
897.949	4714
898.07	4630
898.19	4668
898.311	4881
898.431	4740
898.552	4733
898.672	4877
898.792	4858
898.913	4782
899.033	4687
899.153	4569
899.273	4440
899.393	4535
899.513	4550
899.633	4577
899.753	4588
899.873	4538
899.993	4611
900.113	4580
900.232	4611
900.352	4573
900.472	4470
900.591	4459
900.711	4535
900.83	4478
900.95	4649
901.069	4706
901.189	4573
901.308	4367
901.427	4363
901.546	4421
901.665	4512
901.784	4550
901.904	4405
902.023	4402
902.141	4238
902.26	4207
902.379	4371
902.498	4257
902.617	4249
902.735	4436
902.854	4436
902.973	4443
903.091	4246
903.21	4253
903.328	4371
903.446	4310
903.565	4287
903.683	4402
903.801	4337
903.919	4402
904.038	4504
904.156	4379
904.274	4474
904.392	4455
904.51	4478
904.627	4531
904.745	4618
904.863	4660
904.981	4424
905.098	4363
905.216	4402
905.334	4497
905.451	4432
905.569	4500
905.686	4580
905.803	4634
905.921	4474
906.038	4630
906.155	4588
906.272	4443
906.389	4478
906.506	4413
906.623	4443
906.74	4405
906.857	4379
906.974	4413
907.091	4596
907.208	4687
907.324	4607
907.441	4527
907.557	4440
907.674	4409
907.79	4371
907.907	4459
908.023	4485
908.139	4531
908.256	4500
908.372	4504
908.488	4478
908.604	4455
908.72	4337
908.836	4402
908.952	4394
909.068	4497
909.184	4645
909.3	4466
909.415	4656
909.531	4634
909.647	4405
909.762	4398
909.878	4375
909.993	4428
910.108	4459
910.224	4447
910.339	4516
910.454	4428
910.57	4405
910.685	4352
910.8	4683
910.915	4634
911.03	4523
911.145	4371
911.259	4383
911.374	4371
911.489	4367
911.604	4257
911.718	4242
911.833	4246
911.947	4112
912.062	4048
912.176	4238
912.291	4333
912.405	4306
912.519	4508
912.633	4527
912.748	4424
912.862	4325
912.976	4272
913.09	4166
913.204	4249
913.318	4310
913.431	4432
913.545	4413
913.659	4481
913.772	4428
913.886	4268
914	4314
914.113	4386
914.226	4455
914.34	4409
914.453	4325
914.566	4474
914.68	4363
914.793	4379
914.906	4196
915.019	4215
915.132	4090
915.245	4257
915.358	4318
915.47	4295
915.583	4341
915.696	4344
915.809	4421
915.921	4432
916.034	4303
916.146	4325
916.259	4242
916.371	4417
916.483	4421
916.595	4325
916.708	4375
916.82	4402
916.932	4379
917.044	4356
917.156	4367
917.268	4314
917.38	4333
917.491	4348
917.603	4428
917.715	4466
917.826	4489
917.938	4432
918.049	4234
918.161	4386
918.272	4596
918.384	4596
918.495	4531
918.606	4344
918.717	4284
918.828	4402
918.939	4424
919.05	4261
919.161	4386
919.272	4169
919.383	4246
919.494	4512
919.604	4710
919.715	4466
919.826	4322
919.936	4413
920.047	4592
920.157	4535
920.267	4755
920.378	4573
920.488	4519
920.598	4774
920.708	4930
920.818	4786
920.928	4850
921.038	4946
921.148	4995
921.258	4717
921.368	4622
921.477	4618
921.587	4497
921.697	4443
921.806	4653
921.916	4485
922.025	4295
922.134	4287
922.244	4280
922.353	4398
922.462	4227
922.571	4131
922.68	4093
922.789	4021
922.898	4090
923.007	4101
923.116	4185
923.224	4105
923.333	4105
923.442	4059
923.55	4074
923.659	4063
923.767	4196
923.876	4082
923.984	4196
924.092	4063
924.201	4086
924.309	4093
924.417	4181
924.525	4109
924.633	4154
924.741	5048
924.849	3998
924.956	4207
925.064	4002
925.172	3972
925.279	4063
925.387	4131
925.494	4112
925.602	4246
925.709	4211
925.816	4093
925.924	4196
926.031	4276
926.138	4287
926.245	4265
926.352	4162
926.459	4314
926.566	4367
926.673	4211
926.779	4150
926.886	4124
926.993	4048
927.099	3991
927.206	3964
927.312	4002
927.419	4090
927.525	4071
927.631	4166
927.737	4032
927.843	3983
927.95	3896
928.056	4006
928.162	4029
928.267	4067
928.373	4691
928.479	4169
928.585	3911
928.69	4078
928.796	4147
928.901	3998
929.007	3930
929.112	4055
929.218	4032
929.323	3953
929.428	3987
929.533	4169
929.638	3991
929.743	4021
929.848	4128
929.953	4021
930.058	4006
930.163	3850
930.267	3876
930.372	4010
930.477	3854
930.581	4101
930.685	4025
930.79	3873
930.894	3934
930.998	3846
931.103	4116
931.207	3797
931.311	3759
931.415	3698
931.519	3576
931.623	3568
