Data from test_V78500241_1121.txt Node
Date: Fri Mar 25 16:56:47 CST 2022
User: usil
Spectrometer: V785-0024
Trigger mode: 0
Integration Time (sec): 4.000000E-1
Scans to average: 1
Nonlinearity correction enabled: false
Boxcar width: 0
Storing dark spectrum: false
XAxis mode: Wavelengths
Number of Pixels in Spectrum: 1024
>>>>>Begin Spectral Data<<<<<
801.071	8046
801.214	8035
801.356	7883
801.499	7856
801.641	7746
801.783	7772
801.926	7951
802.068	7879
802.211	7967
802.353	7928
802.496	7811
802.638	7864
802.78	7875
802.923	7925
803.065	7917
803.208	7830
803.35	7986
803.492	8065
803.635	8115
803.777	8012
803.919	8046
804.061	8431
804.204	8134
804.346	7986
804.488	7906
804.63	8138
804.773	8050
804.915	8119
805.057	8320
805.199	8164
805.341	8248
805.483	8301
805.626	8183
805.768	8103
805.91	8202
806.052	8263
806.194	8062
806.336	8256
806.478	8054
806.62	8054
806.762	8123
806.904	8279
807.046	8461
807.188	8366
807.33	8279
807.472	8309
807.614	8100
807.756	8115
807.898	7894
808.04	7898
808.182	7913
808.324	7837
808.465	7925
808.607	8039
808.749	8180
808.891	8180
809.033	8252
809.174	8195
809.316	8046
809.458	8043
809.6	7917
809.741	8020
809.883	8001
810.025	8062
810.166	8035
810.308	8058
810.45	8069
810.591	7841
810.733	7753
810.875	7628
811.016	7502
811.158	7510
811.299	7537
811.441	7689
811.582	7643
811.724	7548
811.865	7495
812.007	7590
812.148	7616
812.29	7643
812.431	7772
812.573	7883
812.714	8008
812.855	8012
812.997	8164
813.138	8332
813.279	8199
813.421	8084
813.562	7928
813.703	7826
813.845	7727
813.986	7445
814.127	7221
814.268	7187
814.41	7152
814.551	7141
814.692	7183
814.833	7053
814.974	7076
815.115	7103
815.256	6951
815.397	6890
815.539	6981
815.68	6867
815.821	6806
815.962	6905
816.103	6829
816.244	6711
816.385	6574
816.526	6521
816.666	6490
816.807	6254
816.948	6429
817.089	6509
817.23	6483
817.371	6384
817.512	6399
817.653	6380
817.793	6296
817.934	6410
818.075	6483
818.216	6407
818.356	6338
818.497	6186
818.638	6155
818.778	6175
818.919	6190
819.06	6228
819.2	6327
819.341	6342
819.481	6338
819.622	6536
819.762	6749
819.903	6631
820.043	6566
820.184	6566
820.324	6597
820.465	6654
820.605	6677
820.746	6662
820.886	6433
821.026	6654
821.167	6700
821.307	6818
821.447	6722
821.588	6681
821.728	6547
821.868	6464
822.008	6277
822.149	6338
822.289	6407
822.429	6144
822.569	6121
822.709	6076
822.849	5889
822.99	5870
823.13	5893
823.27	5927
823.41	5756
823.55	5695
823.69	5722
823.83	5729
823.97	5600
824.11	5543
824.25	5497
824.389	5543
824.529	5573
824.669	5505
824.809	5611
824.949	5638
825.089	5615
825.228	5512
825.368	5372
825.508	5357
825.648	5311
825.787	5303
825.927	5360
826.067	5246
826.206	5299
826.346	5383
826.485	5372
826.625	5398
826.765	5516
826.904	5448
827.044	5254
827.183	5136
827.323	5132
827.462	5280
827.601	5166
827.741	5159
827.88	5223
828.02	5109
828.159	5220
828.298	5299
828.437	5322
828.577	5273
828.716	5455
828.855	5296
828.994	5174
829.134	5181
829.273	5254
829.412	5105
829.551	5117
829.69	5204
829.829	5254
829.968	5398
830.107	5265
830.246	5261
830.385	5201
830.524	5128
830.663	5018
830.802	4904
830.941	4900
831.08	4850
831.219	4942
831.357	4968
831.496	5086
831.635	4900
831.774	4877
831.913	4771
832.051	4736
832.19	4710
832.329	4831
832.467	4668
832.606	4641
832.744	4717
832.883	4675
833.022	4733
833.16	4763
833.299	4771
833.437	4828
833.576	4812
833.714	4850
833.852	4885
833.991	4892
834.129	4957
834.267	4953
834.406	4854
834.544	4930
834.682	4999
834.821	4934
834.959	5117
835.097	4995
835.235	5124
835.373	5075
835.511	5094
835.65	5086
835.788	5071
835.926	4843
836.064	4923
836.202	4889
836.34	5136
836.478	5181
836.615	5140
836.753	5208
836.891	5227
837.029	5220
837.167	5181
837.305	5170
837.443	5105
837.58	5022
837.718	5246
837.856	5174
837.993	5140
838.131	5265
838.269	5189
838.406	5155
838.544	5159
838.681	5037
838.819	4972
838.956	4900
839.094	4892
839.231	4976
839.369	5048
839.506	5402
839.643	5288
839.781	5041
839.918	4976
840.055	5124
840.193	5102
840.33	5140
840.467	5147
840.604	5201
840.742	5414
840.879	5083
841.016	5124
841.153	5113
841.29	5391
841.427	5311
841.564	5299
841.701	5353
841.838	5299
841.975	5201
842.112	5250
842.249	5140
842.385	5075
842.522	5296
842.659	5143
842.796	5185
842.933	5227
843.069	5094
843.206	5113
843.343	5326
843.479	5197
843.616	5193
843.752	5045
843.889	4980
844.025	5166
844.162	4984
844.298	5208
844.435	5041
844.571	5022
844.708	5185
844.844	5307
844.98	5349
845.117	5337
845.253	5098
845.389	5029
845.525	5181
845.661	5083
845.798	5018
845.934	5162
846.07	5094
846.206	5155
846.342	5284
846.478	5201
846.614	5022
846.75	4900
846.886	4919
847.022	5121
847.158	4980
847.294	5045
847.429	5094
847.565	5014
847.701	5330
847.837	4889
847.972	4831
848.108	4946
848.244	4870
848.379	4725
848.515	4675
848.65	4710
848.786	4710
848.921	4736
849.057	4847
849.192	4904
849.328	4812
849.463	4835
849.598	4820
849.734	4733
849.869	4698
850.004	4599
850.14	4694
850.275	4558
850.41	4500
850.545	4512
850.68	4573
850.815	4611
850.95	4653
851.085	4873
851.22	4755
851.355	4645
851.49	4615
851.625	4592
851.76	4561
851.895	4561
852.03	4546
852.165	4656
852.299	4694
852.434	4774
852.569	4763
852.703	4755
852.838	4870
852.973	4854
853.107	4892
853.242	4763
853.376	4656
853.511	4554
853.645	4634
853.78	4797
853.914	4694
854.048	4641
854.183	4622
854.317	4702
854.451	4885
854.585	4634
854.72	4584
854.854	4714
854.988	4584
855.122	4637
855.256	4554
855.39	4634
855.524	4809
855.658	4714
855.792	4729
855.926	4752
856.06	4706
856.194	4835
856.327	4660
856.461	4607
856.595	4607
856.729	4580
856.862	4729
856.996	4706
857.13	4759
857.263	4736
857.397	4759
857.53	4645
857.664	4782
857.797	4752
857.931	4816
858.064	4706
858.197	4721
858.331	4634
858.464	4637
858.597	4500
858.731	4660
858.864	4603
858.997	4531
859.13	4615
859.263	4672
859.396	4710
859.529	4546
859.662	4577
859.795	4535
859.928	4630
860.061	4771
860.194	4782
860.327	4584
860.46	4569
860.592	4679
860.725	4717
860.858	4691
860.99	4584
861.123	4512
861.256	4500
861.388	4630
861.521	5292
861.653	4470
861.786	4451
861.918	4459
862.05	4550
862.183	4542
862.315	4584
862.447	4630
862.58	4565
862.712	4344
862.844	4314
862.976	4440
863.108	4447
863.24	4752
863.372	4291
863.504	4363
863.636	4356
863.768	4451
863.9	4367
864.032	4352
864.164	4402
864.296	4478
864.428	4561
864.559	4542
864.691	4489
864.823	4516
864.954	4478
865.086	4474
865.217	4455
865.349	4409
865.48	4424
865.612	4481
865.743	4626
865.875	4432
866.006	4421
866.137	4428
866.269	4394
866.4	4436
866.531	4447
866.662	4390
866.793	4386
866.924	4390
867.055	4474
867.186	4447
867.317	4424
867.448	4394
867.579	4390
867.71	4379
867.841	4367
867.972	4424
868.103	4455
868.233	4405
868.364	4390
868.495	4440
868.625	4645
868.756	4725
868.886	4580
869.017	4637
869.147	4782
869.278	4721
869.408	4618
869.539	4649
869.669	4672
869.799	4683
869.929	4710
870.06	4774
870.19	4946
870.32	4927
870.45	4965
870.58	4946
870.71	5071
870.84	5094
870.97	4934
871.1	4877
871.23	5132
871.36	5159
871.489	4991
871.619	5067
871.749	5060
871.879	5098
872.008	5189
872.138	5064
872.267	4980
872.397	4847
872.526	4797
872.656	4763
872.785	4786
872.915	4923
873.044	5010
873.173	4877
873.303	4976
873.432	4927
873.561	4896
873.69	4873
873.819	4885
873.948	4877
874.077	4786
874.206	4797
874.335	4782
874.464	4911
874.593	5037
874.722	4934
874.851	5109
874.979	5018
875.108	5025
875.237	4889
875.365	4850
875.494	4862
875.623	4968
875.751	4881
875.88	4873
876.008	4968
876.136	5003
876.265	5170
876.393	5299
876.521	5197
876.65	5155
876.778	5121
876.906	5048
877.034	5022
877.162	5014
877.29	4961
877.418	5029
877.546	5071
877.674	5014
877.802	5003
877.93	4991
878.058	4919
878.185	4816
878.313	4930
878.441	4900
878.568	4744
878.696	4873
878.824	4953
878.951	4923
879.079	5143
879.206	5280
879.333	5090
879.461	5022
879.588	4961
879.715	5102
879.842	5185
879.97	5003
880.097	4782
880.224	4744
880.351	4835
880.478	4835
880.605	4793
880.732	4763
880.859	5071
880.986	4866
881.112	4885
881.239	4767
881.366	4679
881.493	4607
881.619	4580
881.746	4573
881.872	4626
881.999	4645
882.125	4702
882.252	4736
882.378	4809
882.505	4930
882.631	4782
882.757	4611
882.883	4744
883.01	4767
883.136	4660
883.262	4580
883.388	4615
883.514	4850
883.64	4843
883.766	4778
883.892	4641
884.018	4717
884.143	4843
884.269	4995
884.395	4653
884.52	4618
884.646	4645
884.772	4573
884.897	4580
885.023	4637
885.148	4786
885.274	4862
885.399	4809
885.524	4675
885.65	4672
885.775	4740
885.9	4641
886.025	4847
886.15	4801
886.275	4710
886.4	4641
886.525	4710
886.65	4706
886.775	4702
886.9	4919
887.025	5048
887.149	4809
887.274	4622
887.399	4550
887.523	4660
887.648	4599
887.773	4569
887.897	4778
888.021	4752
888.146	4668
888.27	4797
888.395	4911
888.519	4752
888.643	4850
888.767	4786
888.891	4698
889.015	4561
889.139	4687
889.263	4538
889.387	4740
889.511	4828
889.635	4763
889.759	4618
889.883	4618
890.006	4691
890.13	4839
890.254	4584
890.377	4710
890.501	4527
890.624	4535
890.748	4611
890.871	4508
890.995	4402
891.118	4360
891.241	4538
891.364	4447
891.488	4596
891.611	4466
891.734	4512
891.857	4580
891.98	4558
892.103	4679
892.226	4588
892.349	4512
892.471	4383
892.594	4493
892.717	4558
892.839	4538
892.962	4588
893.085	4717
893.207	4603
893.33	4466
893.452	4523
893.575	4683
893.697	4573
893.819	4748
893.941	4866
894.064	4786
894.186	4569
894.308	4592
894.43	4702
894.552	4828
894.674	4729
894.796	4516
894.918	4538
895.04	4508
895.161	4679
895.283	4672
895.405	4573
895.526	4649
895.648	4679
895.769	4630
895.891	4740
896.012	4694
896.134	4706
896.255	4622
896.376	4618
896.498	4592
896.619	4664
896.74	4554
896.861	4611
896.982	4923
897.103	5071
897.224	4824
897.345	4755
897.466	4672
897.587	4691
897.708	4820
897.828	4805
897.949	4664
898.07	4580
898.19	4618
898.311	4862
898.431	4714
898.552	4687
898.672	4797
898.792	4767
898.913	4683
899.033	4664
899.153	4451
899.273	4386
899.393	4455
899.513	4489
899.633	4470
899.753	4558
899.873	4462
899.993	4577
900.113	4493
900.232	4550
900.352	4493
900.472	4489
900.591	4409
900.711	4580
900.83	4417
900.95	4599
901.069	4653
901.189	4523
901.308	4329
901.427	4318
901.546	4367
901.665	4508
901.784	4554
901.904	4379
902.023	4329
902.141	4223
902.26	4173
902.379	4280
902.498	4253
902.617	4211
902.735	4409
902.854	4333
902.973	4383
903.091	4196
903.21	4185
903.328	4306
903.446	4284
903.565	4230
903.683	4325
903.801	4246
903.919	4424
904.038	4447
904.156	4287
904.274	4436
904.392	4413
904.51	4447
904.627	4402
904.745	4561
904.863	4588
904.981	4386
905.098	4284
905.216	4356
905.334	4459
905.451	4500
905.569	4516
905.686	4508
905.803	4531
905.921	4348
906.038	4519
906.155	4470
906.272	4386
906.389	4421
906.506	4310
906.623	4417
906.74	4337
906.857	4337
906.974	4421
907.091	4565
907.208	4622
907.324	4615
907.441	4497
907.557	4363
907.674	4318
907.79	4341
907.907	4360
908.023	4497
908.139	4497
908.256	4428
908.372	4462
908.488	4455
908.604	4348
908.72	4367
908.836	4337
908.952	4325
909.068	4421
909.184	4599
909.3	4421
909.415	4569
909.531	4538
909.647	4348
909.762	4325
909.878	4306
909.993	4443
910.108	4428
910.224	4390
910.339	4451
910.454	4413
910.57	4379
910.685	4287
910.8	4634
910.915	4550
911.03	4485
911.145	4299
911.259	4360
911.374	4405
911.489	4287
911.604	4257
911.718	4192
911.833	4242
911.947	4071
912.062	4040
912.176	4181
912.291	4310
912.405	4265
912.519	4443
912.633	4519
912.748	4375
912.862	4333
912.976	4249
913.09	4067
913.204	4131
913.318	4234
913.431	4390
913.545	4344
913.659	4405
913.772	4398
913.886	4234
914	4238
914.113	4405
914.226	4421
914.34	4329
914.453	4230
914.566	4413
914.68	4303
914.793	4306
914.906	4120
915.019	4131
915.132	4078
915.245	4154
915.358	4204
915.47	4173
915.583	4257
915.696	4291
915.809	4409
915.921	4440
916.034	4246
916.146	4257
916.259	4234
916.371	4386
916.483	4284
916.595	4276
916.708	4314
916.82	4310
916.932	4314
917.044	4310
917.156	4287
917.268	4246
917.38	4272
917.491	4242
917.603	4299
917.715	4428
917.826	4447
917.938	4306
918.049	4204
918.161	4394
918.272	4565
918.384	4516
918.495	4432
918.606	4265
918.717	4223
918.828	4265
918.939	4363
919.05	4257
919.161	4265
919.272	4120
919.383	4219
919.494	4432
919.604	4645
919.715	4386
919.826	4367
919.936	4348
920.047	4519
920.157	4451
920.267	4698
920.378	4516
920.488	4493
920.598	4710
920.708	4843
920.818	4755
920.928	4793
921.038	4923
921.148	4889
921.258	4649
921.368	4527
921.477	4497
921.587	4455
921.697	4390
921.806	4588
921.916	4451
922.025	4261
922.134	4310
922.244	4234
922.353	4299
922.462	4150
922.571	4086
922.68	3987
922.789	3987
922.898	4017
923.007	3960
923.116	4097
923.224	4029
923.333	4051
923.442	3968
923.55	3945
923.659	4051
923.767	4120
923.876	3968
923.984	4135
924.092	4010
924.201	4078
924.309	4097
924.417	4116
924.525	4090
924.633	4071
924.741	5041
924.849	3930
924.956	4150
925.064	3937
925.172	3941
925.279	3918
925.387	4036
925.494	4059
925.602	4173
925.709	4185
925.816	4086
925.924	4116
926.031	4200
926.138	4154
926.245	4207
926.352	4055
926.459	4230
926.566	4295
926.673	4147
926.779	4093
926.886	4086
926.993	3926
927.099	3937
927.206	3964
927.312	3934
927.419	4086
927.525	4051
927.631	4090
927.737	4013
927.843	3953
927.95	3827
928.056	3968
928.162	3949
928.267	4063
928.373	4706
928.479	4143
928.585	3876
928.69	4032
928.796	4067
928.901	3968
929.007	3854
929.112	3987
929.218	3972
929.323	3918
929.428	3934
929.533	4063
929.638	3926
929.743	3945
929.848	4006
929.953	3994
930.058	3937
930.163	3751
930.267	3842
930.372	3945
930.477	3797
930.581	4040
930.685	3899
930.79	3804
930.894	3896
930.998	3876
931.103	3964
931.207	3652
931.311	3698
931.415	3694
931.519	3511
931.623	3564
