Data from test_V78500241_1170.txt Node
Date: Fri Mar 25 16:57:08 CST 2022
User: usil
Spectrometer: V785-0024
Trigger mode: 0
Integration Time (sec): 4.000000E-1
Scans to average: 1
Nonlinearity correction enabled: false
Boxcar width: 0
Storing dark spectrum: false
XAxis mode: Wavelengths
Number of Pixels in Spectrum: 1024
>>>>>Begin Spectral Data<<<<<
801.071	8069
801.214	8020
801.356	7871
801.499	7868
801.641	7731
801.783	7856
801.926	7989
802.068	7925
802.211	8050
802.353	8065
802.496	7871
802.638	7947
802.78	8005
802.923	7989
803.065	7921
803.208	7864
803.35	7940
803.492	8149
803.635	8256
803.777	8115
803.919	8252
804.061	8381
804.204	8199
804.346	8111
804.488	8027
804.63	8149
804.773	8001
804.915	8088
805.057	8374
805.199	8210
805.341	8244
805.483	8233
805.626	8202
805.768	8149
805.91	8317
806.052	8237
806.194	8084
806.336	8305
806.478	8180
806.62	8054
806.762	8180
806.904	8320
807.046	8514
807.188	8415
807.33	8286
807.472	8385
807.614	8176
807.756	8176
807.898	8012
808.04	7989
808.182	7959
808.324	7860
808.465	7921
808.607	8092
808.749	8134
808.891	8153
809.033	8324
809.174	8248
809.316	8092
809.458	8084
809.6	7917
809.741	8039
809.883	8058
810.025	8126
810.166	8050
810.308	8065
810.45	8119
810.591	7883
810.733	7761
810.875	7677
811.016	7510
811.158	7510
811.299	7674
811.441	7731
811.582	7738
811.724	7632
811.865	7559
812.007	7643
812.148	7628
812.29	7700
812.431	7795
812.573	7902
812.714	7989
812.855	8187
812.997	8191
813.138	8252
813.279	8259
813.421	8153
813.562	8008
813.703	7830
813.845	7788
813.986	7491
814.127	7297
814.268	7289
814.41	7247
814.551	7168
814.692	7221
814.833	7091
814.974	7069
815.115	7164
815.256	6886
815.397	6886
815.539	6993
815.68	6833
815.821	6905
815.962	6871
816.103	6863
816.244	6730
816.385	6700
816.526	6631
816.666	6528
816.807	6350
816.948	6448
817.089	6460
817.23	6441
817.371	6429
817.512	6460
817.653	6467
817.793	6388
817.934	6410
818.075	6414
818.216	6467
818.356	6460
818.497	6285
818.638	6152
818.778	6152
818.919	6194
819.06	6140
819.2	6361
819.341	6308
819.481	6365
819.622	6536
819.762	6783
819.903	6734
820.043	6593
820.184	6601
820.324	6662
820.465	6688
820.605	6692
820.746	6669
820.886	6422
821.026	6711
821.167	6684
821.307	6779
821.447	6715
821.588	6677
821.728	6540
821.868	6502
822.008	6315
822.149	6391
822.289	6357
822.429	6114
822.569	6106
822.709	6152
822.849	5908
822.99	5942
823.13	5946
823.27	5904
823.41	5798
823.55	5779
823.69	5786
823.83	5756
823.97	5653
824.11	5516
824.25	5524
824.389	5551
824.529	5608
824.669	5558
824.809	5691
824.949	5691
825.089	5592
825.228	5585
825.368	5414
825.508	5280
825.648	5364
825.787	5398
825.927	5379
826.067	5292
826.206	5277
826.346	5414
826.485	5391
826.625	5364
826.765	5528
826.904	5539
827.044	5307
827.183	5185
827.323	5132
827.462	5254
827.601	5193
827.741	5208
827.88	5269
828.02	5121
828.159	5288
828.298	5239
828.437	5349
828.577	5269
828.716	5512
828.855	5326
828.994	5208
829.134	5155
829.273	5151
829.412	5132
829.551	5159
829.69	5132
829.829	5265
829.968	5406
830.107	5258
830.246	5250
830.385	5201
830.524	5170
830.663	5060
830.802	4999
830.941	4892
831.08	4911
831.219	4938
831.357	5006
831.496	5162
831.635	4972
831.774	4843
831.913	4866
832.051	4717
832.19	4710
832.329	4850
832.467	4702
832.606	4656
832.744	4744
832.883	4725
833.022	4714
833.16	4805
833.299	4831
833.437	4854
833.576	4850
833.714	4873
833.852	4904
833.991	4949
834.129	4957
834.267	4980
834.406	4873
834.544	4999
834.682	5029
834.821	4961
834.959	5155
835.097	4965
835.235	5117
835.373	5094
835.511	5117
835.65	5048
835.788	5075
835.926	4915
836.064	4904
836.202	4976
836.34	5147
836.478	5269
836.615	5094
836.753	5178
836.891	5258
837.029	5231
837.167	5227
837.305	5197
837.443	5166
837.58	5083
837.718	5220
837.856	5193
837.993	5140
838.131	5185
838.269	5250
838.406	5185
838.544	5170
838.681	5052
838.819	5010
838.956	4908
839.094	4919
839.231	5018
839.369	5067
839.506	5440
839.643	5284
839.781	5086
839.918	5041
840.055	5124
840.193	5102
840.33	5124
840.467	5170
840.604	5193
840.742	5414
840.879	5109
841.016	5071
841.153	5124
841.29	5402
841.427	5326
841.564	5341
841.701	5417
841.838	5235
841.975	5261
842.112	5250
842.249	5132
842.385	5098
842.522	5353
842.659	5178
842.796	5094
842.933	5185
843.069	5155
843.206	5098
843.343	5280
843.479	5227
843.616	5345
843.752	5048
843.889	5048
844.025	5204
844.162	5048
844.298	5250
844.435	5048
844.571	5064
844.708	5170
844.844	5250
844.98	5296
845.117	5334
845.253	5132
845.389	5071
845.525	5174
845.661	5147
845.798	5029
845.934	5117
846.07	5067
846.206	5181
846.342	5318
846.478	5181
846.614	4987
846.75	5045
846.886	4965
847.022	5128
847.158	5045
847.294	5071
847.429	5136
847.565	5117
847.701	5326
847.837	4858
847.972	4801
848.108	4930
848.244	4930
848.379	4793
848.515	4687
848.65	4740
848.786	4755
848.921	4801
849.057	4847
849.192	4881
849.328	4843
849.463	4850
849.598	4816
849.734	4793
849.869	4698
850.004	4668
850.14	4672
850.275	4592
850.41	4546
850.545	4561
850.68	4611
850.815	4645
850.95	4622
851.085	4835
851.22	4733
851.355	4706
851.49	4649
851.625	4645
851.76	4641
851.895	4580
852.03	4554
852.165	4649
852.299	4714
852.434	4812
852.569	4733
852.703	4744
852.838	4870
852.973	4927
853.107	4961
853.242	4771
853.376	4710
853.511	4485
853.645	4637
853.78	4847
853.914	4702
854.048	4641
854.183	4660
854.317	4683
854.451	4850
854.585	4668
854.72	4649
854.854	4805
854.988	4584
855.122	4634
855.256	4546
855.39	4683
855.524	4820
855.658	4694
855.792	4698
855.926	4748
856.06	4786
856.194	4847
856.327	4717
856.461	4618
856.595	4618
856.729	4580
856.862	4744
856.996	4694
857.13	4706
857.263	4759
857.397	4801
857.53	4694
857.664	4721
857.797	4767
857.931	4809
858.064	4717
858.197	4755
858.331	4687
858.464	4668
858.597	4512
858.731	4679
858.864	4645
858.997	4599
859.13	4656
859.263	4698
859.396	4759
859.529	4573
859.662	4588
859.795	4519
859.928	4653
860.061	4733
860.194	4725
860.327	4641
860.46	4607
860.592	4736
860.725	4771
860.858	4714
860.99	4558
861.123	4542
861.256	4584
861.388	4649
861.521	5178
861.653	4466
861.786	4474
861.918	4462
862.05	4535
862.183	4558
862.315	4592
862.447	4634
862.58	4527
862.712	4402
862.844	4367
862.976	4500
863.108	4470
863.24	4862
863.372	4386
863.504	4413
863.636	4424
863.768	4462
863.9	4489
864.032	4417
864.164	4432
864.296	4481
864.428	4550
864.559	4561
864.691	4546
864.823	4516
864.954	4481
865.086	4516
865.217	4462
865.349	4447
865.48	4474
865.612	4493
865.743	4584
865.875	4474
866.006	4413
866.137	4470
866.269	4440
866.4	4443
866.531	4405
866.662	4367
866.793	4417
866.924	4398
867.055	4459
867.186	4459
867.317	4413
867.448	4379
867.579	4386
867.71	4402
867.841	4352
867.972	4478
868.103	4478
868.233	4428
868.364	4436
868.495	4493
868.625	4634
868.756	4740
868.886	4546
869.017	4641
869.147	4774
869.278	4828
869.408	4664
869.539	4691
869.669	4710
869.799	4645
869.929	4786
870.06	4774
870.19	4911
870.32	4923
870.45	5037
870.58	5041
870.71	5071
870.84	5105
870.97	4949
871.1	4892
871.23	5113
871.36	5140
871.489	5003
871.619	5098
871.749	5071
871.879	5132
872.008	5197
872.138	5071
872.267	4953
872.397	4870
872.526	4816
872.656	4672
872.785	4812
872.915	4999
873.044	5025
873.173	4987
873.303	4953
873.432	4957
873.561	4946
873.69	4862
873.819	4805
873.948	4896
874.077	4759
874.206	4740
874.335	4824
874.464	4900
874.593	5033
874.722	4957
874.851	5128
874.979	5022
875.108	5014
875.237	4900
875.365	4843
875.494	4946
875.623	4946
875.751	4801
875.88	4862
876.008	4976
876.136	5048
876.265	5166
876.393	5364
876.521	5254
876.65	5181
876.778	5189
876.906	5025
877.034	5022
877.162	5014
877.29	4930
877.418	5041
877.546	5048
877.674	5056
877.802	5033
877.93	4995
878.058	4908
878.185	4843
878.313	4889
878.441	4938
878.568	4801
878.696	4847
878.824	4965
878.951	4965
879.079	5075
879.206	5303
879.333	5083
879.461	5003
879.588	4961
879.715	5064
879.842	5250
879.97	5022
880.097	4778
880.224	4725
880.351	4812
880.478	4801
880.605	4752
880.732	4793
880.859	5102
880.986	4908
881.112	4900
881.239	4801
881.366	4668
881.493	4634
881.619	4573
881.746	4668
881.872	4653
881.999	4637
882.125	4710
882.252	4835
882.378	4831
882.505	4942
882.631	4778
882.757	4596
882.883	4740
883.01	4691
883.136	4649
883.262	4615
883.388	4599
883.514	4812
883.64	4820
883.766	4790
883.892	4683
884.018	4687
884.143	4953
884.269	5003
884.395	4626
884.52	4607
884.646	4641
884.772	4573
884.897	4611
885.023	4649
885.148	4793
885.274	4828
885.399	4801
885.524	4660
885.65	4752
885.775	4733
885.9	4759
886.025	4828
886.15	4801
886.275	4706
886.4	4653
886.525	4759
886.65	4721
886.775	4653
886.9	4885
887.025	5045
887.149	4816
887.274	4683
887.399	4592
887.523	4592
887.648	4599
887.773	4592
887.897	4752
888.021	4793
888.146	4698
888.27	4820
888.395	4881
888.519	4816
888.643	4759
888.767	4820
888.891	4683
889.015	4641
889.139	4637
889.263	4611
889.387	4759
889.511	4885
889.635	4782
889.759	4611
889.883	4622
890.006	4706
890.13	4850
890.254	4599
890.377	4653
890.501	4573
890.624	4531
890.748	4611
890.871	4519
890.995	4402
891.118	4394
891.241	4535
891.364	4561
891.488	4630
891.611	4462
891.734	4497
891.857	4565
891.98	4561
892.103	4653
892.226	4615
892.349	4542
892.471	4421
892.594	4558
892.717	4584
892.839	4535
892.962	4577
893.085	4664
893.207	4618
893.33	4481
893.452	4470
893.575	4611
893.697	4565
893.819	4790
893.941	4824
894.064	4812
894.186	4538
894.308	4584
894.43	4679
894.552	4805
894.674	4782
894.796	4577
894.918	4550
895.04	4546
895.161	4675
895.283	4622
895.405	4546
895.526	4641
895.648	4706
895.769	4721
895.891	4721
896.012	4717
896.134	4702
896.255	4645
896.376	4660
896.498	4664
896.619	4641
896.74	4637
896.861	4683
896.982	4908
897.103	5083
897.224	4820
897.345	4748
897.466	4634
897.587	4714
897.708	4877
897.828	4774
897.949	4653
898.07	4550
898.19	4637
898.311	4805
898.431	4679
898.552	4721
898.672	4767
898.792	4820
898.913	4710
899.033	4634
899.153	4523
899.273	4421
899.393	4497
899.513	4508
899.633	4535
899.753	4519
899.873	4493
899.993	4565
900.113	4535
900.232	4626
900.352	4516
900.472	4447
900.591	4367
900.711	4481
900.83	4466
900.95	4664
901.069	4664
901.189	4527
901.308	4367
901.427	4363
901.546	4386
901.665	4493
901.784	4497
901.904	4363
902.023	4322
902.141	4200
902.26	4124
902.379	4272
902.498	4234
902.617	4242
902.735	4383
902.854	4360
902.973	4303
903.091	4181
903.21	4249
903.328	4242
903.446	4272
903.565	4287
903.683	4367
903.801	4314
903.919	4428
904.038	4436
904.156	4329
904.274	4432
904.392	4386
904.51	4398
904.627	4504
904.745	4577
904.863	4626
904.981	4386
905.098	4303
905.216	4337
905.334	4405
905.451	4447
905.569	4462
905.686	4523
905.803	4584
905.921	4363
906.038	4527
906.155	4535
906.272	4348
906.389	4485
906.506	4344
906.623	4348
906.74	4356
906.857	4291
906.974	4405
907.091	4558
907.208	4675
907.324	4634
907.441	4497
907.557	4341
907.674	4310
907.79	4261
907.907	4375
908.023	4459
908.139	4428
908.256	4455
908.372	4478
908.488	4432
908.604	4352
908.72	4318
908.836	4402
908.952	4348
909.068	4466
909.184	4580
909.3	4474
909.415	4603
909.531	4512
909.647	4344
909.762	4379
909.878	4306
909.993	4405
910.108	4405
910.224	4417
910.339	4478
910.454	4436
910.57	4383
910.685	4284
910.8	4630
910.915	4634
911.03	4424
911.145	4325
911.259	4379
911.374	4341
911.489	4306
911.604	4227
911.718	4188
911.833	4200
911.947	4105
912.062	4017
912.176	4227
912.291	4204
912.405	4295
912.519	4413
912.633	4478
912.748	4379
912.862	4314
912.976	4185
913.09	4044
913.204	4131
913.318	4257
913.431	4375
913.545	4329
913.659	4470
913.772	4337
913.886	4223
914	4268
914.113	4390
914.226	4424
914.34	4417
914.453	4223
914.566	4424
914.68	4325
914.793	4325
914.906	4147
915.019	4105
915.132	4131
915.245	4162
915.358	4246
915.47	4188
915.583	4223
915.696	4295
915.809	4447
915.921	4405
916.034	4284
916.146	4234
916.259	4181
916.371	4371
916.483	4375
916.595	4219
916.708	4299
916.82	4333
916.932	4287
917.044	4284
917.156	4314
917.268	4234
917.38	4265
917.491	4303
917.603	4314
917.715	4413
917.826	4432
917.938	4325
918.049	4215
918.161	4398
918.272	4504
918.384	4542
918.495	4451
918.606	4276
918.717	4230
918.828	4329
918.939	4394
919.05	4246
919.161	4318
919.272	4109
919.383	4227
919.494	4462
919.604	4626
919.715	4428
919.826	4329
919.936	4375
920.047	4493
920.157	4504
920.267	4668
920.378	4542
920.488	4497
920.598	4683
920.708	4862
920.818	4710
920.928	4786
921.038	4972
921.148	4987
921.258	4596
921.368	4565
921.477	4489
921.587	4436
921.697	4356
921.806	4474
921.916	4443
922.025	4284
922.134	4268
922.244	4280
922.353	4287
922.462	4192
922.571	4120
922.68	3975
922.789	3979
922.898	4025
923.007	4010
923.116	4090
923.224	4025
923.333	3998
923.442	3991
923.55	3975
923.659	3991
923.767	4093
923.876	4002
923.984	4097
924.092	3972
924.201	4090
924.309	4109
924.417	4139
924.525	4006
924.633	4105
924.741	5037
924.849	3911
924.956	4139
925.064	3953
925.172	3880
925.279	3941
925.387	4025
925.494	4055
925.602	4219
925.709	4150
925.816	4013
925.924	4105
926.031	4227
926.138	4207
926.245	4181
926.352	4071
926.459	4215
926.566	4325
926.673	4154
926.779	4090
926.886	4093
926.993	3998
927.099	3960
927.206	3964
927.312	3945
927.419	4063
927.525	3987
927.631	4116
927.737	3960
927.843	3941
927.95	3854
928.056	3975
928.162	4006
928.267	4040
928.373	4668
928.479	4093
928.585	3831
928.69	4051
928.796	4055
928.901	3949
929.007	3857
929.112	3968
929.218	3964
929.323	3911
929.428	3987
929.533	4086
929.638	3915
929.743	3922
929.848	4032
929.953	3991
930.058	3899
930.163	3774
930.267	3876
930.372	3949
930.477	3808
930.581	4059
930.685	3926
930.79	3831
930.894	3884
930.998	3797
931.103	4002
931.207	3705
931.311	3701
931.415	3701
931.519	3496
931.623	3549
