Data from test_V78500241_1890.txt Node
Date: Fri Mar 25 17:02:08 CST 2022
User: usil
Spectrometer: V785-0024
Trigger mode: 0
Integration Time (sec): 4.000000E-1
Scans to average: 1
Nonlinearity correction enabled: false
Boxcar width: 0
Storing dark spectrum: false
XAxis mode: Wavelengths
Number of Pixels in Spectrum: 1024
>>>>>Begin Spectral Data<<<<<
801.071	7978
801.214	7997
801.356	7909
801.499	7883
801.641	7788
801.783	7788
801.926	7970
802.068	7913
802.211	7989
802.353	7928
802.496	7871
802.638	7799
802.78	7864
802.923	7925
803.065	7879
803.208	7799
803.35	7951
803.492	8084
803.635	8176
803.777	8065
803.919	8138
804.061	8484
804.204	8183
804.346	8065
804.488	7986
804.63	8081
804.773	7989
804.915	8119
805.057	8324
805.199	8084
805.341	8183
805.483	8252
805.626	8225
805.768	8100
805.91	8191
806.052	8187
806.194	8126
806.336	8298
806.478	8050
806.62	8096
806.762	8115
806.904	8286
807.046	8518
807.188	8370
807.33	8237
807.472	8256
807.614	8161
807.756	8096
807.898	8008
808.04	7902
808.182	7909
808.324	7902
808.465	7871
808.607	8058
808.749	8092
808.891	8191
809.033	8263
809.174	8267
809.316	8005
809.458	8111
809.6	8005
809.741	7951
809.883	8084
810.025	8073
810.166	8092
810.308	7993
810.45	7986
810.591	7814
810.733	7658
810.875	7655
811.016	7533
811.158	7495
811.299	7586
811.441	7731
811.582	7670
811.724	7563
811.865	7510
812.007	7628
812.148	7571
812.29	7544
812.431	7761
812.573	7955
812.714	7974
812.855	8081
812.997	8199
813.138	8275
813.279	8134
813.421	8088
813.562	7974
813.703	7765
813.845	7708
813.986	7449
814.127	7244
814.268	7225
814.41	7179
814.551	7179
814.692	7228
814.833	7069
814.974	7168
815.115	7099
815.256	6947
815.397	6897
815.539	6958
815.68	6810
815.821	6818
815.962	6856
816.103	6760
816.244	6719
816.385	6620
816.526	6578
816.666	6490
816.807	6319
816.948	6448
817.089	6452
817.23	6441
817.371	6391
817.512	6418
817.653	6391
817.793	6350
817.934	6429
818.075	6467
818.216	6403
818.356	6384
818.497	6243
818.638	6110
818.778	6159
818.919	6136
819.06	6213
819.2	6365
819.341	6334
819.481	6334
819.622	6494
819.762	6738
819.903	6749
820.043	6547
820.184	6563
820.324	6585
820.465	6669
820.605	6639
820.746	6635
820.886	6547
821.026	6715
821.167	6722
821.307	6795
821.447	6795
821.588	6688
821.728	6574
821.868	6506
822.008	6353
822.149	6441
822.289	6311
822.429	6159
822.569	6064
822.709	6114
822.849	5961
822.99	5916
823.13	5840
823.27	5935
823.41	5756
823.55	5764
823.69	5756
823.83	5764
823.97	5653
824.11	5570
824.25	5493
824.389	5535
824.529	5604
824.669	5490
824.809	5668
824.949	5623
825.089	5585
825.228	5547
825.368	5372
825.508	5273
825.648	5353
825.787	5395
825.927	5402
826.067	5273
826.206	5299
826.346	5421
826.485	5364
826.625	5444
826.765	5562
826.904	5463
827.044	5242
827.183	5254
827.323	5075
827.462	5204
827.601	5140
827.741	5201
827.88	5239
828.02	5102
828.159	5197
828.298	5357
828.437	5360
828.577	5273
828.716	5486
828.855	5330
828.994	5162
829.134	5136
829.273	5162
829.412	5083
829.551	5071
829.69	5201
829.829	5254
829.968	5387
830.107	5326
830.246	5284
830.385	5227
830.524	5105
830.663	5102
830.802	4987
830.941	4885
831.08	4850
831.219	4965
831.357	4946
831.496	5147
831.635	4927
831.774	4877
831.913	4847
832.051	4736
832.19	4725
832.329	4828
832.467	4630
832.606	4641
832.744	4687
832.883	4717
833.022	4691
833.16	4812
833.299	4778
833.437	4801
833.576	4831
833.714	4843
833.852	4866
833.991	4805
834.129	4946
834.267	4896
834.406	4908
834.544	4946
834.682	4987
834.821	4881
834.959	5136
835.097	4995
835.235	5132
835.373	5090
835.511	5147
835.65	5018
835.788	4987
835.926	4877
836.064	4873
836.202	4889
836.34	5181
836.478	5181
836.615	5136
836.753	5185
836.891	5284
837.029	5231
837.167	5193
837.305	5170
837.443	5105
837.58	5060
837.718	5246
837.856	5193
837.993	5159
838.131	5216
838.269	5235
838.406	5201
838.544	5159
838.681	5018
838.819	4968
838.956	4949
839.094	4892
839.231	4934
839.369	5041
839.506	5395
839.643	5254
839.781	5090
839.918	5003
840.055	5102
840.193	5048
840.33	5075
840.467	5102
840.604	5189
840.742	5398
840.879	5083
841.016	5067
841.153	5170
841.29	5398
841.427	5322
841.564	5280
841.701	5345
841.838	5254
841.975	5227
842.112	5261
842.249	5124
842.385	5086
842.522	5391
842.659	5159
842.796	5159
842.933	5124
843.069	5178
843.206	5189
843.343	5269
843.479	5223
843.616	5227
843.752	5022
843.889	4995
844.025	5212
844.162	5014
844.298	5174
844.435	5105
844.571	5041
844.708	5231
844.844	5341
844.98	5330
845.117	5265
845.253	5121
845.389	5052
845.525	5124
845.661	5117
845.798	5037
845.934	5117
846.07	5071
846.206	5159
846.342	5330
846.478	5220
846.614	5045
846.75	4942
846.886	4942
847.022	5117
847.158	4987
847.294	5079
847.429	5067
847.565	5071
847.701	5318
847.837	4854
847.972	4843
848.108	4919
848.244	4896
848.379	4790
848.515	4706
848.65	4710
848.786	4721
848.921	4801
849.057	4835
849.192	4923
849.328	4812
849.463	4831
849.598	4774
849.734	4740
849.869	4740
850.004	4630
850.14	4641
850.275	4603
850.41	4535
850.545	4580
850.68	4599
850.815	4615
850.95	4653
851.085	4847
851.22	4675
851.355	4656
851.49	4641
851.625	4554
851.76	4656
851.895	4584
852.03	4535
852.165	4630
852.299	4721
852.434	4755
852.569	4755
852.703	4793
852.838	4870
852.973	4873
853.107	4904
853.242	4698
853.376	4630
853.511	4535
853.645	4630
853.78	4774
853.914	4721
854.048	4618
854.183	4687
854.317	4698
854.451	4801
854.585	4702
854.72	4596
854.854	4763
854.988	4584
855.122	4596
855.256	4519
855.39	4664
855.524	4729
855.658	4702
855.792	4653
855.926	4694
856.06	4721
856.194	4786
856.327	4675
856.461	4603
856.595	4599
856.729	4588
856.862	4717
856.996	4683
857.13	4744
857.263	4824
857.397	4748
857.53	4664
857.664	4755
857.797	4729
857.931	4778
858.064	4637
858.197	4694
858.331	4588
858.464	4622
858.597	4500
858.731	4641
858.864	4626
858.997	4588
859.13	4634
859.263	4618
859.396	4664
859.529	4569
859.662	4569
859.795	4527
859.928	4607
860.061	4740
860.194	4790
860.327	4580
860.46	4478
860.592	4687
860.725	4694
860.858	4679
860.99	4592
861.123	4516
861.256	4546
861.388	4592
861.521	5406
861.653	4459
861.786	4413
861.918	4481
862.05	4527
862.183	4558
862.315	4592
862.447	4584
862.58	4592
862.712	4371
862.844	4295
862.976	4451
863.108	4470
863.24	4843
863.372	4333
863.504	4398
863.636	4375
863.768	4447
863.9	4390
864.032	4352
864.164	4428
864.296	4443
864.428	4535
864.559	4542
864.691	4516
864.823	4538
864.954	4481
865.086	4512
865.217	4443
865.349	4405
865.48	4432
865.612	4485
865.743	4618
865.875	4451
866.006	4443
866.137	4485
866.269	4421
866.4	4428
866.531	4383
866.662	4440
866.793	4390
866.924	4398
867.055	4459
867.186	4413
867.317	4386
867.448	4352
867.579	4383
867.71	4375
867.841	4371
867.972	4474
868.103	4428
868.233	4478
868.364	4417
868.495	4455
868.625	4672
868.756	4778
868.886	4508
869.017	4592
869.147	4752
869.278	4793
869.408	4649
869.539	4634
869.669	4729
869.799	4683
869.929	4778
870.06	4691
870.19	4938
870.32	4908
870.45	4968
870.58	5048
870.71	5140
870.84	5048
870.97	4953
871.1	4904
871.23	5124
871.36	5121
871.489	4995
871.619	5048
871.749	5079
871.879	5128
872.008	5162
872.138	5045
872.267	4949
872.397	4850
872.526	4805
872.656	4767
872.785	4816
872.915	4923
873.044	4999
873.173	4938
873.303	4957
873.432	4949
873.561	4946
873.69	4885
873.819	4820
873.948	4911
874.077	4816
874.206	4786
874.335	4763
874.464	4915
874.593	4976
874.722	4984
874.851	5029
874.979	5037
875.108	5060
875.237	4946
875.365	4885
875.494	4843
875.623	4930
875.751	4778
875.88	4870
876.008	4968
876.136	5045
876.265	5181
876.393	5273
876.521	5201
876.65	5208
876.778	5147
876.906	5022
877.034	5018
877.162	4999
877.29	4968
877.418	5037
877.546	4984
877.674	4995
877.802	5033
877.93	4991
878.058	4930
878.185	4881
878.313	4946
878.441	4934
878.568	4774
878.696	4816
878.824	4904
878.951	5029
879.079	5117
879.206	5269
879.333	5109
879.461	4953
879.588	4995
879.715	5075
879.842	5181
879.97	4991
880.097	4767
880.224	4767
880.351	4816
880.478	4824
880.605	4809
880.732	4774
880.859	5079
880.986	4866
881.112	4908
881.239	4831
881.366	4656
881.493	4618
881.619	4577
881.746	4599
881.872	4634
881.999	4603
882.125	4721
882.252	4812
882.378	4828
882.505	4949
882.631	4790
882.757	4679
882.883	4706
883.01	4706
883.136	4679
883.262	4554
883.388	4603
883.514	4786
883.64	4911
883.766	4752
883.892	4668
884.018	4733
884.143	4858
884.269	4965
884.395	4653
884.52	4611
884.646	4645
884.772	4523
884.897	4580
885.023	4683
885.148	4763
885.274	4831
885.399	4801
885.524	4744
885.65	4668
885.775	4714
885.9	4694
886.025	4839
886.15	4771
886.275	4733
886.4	4679
886.525	4710
886.65	4672
886.775	4649
886.9	4885
887.025	5041
887.149	4809
887.274	4649
887.399	4615
887.523	4565
887.648	4558
887.773	4577
887.897	4748
888.021	4763
888.146	4645
888.27	4801
888.395	4904
888.519	4744
888.643	4812
888.767	4805
888.891	4675
889.015	4588
889.139	4618
889.263	4508
889.387	4786
889.511	4877
889.635	4767
889.759	4656
889.883	4626
890.006	4675
890.13	4782
890.254	4577
890.377	4656
890.501	4535
890.624	4497
890.748	4668
890.871	4462
890.995	4421
891.118	4352
891.241	4519
891.364	4436
891.488	4656
891.611	4485
891.734	4489
891.857	4512
891.98	4508
892.103	4596
892.226	4561
892.349	4558
892.471	4428
892.594	4527
892.717	4565
892.839	4558
892.962	4611
893.085	4733
893.207	4622
893.33	4466
893.452	4512
893.575	4687
893.697	4596
893.819	4812
893.941	4824
894.064	4774
894.186	4565
894.308	4561
894.43	4778
894.552	4797
894.674	4752
894.796	4584
894.918	4588
895.04	4527
895.161	4778
895.283	4660
895.405	4596
895.526	4656
895.648	4744
895.769	4656
895.891	4736
896.012	4759
896.134	4725
896.255	4664
896.376	4656
896.498	4641
896.619	4653
896.74	4618
896.861	4721
896.982	4923
897.103	5109
897.224	4812
897.345	4725
897.466	4714
897.587	4835
897.708	4892
897.828	4843
897.949	4744
898.07	4558
898.19	4702
898.311	4843
898.431	4698
898.552	4828
898.672	4790
898.792	4820
898.913	4767
899.033	4687
899.153	4611
899.273	4443
899.393	4497
899.513	4573
899.633	4580
899.753	4580
899.873	4561
899.993	4622
900.113	4535
900.232	4573
900.352	4569
900.472	4497
900.591	4402
900.711	4535
900.83	4462
900.95	4637
901.069	4702
901.189	4596
901.308	4375
901.427	4413
901.546	4428
901.665	4481
901.784	4607
901.904	4424
902.023	4379
902.141	4227
902.26	4200
902.379	4333
902.498	4272
902.617	4261
902.735	4405
902.854	4428
902.973	4402
903.091	4249
903.21	4268
903.328	4318
903.446	4341
903.565	4314
903.683	4409
903.801	4299
903.919	4459
904.038	4466
904.156	4348
904.274	4470
904.392	4466
904.51	4500
904.627	4531
904.745	4615
904.863	4630
904.981	4485
905.098	4352
905.216	4436
905.334	4413
905.451	4504
905.569	4474
905.686	4622
905.803	4603
905.921	4481
906.038	4573
906.155	4493
906.272	4432
906.389	4519
906.506	4394
906.623	4409
906.74	4424
906.857	4295
906.974	4402
907.091	4653
907.208	4675
907.324	4542
907.441	4474
907.557	4390
907.674	4409
907.79	4356
907.907	4413
908.023	4504
908.139	4519
908.256	4462
908.372	4485
908.488	4466
908.604	4356
908.72	4344
908.836	4459
908.952	4390
909.068	4443
909.184	4649
909.3	4523
909.415	4611
909.531	4607
909.647	4356
909.762	4424
909.878	4421
909.993	4421
910.108	4451
910.224	4421
910.339	4443
910.454	4421
910.57	4405
910.685	4299
910.8	4672
910.915	4607
911.03	4554
911.145	4333
911.259	4375
911.374	4379
911.489	4329
911.604	4261
911.718	4185
911.833	4268
911.947	4116
912.062	4055
912.176	4246
912.291	4246
912.405	4257
912.519	4481
912.633	4508
912.748	4436
912.862	4383
912.976	4238
913.09	4139
913.204	4223
913.318	4265
913.431	4413
913.545	4409
913.659	4443
913.772	4390
913.886	4322
914	4230
914.113	4428
914.226	4451
914.34	4421
914.453	4249
914.566	4466
914.68	4352
914.793	4375
914.906	4192
915.019	4158
915.132	4086
915.245	4196
915.358	4291
915.47	4272
915.583	4280
915.696	4318
915.809	4424
915.921	4424
916.034	4291
916.146	4287
916.259	4249
916.371	4379
916.483	4394
916.595	4268
916.708	4363
916.82	4329
916.932	4341
917.044	4394
917.156	4371
917.268	4230
917.38	4306
917.491	4268
917.603	4409
917.715	4424
917.826	4523
917.938	4341
918.049	4276
918.161	4413
918.272	4580
918.384	4546
918.495	4508
918.606	4360
918.717	4280
918.828	4367
918.939	4398
919.05	4287
919.161	4363
919.272	4143
919.383	4238
919.494	4497
919.604	4653
919.715	4481
919.826	4367
919.936	4394
920.047	4546
920.157	4500
920.267	4748
920.378	4622
920.488	4508
920.598	4748
920.708	4896
920.818	4782
920.928	4710
921.038	4991
921.148	5033
921.258	4679
921.368	4577
921.477	4508
921.587	4455
921.697	4405
921.806	4592
921.916	4489
922.025	4295
922.134	4329
922.244	4238
922.353	4417
922.462	4169
922.571	4143
922.68	4074
922.789	3975
922.898	4032
923.007	3953
923.116	4097
923.224	4090
923.333	4063
923.442	4017
923.55	4025
923.659	4067
923.767	4109
923.876	4032
923.984	4150
924.092	4044
924.201	4124
924.309	4131
924.417	4124
924.525	4120
924.633	4109
924.741	5094
924.849	3926
924.956	4150
925.064	3994
925.172	3937
925.279	3983
925.387	4055
925.494	4044
925.602	4295
925.709	4234
925.816	4078
925.924	4135
926.031	4238
926.138	4177
926.245	4204
926.352	4101
926.459	4280
926.566	4291
926.673	4154
926.779	4101
926.886	4109
926.993	3987
927.099	3941
927.206	3972
927.312	3975
927.419	4048
927.525	4067
927.631	4071
927.737	3975
927.843	3953
927.95	3842
928.056	3956
928.162	4025
928.267	4116
928.373	4615
928.479	4131
928.585	3922
928.69	4048
928.796	4086
928.901	3987
929.007	3873
929.112	4013
929.218	4002
929.323	3911
929.428	3972
929.533	4135
929.638	3930
929.743	3979
929.848	4067
929.953	4017
930.058	3945
930.163	3827
930.267	3861
930.372	4040
930.477	3873
930.581	4105
930.685	3960
930.79	3835
930.894	3903
930.998	3884
931.103	4044
931.207	3709
931.311	3728
931.415	3682
931.519	3553
931.623	3587
