Data from test_V78500241_1676.txt Node
Date: Fri Mar 25 17:00:39 CST 2022
User: usil
Spectrometer: V785-0024
Trigger mode: 0
Integration Time (sec): 4.000000E-1
Scans to average: 1
Nonlinearity correction enabled: false
Boxcar width: 0
Storing dark spectrum: false
XAxis mode: Wavelengths
Number of Pixels in Spectrum: 1024
>>>>>Begin Spectral Data<<<<<
801.071	7978
801.214	8008
801.356	7906
801.499	7811
801.641	7814
801.783	7856
801.926	7978
802.068	7955
802.211	8005
802.353	8008
802.496	7837
802.638	7890
802.78	7898
802.923	7951
803.065	7887
803.208	7807
803.35	7913
803.492	8058
803.635	8183
803.777	8043
803.919	8107
804.061	8400
804.204	8168
804.346	8092
804.488	7951
804.63	8024
804.773	8046
804.915	8020
805.057	8309
805.199	8214
805.341	8191
805.483	8259
805.626	8225
805.768	8107
805.91	8180
806.052	8202
806.194	8123
806.336	8328
806.478	8111
806.62	8054
806.762	8191
806.904	8221
807.046	8495
807.188	8305
807.33	8328
807.472	8267
807.614	8237
807.756	8180
807.898	8027
808.04	7913
808.182	7875
808.324	7833
808.465	7909
808.607	8103
808.749	8168
808.891	8195
809.033	8279
809.174	8180
809.316	8081
809.458	8073
809.6	7967
809.741	8073
809.883	8096
810.025	8126
810.166	8096
810.308	8008
810.45	8001
810.591	7814
810.733	7693
810.875	7685
811.016	7491
811.158	7491
811.299	7537
811.441	7666
811.582	7674
811.724	7613
811.865	7544
812.007	7643
812.148	7575
812.29	7613
812.431	7765
812.573	7849
812.714	8024
812.855	8115
812.997	8172
813.138	8305
813.279	8202
813.421	8115
813.562	7997
813.703	7830
813.845	7689
813.986	7388
814.127	7251
814.268	7171
814.41	7179
814.551	7141
814.692	7221
814.833	7114
814.974	7126
815.115	7187
815.256	6966
815.397	6932
815.539	6935
815.68	6829
815.821	6753
815.962	6810
816.103	6818
816.244	6700
816.385	6551
816.526	6623
816.666	6452
816.807	6300
816.948	6426
817.089	6479
817.23	6388
817.371	6304
817.512	6346
817.653	6426
817.793	6285
817.934	6365
818.075	6437
818.216	6365
818.356	6391
818.497	6205
818.638	6121
818.778	6190
818.919	6098
819.06	6228
819.2	6331
819.341	6277
819.481	6361
819.622	6445
819.762	6730
819.903	6722
820.043	6597
820.184	6616
820.324	6582
820.465	6684
820.605	6700
820.746	6673
820.886	6517
821.026	6635
821.167	6703
821.307	6825
821.447	6745
821.588	6642
821.728	6540
821.868	6433
822.008	6292
822.149	6346
822.289	6334
822.429	6117
822.569	6022
822.709	6098
822.849	5882
822.99	5912
823.13	5931
823.27	5901
823.41	5802
823.55	5756
823.69	5764
823.83	5760
823.97	5604
824.11	5577
824.25	5463
824.389	5554
824.529	5630
824.669	5512
824.809	5608
824.949	5638
825.089	5539
825.228	5554
825.368	5372
825.508	5353
825.648	5364
825.787	5372
825.927	5334
826.067	5326
826.206	5288
826.346	5345
826.485	5353
826.625	5406
826.765	5486
826.904	5452
827.044	5277
827.183	5174
827.323	5079
827.462	5212
827.601	5098
827.741	5178
827.88	5178
828.02	5155
828.159	5235
828.298	5307
828.437	5353
828.577	5280
828.716	5398
828.855	5379
828.994	5162
829.134	5121
829.273	5204
829.412	5079
829.551	5132
829.69	5147
829.829	5220
829.968	5341
830.107	5242
830.246	5299
830.385	5181
830.524	5105
830.663	5102
830.802	4953
830.941	4873
831.08	4877
831.219	4984
831.357	4965
831.496	5117
831.635	4911
831.774	4797
831.913	4816
832.051	4698
832.19	4691
832.329	4805
832.467	4706
832.606	4637
832.744	4656
832.883	4672
833.022	4706
833.16	4763
833.299	4801
833.437	4797
833.576	4843
833.714	4839
833.852	4858
833.991	4862
834.129	4930
834.267	4953
834.406	4866
834.544	4976
834.682	4961
834.821	4938
834.959	5128
835.097	5003
835.235	5105
835.373	5052
835.511	5109
835.65	5025
835.788	4949
835.926	4858
836.064	4816
836.202	4946
836.34	5147
836.478	5155
836.615	5121
836.753	5178
836.891	5315
837.029	5227
837.167	5193
837.305	5128
837.443	5109
837.58	5124
837.718	5212
837.856	5242
837.993	5113
838.131	5212
838.269	5227
838.406	5143
838.544	5132
838.681	5014
838.819	5048
838.956	4896
839.094	4919
839.231	4995
839.369	5041
839.506	5391
839.643	5292
839.781	5048
839.918	5025
840.055	5124
840.193	5121
840.33	5071
840.467	5117
840.604	5151
840.742	5398
840.879	5056
841.016	5083
841.153	5098
841.29	5334
841.427	5357
841.564	5273
841.701	5387
841.838	5273
841.975	5269
842.112	5284
842.249	5143
842.385	5102
842.522	5341
842.659	5147
842.796	5124
842.933	5181
843.069	5128
843.206	5147
843.343	5322
843.479	5250
843.616	5284
843.752	5033
843.889	5052
844.025	5197
844.162	5006
844.298	5220
844.435	5022
844.571	4995
844.708	5132
844.844	5231
844.98	5299
845.117	5273
845.253	5128
845.389	5083
845.525	5193
845.661	5086
845.798	4991
845.934	5147
846.07	5010
846.206	5155
846.342	5292
846.478	5151
846.614	5003
846.75	4972
846.886	4946
847.022	5102
847.158	5037
847.294	5098
847.429	5121
847.565	5025
847.701	5337
847.837	4866
847.972	4771
848.108	4984
848.244	4976
848.379	4786
848.515	4698
848.65	4675
848.786	4748
848.921	4759
849.057	4828
849.192	4877
849.328	4820
849.463	4835
849.598	4767
849.734	4725
849.869	4672
850.004	4641
850.14	4668
850.275	4653
850.41	4508
850.545	4493
850.68	4584
850.815	4577
850.95	4611
851.085	4786
851.22	4801
851.355	4668
851.49	4611
851.625	4626
851.76	4626
851.895	4565
852.03	4527
852.165	4675
852.299	4687
852.434	4782
852.569	4752
852.703	4736
852.838	4828
852.973	4900
853.107	4923
853.242	4721
853.376	4668
853.511	4550
853.645	4637
853.78	4782
853.914	4653
854.048	4626
854.183	4630
854.317	4679
854.451	4877
854.585	4664
854.72	4641
854.854	4706
854.988	4596
855.122	4599
855.256	4504
855.39	4653
855.524	4801
855.658	4683
855.792	4679
855.926	4733
856.06	4797
856.194	4801
856.327	4679
856.461	4569
856.595	4653
856.729	4592
856.862	4763
856.996	4687
857.13	4706
857.263	4744
857.397	4809
857.53	4641
857.664	4752
857.797	4733
857.931	4812
858.064	4687
858.197	4767
858.331	4634
858.464	4558
858.597	4508
858.731	4641
858.864	4622
858.997	4592
859.13	4603
859.263	4683
859.396	4653
859.529	4592
859.662	4599
859.795	4546
859.928	4607
860.061	4733
860.194	4782
860.327	4603
860.46	4527
860.592	4710
860.725	4721
860.858	4740
860.99	4558
861.123	4527
861.256	4538
861.388	4630
861.521	5444
861.653	4436
861.786	4421
861.918	4417
862.05	4470
862.183	4580
862.315	4596
862.447	4653
862.58	4512
862.712	4371
862.844	4318
862.976	4443
863.108	4459
863.24	4782
863.372	4306
863.504	4443
863.636	4428
863.768	4459
863.9	4402
864.032	4348
864.164	4413
864.296	4451
864.428	4535
864.559	4523
864.691	4489
864.823	4508
864.954	4462
865.086	4497
865.217	4478
865.349	4409
865.48	4478
865.612	4500
865.743	4577
865.875	4470
866.006	4413
866.137	4421
866.269	4417
866.4	4394
866.531	4383
866.662	4333
866.793	4424
866.924	4421
867.055	4485
867.186	4451
867.317	4413
867.448	4413
867.579	4424
867.71	4367
867.841	4363
867.972	4474
868.103	4421
868.233	4428
868.364	4489
868.495	4508
868.625	4664
868.756	4714
868.886	4542
869.017	4611
869.147	4767
869.278	4790
869.408	4683
869.539	4637
869.669	4698
869.799	4653
869.929	4759
870.06	4721
870.19	4972
870.32	4847
870.45	4877
870.58	5014
870.71	5045
870.84	5071
870.97	4934
871.1	4919
871.23	5109
871.36	5140
871.489	4995
871.619	5105
871.749	5105
871.879	5132
872.008	5159
872.138	5041
872.267	4957
872.397	4854
872.526	4752
872.656	4691
872.785	4797
872.915	4995
873.044	5048
873.173	4984
873.303	4946
873.432	4995
873.561	4934
873.69	4850
873.819	4870
873.948	4927
874.077	4778
874.206	4710
874.335	4793
874.464	4881
874.593	5052
874.722	4984
874.851	5056
874.979	5033
875.108	5006
875.237	4900
875.365	4889
875.494	4870
875.623	4968
875.751	4847
875.88	4862
876.008	4991
876.136	5083
876.265	5143
876.393	5353
876.521	5242
876.65	5235
876.778	5117
876.906	5060
877.034	4980
877.162	5025
877.29	4946
877.418	5022
877.546	5014
877.674	5056
877.802	5025
877.93	4976
878.058	4946
878.185	4870
878.313	4972
878.441	4961
878.568	4755
878.696	4828
878.824	4976
878.951	4991
879.079	5140
879.206	5250
879.333	5094
879.461	4991
879.588	4957
879.715	5083
879.842	5212
879.97	4957
880.097	4797
880.224	4714
880.351	4850
880.478	4809
880.605	4809
880.732	4786
880.859	5075
880.986	4877
881.112	4919
881.239	4771
881.366	4649
881.493	4611
881.619	4561
881.746	4622
881.872	4675
881.999	4660
882.125	4675
882.252	4782
882.378	4816
882.505	4953
882.631	4797
882.757	4687
882.883	4744
883.01	4778
883.136	4653
883.262	4611
883.388	4626
883.514	4881
883.64	4908
883.766	4778
883.892	4607
884.018	4729
884.143	4877
884.269	4980
884.395	4634
884.52	4592
884.646	4630
884.772	4596
884.897	4577
885.023	4694
885.148	4771
885.274	4873
885.399	4801
885.524	4691
885.65	4698
885.775	4729
885.9	4702
886.025	4873
886.15	4809
886.275	4687
886.4	4637
886.525	4706
886.65	4683
886.775	4691
886.9	4858
887.025	5018
887.149	4850
887.274	4660
887.399	4603
887.523	4611
887.648	4630
887.773	4588
887.897	4755
888.021	4824
888.146	4664
888.27	4809
888.395	4858
888.519	4797
888.643	4786
888.767	4820
888.891	4683
889.015	4561
889.139	4618
889.263	4603
889.387	4790
889.511	4854
889.635	4744
889.759	4599
889.883	4660
890.006	4672
890.13	4820
890.254	4580
890.377	4683
890.501	4542
890.624	4508
890.748	4637
890.871	4523
890.995	4455
891.118	4379
891.241	4516
891.364	4523
891.488	4637
891.611	4443
891.734	4481
891.857	4561
891.98	4607
892.103	4645
892.226	4611
892.349	4554
892.471	4402
892.594	4485
892.717	4569
892.839	4558
892.962	4558
893.085	4687
893.207	4596
893.33	4424
893.452	4519
893.575	4664
893.697	4599
893.819	4759
893.941	4843
894.064	4759
894.186	4508
894.308	4531
894.43	4729
894.552	4816
894.674	4778
894.796	4538
894.918	4611
895.04	4561
895.161	4706
895.283	4649
895.405	4542
895.526	4607
895.648	4702
895.769	4702
895.891	4744
896.012	4714
896.134	4733
896.255	4675
896.376	4618
896.498	4596
896.619	4679
896.74	4660
896.861	4675
896.982	4942
897.103	5067
897.224	4805
897.345	4752
897.466	4645
897.587	4729
897.708	4790
897.828	4744
897.949	4637
898.07	4523
898.19	4618
898.311	4831
898.431	4660
898.552	4660
898.672	4828
898.792	4790
898.913	4740
899.033	4565
899.153	4485
899.273	4421
899.393	4459
899.513	4546
899.633	4500
899.753	4580
899.873	4508
899.993	4603
900.113	4542
900.232	4527
900.352	4512
900.472	4440
900.591	4379
900.711	4500
900.83	4421
900.95	4649
901.069	4668
901.189	4535
901.308	4367
901.427	4322
901.546	4383
901.665	4447
901.784	4554
901.904	4337
902.023	4341
902.141	4211
902.26	4166
902.379	4310
902.498	4234
902.617	4230
902.735	4367
902.854	4379
902.973	4352
903.091	4181
903.21	4223
903.328	4272
903.446	4310
903.565	4219
903.683	4363
903.801	4268
903.919	4421
904.038	4459
904.156	4344
904.274	4417
904.392	4371
904.51	4451
904.627	4451
904.745	4558
904.863	4611
904.981	4386
905.098	4306
905.216	4367
905.334	4417
905.451	4436
905.569	4386
905.686	4546
905.803	4577
905.921	4367
906.038	4546
906.155	4519
906.272	4390
906.389	4459
906.506	4333
906.623	4371
906.74	4405
906.857	4322
906.974	4329
907.091	4542
907.208	4714
907.324	4596
907.441	4478
907.557	4306
907.674	4337
907.79	4299
907.907	4371
908.023	4459
908.139	4481
908.256	4459
908.372	4481
908.488	4440
908.604	4352
908.72	4303
908.836	4383
908.952	4318
909.068	4413
909.184	4538
909.3	4474
909.415	4577
909.531	4577
909.647	4371
909.762	4363
909.878	4325
909.993	4440
910.108	4356
910.224	4447
910.339	4470
910.454	4413
910.57	4360
910.685	4306
910.8	4653
910.915	4588
911.03	4493
911.145	4303
911.259	4360
911.374	4329
911.489	4253
911.604	4276
911.718	4173
911.833	4207
911.947	4032
912.062	4002
912.176	4192
912.291	4242
912.405	4200
912.519	4443
912.633	4485
912.748	4379
912.862	4280
912.976	4181
913.09	4082
913.204	4185
913.318	4242
913.431	4333
913.545	4390
913.659	4432
913.772	4394
913.886	4276
914	4177
914.113	4375
914.226	4428
914.34	4371
914.453	4238
914.566	4455
914.68	4276
914.793	4322
914.906	4124
915.019	4143
915.132	4063
915.245	4154
915.358	4223
915.47	4230
915.583	4246
915.696	4257
915.809	4447
915.921	4383
916.034	4265
916.146	4246
916.259	4223
916.371	4394
916.483	4329
916.595	4230
916.708	4379
916.82	4291
916.932	4314
917.044	4310
917.156	4272
917.268	4219
917.38	4227
917.491	4238
917.603	4337
917.715	4432
917.826	4455
917.938	4344
918.049	4238
918.161	4371
918.272	4508
918.384	4569
918.495	4417
918.606	4363
918.717	4238
918.828	4291
918.939	4333
919.05	4268
919.161	4303
919.272	4131
919.383	4272
919.494	4462
919.604	4607
919.715	4428
919.826	4322
919.936	4405
920.047	4531
920.157	4504
920.267	4675
920.378	4538
920.488	4481
920.598	4634
920.708	4873
920.818	4748
920.928	4771
921.038	4911
921.148	4919
921.258	4596
921.368	4569
921.477	4489
921.587	4447
921.697	4375
921.806	4531
921.916	4455
922.025	4257
922.134	4325
922.244	4219
922.353	4360
922.462	4158
922.571	4139
922.68	3983
922.789	3972
922.898	3983
923.007	3972
923.116	4067
923.224	4078
923.333	4048
923.442	4006
923.55	3953
923.659	4017
923.767	4078
923.876	4025
923.984	4078
924.092	4002
924.201	4059
924.309	4116
924.417	4078
924.525	4025
924.633	4109
924.741	4892
924.849	3918
924.956	4143
925.064	3956
925.172	3899
925.279	3979
925.387	4025
925.494	4086
925.602	4196
925.709	4150
925.816	4036
925.924	4109
926.031	4204
926.138	4181
926.245	4162
926.352	4105
926.459	4253
926.566	4322
926.673	4166
926.779	4082
926.886	4040
926.993	3899
927.099	3941
927.206	3941
927.312	3937
927.419	4051
927.525	4002
927.631	4093
927.737	3941
927.843	3960
927.95	3831
928.056	3964
928.162	3941
928.267	4048
928.373	4710
928.479	4074
928.585	3823
928.69	4002
928.796	4101
928.901	3956
929.007	3823
929.112	4002
929.218	3941
929.323	3949
929.428	3956
929.533	4105
929.638	3880
929.743	3975
929.848	4048
929.953	4017
930.058	3899
930.163	3778
930.267	3819
930.372	3972
930.477	3808
930.581	4097
930.685	3956
930.79	3797
930.894	3850
930.998	3854
931.103	3994
931.207	3660
931.311	3732
931.415	3671
931.519	3515
931.623	3564
