Data from test_V78500241_225.txt Node
Date: Fri Mar 25 16:50:34 CST 2022
User: usil
Spectrometer: V785-0024
Trigger mode: 0
Integration Time (sec): 4.000000E-1
Scans to average: 1
Nonlinearity correction enabled: false
Boxcar width: 0
Storing dark spectrum: false
XAxis mode: Wavelengths
Number of Pixels in Spectrum: 1024
>>>>>Begin Spectral Data<<<<<
801.071	8107
801.214	7894
801.356	7807
801.499	7849
801.641	7852
801.783	7864
801.926	8031
802.068	7978
802.211	8012
802.353	7986
802.496	7883
802.638	7936
802.78	7970
802.923	7875
803.065	7868
803.208	7879
803.35	7959
803.492	8046
803.635	8225
803.777	7986
803.919	8130
804.061	8419
804.204	8149
804.346	8035
804.488	7967
804.63	8084
804.773	8039
804.915	8039
805.057	8206
805.199	8138
805.341	8233
805.483	8259
805.626	8134
805.768	8088
805.91	8138
806.052	8187
806.194	8115
806.336	8290
806.478	8107
806.62	8073
806.762	8084
806.904	8172
807.046	8511
807.188	8381
807.33	8256
807.472	8221
807.614	8111
807.756	8138
807.898	7986
808.04	7936
808.182	7887
808.324	7913
808.465	7936
808.607	8058
808.749	8119
808.891	8229
809.033	8301
809.174	8252
809.316	8039
809.458	8069
809.6	7947
809.741	8035
809.883	8016
810.025	8058
810.166	8031
810.308	8069
810.45	7982
810.591	7856
810.733	7700
810.875	7696
811.016	7518
811.158	7464
811.299	7639
811.441	7723
811.582	7712
811.724	7529
811.865	7559
812.007	7628
812.148	7590
812.29	7636
812.431	7715
812.573	7883
812.714	8050
812.855	8142
812.997	8240
813.138	8419
813.279	8221
813.421	8096
813.562	7970
813.703	7875
813.845	7818
813.986	7434
814.127	7187
814.268	7255
814.41	7297
814.551	7171
814.692	7183
814.833	7095
814.974	7145
815.115	7114
815.256	6989
815.397	6954
815.539	7000
815.68	6810
815.821	6821
815.962	6859
816.103	6798
816.244	6753
816.385	6582
816.526	6684
816.666	6494
816.807	6353
816.948	6483
817.089	6490
817.23	6437
817.371	6342
817.512	6346
817.653	6410
817.793	6384
817.934	6399
818.075	6486
818.216	6418
818.356	6422
818.497	6300
818.638	6175
818.778	6106
818.919	6155
819.06	6140
819.2	6384
819.341	6308
819.481	6384
819.622	6486
819.762	6677
819.903	6658
820.043	6593
820.184	6574
820.324	6578
820.465	6574
820.605	6715
820.746	6639
820.886	6483
821.026	6623
821.167	6696
821.307	6840
821.447	6814
821.588	6662
821.728	6555
821.868	6475
822.008	6308
822.149	6331
822.289	6350
822.429	6114
822.569	6083
822.709	6148
822.849	5965
822.99	5851
823.13	5954
823.27	5912
823.41	5832
823.55	5859
823.69	5813
823.83	5786
823.97	5688
824.11	5585
824.25	5554
824.389	5585
824.529	5592
824.669	5551
824.809	5634
824.949	5672
825.089	5596
825.228	5566
825.368	5448
825.508	5334
825.648	5364
825.787	5376
825.927	5364
826.067	5345
826.206	5284
826.346	5326
826.485	5406
826.625	5425
826.765	5551
826.904	5509
827.044	5296
827.183	5212
827.323	5102
827.462	5227
827.601	5162
827.741	5174
827.88	5181
828.02	5113
828.159	5269
828.298	5303
828.437	5406
828.577	5299
828.716	5520
828.855	5345
828.994	5204
829.134	5155
829.273	5239
829.412	5117
829.551	5181
829.69	5132
829.829	5269
829.968	5372
830.107	5292
830.246	5273
830.385	5208
830.524	5079
830.663	5102
830.802	4999
830.941	4904
831.08	4862
831.219	5006
831.357	5006
831.496	5178
831.635	4946
831.774	4892
831.913	4862
832.051	4721
832.19	4790
832.329	4752
832.467	4683
832.606	4634
832.744	4736
832.883	4717
833.022	4691
833.16	4812
833.299	4809
833.437	4790
833.576	4774
833.714	4900
833.852	4896
833.991	4930
834.129	4957
834.267	4976
834.406	4927
834.544	5022
834.682	4991
834.821	4995
834.959	5143
835.097	5014
835.235	5166
835.373	5071
835.511	5132
835.65	5025
835.788	5018
835.926	4938
836.064	4892
836.202	4961
836.34	5166
836.478	5162
836.615	5166
836.753	5201
836.891	5280
837.029	5288
837.167	5166
837.305	5170
837.443	5174
837.58	5109
837.718	5303
837.856	5227
837.993	5166
838.131	5261
838.269	5246
838.406	5231
838.544	5208
838.681	5083
838.819	4991
838.956	4877
839.094	4900
839.231	4976
839.369	5064
839.506	5440
839.643	5303
839.781	5140
839.918	4995
840.055	5098
840.193	5136
840.33	5109
840.467	5159
840.604	5166
840.742	5444
840.879	5060
841.016	5109
841.153	5185
841.29	5414
841.427	5379
841.564	5315
841.701	5372
841.838	5296
841.975	5208
842.112	5292
842.249	5094
842.385	5048
842.522	5299
842.659	5212
842.796	5185
842.933	5220
843.069	5212
843.206	5155
843.343	5258
843.479	5235
843.616	5292
843.752	5010
843.889	5018
844.025	5197
844.162	5079
844.298	5235
844.435	5067
844.571	5075
844.708	5208
844.844	5265
844.98	5395
845.117	5315
845.253	5147
845.389	5117
845.525	5178
845.661	5147
845.798	5056
845.934	5121
846.07	5060
846.206	5239
846.342	5269
846.478	5242
846.614	5006
846.75	4976
846.886	4949
847.022	5136
847.158	5003
847.294	5060
847.429	5113
847.565	5064
847.701	5322
847.837	4866
847.972	4854
848.108	5003
848.244	4980
848.379	4755
848.515	4691
848.65	4706
848.786	4763
848.921	4805
849.057	4908
849.192	4824
849.328	4870
849.463	4858
849.598	4812
849.734	4721
849.869	4698
850.004	4622
850.14	4660
850.275	4626
850.41	4558
850.545	4607
850.68	4645
850.815	4668
850.95	4668
851.085	4870
851.22	4755
851.355	4694
851.49	4634
851.625	4637
851.76	4675
851.895	4599
852.03	4584
852.165	4653
852.299	4755
852.434	4763
852.569	4736
852.703	4748
852.838	4900
852.973	4934
853.107	4946
853.242	4748
853.376	4694
853.511	4615
853.645	4607
853.78	4828
853.914	4641
854.048	4641
854.183	4660
854.317	4660
854.451	4843
854.585	4694
854.72	4653
854.854	4778
854.988	4653
855.122	4603
855.256	4580
855.39	4710
855.524	4797
855.658	4714
855.792	4717
855.926	4714
856.06	4771
856.194	4843
856.327	4706
856.461	4660
856.595	4584
856.729	4672
856.862	4740
856.996	4694
857.13	4698
857.263	4763
857.397	4812
857.53	4679
857.664	4790
857.797	4736
857.931	4820
858.064	4706
858.197	4755
858.331	4637
858.464	4618
858.597	4516
858.731	4634
858.864	4649
858.997	4573
859.13	4611
859.263	4694
859.396	4706
859.529	4615
859.662	4596
859.795	4531
859.928	4672
860.061	4790
860.194	4752
860.327	4637
860.46	4611
860.592	4710
860.725	4782
860.858	4675
860.99	4573
861.123	4546
861.256	4493
861.388	4611
861.521	5379
861.653	4485
861.786	4447
861.918	4462
862.05	4523
862.183	4535
862.315	4618
862.447	4672
862.58	4577
862.712	4356
862.844	4371
862.976	4478
863.108	4462
863.24	4839
863.372	4360
863.504	4428
863.636	4428
863.768	4512
863.9	4413
864.032	4371
864.164	4440
864.296	4493
864.428	4577
864.559	4592
864.691	4516
864.823	4577
864.954	4485
865.086	4470
865.217	4485
865.349	4394
865.48	4462
865.612	4493
865.743	4653
865.875	4466
866.006	4443
866.137	4462
866.269	4451
866.4	4409
866.531	4432
866.662	4398
866.793	4367
866.924	4459
867.055	4527
867.186	4459
867.317	4375
867.448	4352
867.579	4402
867.71	4428
867.841	4405
867.972	4504
868.103	4478
868.233	4478
868.364	4481
868.495	4516
868.625	4691
868.756	4755
868.886	4558
869.017	4641
869.147	4767
869.278	4748
869.408	4660
869.539	4641
869.669	4698
869.799	4691
869.929	4801
870.06	4759
870.19	4953
870.32	4923
870.45	4965
870.58	5014
870.71	5102
870.84	5071
870.97	4987
871.1	4919
871.23	5124
871.36	5151
871.489	5060
871.619	5071
871.749	5075
871.879	5102
872.008	5216
872.138	5071
872.267	4987
872.397	4877
872.526	4793
872.656	4702
872.785	4790
872.915	4965
873.044	5048
873.173	4934
873.303	4984
873.432	4995
873.561	4904
873.69	4854
873.819	4889
873.948	4892
874.077	4805
874.206	4809
874.335	4812
874.464	4938
874.593	5045
874.722	4976
874.851	5094
874.979	5067
875.108	5056
875.237	4927
875.365	4915
875.494	4839
875.623	4987
875.751	4782
875.88	4885
876.008	4999
876.136	4965
876.265	5189
876.393	5345
876.521	5197
876.65	5212
876.778	5136
876.906	5071
877.034	5025
877.162	5079
877.29	5010
877.418	5079
877.546	5064
877.674	5075
877.802	4999
877.93	4968
878.058	4949
878.185	4934
878.313	4957
878.441	4961
878.568	4782
878.696	4866
878.824	4953
878.951	5025
879.079	5162
879.206	5250
879.333	5090
879.461	5003
879.588	5025
879.715	5094
879.842	5227
879.97	4995
880.097	4839
880.224	4752
880.351	4759
880.478	4862
880.605	4786
880.732	4752
880.859	5128
880.986	4927
881.112	4927
881.239	4820
881.366	4656
881.493	4599
881.619	4580
881.746	4607
881.872	4672
881.999	4675
882.125	4694
882.252	4793
882.378	4866
882.505	4953
882.631	4782
882.757	4679
882.883	4714
883.01	4717
883.136	4687
883.262	4649
883.388	4664
883.514	4858
883.64	4873
883.766	4786
883.892	4687
884.018	4805
884.143	4881
884.269	5056
884.395	4717
884.52	4641
884.646	4645
884.772	4588
884.897	4588
885.023	4710
885.148	4778
885.274	4866
885.399	4843
885.524	4710
885.65	4717
885.775	4736
885.9	4721
886.025	4885
886.15	4771
886.275	4725
886.4	4702
886.525	4691
886.65	4740
886.775	4729
886.9	4930
887.025	5086
887.149	4771
887.274	4656
887.399	4603
887.523	4542
887.648	4584
887.773	4630
887.897	4824
888.021	4820
888.146	4721
888.27	4820
888.395	4934
888.519	4763
888.643	4843
888.767	4805
888.891	4664
889.015	4634
889.139	4649
889.263	4561
889.387	4774
889.511	4847
889.635	4790
889.759	4649
889.883	4653
890.006	4744
890.13	4824
890.254	4683
890.377	4691
890.501	4580
890.624	4531
890.748	4618
890.871	4481
890.995	4428
891.118	4421
891.241	4538
891.364	4527
891.488	4622
891.611	4546
891.734	4531
891.857	4569
891.98	4607
892.103	4660
892.226	4603
892.349	4550
892.471	4390
892.594	4558
892.717	4607
892.839	4573
892.962	4607
893.085	4622
893.207	4603
893.33	4481
893.452	4569
893.575	4634
893.697	4611
893.819	4843
893.941	4831
894.064	4744
894.186	4588
894.308	4565
894.43	4744
894.552	4797
894.674	4820
894.796	4599
894.918	4588
895.04	4599
895.161	4710
895.283	4687
895.405	4580
895.526	4641
895.648	4683
895.769	4702
895.891	4687
896.012	4733
896.134	4717
896.255	4702
896.376	4634
896.498	4626
896.619	4694
896.74	4592
896.861	4611
896.982	4919
897.103	5102
897.224	4824
897.345	4767
897.466	4691
897.587	4698
897.708	4885
897.828	4763
897.949	4694
898.07	4535
898.19	4637
898.311	4850
898.431	4698
898.552	4767
898.672	4824
898.792	4839
898.913	4748
899.033	4679
899.153	4497
899.273	4432
899.393	4497
899.513	4500
899.633	4531
899.753	4580
899.873	4573
899.993	4554
900.113	4538
900.232	4603
900.352	4546
900.472	4546
900.591	4432
900.711	4546
900.83	4424
900.95	4615
901.069	4668
901.189	4504
901.308	4447
901.427	4363
901.546	4413
901.665	4489
901.784	4478
901.904	4405
902.023	4325
902.141	4246
902.26	4188
902.379	4310
902.498	4227
902.617	4268
902.735	4337
902.854	4409
902.973	4325
903.091	4230
903.21	4211
903.328	4314
903.446	4284
903.565	4284
903.683	4386
903.801	4295
903.919	4428
904.038	4451
904.156	4325
904.274	4424
904.392	4386
904.51	4417
904.627	4451
904.745	4531
904.863	4618
904.981	4436
905.098	4299
905.216	4367
905.334	4466
905.451	4432
905.569	4436
905.686	4584
905.803	4573
905.921	4447
906.038	4535
906.155	4497
906.272	4462
906.389	4531
906.506	4329
906.623	4386
906.74	4390
906.857	4360
906.974	4371
907.091	4573
907.208	4702
907.324	4615
907.441	4508
907.557	4367
907.674	4337
907.79	4322
907.907	4394
908.023	4466
908.139	4451
908.256	4398
908.372	4478
908.488	4459
908.604	4341
908.72	4341
908.836	4383
908.952	4379
909.068	4421
909.184	4607
909.3	4474
909.415	4584
909.531	4603
909.647	4424
909.762	4363
909.878	4322
909.993	4402
910.108	4440
910.224	4417
910.339	4519
910.454	4367
910.57	4379
910.685	4306
910.8	4630
910.915	4607
911.03	4519
911.145	4303
911.259	4322
911.374	4371
911.489	4268
911.604	4249
911.718	4200
911.833	4242
911.947	4097
912.062	4051
912.176	4291
912.291	4291
912.405	4246
912.519	4493
912.633	4500
912.748	4367
912.862	4299
912.976	4192
913.09	4086
913.204	4173
913.318	4211
913.431	4375
913.545	4367
913.659	4375
913.772	4405
913.886	4238
914	4196
914.113	4386
914.226	4428
914.34	4379
914.453	4280
914.566	4432
914.68	4352
914.793	4337
914.906	4204
915.019	4177
915.132	4074
915.245	4177
915.358	4219
915.47	4257
915.583	4287
915.696	4352
915.809	4383
915.921	4428
916.034	4207
916.146	4272
916.259	4234
916.371	4428
916.483	4413
916.595	4238
916.708	4310
916.82	4352
916.932	4363
917.044	4398
917.156	4318
917.268	4303
917.38	4299
917.491	4295
917.603	4352
917.715	4421
917.826	4428
917.938	4398
918.049	4249
918.161	4424
918.272	4474
918.384	4565
918.495	4440
918.606	4314
918.717	4291
918.828	4352
918.939	4363
919.05	4276
919.161	4341
919.272	4147
919.383	4257
919.494	4451
919.604	4683
919.715	4466
919.826	4314
919.936	4424
920.047	4489
920.157	4493
920.267	4733
920.378	4535
920.488	4466
920.598	4729
920.708	4949
920.818	4755
920.928	4793
921.038	4972
921.148	4949
921.258	4645
921.368	4569
921.477	4489
921.587	4424
921.697	4417
921.806	4565
921.916	4432
922.025	4261
922.134	4268
922.244	4211
922.353	4306
922.462	4211
922.571	4154
922.68	4006
922.789	3972
922.898	4055
923.007	3998
923.116	4090
923.224	4116
923.333	4116
923.442	3998
923.55	3972
923.659	4021
923.767	4090
923.876	3979
923.984	4143
924.092	4044
924.201	4059
924.309	4143
924.417	4124
924.525	4071
924.633	4116
924.741	5060
924.849	3949
924.956	4158
925.064	3979
925.172	3903
925.279	4013
925.387	4086
925.494	4040
925.602	4219
925.709	4185
925.816	4051
925.924	4147
926.031	4207
926.138	4257
926.245	4196
926.352	4082
926.459	4268
926.566	4314
926.673	4158
926.779	4139
926.886	4086
926.993	4006
927.099	3998
927.206	3926
927.312	3953
927.419	4078
927.525	4078
927.631	4135
927.737	3949
927.843	3960
927.95	3838
928.056	3930
928.162	3991
928.267	4044
928.373	4630
928.479	4135
928.585	3888
928.69	4032
928.796	4090
928.901	3968
929.007	3918
929.112	4025
929.218	3983
929.323	4002
929.428	4017
929.533	4109
929.638	3884
929.743	4010
929.848	4032
929.953	3998
930.058	3960
930.163	3785
930.267	3869
930.372	3979
930.477	3846
930.581	4055
930.685	3964
930.79	3789
930.894	3892
930.998	3850
931.103	4006
931.207	3705
931.311	3679
931.415	3675
931.519	3500
931.623	3576
