Data from test_V78500241_374.txt Node
Date: Fri Mar 25 16:51:36 CST 2022
User: usil
Spectrometer: V785-0024
Trigger mode: 0
Integration Time (sec): 4.000000E-1
Scans to average: 1
Nonlinearity correction enabled: false
Boxcar width: 0
Storing dark spectrum: false
XAxis mode: Wavelengths
Number of Pixels in Spectrum: 1024
>>>>>Begin Spectral Data<<<<<
801.071	8134
801.214	8020
801.356	7955
801.499	7917
801.641	7909
801.783	7909
801.926	7967
802.068	8001
802.211	8016
802.353	8035
802.496	7902
802.638	7898
802.78	7978
802.923	7947
803.065	7902
803.208	7909
803.35	7936
803.492	8092
803.635	8164
803.777	8012
803.919	8088
804.061	8495
804.204	8168
804.346	8054
804.488	8016
804.63	8202
804.773	8024
804.915	8149
805.057	8317
805.199	8164
805.341	8187
805.483	8290
805.626	8221
805.768	8043
805.91	8161
806.052	8229
806.194	8134
806.336	8233
806.478	8214
806.62	8134
806.762	8240
806.904	8294
807.046	8545
807.188	8404
807.33	8324
807.472	8377
807.614	8180
807.756	8123
807.898	7978
808.04	7841
808.182	7989
808.324	7913
808.465	7978
808.607	8145
808.749	8176
808.891	8214
809.033	8374
809.174	8218
809.316	8119
809.458	8062
809.6	7970
809.741	8008
809.883	8073
810.025	8164
810.166	8123
810.308	8100
810.45	8107
810.591	7921
810.733	7811
810.875	7670
811.016	7533
811.158	7544
811.299	7708
811.441	7807
811.582	7727
811.724	7670
811.865	7586
812.007	7715
812.148	7597
812.29	7639
812.431	7845
812.573	7970
812.714	8046
812.855	8168
812.997	8191
813.138	8343
813.279	8206
813.421	8092
813.562	8119
813.703	7902
813.845	7776
813.986	7567
814.127	7415
814.268	7331
814.41	7240
814.551	7225
814.692	7202
814.833	7156
814.974	7114
815.115	7114
815.256	6935
815.397	6905
815.539	6951
815.68	6825
815.821	6821
815.962	6890
816.103	6894
816.244	6760
816.385	6639
816.526	6608
816.666	6597
816.807	6327
816.948	6502
817.089	6525
817.23	6525
817.371	6479
817.512	6395
817.653	6437
817.793	6433
817.934	6452
818.075	6448
818.216	6498
818.356	6426
818.497	6296
818.638	6167
818.778	6110
818.919	6178
819.06	6148
819.2	6342
819.341	6357
819.481	6342
819.622	6563
819.762	6730
819.903	6741
820.043	6601
820.184	6658
820.324	6635
820.465	6696
820.605	6730
820.746	6646
820.886	6506
821.026	6696
821.167	6753
821.307	6753
821.447	6787
821.588	6684
821.728	6673
821.868	6578
822.008	6445
822.149	6395
822.289	6407
822.429	6159
822.569	6125
822.709	6167
822.849	5958
822.99	5927
823.13	5977
823.27	5961
823.41	5809
823.55	5828
823.69	5885
823.83	5802
823.97	5703
824.11	5585
824.25	5539
824.389	5589
824.529	5653
824.669	5562
824.809	5653
824.949	5661
825.089	5577
825.228	5562
825.368	5402
825.508	5330
825.648	5383
825.787	5448
825.927	5452
826.067	5330
826.206	5353
826.346	5391
826.485	5471
826.625	5368
826.765	5596
826.904	5497
827.044	5235
827.183	5185
827.323	5170
827.462	5250
827.601	5227
827.741	5181
827.88	5258
828.02	5113
828.159	5296
828.298	5337
828.437	5379
828.577	5269
828.716	5490
828.855	5368
828.994	5193
829.134	5216
829.273	5216
829.412	5155
829.551	5128
829.69	5178
829.829	5239
829.968	5421
830.107	5265
830.246	5368
830.385	5208
830.524	5204
830.663	5102
830.802	4972
830.941	4873
831.08	4927
831.219	5033
831.357	4972
831.496	5178
831.635	4961
831.774	4847
831.913	4873
832.051	4736
832.19	4793
832.329	4866
832.467	4714
832.606	4630
832.744	4744
832.883	4767
833.022	4771
833.16	4831
833.299	4793
833.437	4805
833.576	4881
833.714	4896
833.852	4900
833.991	4911
834.129	4972
834.267	4980
834.406	4953
834.544	5010
834.682	5022
834.821	5003
834.959	5204
835.097	4968
835.235	5147
835.373	5083
835.511	5124
835.65	5045
835.788	5075
835.926	4965
836.064	4919
836.202	4885
836.34	5166
836.478	5288
836.615	5083
836.753	5201
836.891	5254
837.029	5242
837.167	5212
837.305	5166
837.443	5121
837.58	5071
837.718	5254
837.856	5162
837.993	5151
838.131	5250
838.269	5258
838.406	5227
838.544	5220
838.681	5056
838.819	5067
838.956	4957
839.094	4934
839.231	5018
839.369	5037
839.506	5463
839.643	5265
839.781	5029
839.918	5029
840.055	5098
840.193	5155
840.33	5102
840.467	5197
840.604	5170
840.742	5501
840.879	5124
841.016	5086
841.153	5147
841.29	5372
841.427	5360
841.564	5341
841.701	5368
841.838	5315
841.975	5250
842.112	5269
842.249	5197
842.385	5155
842.522	5379
842.659	5162
842.796	5140
842.933	5254
843.069	5136
843.206	5143
843.343	5337
843.479	5235
843.616	5277
843.752	5060
843.889	5052
844.025	5235
844.162	5064
844.298	5227
844.435	5105
844.571	5121
844.708	5201
844.844	5284
844.98	5364
845.117	5337
845.253	5174
845.389	5117
845.525	5170
845.661	5143
845.798	5105
845.934	5143
846.07	5003
846.206	5208
846.342	5322
846.478	5223
846.614	5041
846.75	5029
846.886	4915
847.022	5124
847.158	5025
847.294	5102
847.429	5121
847.565	5045
847.701	5322
847.837	4854
847.972	4805
848.108	4911
848.244	4965
848.379	4763
848.515	4778
848.65	4729
848.786	4748
848.921	4801
849.057	4858
849.192	4904
849.328	4793
849.463	4908
849.598	4793
849.734	4801
849.869	4691
850.004	4675
850.14	4714
850.275	4603
850.41	4497
850.545	4618
850.68	4607
850.815	4683
850.95	4645
851.085	4835
851.22	4748
851.355	4698
851.49	4615
851.625	4641
851.76	4607
851.895	4596
852.03	4531
852.165	4618
852.299	4729
852.434	4767
852.569	4740
852.703	4786
852.838	4843
852.973	4930
853.107	4896
853.242	4748
853.376	4694
853.511	4588
853.645	4588
853.78	4839
853.914	4714
854.048	4660
854.183	4634
854.317	4702
854.451	4809
854.585	4675
854.72	4702
854.854	4767
854.988	4588
855.122	4649
855.256	4565
855.39	4710
855.524	4755
855.658	4717
855.792	4725
855.926	4717
856.06	4763
856.194	4805
856.327	4706
856.461	4656
856.595	4588
856.729	4615
856.862	4755
856.996	4687
857.13	4797
857.263	4752
857.397	4843
857.53	4668
857.664	4805
857.797	4748
857.931	4786
858.064	4668
858.197	4748
858.331	4653
858.464	4584
858.597	4535
858.731	4649
858.864	4694
858.997	4615
859.13	4649
859.263	4653
859.396	4698
859.529	4584
859.662	4569
859.795	4561
859.928	4649
860.061	4767
860.194	4744
860.327	4607
860.46	4611
860.592	4698
860.725	4759
860.858	4744
860.99	4565
861.123	4546
861.256	4535
861.388	4630
861.521	5357
861.653	4485
861.786	4455
861.918	4455
862.05	4489
862.183	4580
862.315	4611
862.447	4622
862.58	4554
862.712	4390
862.844	4356
862.976	4455
863.108	4481
863.24	4801
863.372	4352
863.504	4428
863.636	4417
863.768	4516
863.9	4405
864.032	4375
864.164	4383
864.296	4478
864.428	4508
864.559	4558
864.691	4565
864.823	4516
864.954	4504
865.086	4504
865.217	4455
865.349	4459
865.48	4470
865.612	4508
865.743	4607
865.875	4466
866.006	4447
866.137	4451
866.269	4443
866.4	4443
866.531	4386
866.662	4394
866.793	4447
866.924	4436
867.055	4516
867.186	4459
867.317	4398
867.448	4360
867.579	4428
867.71	4451
867.841	4341
867.972	4519
868.103	4466
868.233	4459
868.364	4466
868.495	4508
868.625	4660
868.756	4801
868.886	4596
869.017	4649
869.147	4812
869.278	4721
869.408	4656
869.539	4675
869.669	4710
869.799	4660
869.929	4744
870.06	4729
870.19	4961
870.32	4976
870.45	4934
870.58	4976
870.71	5102
870.84	5098
870.97	5003
871.1	4892
871.23	5136
871.36	5162
871.489	5018
871.619	5064
871.749	5086
871.879	5140
872.008	5204
872.138	5105
872.267	4976
872.397	4892
872.526	4870
872.656	4759
872.785	4843
872.915	4923
873.044	5048
873.173	4934
873.303	4987
873.432	4930
873.561	4953
873.69	4927
873.819	4843
873.948	4873
874.077	4847
874.206	4793
874.335	4812
874.464	4870
874.593	5128
874.722	4995
874.851	5098
874.979	5056
875.108	5121
875.237	4953
875.365	4889
875.494	4927
875.623	4946
875.751	4831
875.88	4862
876.008	5010
876.136	5041
876.265	5254
876.393	5299
876.521	5254
876.65	5239
876.778	5189
876.906	5102
877.034	5006
877.162	5052
877.29	5033
877.418	5086
877.546	5056
877.674	5056
877.802	5045
877.93	5060
878.058	4946
878.185	4870
878.313	4972
878.441	4972
878.568	4812
878.696	4873
878.824	5060
878.951	5052
879.079	5140
879.206	5292
879.333	5121
879.461	5025
879.588	4995
879.715	5132
879.842	5239
879.97	5018
880.097	4778
880.224	4771
880.351	4816
880.478	4877
880.605	4843
880.732	4774
880.859	5098
880.986	4923
881.112	4934
881.239	4793
881.366	4725
881.493	4645
881.619	4603
881.746	4637
881.872	4645
881.999	4710
882.125	4744
882.252	4786
882.378	4812
882.505	4946
882.631	4824
882.757	4672
882.883	4706
883.01	4725
883.136	4721
883.262	4611
883.388	4588
883.514	4824
883.64	4847
883.766	4809
883.892	4668
884.018	4763
884.143	4889
884.269	5022
884.395	4721
884.52	4637
884.646	4679
884.772	4554
884.897	4554
885.023	4691
885.148	4790
885.274	4896
885.399	4801
885.524	4729
885.65	4668
885.775	4763
885.9	4717
886.025	4850
886.15	4805
886.275	4740
886.4	4694
886.525	4733
886.65	4679
886.775	4733
886.9	4889
887.025	5025
887.149	4843
887.274	4675
887.399	4588
887.523	4607
887.648	4561
887.773	4584
887.897	4733
888.021	4778
888.146	4679
888.27	4786
888.395	4881
888.519	4831
888.643	4881
888.767	4858
888.891	4626
889.015	4607
889.139	4653
889.263	4592
889.387	4790
889.511	4881
889.635	4771
889.759	4607
889.883	4611
890.006	4740
890.13	4805
890.254	4668
890.377	4736
890.501	4573
890.624	4538
890.748	4634
890.871	4443
890.995	4428
891.118	4413
891.241	4516
891.364	4558
891.488	4656
891.611	4462
891.734	4538
891.857	4615
891.98	4584
892.103	4641
892.226	4641
892.349	4512
892.471	4409
892.594	4565
892.717	4596
892.839	4592
892.962	4618
893.085	4687
893.207	4653
893.33	4466
893.452	4516
893.575	4653
893.697	4618
893.819	4767
893.941	4820
894.064	4752
894.186	4577
894.308	4546
894.43	4721
894.552	4835
894.674	4774
894.796	4561
894.918	4634
895.04	4558
895.161	4755
895.283	4706
895.405	4653
895.526	4618
895.648	4660
895.769	4668
895.891	4736
896.012	4702
896.134	4771
896.255	4664
896.376	4649
896.498	4637
896.619	4717
896.74	4626
896.861	4607
896.982	4942
897.103	5102
897.224	4843
897.345	4710
897.466	4664
897.587	4774
897.708	4850
897.828	4782
897.949	4672
898.07	4580
898.19	4622
898.311	4835
898.431	4702
898.552	4755
898.672	4862
898.792	4790
898.913	4778
899.033	4630
899.153	4500
899.273	4424
899.393	4489
899.513	4500
899.633	4531
899.753	4565
899.873	4561
899.993	4630
900.113	4474
900.232	4558
900.352	4512
900.472	4542
900.591	4421
900.711	4512
900.83	4417
900.95	4599
901.069	4691
901.189	4538
901.308	4367
901.427	4306
901.546	4413
901.665	4459
901.784	4542
901.904	4398
902.023	4348
902.141	4192
902.26	4150
902.379	4318
902.498	4257
902.617	4200
902.735	4386
902.854	4417
902.973	4367
903.091	4249
903.21	4284
903.328	4291
903.446	4287
903.565	4249
903.683	4371
903.801	4261
903.919	4360
904.038	4455
904.156	4299
904.274	4451
904.392	4379
904.51	4398
904.627	4459
904.745	4577
904.863	4611
904.981	4398
905.098	4341
905.216	4379
905.334	4421
905.451	4413
905.569	4451
905.686	4577
905.803	4554
905.921	4459
906.038	4577
906.155	4432
906.272	4424
906.389	4466
906.506	4310
906.623	4367
906.74	4394
906.857	4318
906.974	4421
907.091	4599
907.208	4664
907.324	4592
907.441	4455
907.557	4341
907.674	4371
907.79	4341
907.907	4436
908.023	4478
908.139	4535
908.256	4417
908.372	4523
908.488	4405
908.604	4363
908.72	4295
908.836	4360
908.952	4363
909.068	4447
909.184	4599
909.3	4538
909.415	4569
909.531	4554
909.647	4356
909.762	4360
909.878	4356
909.993	4455
910.108	4409
910.224	4417
910.339	4519
910.454	4432
910.57	4360
910.685	4367
910.8	4641
910.915	4580
911.03	4519
911.145	4295
911.259	4363
911.374	4363
911.489	4325
911.604	4268
911.718	4196
911.833	4181
911.947	4059
912.062	4055
912.176	4234
912.291	4257
912.405	4257
912.519	4462
912.633	4569
912.748	4405
912.862	4303
912.976	4166
913.09	4124
913.204	4196
913.318	4268
913.431	4379
913.545	4371
913.659	4451
913.772	4428
913.886	4284
914	4223
914.113	4402
914.226	4432
914.34	4386
914.453	4272
914.566	4447
914.68	4337
914.793	4322
914.906	4196
915.019	4139
915.132	4090
915.245	4150
915.358	4249
915.47	4223
915.583	4249
915.696	4257
915.809	4428
915.921	4440
916.034	4291
916.146	4291
916.259	4268
916.371	4363
916.483	4360
916.595	4265
916.708	4344
916.82	4356
916.932	4325
917.044	4360
917.156	4295
917.268	4200
917.38	4280
917.491	4280
917.603	4333
917.715	4447
917.826	4436
917.938	4383
918.049	4257
918.161	4459
918.272	4558
918.384	4573
918.495	4493
918.606	4310
918.717	4238
918.828	4318
918.939	4390
919.05	4253
919.161	4360
919.272	4143
919.383	4268
919.494	4424
919.604	4664
919.715	4462
919.826	4371
919.936	4371
920.047	4546
920.157	4508
920.267	4717
920.378	4550
920.488	4535
920.598	4736
920.708	4946
920.818	4793
920.928	4763
921.038	4946
921.148	4953
921.258	4618
921.368	4546
921.477	4523
921.587	4478
921.697	4398
921.806	4523
921.916	4447
922.025	4287
922.134	4276
922.244	4234
922.353	4375
922.462	4166
922.571	4071
922.68	4021
922.789	3937
922.898	4032
923.007	3991
923.116	4128
923.224	4067
923.333	4078
923.442	4006
923.55	4017
923.659	4051
923.767	4071
923.876	3975
923.984	4143
924.092	4036
924.201	4082
924.309	4120
924.417	4147
924.525	4063
924.633	4112
924.741	4900
924.849	3975
924.956	4097
925.064	3968
925.172	3899
925.279	4025
925.387	4101
925.494	4101
925.602	4249
925.709	4185
925.816	4055
925.924	4112
926.031	4211
926.138	4188
926.245	4246
926.352	4112
926.459	4284
926.566	4284
926.673	4169
926.779	4101
926.886	4086
926.993	3991
927.099	3956
927.206	3934
927.312	3983
927.419	4025
927.525	4059
927.631	4131
927.737	3937
927.843	3941
927.95	3865
928.056	3968
928.162	4017
928.267	4112
928.373	4694
928.479	4158
928.585	3880
928.69	3991
928.796	4074
928.901	3968
929.007	3823
929.112	4002
929.218	4002
929.323	3960
929.428	3964
929.533	4116
929.638	3880
929.743	3956
929.848	4086
929.953	4055
930.058	3884
930.163	3781
930.267	3819
930.372	3956
930.477	3759
930.581	4093
930.685	3930
930.79	3842
930.894	3876
930.998	3876
931.103	4055
931.207	3717
931.311	3698
931.415	3671
931.519	3549
931.623	3526
