Data from test_V78500241_477.txt Node
Date: Fri Mar 25 16:52:19 CST 2022
User: usil
Spectrometer: V785-0024
Trigger mode: 0
Integration Time (sec): 4.000000E-1
Scans to average: 1
Nonlinearity correction enabled: false
Boxcar width: 0
Storing dark spectrum: false
XAxis mode: Wavelengths
Number of Pixels in Spectrum: 1024
>>>>>Begin Spectral Data<<<<<
801.071	8001
801.214	8039
801.356	7890
801.499	7845
801.641	7776
801.783	7868
801.926	8046
802.068	7993
802.211	7986
802.353	7967
802.496	7894
802.638	7849
802.78	7856
802.923	7940
803.065	7932
803.208	7788
803.35	7959
803.492	7982
803.635	8073
803.777	7944
803.919	8145
804.061	8415
804.204	8062
804.346	7997
804.488	7925
804.63	8058
804.773	7978
804.915	8123
805.057	8244
805.199	8111
805.341	8233
805.483	8286
805.626	8123
805.768	8005
805.91	8088
806.052	8225
806.194	8027
806.336	8294
806.478	8111
806.62	8084
806.762	8134
806.904	8263
807.046	8393
807.188	8248
807.33	8282
807.472	8206
807.614	8084
807.756	8119
807.898	8008
808.04	7936
808.182	7883
808.324	7902
808.465	7894
808.607	8088
808.749	8081
808.891	8176
809.033	8240
809.174	8142
809.316	8046
809.458	8046
809.6	8001
809.741	7997
809.883	8001
810.025	8084
810.166	8058
810.308	8005
810.45	8081
810.591	7898
810.733	7750
810.875	7685
811.016	7510
811.158	7506
811.299	7647
811.441	7742
811.582	7731
811.724	7605
811.865	7571
812.007	7628
812.148	7590
812.29	7590
812.431	7696
812.573	7909
812.714	7978
812.855	8206
812.997	8225
813.138	8377
813.279	8298
813.421	8134
813.562	8092
813.703	7909
813.845	7837
813.986	7552
814.127	7358
814.268	7316
814.41	7217
814.551	7126
814.692	7194
814.833	7065
814.974	7114
815.115	7198
815.256	7027
815.397	6920
815.539	6916
815.68	6875
815.821	6791
815.962	6856
816.103	6829
816.244	6734
816.385	6612
816.526	6608
816.666	6532
816.807	6372
816.948	6509
817.089	6441
817.23	6433
817.371	6384
817.512	6410
817.653	6445
817.793	6391
817.934	6429
818.075	6414
818.216	6441
818.356	6395
818.497	6235
818.638	6095
818.778	6213
818.919	6136
819.06	6125
819.2	6300
819.341	6304
819.481	6331
819.622	6513
819.762	6734
819.903	6715
820.043	6585
820.184	6570
820.324	6612
820.465	6627
820.605	6646
820.746	6612
820.886	6506
821.026	6669
821.167	6745
821.307	6787
821.447	6734
821.588	6662
821.728	6498
821.868	6479
822.008	6315
822.149	6384
822.289	6304
822.429	6148
822.569	6057
822.709	6064
822.849	5969
822.99	5874
823.13	5946
823.27	5935
823.41	5817
823.55	5828
823.69	5733
823.83	5824
823.97	5638
824.11	5577
824.25	5505
824.389	5535
824.529	5596
824.669	5558
824.809	5638
824.949	5680
825.089	5596
825.228	5547
825.368	5379
825.508	5398
825.648	5337
825.787	5326
825.927	5364
826.067	5341
826.206	5330
826.346	5372
826.485	5334
826.625	5417
826.765	5524
826.904	5436
827.044	5242
827.183	5128
827.323	5140
827.462	5258
827.601	5174
827.741	5189
827.88	5239
828.02	5090
828.159	5178
828.298	5299
828.437	5368
828.577	5242
828.716	5440
828.855	5269
828.994	5136
829.134	5143
829.273	5166
829.412	5162
829.551	5159
829.69	5166
829.829	5223
829.968	5379
830.107	5307
830.246	5223
830.385	5193
830.524	5113
830.663	5052
830.802	4999
830.941	4889
831.08	4843
831.219	4972
831.357	4995
831.496	5121
831.635	4911
831.774	4877
831.913	4831
832.051	4793
832.19	4786
832.329	4870
832.467	4694
832.606	4675
832.744	4717
832.883	4687
833.022	4710
833.16	4835
833.299	4820
833.437	4870
833.576	4805
833.714	4809
833.852	4930
833.991	4885
834.129	4889
834.267	4972
834.406	4934
834.544	4976
834.682	4991
834.821	4984
834.959	5181
835.097	4946
835.235	5216
835.373	5033
835.511	5052
835.65	5060
835.788	5048
835.926	4877
836.064	4873
836.202	4915
836.34	5193
836.478	5189
836.615	5102
836.753	5166
836.891	5303
837.029	5242
837.167	5242
837.305	5174
837.443	5170
837.58	5094
837.718	5265
837.856	5174
837.993	5136
838.131	5242
838.269	5280
838.406	5212
838.544	5201
838.681	5033
838.819	5052
838.956	4915
839.094	4862
839.231	4976
839.369	5075
839.506	5406
839.643	5258
839.781	5048
839.918	5048
840.055	5071
840.193	5094
840.33	5124
840.467	5201
840.604	5170
840.742	5436
840.879	5086
841.016	5105
841.153	5151
841.29	5349
841.427	5307
841.564	5334
841.701	5345
841.838	5277
841.975	5242
842.112	5265
842.249	5140
842.385	5067
842.522	5326
842.659	5136
842.796	5174
842.933	5212
843.069	5193
843.206	5170
843.343	5242
843.479	5250
843.616	5284
843.752	5060
843.889	5018
844.025	5204
844.162	5056
844.298	5220
844.435	5086
844.571	5086
844.708	5178
844.844	5330
844.98	5326
845.117	5315
845.253	5132
845.389	5094
845.525	5166
845.661	5162
845.798	5006
845.934	5136
846.07	5041
846.206	5227
846.342	5258
846.478	5220
846.614	5029
846.75	4972
846.886	4968
847.022	5121
847.158	5064
847.294	5071
847.429	5060
847.565	5052
847.701	5345
847.837	4839
847.972	4797
848.108	4934
848.244	4946
848.379	4805
848.515	4748
848.65	4717
848.786	4736
848.921	4759
849.057	4866
849.192	4862
849.328	4839
849.463	4820
849.598	4797
849.734	4733
849.869	4691
850.004	4599
850.14	4660
850.275	4596
850.41	4573
850.545	4580
850.68	4573
850.815	4603
850.95	4649
851.085	4793
851.22	4736
851.355	4675
851.49	4607
851.625	4637
851.76	4675
851.895	4558
852.03	4519
852.165	4626
852.299	4679
852.434	4782
852.569	4782
852.703	4736
852.838	4850
852.973	4953
853.107	4881
853.242	4694
853.376	4675
853.511	4512
853.645	4630
853.78	4786
853.914	4641
854.048	4675
854.183	4660
854.317	4691
854.451	4831
854.585	4717
854.72	4630
854.854	4763
854.988	4588
855.122	4558
855.256	4531
855.39	4656
855.524	4774
855.658	4771
855.792	4672
855.926	4748
856.06	4755
856.194	4721
856.327	4672
856.461	4626
856.595	4592
856.729	4634
856.862	4774
856.996	4687
857.13	4748
857.263	4816
857.397	4755
857.53	4679
857.664	4706
857.797	4778
857.931	4748
858.064	4656
858.197	4763
858.331	4683
858.464	4611
858.597	4519
858.731	4622
858.864	4679
858.997	4565
859.13	4634
859.263	4706
859.396	4668
859.529	4599
859.662	4599
859.795	4523
859.928	4634
860.061	4755
860.194	4786
860.327	4649
860.46	4531
860.592	4683
860.725	4744
860.858	4752
860.99	4573
861.123	4573
861.256	4516
861.388	4660
861.521	5353
861.653	4436
861.786	4428
861.918	4493
862.05	4478
862.183	4584
862.315	4599
862.447	4641
862.58	4531
862.712	4409
862.844	4333
862.976	4478
863.108	4523
863.24	4744
863.372	4322
863.504	4455
863.636	4428
863.768	4489
863.9	4440
864.032	4394
864.164	4383
864.296	4485
864.428	4554
864.559	4535
864.691	4550
864.823	4497
864.954	4508
865.086	4493
865.217	4459
865.349	4417
865.48	4447
865.612	4462
865.743	4660
865.875	4455
866.006	4413
866.137	4474
866.269	4424
866.4	4474
866.531	4405
866.662	4417
866.793	4367
866.924	4440
867.055	4466
867.186	4428
867.317	4402
867.448	4421
867.579	4386
867.71	4428
867.841	4405
867.972	4474
868.103	4493
868.233	4421
868.364	4405
868.495	4478
868.625	4664
868.756	4759
868.886	4584
869.017	4599
869.147	4816
869.278	4771
869.408	4687
869.539	4653
869.669	4710
869.799	4679
869.929	4733
870.06	4744
870.19	4946
870.32	4896
870.45	4965
870.58	5041
870.71	5094
870.84	5090
870.97	5029
871.1	4923
871.23	5181
871.36	5102
871.489	5041
871.619	5094
871.749	5086
871.879	5159
872.008	5197
872.138	5071
872.267	4976
872.397	4892
872.526	4816
872.656	4736
872.785	4790
872.915	4972
873.044	5037
873.173	4961
873.303	4980
873.432	4938
873.561	4938
873.69	4816
873.819	4877
873.948	4915
874.077	4816
874.206	4714
874.335	4797
874.464	4896
874.593	5090
874.722	4972
874.851	5109
874.979	5006
875.108	5033
875.237	4908
875.365	4892
875.494	4946
875.623	4957
875.751	4790
875.88	4885
876.008	4957
876.136	5006
876.265	5147
876.393	5376
876.521	5250
876.65	5181
876.778	5193
876.906	5064
877.034	4972
877.162	4991
877.29	4987
877.418	5094
877.546	5045
877.674	5014
877.802	5056
877.93	5056
878.058	4961
878.185	4870
878.313	4961
878.441	4942
878.568	4786
878.696	4866
878.824	5018
878.951	5018
879.079	5162
879.206	5303
879.333	5113
879.461	4942
879.588	4976
879.715	5140
879.842	5239
879.97	4965
880.097	4786
880.224	4778
880.351	4850
880.478	4858
880.605	4790
880.732	4752
880.859	5052
880.986	4885
881.112	4938
881.239	4801
881.366	4679
881.493	4637
881.619	4599
881.746	4653
881.872	4641
881.999	4641
882.125	4664
882.252	4828
882.378	4839
882.505	4930
882.631	4820
882.757	4641
882.883	4752
883.01	4717
883.136	4637
883.262	4561
883.388	4664
883.514	4805
883.64	4854
883.766	4801
883.892	4694
884.018	4710
884.143	4862
884.269	5033
884.395	4717
884.52	4607
884.646	4645
884.772	4660
884.897	4580
885.023	4656
885.148	4793
885.274	4889
885.399	4763
885.524	4706
885.65	4717
885.775	4774
885.9	4729
886.025	4858
886.15	4835
886.275	4748
886.4	4691
886.525	4759
886.65	4717
886.775	4702
886.9	4927
887.025	5052
887.149	4828
887.274	4672
887.399	4611
887.523	4580
887.648	4611
887.773	4580
887.897	4733
888.021	4793
888.146	4649
888.27	4805
888.395	4923
888.519	4824
888.643	4820
888.767	4850
888.891	4649
889.015	4637
889.139	4672
889.263	4611
889.387	4778
889.511	4873
889.635	4786
889.759	4630
889.883	4656
890.006	4725
890.13	4862
890.254	4679
890.377	4710
890.501	4558
890.624	4500
890.748	4622
890.871	4500
890.995	4451
891.118	4356
891.241	4508
891.364	4538
891.488	4668
891.611	4462
891.734	4489
891.857	4577
891.98	4569
892.103	4668
892.226	4573
892.349	4512
892.471	4405
892.594	4527
892.717	4596
892.839	4516
892.962	4615
893.085	4618
893.207	4584
893.33	4481
893.452	4516
893.575	4683
893.697	4573
893.819	4831
893.941	4816
894.064	4736
894.186	4592
894.308	4580
894.43	4702
894.552	4805
894.674	4729
894.796	4584
894.918	4630
895.04	4523
895.161	4717
895.283	4714
895.405	4573
895.526	4668
895.648	4698
895.769	4645
895.891	4679
896.012	4717
896.134	4736
896.255	4691
896.376	4645
896.498	4630
896.619	4626
896.74	4645
896.861	4672
896.982	4885
897.103	5086
897.224	4805
897.345	4736
897.466	4675
897.587	4733
897.708	4835
897.828	4809
897.949	4664
898.07	4546
898.19	4691
898.311	4828
898.431	4656
898.552	4755
898.672	4843
898.792	4816
898.913	4752
899.033	4637
899.153	4565
899.273	4398
899.393	4497
899.513	4538
899.633	4535
899.753	4542
899.873	4561
899.993	4588
900.113	4577
900.232	4592
900.352	4519
900.472	4443
900.591	4417
900.711	4459
900.83	4459
900.95	4599
901.069	4653
901.189	4519
901.308	4360
901.427	4318
901.546	4409
901.665	4493
901.784	4531
901.904	4356
902.023	4344
902.141	4204
902.26	4181
902.379	4306
902.498	4238
902.617	4246
902.735	4363
902.854	4383
902.973	4299
903.091	4188
903.21	4196
903.328	4329
903.446	4261
903.565	4276
903.683	4295
903.801	4268
903.919	4470
904.038	4462
904.156	4272
904.274	4428
904.392	4432
904.51	4417
904.627	4474
904.745	4527
904.863	4641
904.981	4402
905.098	4322
905.216	4383
905.334	4443
905.451	4440
905.569	4413
905.686	4584
905.803	4558
905.921	4417
906.038	4577
906.155	4436
906.272	4409
906.389	4485
906.506	4409
906.623	4375
906.74	4428
906.857	4322
906.974	4352
907.091	4535
907.208	4698
907.324	4569
907.441	4443
907.557	4348
907.674	4284
907.79	4325
907.907	4375
908.023	4485
908.139	4497
908.256	4421
908.372	4508
908.488	4432
908.604	4352
908.72	4348
908.836	4375
908.952	4325
909.068	4451
909.184	4565
909.3	4462
909.415	4512
909.531	4512
909.647	4383
909.762	4375
909.878	4352
909.993	4424
910.108	4424
910.224	4436
910.339	4485
910.454	4413
910.57	4386
910.685	4287
910.8	4618
910.915	4596
911.03	4519
911.145	4322
911.259	4348
911.374	4329
911.489	4291
911.604	4280
911.718	4188
911.833	4196
911.947	4067
912.062	4021
912.176	4219
912.291	4246
912.405	4249
912.519	4440
912.633	4474
912.748	4367
912.862	4337
912.976	4219
913.09	4082
913.204	4181
913.318	4249
913.431	4402
913.545	4352
913.659	4440
913.772	4348
913.886	4234
914	4265
914.113	4363
914.226	4432
914.34	4383
914.453	4234
914.566	4447
914.68	4337
914.793	4341
914.906	4150
915.019	4116
915.132	4067
915.245	4154
915.358	4227
915.47	4253
915.583	4249
915.696	4314
915.809	4398
915.921	4386
916.034	4268
916.146	4272
916.259	4253
916.371	4379
916.483	4371
916.595	4253
916.708	4303
916.82	4352
916.932	4341
917.044	4329
917.156	4306
917.268	4276
917.38	4314
917.491	4249
917.603	4306
917.715	4470
917.826	4451
917.938	4363
918.049	4276
918.161	4409
918.272	4596
918.384	4493
918.495	4470
918.606	4287
918.717	4215
918.828	4375
918.939	4405
919.05	4261
919.161	4306
919.272	4124
919.383	4249
919.494	4478
919.604	4630
919.715	4451
919.826	4424
919.936	4405
920.047	4516
920.157	4550
920.267	4706
920.378	4554
920.488	4493
920.598	4706
920.708	4919
920.818	4782
920.928	4797
921.038	4968
921.148	4927
921.258	4637
921.368	4573
921.477	4535
921.587	4474
921.697	4371
921.806	4542
921.916	4459
922.025	4246
922.134	4333
922.244	4234
922.353	4310
922.462	4173
922.571	4090
922.68	4044
922.789	4010
922.898	4063
923.007	4044
923.116	4055
923.224	4090
923.333	4093
923.442	3968
923.55	3968
923.659	4036
923.767	4071
923.876	4006
923.984	4116
924.092	3960
924.201	4032
924.309	4086
924.417	4135
924.525	4120
924.633	4109
924.741	5075
924.849	3964
924.956	4143
925.064	3934
925.172	3911
925.279	3964
925.387	4059
925.494	4029
925.602	4223
925.709	4196
925.816	4067
925.924	4166
926.031	4238
926.138	4128
926.245	4204
926.352	4055
926.459	4246
926.566	4284
926.673	4131
926.779	4078
926.886	4120
926.993	3964
927.099	3956
927.206	3960
927.312	3937
927.419	4086
927.525	4025
927.631	4101
927.737	3987
927.843	3941
927.95	3831
928.056	3968
928.162	4010
928.267	4063
928.373	4725
928.479	4135
928.585	3854
928.69	3960
928.796	4051
928.901	3956
929.007	3838
929.112	4013
929.218	4006
929.323	3934
929.428	3953
929.533	4097
929.638	3899
929.743	3937
929.848	4063
929.953	4002
930.058	3907
930.163	3831
930.267	3819
930.372	3983
930.477	3861
930.581	4109
930.685	3960
930.79	3907
930.894	3915
930.998	3861
931.103	4021
931.207	3717
931.311	3694
931.415	3675
931.519	3534
931.623	3553
