Data from test_V78500241_1189.txt Node
Date: Fri Mar 25 16:57:16 CST 2022
User: usil
Spectrometer: V785-0024
Trigger mode: 0
Integration Time (sec): 4.000000E-1
Scans to average: 1
Nonlinearity correction enabled: false
Boxcar width: 0
Storing dark spectrum: false
XAxis mode: Wavelengths
Number of Pixels in Spectrum: 1024
>>>>>Begin Spectral Data<<<<<
801.071	8031
801.214	8027
801.356	7875
801.499	7852
801.641	7814
801.783	7750
801.926	7955
802.068	7928
802.211	8001
802.353	7902
802.496	7807
802.638	7822
802.78	7955
802.923	8001
803.065	7868
803.208	7856
803.35	8024
803.492	8054
803.635	8164
803.777	8024
803.919	8149
804.061	8412
804.204	8183
804.346	8069
804.488	7963
804.63	8145
804.773	8054
804.915	8130
805.057	8309
805.199	8157
805.341	8218
805.483	8218
805.626	8153
805.768	8088
805.91	8267
806.052	8191
806.194	8149
806.336	8305
806.478	8107
806.62	8046
806.762	8107
806.904	8214
807.046	8396
807.188	8263
807.33	8263
807.472	8317
807.614	8142
807.756	8180
807.898	8054
808.04	7856
808.182	7898
808.324	7902
808.465	7921
808.607	8073
808.749	8168
808.891	8282
809.033	8237
809.174	8142
809.316	8039
809.458	7982
809.6	8035
809.741	7986
809.883	8020
810.025	8096
810.166	8084
810.308	7997
810.45	7963
810.591	7864
810.733	7616
810.875	7651
811.016	7559
811.158	7472
811.299	7506
811.441	7731
811.582	7662
811.724	7529
811.865	7525
812.007	7506
812.148	7601
812.29	7624
812.431	7769
812.573	7849
812.714	8008
812.855	8077
812.997	8195
813.138	8294
813.279	8183
813.421	8107
813.562	7993
813.703	7822
813.845	7693
813.986	7365
814.127	7232
814.268	7213
814.41	7168
814.551	7065
814.692	7118
814.833	7091
814.974	7050
815.115	7080
815.256	6970
815.397	6878
815.539	6920
815.68	6810
815.821	6700
815.962	6814
816.103	6829
816.244	6688
816.385	6662
816.526	6578
816.666	6494
816.807	6304
816.948	6426
817.089	6502
817.23	6433
817.371	6380
817.512	6372
817.653	6410
817.793	6350
817.934	6361
818.075	6486
818.216	6467
818.356	6399
818.497	6258
818.638	6125
818.778	6125
818.919	6068
819.06	6144
819.2	6361
819.341	6372
819.481	6346
819.622	6544
819.762	6719
819.903	6639
820.043	6597
820.184	6517
820.324	6555
820.465	6711
820.605	6662
820.746	6620
820.886	6433
821.026	6642
821.167	6673
821.307	6715
821.447	6753
821.588	6627
821.728	6555
821.868	6517
822.008	6323
822.149	6346
822.289	6319
822.429	6117
822.569	6060
822.709	6083
822.849	5950
822.99	5859
823.13	5878
823.27	5897
823.41	5786
823.55	5764
823.69	5783
823.83	5771
823.97	5710
824.11	5535
824.25	5455
824.389	5554
824.529	5638
824.669	5547
824.809	5665
824.949	5665
825.089	5646
825.228	5554
825.368	5417
825.508	5387
825.648	5353
825.787	5414
825.927	5334
826.067	5345
826.206	5315
826.346	5368
826.485	5379
826.625	5452
826.765	5604
826.904	5482
827.044	5273
827.183	5178
827.323	5162
827.462	5265
827.601	5189
827.741	5235
827.88	5242
828.02	5170
828.159	5239
828.298	5318
828.437	5364
828.577	5345
828.716	5474
828.855	5322
828.994	5197
829.134	5128
829.273	5201
829.412	5193
829.551	5185
829.69	5208
829.829	5250
829.968	5433
830.107	5246
830.246	5337
830.385	5235
830.524	5204
830.663	5064
830.802	5041
830.941	4953
831.08	4919
831.219	5018
831.357	4949
831.496	5204
831.635	4949
831.774	4930
831.913	4889
832.051	4763
832.19	4824
832.329	4835
832.467	4717
832.606	4656
832.744	4763
832.883	4782
833.022	4755
833.16	4824
833.299	4896
833.437	4820
833.576	4831
833.714	4862
833.852	4927
833.991	4919
834.129	4991
834.267	4923
834.406	4911
834.544	4919
834.682	5033
834.821	4968
834.959	5181
835.097	4991
835.235	5136
835.373	5045
835.511	5185
835.65	4991
835.788	5052
835.926	4892
836.064	4927
836.202	4927
836.34	5178
836.478	5231
836.615	5094
836.753	5261
836.891	5322
837.029	5250
837.167	5197
837.305	5166
837.443	5170
837.58	5102
837.718	5280
837.856	5201
837.993	5159
838.131	5273
838.269	5193
838.406	5197
838.544	5231
838.681	5060
838.819	5010
838.956	4839
839.094	4972
839.231	5041
839.369	5071
839.506	5440
839.643	5254
839.781	5102
839.918	5045
840.055	5143
840.193	5143
840.33	5143
840.467	5147
840.604	5231
840.742	5520
840.879	5067
841.016	5136
841.153	5170
841.29	5379
841.427	5379
841.564	5364
841.701	5349
841.838	5296
841.975	5261
842.112	5341
842.249	5170
842.385	5166
842.522	5398
842.659	5197
842.796	5159
842.933	5185
843.069	5220
843.206	5174
843.343	5326
843.479	5261
843.616	5303
843.752	5052
843.889	5045
844.025	5178
844.162	5029
844.298	5250
844.435	5090
844.571	5071
844.708	5208
844.844	5311
844.98	5406
845.117	5307
845.253	5178
845.389	5109
845.525	5166
845.661	5128
845.798	5033
845.934	5136
846.07	5079
846.206	5235
846.342	5269
846.478	5212
846.614	5010
846.75	4968
846.886	4972
847.022	5136
847.158	4987
847.294	5136
847.429	5147
847.565	5064
847.701	5326
847.837	4866
847.972	4809
848.108	4953
848.244	4934
848.379	4812
848.515	4752
848.65	4786
848.786	4774
848.921	4824
849.057	4911
849.192	4908
849.328	4835
849.463	4885
849.598	4812
849.734	4752
849.869	4729
850.004	4687
850.14	4668
850.275	4634
850.41	4588
850.545	4580
850.68	4645
850.815	4664
850.95	4588
851.085	4881
851.22	4752
851.355	4698
851.49	4607
851.625	4675
851.76	4622
851.895	4588
852.03	4615
852.165	4714
852.299	4790
852.434	4771
852.569	4755
852.703	4782
852.838	4862
852.973	4915
853.107	4938
853.242	4763
853.376	4710
853.511	4527
853.645	4694
853.78	4866
853.914	4710
854.048	4691
854.183	4607
854.317	4736
854.451	4816
854.585	4656
854.72	4672
854.854	4759
854.988	4615
855.122	4641
855.256	4516
855.39	4683
855.524	4831
855.658	4774
855.792	4698
855.926	4774
856.06	4755
856.194	4733
856.327	4672
856.461	4599
856.595	4596
856.729	4702
856.862	4755
856.996	4672
857.13	4763
857.263	4729
857.397	4778
857.53	4694
857.664	4793
857.797	4752
857.931	4809
858.064	4767
858.197	4774
858.331	4668
858.464	4679
858.597	4527
858.731	4630
858.864	4668
858.997	4615
859.13	4618
859.263	4672
859.396	4687
859.529	4634
859.662	4592
859.795	4596
859.928	4717
860.061	4748
860.194	4793
860.327	4630
860.46	4588
860.592	4759
860.725	4740
860.858	4740
860.99	4634
861.123	4489
861.256	4527
861.388	4637
861.521	5303
861.653	4527
861.786	4474
861.918	4519
862.05	4565
862.183	4516
862.315	4630
862.447	4702
862.58	4573
862.712	4424
862.844	4318
862.976	4466
863.108	4447
863.24	4911
863.372	4402
863.504	4428
863.636	4417
863.768	4481
863.9	4421
864.032	4440
864.164	4428
864.296	4485
864.428	4561
864.559	4550
864.691	4565
864.823	4580
864.954	4519
865.086	4523
865.217	4481
865.349	4417
865.48	4504
865.612	4489
865.743	4596
865.875	4519
866.006	4466
866.137	4470
866.269	4455
866.4	4436
866.531	4459
866.662	4451
866.793	4405
866.924	4455
867.055	4527
867.186	4489
867.317	4443
867.448	4367
867.579	4402
867.71	4417
867.841	4360
867.972	4466
868.103	4462
868.233	4466
868.364	4436
868.495	4489
868.625	4691
868.756	4767
868.886	4599
869.017	4577
869.147	4774
869.278	4755
869.408	4611
869.539	4599
869.669	4755
869.799	4675
869.929	4790
870.06	4733
870.19	4927
870.32	4923
870.45	4953
870.58	5037
870.71	5048
870.84	5117
870.97	4949
871.1	4968
871.23	5132
871.36	5102
871.489	5060
871.619	5071
871.749	5094
871.879	5166
872.008	5181
872.138	5067
872.267	5018
872.397	4816
872.526	4771
872.656	4752
872.785	4820
872.915	4961
873.044	5079
873.173	4961
873.303	4946
873.432	4949
873.561	4991
873.69	4900
873.819	4866
873.948	4904
874.077	4843
874.206	4744
874.335	4759
874.464	4904
874.593	5064
874.722	4991
874.851	5109
874.979	5098
875.108	5029
875.237	4923
875.365	4870
875.494	4889
875.623	4987
875.751	4828
875.88	4892
876.008	5010
876.136	5045
876.265	5216
876.393	5345
876.521	5208
876.65	5231
876.778	5174
876.906	5105
877.034	5052
877.162	5014
877.29	5003
877.418	5067
877.546	5071
877.674	5067
877.802	5056
877.93	5033
878.058	4980
878.185	4828
878.313	4976
878.441	4972
878.568	4812
878.696	4923
878.824	4999
878.951	5003
879.079	5136
879.206	5220
879.333	5094
879.461	4984
879.588	4957
879.715	5102
879.842	5280
879.97	4995
880.097	4801
880.224	4729
880.351	4774
880.478	4847
880.605	4782
880.732	4828
880.859	5124
880.986	4870
881.112	4858
881.239	4824
881.366	4687
881.493	4615
881.619	4634
881.746	4668
881.872	4668
881.999	4645
882.125	4702
882.252	4843
882.378	4809
882.505	4908
882.631	4831
882.757	4717
882.883	4748
883.01	4759
883.136	4679
883.262	4603
883.388	4584
883.514	4755
883.64	4835
883.766	4797
883.892	4698
884.018	4748
884.143	4930
884.269	4984
884.395	4702
884.52	4596
884.646	4683
884.772	4611
884.897	4615
885.023	4710
885.148	4790
885.274	4870
885.399	4824
885.524	4740
885.65	4698
885.775	4790
885.9	4679
886.025	4896
886.15	4801
886.275	4733
886.4	4649
886.525	4721
886.65	4714
886.775	4694
886.9	4889
887.025	5075
887.149	4809
887.274	4622
887.399	4565
887.523	4565
887.648	4577
887.773	4584
887.897	4809
888.021	4816
888.146	4679
888.27	4816
888.395	4915
888.519	4801
888.643	4790
888.767	4847
888.891	4710
889.015	4603
889.139	4630
889.263	4592
889.387	4801
889.511	4877
889.635	4843
889.759	4649
889.883	4615
890.006	4733
890.13	4881
890.254	4596
890.377	4675
890.501	4588
890.624	4527
890.748	4660
890.871	4512
890.995	4428
891.118	4428
891.241	4481
891.364	4546
891.488	4615
891.611	4508
891.734	4596
891.857	4611
891.98	4607
892.103	4660
892.226	4668
892.349	4470
892.471	4443
892.594	4538
892.717	4542
892.839	4569
892.962	4599
893.085	4580
893.207	4630
893.33	4462
893.452	4531
893.575	4653
893.697	4558
893.819	4771
893.941	4824
894.064	4774
894.186	4599
894.308	4580
894.43	4710
894.552	4824
894.674	4782
894.796	4523
894.918	4611
895.04	4577
895.161	4653
895.283	4649
895.405	4584
895.526	4611
895.648	4672
895.769	4675
895.891	4702
896.012	4733
896.134	4729
896.255	4611
896.376	4607
896.498	4599
896.619	4607
896.74	4584
896.861	4672
896.982	4942
897.103	5033
897.224	4793
897.345	4721
897.466	4691
897.587	4759
897.708	4828
897.828	4774
897.949	4694
898.07	4599
898.19	4645
898.311	4809
898.431	4649
898.552	4740
898.672	4797
898.792	4763
898.913	4740
899.033	4668
899.153	4485
899.273	4409
899.393	4500
899.513	4504
899.633	4538
899.753	4489
899.873	4527
899.993	4626
900.113	4550
900.232	4580
900.352	4558
900.472	4516
900.591	4413
900.711	4535
900.83	4459
900.95	4596
901.069	4721
901.189	4531
901.308	4390
901.427	4322
901.546	4363
901.665	4497
901.784	4542
901.904	4394
902.023	4310
902.141	4207
902.26	4162
902.379	4325
902.498	4253
902.617	4207
902.735	4424
902.854	4436
902.973	4367
903.091	4204
903.21	4249
903.328	4276
903.446	4284
903.565	4272
903.683	4356
903.801	4299
903.919	4428
904.038	4413
904.156	4306
904.274	4440
904.392	4405
904.51	4466
904.627	4462
904.745	4580
904.863	4596
904.981	4432
905.098	4360
905.216	4394
905.334	4447
905.451	4424
905.569	4485
905.686	4588
905.803	4580
905.921	4405
906.038	4603
906.155	4485
906.272	4375
906.389	4466
906.506	4360
906.623	4337
906.74	4413
906.857	4322
906.974	4375
907.091	4546
907.208	4656
907.324	4588
907.441	4485
907.557	4284
907.674	4367
907.79	4356
907.907	4371
908.023	4489
908.139	4512
908.256	4451
908.372	4478
908.488	4478
908.604	4325
908.72	4337
908.836	4344
908.952	4390
909.068	4428
909.184	4561
909.3	4485
909.415	4565
909.531	4565
909.647	4356
909.762	4352
909.878	4329
909.993	4485
910.108	4432
910.224	4383
910.339	4443
910.454	4443
910.57	4371
910.685	4284
910.8	4588
910.915	4672
911.03	4493
911.145	4299
911.259	4348
911.374	4394
911.489	4303
911.604	4253
911.718	4181
911.833	4200
911.947	4082
912.062	4002
912.176	4196
912.291	4249
912.405	4215
912.519	4428
912.633	4508
912.748	4390
912.862	4268
912.976	4211
913.09	4135
913.204	4173
913.318	4257
913.431	4428
913.545	4333
913.659	4440
913.772	4386
913.886	4234
914	4230
914.113	4424
914.226	4390
914.34	4383
914.453	4287
914.566	4405
914.68	4265
914.793	4314
914.906	4177
915.019	4135
915.132	4059
915.245	4211
915.358	4211
915.47	4238
915.583	4276
915.696	4333
915.809	4398
915.921	4409
916.034	4257
916.146	4242
916.259	4196
916.371	4360
916.483	4375
916.595	4215
916.708	4299
916.82	4272
916.932	4329
917.044	4405
917.156	4386
917.268	4242
917.38	4303
917.491	4265
917.603	4371
917.715	4417
917.826	4428
917.938	4314
918.049	4230
918.161	4432
918.272	4535
918.384	4550
918.495	4455
918.606	4272
918.717	4200
918.828	4325
918.939	4405
919.05	4257
919.161	4318
919.272	4135
919.383	4272
919.494	4409
919.604	4653
919.715	4443
919.826	4348
919.936	4413
920.047	4493
920.157	4519
920.267	4683
920.378	4535
920.488	4516
920.598	4733
920.708	4881
920.818	4717
920.928	4729
921.038	4946
921.148	4896
921.258	4634
921.368	4577
921.477	4527
921.587	4447
921.697	4356
921.806	4538
921.916	4459
922.025	4249
922.134	4268
922.244	4227
922.353	4303
922.462	4158
922.571	4150
922.68	3968
922.789	4006
922.898	4025
923.007	4002
923.116	4063
923.224	4090
923.333	4086
923.442	3953
923.55	3991
923.659	4010
923.767	4074
923.876	4032
923.984	4105
924.092	3975
924.201	4051
924.309	4093
924.417	4101
924.525	4025
924.633	4116
924.741	5045
924.849	3911
924.956	4105
925.064	3960
925.172	3911
925.279	3941
925.387	4010
925.494	4055
925.602	4219
925.709	4173
925.816	4059
925.924	4128
926.031	4166
926.138	4143
926.245	4188
926.352	4029
926.459	4223
926.566	4299
926.673	4124
926.779	4055
926.886	4109
926.993	3983
927.099	3956
927.206	3964
927.312	3899
927.419	4063
927.525	4032
927.631	4074
927.737	3918
927.843	3972
927.95	3831
928.056	3953
928.162	3968
928.267	4048
928.373	4668
928.479	4086
928.585	3861
928.69	4010
928.796	4051
928.901	3968
929.007	3865
929.112	3975
929.218	3972
929.323	3983
929.428	3922
929.533	4074
929.638	3896
929.743	3975
929.848	4059
929.953	3979
930.058	3968
930.163	3785
930.267	3808
930.372	3960
930.477	3785
930.581	4074
930.685	3926
930.79	3838
930.894	3880
930.998	3850
931.103	4010
931.207	3701
931.311	3701
931.415	3690
931.519	3477
931.623	3545
