Data from test_V78500241_2300.txt Node
Date: Fri Mar 25 17:04:59 CST 2022
User: usil
Spectrometer: V785-0024
Trigger mode: 0
Integration Time (sec): 4.000000E-1
Scans to average: 1
Nonlinearity correction enabled: false
Boxcar width: 0
Storing dark spectrum: false
XAxis mode: Wavelengths
Number of Pixels in Spectrum: 1024
>>>>>Begin Spectral Data<<<<<
801.071	8062
801.214	8005
801.356	7909
801.499	7921
801.641	7792
801.783	7890
801.926	8046
802.068	7974
802.211	8050
802.353	8077
802.496	7955
802.638	7932
802.78	7963
802.923	7955
803.065	7883
803.208	7947
803.35	8020
803.492	8081
803.635	8237
803.777	8092
803.919	8180
804.061	8480
804.204	8153
804.346	8065
804.488	8020
804.63	8210
804.773	8081
804.915	8088
805.057	8385
805.199	8202
805.341	8252
805.483	8275
805.626	8248
805.768	8149
805.91	8233
806.052	8183
806.194	8180
806.336	8332
806.478	8138
806.62	8111
806.762	8145
806.904	8294
807.046	8469
807.188	8358
807.33	8320
807.472	8423
807.614	8183
807.756	8168
807.898	7997
808.04	7982
808.182	7955
808.324	7928
808.465	7951
808.607	8153
808.749	8142
808.891	8221
809.033	8396
809.174	8218
809.316	8084
809.458	8077
809.6	8050
809.741	8107
809.883	8031
810.025	8130
810.166	8088
810.308	7997
810.45	8016
810.591	7902
810.733	7750
810.875	7708
811.016	7525
811.158	7449
811.299	7620
811.441	7693
811.582	7681
811.724	7563
811.865	7563
812.007	7647
812.148	7594
812.29	7647
812.431	7799
812.573	7879
812.714	8020
812.855	8180
812.997	8244
813.138	8336
813.279	8240
813.421	8043
813.562	7928
813.703	7887
813.845	7772
813.986	7468
814.127	7324
814.268	7285
814.41	7198
814.551	7206
814.692	7225
814.833	7145
814.974	7152
815.115	7171
815.256	7004
815.397	6996
815.539	6989
815.68	6821
815.821	6768
815.962	6867
816.103	6901
816.244	6688
816.385	6642
816.526	6593
816.666	6521
816.807	6361
816.948	6441
817.089	6517
817.23	6483
817.371	6399
817.512	6361
817.653	6365
817.793	6331
817.934	6506
818.075	6471
818.216	6433
818.356	6441
818.497	6292
818.638	6171
818.778	6224
818.919	6159
819.06	6178
819.2	6346
819.341	6342
819.481	6391
819.622	6563
819.762	6772
819.903	6665
820.043	6620
820.184	6547
820.324	6604
820.465	6753
820.605	6734
820.746	6639
820.886	6578
821.026	6707
821.167	6768
821.307	6760
821.447	6829
821.588	6681
821.728	6616
821.868	6528
822.008	6369
822.149	6372
822.289	6388
822.429	6182
822.569	6053
822.709	6155
822.849	5927
822.99	5965
823.13	5965
823.27	5908
823.41	5840
823.55	5798
823.69	5802
823.83	5775
823.97	5703
824.11	5551
824.25	5562
824.389	5566
824.529	5627
824.669	5566
824.809	5661
824.949	5615
825.089	5646
825.228	5543
825.368	5433
825.508	5379
825.648	5372
825.787	5398
825.927	5402
826.067	5345
826.206	5318
826.346	5417
826.485	5395
826.625	5459
826.765	5516
826.904	5566
827.044	5277
827.183	5212
827.323	5136
827.462	5261
827.601	5178
827.741	5193
827.88	5258
828.02	5109
828.159	5258
828.298	5315
828.437	5372
828.577	5292
828.716	5520
828.855	5341
828.994	5159
829.134	5189
829.273	5208
829.412	5105
829.551	5170
829.69	5231
829.829	5269
829.968	5398
830.107	5265
830.246	5292
830.385	5201
830.524	5166
830.663	5109
830.802	5003
830.941	4938
831.08	4850
831.219	5006
831.357	4942
831.496	5147
831.635	4976
831.774	4889
831.913	4843
832.051	4702
832.19	4763
832.329	4805
832.467	4710
832.606	4641
832.744	4744
832.883	4778
833.022	4736
833.16	4812
833.299	4824
833.437	4801
833.576	4843
833.714	4870
833.852	4847
833.991	4889
834.129	4965
834.267	4923
834.406	4961
834.544	4984
834.682	4942
834.821	4984
834.959	5143
835.097	4991
835.235	5140
835.373	5117
835.511	5140
835.65	5045
835.788	5083
835.926	4919
836.064	4873
836.202	4927
836.34	5204
836.478	5227
836.615	5124
836.753	5212
836.891	5345
837.029	5288
837.167	5193
837.305	5185
837.443	5201
837.58	5117
837.718	5265
837.856	5155
837.993	5189
838.131	5227
838.269	5250
838.406	5231
838.544	5212
838.681	5022
838.819	5037
838.956	4923
839.094	4957
839.231	4984
839.369	5121
839.506	5410
839.643	5258
839.781	5037
839.918	5064
840.055	5094
840.193	5105
840.33	5136
840.467	5113
840.604	5178
840.742	5463
840.879	5094
841.016	5075
841.153	5147
841.29	5353
841.427	5341
841.564	5330
841.701	5395
841.838	5258
841.975	5216
842.112	5265
842.249	5162
842.385	5132
842.522	5383
842.659	5140
842.796	5102
842.933	5166
843.069	5174
843.206	5151
843.343	5364
843.479	5258
843.616	5254
843.752	5041
843.889	5067
844.025	5208
844.162	5045
844.298	5185
844.435	5083
844.571	5048
844.708	5216
844.844	5341
844.98	5349
845.117	5353
845.253	5155
845.389	5094
845.525	5147
845.661	5147
845.798	5033
845.934	5143
846.07	5071
846.206	5193
846.342	5303
846.478	5174
846.614	5041
846.75	4976
846.886	4984
847.022	5181
847.158	5060
847.294	5045
847.429	5102
847.565	5075
847.701	5337
847.837	4911
847.972	4809
848.108	5037
848.244	4946
848.379	4782
848.515	4755
848.65	4710
848.786	4797
848.921	4839
849.057	4862
849.192	4896
849.328	4824
849.463	4824
849.598	4786
849.734	4774
849.869	4733
850.004	4630
850.14	4675
850.275	4649
850.41	4523
850.545	4573
850.68	4599
850.815	4656
850.95	4618
851.085	4870
851.22	4752
851.355	4637
851.49	4634
851.625	4603
851.76	4607
851.895	4550
852.03	4527
852.165	4649
852.299	4706
852.434	4767
852.569	4763
852.703	4843
852.838	4858
852.973	4942
853.107	4934
853.242	4752
853.376	4653
853.511	4550
853.645	4599
853.78	4782
853.914	4694
854.048	4763
854.183	4611
854.317	4679
854.451	4809
854.585	4664
854.72	4653
854.854	4744
854.988	4550
855.122	4660
855.256	4542
855.39	4645
855.524	4759
855.658	4679
855.792	4656
855.926	4691
856.06	4744
856.194	4763
856.327	4694
856.461	4634
856.595	4599
856.729	4611
856.862	4755
856.996	4748
857.13	4710
857.263	4771
857.397	4843
857.53	4634
857.664	4710
857.797	4679
857.931	4801
858.064	4706
858.197	4744
858.331	4637
858.464	4645
858.597	4538
858.731	4630
858.864	4630
858.997	4542
859.13	4641
859.263	4717
859.396	4706
859.529	4622
859.662	4565
859.795	4504
859.928	4611
860.061	4733
860.194	4736
860.327	4611
860.46	4588
860.592	4675
860.725	4748
860.858	4698
860.99	4630
861.123	4561
861.256	4531
861.388	4588
861.521	5235
861.653	4516
861.786	4428
861.918	4462
862.05	4538
862.183	4550
862.315	4584
862.447	4630
862.58	4558
862.712	4386
862.844	4341
862.976	4466
863.108	4440
863.24	4904
863.372	4375
863.504	4371
863.636	4386
863.768	4455
863.9	4459
864.032	4371
864.164	4424
864.296	4493
864.428	4527
864.559	4554
864.691	4584
864.823	4535
864.954	4508
865.086	4535
865.217	4470
865.349	4375
865.48	4481
865.612	4470
865.743	4656
865.875	4478
866.006	4443
866.137	4459
866.269	4424
866.4	4451
866.531	4421
866.662	4413
866.793	4402
866.924	4417
867.055	4455
867.186	4474
867.317	4386
867.448	4375
867.579	4352
867.71	4405
867.841	4379
867.972	4440
868.103	4424
868.233	4443
868.364	4474
868.495	4493
868.625	4668
868.756	4744
868.886	4531
869.017	4622
869.147	4790
869.278	4729
869.408	4641
869.539	4698
869.669	4736
869.799	4618
869.929	4759
870.06	4717
870.19	4995
870.32	4904
870.45	4934
870.58	5014
870.71	5094
870.84	5140
870.97	4946
871.1	4911
871.23	5212
871.36	5136
871.489	5045
871.619	5083
871.749	5075
871.879	5056
872.008	5181
872.138	5075
872.267	5018
872.397	4896
872.526	4828
872.656	4698
872.785	4774
872.915	4972
873.044	5010
873.173	4946
873.303	4953
873.432	4999
873.561	4923
873.69	4881
873.819	4854
873.948	4919
874.077	4812
874.206	4786
874.335	4786
874.464	4904
874.593	5025
874.722	4995
874.851	5060
874.979	5006
875.108	5025
875.237	4862
875.365	4915
875.494	4908
875.623	4957
875.751	4790
875.88	4858
876.008	4961
876.136	5033
876.265	5208
876.393	5372
876.521	5250
876.65	5212
876.778	5147
876.906	5094
877.034	5029
877.162	5075
877.29	5006
877.418	5056
877.546	5071
877.674	5048
877.802	5094
877.93	5041
878.058	4930
878.185	4908
878.313	4991
878.441	5006
878.568	4771
878.696	4820
878.824	4980
878.951	4961
879.079	5159
879.206	5277
879.333	5079
879.461	4961
879.588	4965
879.715	5056
879.842	5223
879.97	4976
880.097	4812
880.224	4736
880.351	4774
880.478	4870
880.605	4831
880.732	4755
880.859	5083
880.986	4854
881.112	4904
881.239	4767
881.366	4683
881.493	4618
881.619	4580
881.746	4656
881.872	4645
881.999	4656
882.125	4702
882.252	4828
882.378	4816
882.505	4923
882.631	4733
882.757	4630
882.883	4698
883.01	4717
883.136	4668
883.262	4599
883.388	4622
883.514	4793
883.64	4820
883.766	4759
883.892	4656
884.018	4721
884.143	4908
884.269	4957
884.395	4660
884.52	4622
884.646	4641
884.772	4592
884.897	4546
885.023	4649
885.148	4801
885.274	4828
885.399	4805
885.524	4645
885.65	4683
885.775	4733
885.9	4717
886.025	4831
886.15	4778
886.275	4702
886.4	4634
886.525	4691
886.65	4710
886.775	4725
886.9	4915
887.025	5033
887.149	4824
887.274	4656
887.399	4607
887.523	4656
887.648	4584
887.773	4596
887.897	4755
888.021	4763
888.146	4641
888.27	4835
888.395	4889
888.519	4763
888.643	4828
888.767	4828
888.891	4702
889.015	4596
889.139	4653
889.263	4630
889.387	4763
889.511	4873
889.635	4797
889.759	4630
889.883	4653
890.006	4729
890.13	4828
890.254	4599
890.377	4702
890.501	4550
890.624	4523
890.748	4630
890.871	4535
890.995	4436
891.118	4379
891.241	4500
891.364	4577
891.488	4660
891.611	4470
891.734	4558
891.857	4603
891.98	4569
892.103	4683
892.226	4558
892.349	4523
892.471	4371
892.594	4538
892.717	4649
892.839	4615
892.962	4573
893.085	4668
893.207	4577
893.33	4478
893.452	4554
893.575	4687
893.697	4577
893.819	4786
893.941	4809
894.064	4714
894.186	4550
894.308	4618
894.43	4725
894.552	4793
894.674	4733
894.796	4508
894.918	4588
895.04	4565
895.161	4672
895.283	4668
895.405	4561
895.526	4645
895.648	4668
895.769	4691
895.891	4683
896.012	4740
896.134	4706
896.255	4664
896.376	4653
896.498	4630
896.619	4706
896.74	4611
896.861	4588
896.982	4892
897.103	5052
897.224	4858
897.345	4721
897.466	4668
897.587	4721
897.708	4809
897.828	4774
897.949	4702
898.07	4538
898.19	4660
898.311	4786
898.431	4717
898.552	4702
898.672	4831
898.792	4797
898.913	4729
899.033	4622
899.153	4474
899.273	4466
899.393	4512
899.513	4504
899.633	4500
899.753	4512
899.873	4516
899.993	4588
900.113	4538
900.232	4504
900.352	4565
900.472	4512
900.591	4398
900.711	4523
900.83	4459
900.95	4618
901.069	4672
901.189	4542
901.308	4371
901.427	4291
901.546	4386
901.665	4481
901.784	4538
901.904	4363
902.023	4314
902.141	4207
902.26	4215
902.379	4291
902.498	4227
902.617	4227
902.735	4386
902.854	4360
902.973	4325
903.091	4192
903.21	4253
903.328	4303
903.446	4287
903.565	4261
903.683	4341
903.801	4280
903.919	4394
904.038	4447
904.156	4329
904.274	4386
904.392	4421
904.51	4440
904.627	4478
904.745	4573
904.863	4592
904.981	4348
905.098	4325
905.216	4318
905.334	4405
905.451	4436
905.569	4459
905.686	4592
905.803	4596
905.921	4402
906.038	4550
906.155	4436
906.272	4383
906.389	4459
906.506	4405
906.623	4386
906.74	4402
906.857	4295
906.974	4356
907.091	4599
907.208	4706
907.324	4580
907.441	4497
907.557	4299
907.674	4344
907.79	4344
907.907	4379
908.023	4500
908.139	4508
908.256	4474
908.372	4466
908.488	4451
908.604	4337
908.72	4303
908.836	4375
908.952	4348
909.068	4455
909.184	4546
909.3	4489
909.415	4554
909.531	4523
909.647	4322
909.762	4379
909.878	4322
909.993	4436
910.108	4402
910.224	4386
910.339	4523
910.454	4379
910.57	4348
910.685	4314
910.8	4641
910.915	4592
911.03	4542
911.145	4394
911.259	4329
911.374	4356
911.489	4299
911.604	4272
911.718	4223
911.833	4204
911.947	4101
912.062	3998
912.176	4196
912.291	4238
912.405	4246
912.519	4466
912.633	4462
912.748	4352
912.862	4306
912.976	4223
913.09	4109
913.204	4135
913.318	4230
913.431	4405
913.545	4371
913.659	4398
913.772	4367
913.886	4295
914	4204
914.113	4394
914.226	4432
914.34	4394
914.453	4227
914.566	4390
914.68	4318
914.793	4318
914.906	4177
915.019	4093
915.132	4097
915.245	4204
915.358	4223
915.47	4234
915.583	4310
915.696	4272
915.809	4424
915.921	4432
916.034	4230
916.146	4257
916.259	4230
916.371	4405
916.483	4344
916.595	4253
916.708	4344
916.82	4291
916.932	4329
917.044	4325
917.156	4322
917.268	4223
917.38	4299
917.491	4242
917.603	4341
917.715	4424
917.826	4409
917.938	4386
918.049	4223
918.161	4398
918.272	4538
918.384	4504
918.495	4360
918.606	4303
918.717	4207
918.828	4322
918.939	4402
919.05	4242
919.161	4341
919.272	4154
919.383	4192
919.494	4455
919.604	4626
919.715	4436
919.826	4360
919.936	4386
920.047	4489
920.157	4436
920.267	4683
920.378	4516
920.488	4478
920.598	4717
920.708	4862
920.818	4733
920.928	4774
921.038	4919
921.148	4934
921.258	4683
921.368	4565
921.477	4481
921.587	4493
921.697	4398
921.806	4542
921.916	4413
922.025	4257
922.134	4310
922.244	4181
922.353	4337
922.462	4124
922.571	4109
922.68	3987
922.789	3934
922.898	4044
923.007	4017
923.116	4055
923.224	4025
923.333	4093
923.442	3994
923.55	3972
923.659	3979
923.767	4131
923.876	3998
923.984	4112
924.092	4010
924.201	4063
924.309	4105
924.417	4162
924.525	4051
924.633	4071
924.741	5064
924.849	3911
924.956	4124
925.064	3949
925.172	3903
925.279	3956
925.387	4032
925.494	4063
925.602	4169
925.709	4124
925.816	4032
925.924	4188
926.031	4223
926.138	4162
926.245	4196
926.352	4078
926.459	4219
926.566	4268
926.673	4185
926.779	4059
926.886	4090
926.993	4017
927.099	3896
927.206	3953
927.312	3968
927.419	3998
927.525	4029
927.631	4074
927.737	3960
927.843	3987
927.95	3831
928.056	3953
928.162	3964
928.267	4063
928.373	4660
928.479	4154
928.585	3831
928.69	4013
928.796	4082
928.901	3975
929.007	3838
929.112	3968
929.218	3956
929.323	3911
929.428	3926
929.533	4071
929.638	3953
929.743	3956
929.848	4059
929.953	3979
930.058	3968
930.163	3789
930.267	3808
930.372	3964
930.477	3804
930.581	4090
930.685	3911
930.79	3819
930.894	3873
930.998	3842
931.103	4002
931.207	3717
931.311	3663
931.415	3690
931.519	3511
931.623	3511
