Data from test_V78500241_2504.txt Node
Date: Fri Mar 25 17:06:24 CST 2022
User: usil
Spectrometer: V785-0024
Trigger mode: 0
Integration Time (sec): 4.000000E-1
Scans to average: 1
Nonlinearity correction enabled: false
Boxcar width: 0
Storing dark spectrum: false
XAxis mode: Wavelengths
Number of Pixels in Spectrum: 1024
>>>>>Begin Spectral Data<<<<<
801.071	8005
801.214	7970
801.356	7811
801.499	7852
801.641	7792
801.783	7830
801.926	7921
802.068	7902
802.211	7951
802.353	7978
802.496	7856
802.638	7875
802.78	7902
802.923	7909
803.065	7822
803.208	7818
803.35	8001
803.492	8046
803.635	8210
803.777	7997
803.919	8107
804.061	8446
804.204	8168
804.346	8084
804.488	7883
804.63	8058
804.773	7986
804.915	8077
805.057	8343
805.199	8126
805.341	8149
805.483	8259
805.626	8210
805.768	8183
805.91	8210
806.052	8172
806.194	8043
806.336	8221
806.478	8115
806.62	8016
806.762	8153
806.904	8225
807.046	8438
807.188	8381
807.33	8355
807.472	8320
807.614	8164
807.756	8126
807.898	8020
808.04	7871
808.182	7944
808.324	7925
808.465	7906
808.607	8024
808.749	8100
808.891	8176
809.033	8313
809.174	8134
809.316	8046
809.458	8111
809.6	8031
809.741	8008
809.883	8050
810.025	8084
810.166	8084
810.308	7898
810.45	8050
810.591	8016
810.733	7761
810.875	7750
811.016	7468
811.158	7464
811.299	7609
811.441	7693
811.582	7708
811.724	7510
811.865	7571
812.007	7552
812.148	7601
812.29	7655
812.431	7651
812.573	7909
812.714	7986
812.855	8069
812.997	8172
813.138	8332
813.279	8145
813.421	8020
813.562	7959
813.703	7795
813.845	7738
813.986	7491
814.127	7251
814.268	7247
814.41	7152
814.551	7126
814.692	7202
814.833	7084
814.974	7126
815.115	7122
815.256	6966
815.397	6985
815.539	6970
815.68	6806
815.821	6745
815.962	6901
816.103	6878
816.244	6692
816.385	6616
816.526	6658
816.666	6528
816.807	6346
816.948	6471
817.089	6536
817.23	6441
817.371	6388
817.512	6380
817.653	6395
817.793	6361
817.934	6407
818.075	6475
818.216	6448
818.356	6429
818.497	6258
818.638	6152
818.778	6178
818.919	6140
819.06	6152
819.2	6346
819.341	6331
819.481	6327
819.622	6555
819.762	6726
819.903	6715
820.043	6642
820.184	6555
820.324	6654
820.465	6719
820.605	6684
820.746	6673
820.886	6601
821.026	6677
821.167	6715
821.307	6791
821.447	6776
821.588	6719
821.728	6589
821.868	6506
822.008	6315
822.149	6350
822.289	6376
822.429	6171
822.569	6068
822.709	6144
822.849	5885
822.99	5973
823.13	5904
823.27	5942
823.41	5752
823.55	5798
823.69	5779
823.83	5756
823.97	5691
824.11	5596
824.25	5528
824.389	5543
824.529	5646
824.669	5486
824.809	5646
824.949	5627
825.089	5665
825.228	5573
825.368	5376
825.508	5326
825.648	5353
825.787	5387
825.927	5406
826.067	5269
826.206	5311
826.346	5349
826.485	5448
826.625	5398
826.765	5539
826.904	5448
827.044	5265
827.183	5204
827.323	5147
827.462	5181
827.601	5170
827.741	5143
827.88	5254
828.02	5098
828.159	5242
828.298	5349
828.437	5379
828.577	5265
828.716	5444
828.855	5318
828.994	5174
829.134	5140
829.273	5208
829.412	5151
829.551	5079
829.69	5121
829.829	5292
829.968	5364
830.107	5246
830.246	5315
830.385	5204
830.524	5132
830.663	5086
830.802	4972
830.941	4866
831.08	4896
831.219	4980
831.357	4968
831.496	5117
831.635	4866
831.774	4812
831.913	4824
832.051	4771
832.19	4744
832.329	4854
832.467	4752
832.606	4649
832.744	4733
832.883	4706
833.022	4668
833.16	4820
833.299	4797
833.437	4858
833.576	4816
833.714	4873
833.852	4854
833.991	4900
834.129	4957
834.267	4934
834.406	4915
834.544	4957
834.682	4953
834.821	5010
834.959	5254
835.097	4987
835.235	5193
835.373	5060
835.511	5067
835.65	5025
835.788	5037
835.926	4889
836.064	4850
836.202	4919
836.34	5174
836.478	5239
836.615	5132
836.753	5223
836.891	5273
837.029	5254
837.167	5220
837.305	5147
837.443	5147
837.58	5071
837.718	5277
837.856	5174
837.993	5155
838.131	5277
838.269	5212
838.406	5242
838.544	5166
838.681	5033
838.819	4961
838.956	4911
839.094	4904
839.231	4976
839.369	5094
839.506	5486
839.643	5258
839.781	5094
839.918	4976
840.055	5117
840.193	5105
840.33	5083
840.467	5109
840.604	5174
840.742	5429
840.879	5086
841.016	5094
841.153	5174
841.29	5334
841.427	5341
841.564	5299
841.701	5364
841.838	5265
841.975	5254
842.112	5280
842.249	5143
842.385	5102
842.522	5341
842.659	5174
842.796	5159
842.933	5189
843.069	5117
843.206	5124
843.343	5341
843.479	5265
843.616	5258
843.752	5067
843.889	5041
844.025	5174
844.162	5006
844.298	5280
844.435	5132
844.571	5064
844.708	5162
844.844	5322
844.98	5322
845.117	5269
845.253	5143
845.389	5083
845.525	5185
845.661	5143
845.798	5022
845.934	5117
846.07	5029
846.206	5170
846.342	5330
846.478	5212
846.614	4968
846.75	4949
846.886	4923
847.022	5109
847.158	4999
847.294	5006
847.429	5083
847.565	5060
847.701	5341
847.837	4843
847.972	4805
848.108	4904
848.244	4942
848.379	4774
848.515	4714
848.65	4714
848.786	4736
848.921	4767
849.057	4858
849.192	4915
849.328	4835
849.463	4824
849.598	4801
849.734	4774
849.869	4740
850.004	4653
850.14	4672
850.275	4626
850.41	4523
850.545	4577
850.68	4615
850.815	4660
850.95	4626
851.085	4831
851.22	4744
851.355	4698
851.49	4618
851.625	4687
851.76	4637
851.895	4523
852.03	4504
852.165	4664
852.299	4675
852.434	4782
852.569	4691
852.703	4752
852.838	4858
852.973	4942
853.107	4873
853.242	4755
853.376	4672
853.511	4512
853.645	4611
853.78	4824
853.914	4656
854.048	4664
854.183	4634
854.317	4702
854.451	4831
854.585	4649
854.72	4592
854.854	4748
854.988	4577
855.122	4592
855.256	4531
855.39	4656
855.524	4786
855.658	4675
855.792	4714
855.926	4691
856.06	4736
856.194	4797
856.327	4675
856.461	4615
856.595	4596
856.729	4615
856.862	4740
856.996	4740
857.13	4759
857.263	4805
857.397	4778
857.53	4664
857.664	4691
857.797	4793
857.931	4778
858.064	4687
858.197	4771
858.331	4584
858.464	4573
858.597	4577
858.731	4607
858.864	4645
858.997	4561
859.13	4622
859.263	4702
859.396	4660
859.529	4592
859.662	4569
859.795	4527
859.928	4637
860.061	4782
860.194	4740
860.327	4603
860.46	4565
860.592	4634
860.725	4679
860.858	4744
860.99	4554
861.123	4538
861.256	4584
861.388	4584
861.521	5220
861.653	4455
861.786	4417
861.918	4470
862.05	4512
862.183	4565
862.315	4580
862.447	4660
862.58	4497
862.712	4432
862.844	4348
862.976	4485
863.108	4466
863.24	4866
863.372	4367
863.504	4421
863.636	4386
863.768	4527
863.9	4432
864.032	4398
864.164	4394
864.296	4497
864.428	4519
864.559	4561
864.691	4523
864.823	4516
864.954	4523
865.086	4497
865.217	4478
865.349	4348
865.48	4447
865.612	4459
865.743	4637
865.875	4405
866.006	4443
866.137	4459
866.269	4432
866.4	4417
866.531	4443
866.662	4413
866.793	4417
866.924	4424
867.055	4466
867.186	4409
867.317	4440
867.448	4402
867.579	4417
867.71	4390
867.841	4367
867.972	4459
868.103	4493
868.233	4508
868.364	4466
868.495	4485
868.625	4656
868.756	4729
868.886	4603
869.017	4603
869.147	4748
869.278	4748
869.408	4611
869.539	4645
869.669	4714
869.799	4679
869.929	4752
870.06	4710
870.19	4968
870.32	4919
870.45	4946
870.58	4976
870.71	5132
870.84	5105
870.97	4957
871.1	4892
871.23	5170
871.36	5086
871.489	5014
871.619	5094
871.749	5094
871.879	5094
872.008	5181
872.138	5071
872.267	4938
872.397	4835
872.526	4801
872.656	4694
872.785	4843
872.915	4980
873.044	5025
873.173	4946
873.303	4961
873.432	4972
873.561	4968
873.69	4870
873.819	4820
873.948	4923
874.077	4816
874.206	4771
874.335	4774
874.464	4938
874.593	5045
874.722	4968
874.851	5029
874.979	5037
875.108	5018
875.237	4911
875.365	4892
875.494	4900
875.623	4980
875.751	4839
875.88	4885
876.008	4980
876.136	4972
876.265	5197
876.393	5315
876.521	5258
876.65	5208
876.778	5113
876.906	5109
877.034	5018
877.162	5014
877.29	5014
877.418	5048
877.546	5064
877.674	5079
877.802	5083
877.93	5006
878.058	4923
878.185	4870
878.313	4949
878.441	4961
878.568	4797
878.696	4843
878.824	4934
878.951	4968
879.079	5174
879.206	5284
879.333	5121
879.461	4949
879.588	5003
879.715	5067
879.842	5208
879.97	4995
880.097	4759
880.224	4744
880.351	4801
880.478	4843
880.605	4820
880.732	4733
880.859	5090
880.986	4877
881.112	4927
881.239	4748
881.366	4656
881.493	4580
881.619	4577
881.746	4565
881.872	4687
881.999	4664
882.125	4691
882.252	4782
882.378	4831
882.505	4961
882.631	4816
882.757	4675
882.883	4733
883.01	4733
883.136	4645
883.262	4599
883.388	4607
883.514	4778
883.64	4873
883.766	4755
883.892	4634
884.018	4763
884.143	4858
884.269	5029
884.395	4656
884.52	4618
884.646	4588
884.772	4596
884.897	4542
885.023	4637
885.148	4763
885.274	4843
885.399	4847
885.524	4698
885.65	4706
885.775	4755
885.9	4691
886.025	4881
886.15	4873
886.275	4717
886.4	4691
886.525	4755
886.65	4694
886.775	4660
886.9	4889
887.025	4999
887.149	4786
887.274	4634
887.399	4561
887.523	4565
887.648	4558
887.773	4592
887.897	4755
888.021	4793
888.146	4649
888.27	4839
888.395	4896
888.519	4805
888.643	4786
888.767	4793
888.891	4679
889.015	4618
889.139	4691
889.263	4607
889.387	4755
889.511	4839
889.635	4801
889.759	4656
889.883	4641
890.006	4744
890.13	4831
890.254	4660
890.377	4672
890.501	4580
890.624	4527
890.748	4637
890.871	4531
890.995	4428
891.118	4348
891.241	4497
891.364	4542
891.488	4607
891.611	4516
891.734	4523
891.857	4607
891.98	4569
892.103	4645
892.226	4569
892.349	4535
892.471	4428
892.594	4531
892.717	4561
892.839	4546
892.962	4599
893.085	4653
893.207	4611
893.33	4462
893.452	4512
893.575	4626
893.697	4569
893.819	4797
893.941	4824
894.064	4786
894.186	4580
894.308	4558
894.43	4672
894.552	4847
894.674	4736
894.796	4561
894.918	4596
895.04	4584
895.161	4702
895.283	4637
895.405	4535
895.526	4675
895.648	4714
895.769	4672
895.891	4771
896.012	4702
896.134	4740
896.255	4577
896.376	4607
896.498	4599
896.619	4698
896.74	4622
896.861	4637
896.982	4938
897.103	5105
897.224	4778
897.345	4752
897.466	4645
897.587	4725
897.708	4824
897.828	4763
897.949	4622
898.07	4592
898.19	4630
898.311	4820
898.431	4698
898.552	4752
898.672	4805
898.792	4782
898.913	4679
899.033	4645
899.153	4512
899.273	4428
899.393	4550
899.513	4535
899.633	4478
899.753	4500
899.873	4493
899.993	4588
900.113	4550
900.232	4615
900.352	4535
900.472	4474
900.591	4352
900.711	4519
900.83	4409
900.95	4580
901.069	4626
901.189	4569
901.308	4360
901.427	4329
901.546	4417
901.665	4394
901.784	4489
901.904	4352
902.023	4303
902.141	4204
902.26	4147
902.379	4265
902.498	4242
902.617	4230
902.735	4337
902.854	4390
902.973	4341
903.091	4249
903.21	4181
903.328	4299
903.446	4268
903.565	4242
903.683	4337
903.801	4242
903.919	4394
904.038	4443
904.156	4337
904.274	4424
904.392	4379
904.51	4390
904.627	4489
904.745	4622
904.863	4634
904.981	4402
905.098	4287
905.216	4318
905.334	4443
905.451	4409
905.569	4440
905.686	4542
905.803	4611
905.921	4394
906.038	4603
906.155	4493
906.272	4394
906.389	4459
906.506	4325
906.623	4360
906.74	4390
906.857	4352
906.974	4344
907.091	4554
907.208	4630
907.324	4592
907.441	4546
907.557	4352
907.674	4360
907.79	4356
907.907	4371
908.023	4512
908.139	4462
908.256	4447
908.372	4535
908.488	4474
908.604	4356
908.72	4299
908.836	4398
908.952	4371
909.068	4424
909.184	4573
909.3	4485
909.415	4607
909.531	4538
909.647	4383
909.762	4348
909.878	4360
909.993	4447
910.108	4466
910.224	4481
910.339	4535
910.454	4428
910.57	4421
910.685	4325
910.8	4683
910.915	4637
911.03	4527
911.145	4394
911.259	4440
911.374	4398
911.489	4352
911.604	4272
911.718	4200
911.833	4238
911.947	4158
912.062	4055
912.176	4215
912.291	4284
912.405	4257
912.519	4489
912.633	4569
912.748	4417
912.862	4352
912.976	4253
913.09	4162
913.204	4246
913.318	4303
913.431	4398
913.545	4383
913.659	4447
913.772	4386
913.886	4284
914	4261
914.113	4462
914.226	4519
914.34	4417
914.453	4280
914.566	4470
914.68	4386
914.793	4413
914.906	4196
915.019	4166
915.132	4093
915.245	4219
915.358	4268
915.47	4280
915.583	4287
915.696	4329
915.809	4432
915.921	4459
916.034	4325
916.146	4268
916.259	4257
916.371	4386
916.483	4356
916.595	4329
916.708	4322
916.82	4352
916.932	4386
917.044	4303
917.156	4360
917.268	4291
917.38	4306
917.491	4329
917.603	4325
917.715	4485
917.826	4466
917.938	4348
918.049	4284
918.161	4443
918.272	4603
918.384	4596
918.495	4504
918.606	4310
918.717	4261
918.828	4402
918.939	4436
919.05	4295
919.161	4344
919.272	4234
919.383	4295
919.494	4489
919.604	4668
919.715	4428
919.826	4428
919.936	4440
920.047	4580
920.157	4512
920.267	4740
920.378	4573
920.488	4516
920.598	4748
920.708	4896
920.818	4767
920.928	4820
921.038	4938
921.148	4965
921.258	4618
921.368	4554
921.477	4561
921.587	4504
921.697	4402
921.806	4561
921.916	4478
922.025	4280
922.134	4306
922.244	4276
922.353	4375
922.462	4257
922.571	4192
922.68	4021
922.789	4010
922.898	4048
923.007	4032
923.116	4112
923.224	4093
923.333	4071
923.442	4021
923.55	4025
923.659	3998
923.767	4109
923.876	4036
923.984	4128
924.092	4048
924.201	4147
924.309	4158
924.417	4131
924.525	4078
924.633	4135
924.741	4911
924.849	3915
924.956	4169
925.064	3937
925.172	3987
925.279	3960
925.387	4093
925.494	4048
925.602	4200
925.709	4204
925.816	4055
925.924	4135
926.031	4261
926.138	4230
926.245	4238
926.352	4143
926.459	4272
926.566	4318
926.673	4158
926.779	4116
926.886	4109
926.993	4002
927.099	3960
927.206	4017
927.312	3968
927.419	4105
927.525	4071
927.631	4162
927.737	3998
927.843	3960
927.95	3896
928.056	3983
928.162	4055
928.267	4090
928.373	4634
928.479	4105
928.585	3972
928.69	4029
928.796	4078
928.901	4013
929.007	3888
929.112	4029
929.218	3979
929.323	3918
929.428	3960
929.533	4154
929.638	3934
929.743	4017
929.848	4093
929.953	4021
930.058	3956
930.163	3835
930.267	3865
930.372	3968
930.477	3838
930.581	4093
930.685	3960
930.79	3838
930.894	3907
930.998	3861
931.103	4021
931.207	3755
931.311	3728
931.415	3701
931.519	3591
931.623	3580
