Data from test_V78500241_1399.txt Node
Date: Fri Mar 25 16:58:43 CST 2022
User: usil
Spectrometer: V785-0024
Trigger mode: 0
Integration Time (sec): 4.000000E-1
Scans to average: 1
Nonlinearity correction enabled: false
Boxcar width: 0
Storing dark spectrum: false
XAxis mode: Wavelengths
Number of Pixels in Spectrum: 1024
>>>>>Begin Spectral Data<<<<<
801.071	8046
801.214	8046
801.356	7894
801.499	7811
801.641	7822
801.783	7765
801.926	7921
802.068	7936
802.211	7902
802.353	8039
802.496	7799
802.638	7894
802.78	7849
802.923	7921
803.065	7887
803.208	7864
803.35	7944
803.492	8069
803.635	8123
803.777	8016
803.919	8103
804.061	8514
804.204	8187
804.346	8088
804.488	7955
804.63	8130
804.773	8035
804.915	8115
805.057	8317
805.199	8123
805.341	8210
805.483	8229
805.626	8221
805.768	8096
805.91	8176
806.052	8240
806.194	8065
806.336	8294
806.478	8107
806.62	8035
806.762	8172
806.904	8206
807.046	8457
807.188	8423
807.33	8279
807.472	8305
807.614	8138
807.756	8145
807.898	7997
808.04	7898
808.182	7944
808.324	7864
808.465	7936
808.607	8084
808.749	8142
808.891	8259
809.033	8301
809.174	8172
809.316	8065
809.458	8088
809.6	7986
809.741	8073
809.883	7997
810.025	8134
810.166	8062
810.308	8046
810.45	8043
810.591	7849
810.733	7731
810.875	7655
811.016	7544
811.158	7502
811.299	7628
811.441	7757
811.582	7700
811.724	7556
811.865	7499
812.007	7582
812.148	7571
812.29	7655
812.431	7723
812.573	7894
812.714	7986
812.855	8164
812.997	8168
813.138	8324
813.279	8214
813.421	8084
813.562	7970
813.703	7856
813.845	7753
813.986	7460
814.127	7198
814.268	7202
814.41	7168
814.551	7160
814.692	7171
814.833	7110
814.974	7133
815.115	7118
815.256	7023
815.397	6901
815.539	6916
815.68	6802
815.821	6779
815.962	6886
816.103	6848
816.244	6730
816.385	6631
816.526	6578
816.666	6467
816.807	6319
816.948	6414
817.089	6471
817.23	6452
817.371	6399
817.512	6365
817.653	6384
817.793	6304
817.934	6418
818.075	6426
818.216	6403
818.356	6353
818.497	6232
818.638	6087
818.778	6129
818.919	6159
819.06	6144
819.2	6251
819.341	6228
819.481	6331
819.622	6517
819.762	6715
819.903	6741
820.043	6650
820.184	6578
820.324	6509
820.465	6646
820.605	6703
820.746	6574
820.886	6483
821.026	6597
821.167	6696
821.307	6776
821.447	6760
821.588	6658
821.728	6532
821.868	6528
822.008	6300
822.149	6308
822.289	6296
822.429	6140
822.569	6068
822.709	6125
822.849	5874
822.99	5878
823.13	5931
823.27	5851
823.41	5771
823.55	5802
823.69	5767
823.83	5748
823.97	5649
824.11	5535
824.25	5459
824.389	5570
824.529	5554
824.669	5520
824.809	5615
824.949	5596
825.089	5619
825.228	5501
825.368	5376
825.508	5315
825.648	5360
825.787	5360
825.927	5349
826.067	5246
826.206	5296
826.346	5387
826.485	5372
826.625	5379
826.765	5452
826.904	5444
827.044	5220
827.183	5109
827.323	5136
827.462	5250
827.601	5166
827.741	5227
827.88	5166
828.02	5155
828.159	5181
828.298	5265
828.437	5334
828.577	5254
828.716	5520
828.855	5318
828.994	5174
829.134	5143
829.273	5201
829.412	5086
829.551	5162
829.69	5155
829.829	5235
829.968	5330
830.107	5239
830.246	5303
830.385	5166
830.524	5166
830.663	5029
830.802	4930
830.941	4843
831.08	4881
831.219	4968
831.357	4957
831.496	5140
831.635	4908
831.774	4816
831.913	4839
832.051	4683
832.19	4774
832.329	4771
832.467	4660
832.606	4615
832.744	4702
832.883	4717
833.022	4702
833.16	4698
833.299	4755
833.437	4782
833.576	4809
833.714	4797
833.852	4881
833.991	4866
834.129	4904
834.267	4908
834.406	4919
834.544	4938
834.682	4957
834.821	4881
834.959	5113
835.097	4984
835.235	5090
835.373	5029
835.511	5086
835.65	4953
835.788	4999
835.926	4904
836.064	4900
836.202	4919
836.34	5136
836.478	5212
836.615	5102
836.753	5208
836.891	5292
837.029	5242
837.167	5193
837.305	5185
837.443	5147
837.58	5102
837.718	5246
837.856	5170
837.993	5132
838.131	5292
838.269	5193
838.406	5170
838.544	5204
838.681	5037
838.819	4919
838.956	4866
839.094	4885
839.231	4957
839.369	5060
839.506	5398
839.643	5265
839.781	5056
839.918	5010
840.055	5090
840.193	5105
840.33	5060
840.467	5105
840.604	5174
840.742	5482
840.879	5052
841.016	5075
841.153	5105
841.29	5345
841.427	5341
841.564	5250
841.701	5307
841.838	5288
841.975	5246
842.112	5242
842.249	5121
842.385	5071
842.522	5303
842.659	5094
842.796	5113
842.933	5216
843.069	5143
843.206	5140
843.343	5258
843.479	5280
843.616	5193
843.752	5060
843.889	4915
844.025	5208
844.162	5041
844.298	5212
844.435	5071
844.571	5010
844.708	5197
844.844	5330
844.98	5265
845.117	5280
845.253	5174
845.389	5075
845.525	5117
845.661	5086
845.798	5025
845.934	5162
846.07	5037
846.206	5208
846.342	5239
846.478	5178
846.614	5003
846.75	4984
846.886	4923
847.022	5155
847.158	5033
847.294	5064
847.429	5113
847.565	5094
847.701	5269
847.837	4854
847.972	4763
848.108	5006
848.244	4949
848.379	4820
848.515	4725
848.65	4755
848.786	4797
848.921	4786
849.057	4820
849.192	4885
849.328	4824
849.463	4801
849.598	4748
849.734	4771
849.869	4653
850.004	4607
850.14	4691
850.275	4580
850.41	4481
850.545	4531
850.68	4554
850.815	4596
850.95	4588
851.085	4790
851.22	4710
851.355	4683
851.49	4622
851.625	4653
851.76	4653
851.895	4554
852.03	4535
852.165	4618
852.299	4656
852.434	4805
852.569	4710
852.703	4790
852.838	4831
852.973	4881
853.107	4919
853.242	4729
853.376	4675
853.511	4550
853.645	4565
853.78	4763
853.914	4668
854.048	4729
854.183	4653
854.317	4656
854.451	4786
854.585	4675
854.72	4664
854.854	4755
854.988	4573
855.122	4645
855.256	4516
855.39	4668
855.524	4767
855.658	4710
855.792	4706
855.926	4774
856.06	4729
856.194	4771
856.327	4660
856.461	4592
856.595	4596
856.729	4660
856.862	4790
856.996	4675
857.13	4698
857.263	4748
857.397	4786
857.53	4615
857.664	4729
857.797	4786
857.931	4793
858.064	4698
858.197	4725
858.331	4630
858.464	4660
858.597	4485
858.731	4622
858.864	4592
858.997	4603
859.13	4706
859.263	4637
859.396	4691
859.529	4622
859.662	4584
859.795	4523
859.928	4634
860.061	4748
860.194	4725
860.327	4588
860.46	4565
860.592	4725
860.725	4698
860.858	4691
860.99	4535
861.123	4531
861.256	4561
861.388	4615
861.521	5406
861.653	4466
861.786	4459
861.918	4481
862.05	4573
862.183	4531
862.315	4577
862.447	4649
862.58	4527
862.712	4383
862.844	4303
862.976	4417
863.108	4432
863.24	4820
863.372	4344
863.504	4405
863.636	4390
863.768	4428
863.9	4447
864.032	4371
864.164	4352
864.296	4470
864.428	4538
864.559	4535
864.691	4474
864.823	4478
864.954	4489
865.086	4466
865.217	4470
865.349	4424
865.48	4478
865.612	4504
865.743	4599
865.875	4443
866.006	4436
866.137	4462
866.269	4462
866.4	4447
866.531	4386
866.662	4443
866.793	4398
866.924	4394
867.055	4508
867.186	4428
867.317	4402
867.448	4356
867.579	4413
867.71	4375
867.841	4325
867.972	4405
868.103	4489
868.233	4405
868.364	4436
868.495	4447
868.625	4637
868.756	4721
868.886	4565
869.017	4580
869.147	4771
869.278	4782
869.408	4668
869.539	4577
869.669	4660
869.799	4637
869.929	4721
870.06	4694
870.19	4923
870.32	4892
870.45	4919
870.58	5006
870.71	5064
870.84	5109
870.97	4946
871.1	4866
871.23	5159
871.36	5102
871.489	5006
871.619	5003
871.749	5022
871.879	5132
872.008	5189
872.138	5037
872.267	4949
872.397	4828
872.526	4767
872.656	4698
872.785	4782
872.915	4980
873.044	5022
873.173	4904
873.303	4946
873.432	4934
873.561	4923
873.69	4858
873.819	4873
873.948	4896
874.077	4820
874.206	4763
874.335	4782
874.464	4938
874.593	5048
874.722	4953
874.851	5075
874.979	4995
875.108	4984
875.237	4904
875.365	4850
875.494	4847
875.623	4991
875.751	4824
875.88	4835
876.008	4938
876.136	5033
876.265	5220
876.393	5318
876.521	5166
876.65	5258
876.778	5151
876.906	5045
877.034	5014
877.162	5022
877.29	5010
877.418	5056
877.546	5006
877.674	5022
877.802	5025
877.93	5086
878.058	4938
878.185	4862
878.313	4911
878.441	4885
878.568	4797
878.696	4816
878.824	4980
878.951	4953
879.079	5121
879.206	5261
879.333	5071
879.461	5006
879.588	5003
879.715	5086
879.842	5204
879.97	4968
880.097	4797
880.224	4763
880.351	4771
880.478	4820
880.605	4759
880.732	4729
880.859	5102
880.986	4896
881.112	4915
881.239	4729
881.366	4675
881.493	4542
881.619	4615
881.746	4653
881.872	4630
881.999	4672
882.125	4679
882.252	4793
882.378	4767
882.505	4904
882.631	4809
882.757	4584
882.883	4759
883.01	4710
883.136	4656
883.262	4622
883.388	4542
883.514	4835
883.64	4805
883.766	4786
883.892	4656
884.018	4675
884.143	4900
884.269	5025
884.395	4691
884.52	4641
884.646	4618
884.772	4596
884.897	4531
885.023	4622
885.148	4774
885.274	4843
885.399	4828
885.524	4714
885.65	4668
885.775	4771
885.9	4672
886.025	4862
886.15	4755
886.275	4721
886.4	4679
886.525	4717
886.65	4649
886.775	4714
886.9	4919
887.025	4995
887.149	4816
887.274	4641
887.399	4611
887.523	4569
887.648	4592
887.773	4538
887.897	4717
888.021	4771
888.146	4660
888.27	4782
888.395	4896
888.519	4809
888.643	4843
888.767	4782
888.891	4660
889.015	4637
889.139	4645
889.263	4580
889.387	4733
889.511	4862
889.635	4812
889.759	4580
889.883	4672
890.006	4714
890.13	4752
890.254	4622
890.377	4656
890.501	4500
890.624	4512
890.748	4653
890.871	4516
890.995	4432
891.118	4344
891.241	4558
891.364	4527
891.488	4630
891.611	4500
891.734	4565
891.857	4554
891.98	4538
892.103	4656
892.226	4561
892.349	4546
892.471	4402
892.594	4516
892.717	4599
892.839	4596
892.962	4573
893.085	4694
893.207	4580
893.33	4436
893.452	4497
893.575	4577
893.697	4577
893.819	4805
893.941	4812
894.064	4752
894.186	4588
894.308	4508
894.43	4767
894.552	4820
894.674	4752
894.796	4561
894.918	4607
895.04	4546
895.161	4710
895.283	4664
895.405	4531
895.526	4611
895.648	4672
895.769	4672
895.891	4752
896.012	4740
896.134	4698
896.255	4664
896.376	4611
896.498	4618
896.619	4683
896.74	4580
896.861	4656
896.982	4889
897.103	5105
897.224	4786
897.345	4740
897.466	4630
897.587	4714
897.708	4847
897.828	4759
897.949	4698
898.07	4554
898.19	4599
898.311	4748
898.431	4637
898.552	4706
898.672	4755
898.792	4755
898.913	4733
899.033	4577
899.153	4489
899.273	4394
899.393	4504
899.513	4485
899.633	4508
899.753	4519
899.873	4497
899.993	4634
900.113	4493
900.232	4550
900.352	4535
900.472	4535
900.591	4436
900.711	4466
900.83	4428
900.95	4626
901.069	4637
901.189	4523
901.308	4379
901.427	4341
901.546	4421
901.665	4470
901.784	4504
901.904	4348
902.023	4325
902.141	4204
902.26	4120
902.379	4291
902.498	4227
902.617	4207
902.735	4383
902.854	4348
902.973	4363
903.091	4192
903.21	4230
903.328	4295
903.446	4272
903.565	4211
903.683	4341
903.801	4295
903.919	4371
904.038	4394
904.156	4287
904.274	4432
904.392	4394
904.51	4421
904.627	4470
904.745	4538
904.863	4588
904.981	4383
905.098	4333
905.216	4318
905.334	4356
905.451	4417
905.569	4485
905.686	4554
905.803	4573
905.921	4383
906.038	4535
906.155	4462
906.272	4383
906.389	4413
906.506	4322
906.623	4371
906.74	4352
906.857	4325
906.974	4314
907.091	4584
907.208	4683
907.324	4592
907.441	4508
907.557	4318
907.674	4329
907.79	4344
907.907	4352
908.023	4462
908.139	4485
908.256	4424
908.372	4424
908.488	4428
908.604	4348
908.72	4310
908.836	4398
908.952	4329
909.068	4386
909.184	4561
909.3	4531
909.415	4596
909.531	4523
909.647	4344
909.762	4386
909.878	4318
909.993	4428
910.108	4398
910.224	4424
910.339	4424
910.454	4379
910.57	4341
910.685	4356
910.8	4641
910.915	4588
911.03	4497
911.145	4291
911.259	4318
911.374	4356
911.489	4265
911.604	4265
911.718	4143
911.833	4200
911.947	4055
912.062	4021
912.176	4158
912.291	4223
912.405	4265
912.519	4455
912.633	4500
912.748	4402
912.862	4280
912.976	4181
913.09	4044
913.204	4200
913.318	4227
913.431	4322
913.545	4352
913.659	4398
913.772	4344
913.886	4211
914	4196
914.113	4394
914.226	4459
914.34	4360
914.453	4211
914.566	4417
914.68	4287
914.793	4299
914.906	4207
915.019	4147
915.132	4044
915.245	4169
915.358	4227
915.47	4188
915.583	4265
915.696	4310
915.809	4394
915.921	4440
916.034	4265
916.146	4219
916.259	4215
916.371	4379
916.483	4379
916.595	4261
916.708	4318
916.82	4333
916.932	4318
917.044	4261
917.156	4268
917.268	4204
917.38	4242
917.491	4276
917.603	4314
917.715	4383
917.826	4386
917.938	4337
918.049	4265
918.161	4367
918.272	4527
918.384	4535
918.495	4470
918.606	4295
918.717	4169
918.828	4303
918.939	4371
919.05	4242
919.161	4299
919.272	4143
919.383	4284
919.494	4428
919.604	4592
919.715	4413
919.826	4360
919.936	4394
920.047	4485
920.157	4478
920.267	4694
920.378	4523
920.488	4500
920.598	4767
920.708	4862
920.818	4710
920.928	4736
921.038	4953
921.148	4919
921.258	4630
921.368	4580
921.477	4497
921.587	4440
921.697	4310
921.806	4504
921.916	4413
922.025	4272
922.134	4242
922.244	4162
922.353	4287
922.462	4139
922.571	4143
922.68	4002
922.789	3945
922.898	4013
923.007	4013
923.116	4074
923.224	4048
923.333	4063
923.442	3956
923.55	3926
923.659	4029
923.767	4059
923.876	3994
923.984	4097
924.092	3949
924.201	4048
924.309	4055
924.417	4040
924.525	4071
924.633	4040
924.741	5018
924.849	3911
924.956	4071
925.064	4006
925.172	3892
925.279	3915
925.387	3998
925.494	4029
925.602	4200
925.709	4158
925.816	4048
925.924	4109
926.031	4173
926.138	4135
926.245	4169
926.352	4063
926.459	4242
926.566	4310
926.673	4158
926.779	4093
926.886	4036
926.993	3903
927.099	3953
927.206	3953
927.312	3915
927.419	4048
927.525	4013
927.631	4074
927.737	3941
927.843	3956
927.95	3842
928.056	3949
928.162	3937
928.267	4059
928.373	4649
928.479	4078
928.585	3888
928.69	4021
928.796	4071
928.901	3930
929.007	3846
929.112	3987
929.218	3987
929.323	3930
929.428	3903
929.533	4105
929.638	3918
929.743	3991
929.848	4055
929.953	3983
930.058	3926
930.163	3804
930.267	3842
930.372	3964
930.477	3812
930.581	4097
930.685	3983
930.79	3884
930.894	3934
930.998	3873
931.103	4048
931.207	3736
931.311	3705
931.415	3682
931.519	3500
931.623	3534
