Data from test_V78500241_2161.txt Node
Date: Fri Mar 25 17:04:01 CST 2022
User: usil
Spectrometer: V785-0024
Trigger mode: 0
Integration Time (sec): 4.000000E-1
Scans to average: 1
Nonlinearity correction enabled: false
Boxcar width: 0
Storing dark spectrum: false
XAxis mode: Wavelengths
Number of Pixels in Spectrum: 1024
>>>>>Begin Spectral Data<<<<<
801.071	8001
801.214	8027
801.356	7811
801.499	7830
801.641	7784
801.783	7830
801.926	7947
802.068	7906
802.211	7997
802.353	8027
802.496	7845
802.638	7803
802.78	7845
802.923	7898
803.065	7852
803.208	7852
803.35	7978
803.492	8016
803.635	8142
803.777	8046
803.919	8180
804.061	8450
804.204	8123
804.346	8058
804.488	8024
804.63	8077
804.773	7970
804.915	8043
805.057	8218
805.199	8115
805.341	8103
805.483	8202
805.626	8263
805.768	8168
805.91	8233
806.052	8206
806.194	8119
806.336	8237
806.478	8058
806.62	8046
806.762	8119
806.904	8237
807.046	8457
807.188	8351
807.33	8237
807.472	8309
807.614	8138
807.756	8027
807.898	8008
808.04	7967
808.182	7826
808.324	7890
808.465	7951
808.607	8016
808.749	8157
808.891	8218
809.033	8290
809.174	8237
809.316	8145
809.458	8058
809.6	8046
809.741	8073
809.883	8039
810.025	8111
810.166	8035
810.308	8077
810.45	8016
810.591	7936
810.733	7719
810.875	7693
811.016	7556
811.158	7476
811.299	7529
811.441	7681
811.582	7685
811.724	7582
811.865	7506
812.007	7597
812.148	7582
812.29	7586
812.431	7769
812.573	7822
812.714	7986
812.855	8119
812.997	8206
813.138	8305
813.279	8157
813.421	8054
813.562	7902
813.703	7818
813.845	7769
813.986	7415
814.127	7244
814.268	7232
814.41	7209
814.551	7141
814.692	7171
814.833	7088
814.974	7107
815.115	7084
815.256	6966
815.397	6924
815.539	6897
815.68	6772
815.821	6757
815.962	6810
816.103	6818
816.244	6677
816.385	6597
816.526	6601
816.666	6582
816.807	6277
816.948	6437
817.089	6483
817.23	6464
817.371	6319
817.512	6395
817.653	6391
817.793	6357
817.934	6407
818.075	6483
818.216	6384
818.356	6445
818.497	6266
818.638	6076
818.778	6114
818.919	6167
819.06	6125
819.2	6292
819.341	6327
819.481	6372
819.622	6517
819.762	6719
819.903	6692
820.043	6608
820.184	6585
820.324	6582
820.465	6715
820.605	6684
820.746	6616
820.886	6555
821.026	6635
821.167	6745
821.307	6810
821.447	6772
821.588	6627
821.728	6612
821.868	6517
822.008	6376
822.149	6369
822.289	6353
822.429	6155
822.569	6060
822.709	6102
822.849	5912
822.99	5844
823.13	5866
823.27	5969
823.41	5786
823.55	5809
823.69	5798
823.83	5771
823.97	5627
824.11	5524
824.25	5532
824.389	5619
824.529	5642
824.669	5535
824.809	5676
824.949	5638
825.089	5539
825.228	5516
825.368	5395
825.508	5364
825.648	5383
825.787	5376
825.927	5372
826.067	5296
826.206	5269
826.346	5376
826.485	5402
826.625	5391
826.765	5539
826.904	5520
827.044	5318
827.183	5178
827.323	5132
827.462	5231
827.601	5151
827.741	5170
827.88	5208
828.02	5086
828.159	5258
828.298	5315
828.437	5341
828.577	5258
828.716	5501
828.855	5299
828.994	5155
829.134	5117
829.273	5155
829.412	5132
829.551	5128
829.69	5178
829.829	5155
829.968	5391
830.107	5254
830.246	5246
830.385	5128
830.524	5067
830.663	5003
830.802	4968
830.941	4881
831.08	4831
831.219	4949
831.357	4949
831.496	5151
831.635	4927
831.774	4854
831.913	4782
832.051	4744
832.19	4748
832.329	4797
832.467	4679
832.606	4592
832.744	4744
832.883	4668
833.022	4694
833.16	4809
833.299	4862
833.437	4843
833.576	4816
833.714	4835
833.852	4847
833.991	4892
834.129	4976
834.267	4968
834.406	4866
834.544	4980
834.682	4968
834.821	4972
834.959	5170
835.097	4946
835.235	5140
835.373	5056
835.511	5113
835.65	5041
835.788	5014
835.926	4877
836.064	4881
836.202	4881
836.34	5174
836.478	5189
836.615	5117
836.753	5208
836.891	5246
837.029	5201
837.167	5242
837.305	5128
837.443	5113
837.58	5079
837.718	5242
837.856	5189
837.993	5117
838.131	5227
838.269	5204
838.406	5193
838.544	5140
838.681	5045
838.819	5033
838.956	4892
839.094	4896
839.231	4942
839.369	5071
839.506	5357
839.643	5235
839.781	5067
839.918	4965
840.055	5083
840.193	5124
840.33	5159
840.467	5189
840.604	5140
840.742	5406
840.879	5094
841.016	5071
841.153	5140
841.29	5387
841.427	5311
841.564	5334
841.701	5353
841.838	5250
841.975	5223
842.112	5201
842.249	5067
842.385	5075
842.522	5277
842.659	5170
842.796	5079
842.933	5239
843.069	5178
843.206	5170
843.343	5387
843.479	5204
843.616	5261
843.752	4999
843.889	4961
844.025	5231
844.162	4984
844.298	5185
844.435	5086
844.571	5075
844.708	5178
844.844	5277
844.98	5303
845.117	5273
845.253	5113
845.389	5060
845.525	5136
845.661	5136
845.798	5025
845.934	5155
846.07	5079
846.206	5178
846.342	5242
846.478	5151
846.614	4995
846.75	4930
846.886	4938
847.022	5121
847.158	4953
847.294	5056
847.429	5102
847.565	5045
847.701	5357
847.837	4805
847.972	4763
848.108	4934
848.244	4930
848.379	4778
848.515	4725
848.65	4786
848.786	4729
848.921	4843
849.057	4885
849.192	4877
849.328	4774
849.463	4858
849.598	4759
849.734	4774
849.869	4622
850.004	4596
850.14	4694
850.275	4584
850.41	4527
850.545	4554
850.68	4630
850.815	4641
850.95	4626
851.085	4831
851.22	4702
851.355	4679
851.49	4660
851.625	4618
851.76	4653
851.895	4569
852.03	4493
852.165	4672
852.299	4675
852.434	4774
852.569	4698
852.703	4744
852.838	4850
852.973	4938
853.107	4923
853.242	4733
853.376	4672
853.511	4504
853.645	4615
853.78	4763
853.914	4706
854.048	4687
854.183	4634
854.317	4660
854.451	4755
854.585	4687
854.72	4615
854.854	4801
854.988	4531
855.122	4668
855.256	4504
855.39	4656
855.524	4771
855.658	4714
855.792	4634
855.926	4740
856.06	4774
856.194	4801
856.327	4653
856.461	4577
856.595	4599
856.729	4592
856.862	4740
856.996	4664
857.13	4755
857.263	4767
857.397	4763
857.53	4634
857.664	4694
857.797	4721
857.931	4759
858.064	4668
858.197	4767
858.331	4645
858.464	4615
858.597	4523
858.731	4622
858.864	4634
858.997	4573
859.13	4630
859.263	4675
859.396	4664
859.529	4596
859.662	4535
859.795	4516
859.928	4611
860.061	4733
860.194	4767
860.327	4596
860.46	4580
860.592	4721
860.725	4675
860.858	4721
860.99	4527
861.123	4538
861.256	4489
861.388	4584
861.521	5433
861.653	4504
861.786	4462
861.918	4436
862.05	4558
862.183	4558
862.315	4580
862.447	4649
862.58	4497
862.712	4367
862.844	4314
862.976	4459
863.108	4455
863.24	4752
863.372	4356
863.504	4421
863.636	4363
863.768	4519
863.9	4455
864.032	4310
864.164	4466
864.296	4451
864.428	4554
864.559	4565
864.691	4527
864.823	4508
864.954	4462
865.086	4497
865.217	4504
865.349	4424
865.48	4432
865.612	4485
865.743	4588
865.875	4466
866.006	4405
866.137	4493
866.269	4455
866.4	4470
866.531	4417
866.662	4379
866.793	4409
866.924	4413
867.055	4512
867.186	4447
867.317	4421
867.448	4352
867.579	4417
867.71	4337
867.841	4371
867.972	4470
868.103	4424
868.233	4424
868.364	4409
868.495	4462
868.625	4679
868.756	4717
868.886	4580
869.017	4584
869.147	4809
869.278	4759
869.408	4683
869.539	4660
869.669	4725
869.799	4603
869.929	4740
870.06	4790
870.19	4904
870.32	4900
870.45	4923
870.58	5018
870.71	5018
870.84	5018
870.97	4968
871.1	4854
871.23	5113
871.36	5090
871.489	4999
871.619	5098
871.749	5041
871.879	5102
872.008	5204
872.138	5056
872.267	4991
872.397	4839
872.526	4847
872.656	4717
872.785	4771
872.915	4965
873.044	5052
873.173	4930
873.303	4942
873.432	4892
873.561	4976
873.69	4873
873.819	4896
873.948	4896
874.077	4809
874.206	4774
874.335	4786
874.464	4904
874.593	5067
874.722	4965
874.851	5086
874.979	5060
875.108	5041
875.237	4885
875.365	4881
875.494	4927
875.623	4946
875.751	4801
875.88	4873
876.008	4934
876.136	5113
876.265	5128
876.393	5280
876.521	5246
876.65	5201
876.778	5159
876.906	5041
877.034	5033
877.162	5048
877.29	4995
877.418	5064
877.546	5006
877.674	5102
877.802	5029
877.93	4980
878.058	4934
878.185	4873
878.313	4976
878.441	4938
878.568	4820
878.696	4873
878.824	4942
878.951	5014
879.079	5159
879.206	5277
879.333	5109
879.461	4930
879.588	5006
879.715	5060
879.842	5197
879.97	5022
880.097	4736
880.224	4767
880.351	4828
880.478	4805
880.605	4774
880.732	4759
880.859	5090
880.986	4870
881.112	4892
881.239	4744
881.366	4660
881.493	4622
881.619	4573
881.746	4649
881.872	4603
881.999	4660
882.125	4641
882.252	4744
882.378	4854
882.505	4889
882.631	4797
882.757	4660
882.883	4740
883.01	4744
883.136	4607
883.262	4664
883.388	4538
883.514	4778
883.64	4881
883.766	4740
883.892	4634
884.018	4706
884.143	4885
884.269	4968
884.395	4660
884.52	4615
884.646	4664
884.772	4580
884.897	4565
885.023	4626
885.148	4733
885.274	4816
885.399	4828
885.524	4710
885.65	4668
885.775	4767
885.9	4729
886.025	4843
886.15	4816
886.275	4698
886.4	4611
886.525	4706
886.65	4664
886.775	4660
886.9	4881
887.025	5022
887.149	4809
887.274	4653
887.399	4596
887.523	4615
887.648	4573
887.773	4596
887.897	4748
888.021	4786
888.146	4721
888.27	4843
888.395	4911
888.519	4771
888.643	4786
888.767	4790
888.891	4675
889.015	4634
889.139	4653
889.263	4615
889.387	4733
889.511	4870
889.635	4774
889.759	4634
889.883	4641
890.006	4714
890.13	4831
890.254	4603
890.377	4691
890.501	4531
890.624	4565
890.748	4611
890.871	4527
890.995	4478
891.118	4371
891.241	4478
891.364	4478
891.488	4668
891.611	4493
891.734	4519
891.857	4615
891.98	4535
892.103	4672
892.226	4580
892.349	4535
892.471	4459
892.594	4504
892.717	4592
892.839	4569
892.962	4554
893.085	4672
893.207	4630
893.33	4497
893.452	4516
893.575	4634
893.697	4565
893.819	4812
893.941	4839
894.064	4752
894.186	4573
894.308	4577
894.43	4744
894.552	4809
894.674	4767
894.796	4538
894.918	4584
895.04	4588
895.161	4694
895.283	4656
895.405	4618
895.526	4645
895.648	4698
895.769	4698
895.891	4706
896.012	4721
896.134	4755
896.255	4645
896.376	4626
896.498	4622
896.619	4645
896.74	4573
896.861	4649
896.982	4889
897.103	5048
897.224	4839
897.345	4725
897.466	4641
897.587	4740
897.708	4854
897.828	4755
897.949	4630
898.07	4512
898.19	4626
898.311	4858
898.431	4694
898.552	4736
898.672	4805
898.792	4790
898.913	4778
899.033	4573
899.153	4527
899.273	4398
899.393	4527
899.513	4554
899.633	4508
899.753	4531
899.873	4497
899.993	4565
900.113	4516
900.232	4592
900.352	4542
900.472	4504
900.591	4344
900.711	4447
900.83	4421
900.95	4580
901.069	4679
901.189	4550
901.308	4333
901.427	4322
901.546	4402
901.665	4493
901.784	4504
901.904	4341
902.023	4344
902.141	4211
902.26	4150
902.379	4272
902.498	4185
902.617	4196
902.735	4352
902.854	4383
902.973	4363
903.091	4166
903.21	4253
903.328	4352
903.446	4215
903.565	4268
903.683	4325
903.801	4341
903.919	4363
904.038	4413
904.156	4310
904.274	4470
904.392	4394
904.51	4443
904.627	4466
904.745	4558
904.863	4637
904.981	4398
905.098	4284
905.216	4386
905.334	4500
905.451	4440
905.569	4417
905.686	4580
905.803	4542
905.921	4371
906.038	4527
906.155	4485
906.272	4383
906.389	4390
906.506	4417
906.623	4375
906.74	4386
906.857	4360
906.974	4375
907.091	4508
907.208	4637
907.324	4580
907.441	4466
907.557	4352
907.674	4280
907.79	4325
907.907	4341
908.023	4443
908.139	4493
908.256	4421
908.372	4481
908.488	4394
908.604	4333
908.72	4265
908.836	4360
908.952	4344
909.068	4432
909.184	4565
909.3	4489
909.415	4554
909.531	4531
909.647	4314
909.762	4413
909.878	4367
909.993	4428
910.108	4436
910.224	4390
910.339	4538
910.454	4413
910.57	4344
910.685	4390
910.8	4656
910.915	4596
911.03	4538
911.145	4314
911.259	4295
911.374	4322
911.489	4325
911.604	4303
911.718	4185
911.833	4227
911.947	4101
912.062	4021
912.176	4227
912.291	4192
912.405	4196
912.519	4451
912.633	4504
912.748	4379
912.862	4329
912.976	4200
913.09	4097
913.204	4158
913.318	4230
913.431	4367
913.545	4348
913.659	4417
913.772	4318
913.886	4253
914	4211
914.113	4344
914.226	4421
914.34	4398
914.453	4242
914.566	4405
914.68	4329
914.793	4314
914.906	4219
915.019	4063
915.132	4086
915.245	4158
915.358	4238
915.47	4291
915.583	4276
915.696	4310
915.809	4417
915.921	4440
916.034	4246
916.146	4265
916.259	4234
916.371	4363
916.483	4314
916.595	4284
916.708	4310
916.82	4318
916.932	4352
917.044	4322
917.156	4287
917.268	4211
917.38	4291
917.491	4249
917.603	4329
917.715	4409
917.826	4421
917.938	4394
918.049	4230
918.161	4352
918.272	4531
918.384	4577
918.495	4440
918.606	4249
918.717	4211
918.828	4303
918.939	4360
919.05	4223
919.161	4303
919.272	4101
919.383	4234
919.494	4443
919.604	4584
919.715	4451
919.826	4344
919.936	4421
920.047	4504
920.157	4462
920.267	4729
920.378	4512
920.488	4478
920.598	4721
920.708	4911
920.818	4782
920.928	4797
921.038	4965
921.148	4923
921.258	4630
921.368	4531
921.477	4481
921.587	4424
921.697	4379
921.806	4558
921.916	4466
922.025	4287
922.134	4253
922.244	4246
922.353	4348
922.462	4219
922.571	4097
922.68	4032
922.789	3979
922.898	4021
923.007	4010
923.116	4112
923.224	4006
923.333	4097
923.442	3960
923.55	3934
923.659	4006
923.767	4067
923.876	3979
923.984	4120
924.092	3991
924.201	4086
924.309	4093
924.417	4120
924.525	4013
924.633	4090
924.741	5048
924.849	3884
924.956	4109
925.064	3960
925.172	3899
925.279	3968
925.387	4071
925.494	4017
925.602	4204
925.709	4166
925.816	4036
925.924	4120
926.031	4204
926.138	4147
926.245	4158
926.352	4128
926.459	4246
926.566	4238
926.673	4128
926.779	4071
926.886	4067
926.993	3975
927.099	3964
927.206	3949
927.312	3915
927.419	4010
927.525	4048
927.631	4086
927.737	3979
927.843	3930
927.95	3846
928.056	3968
928.162	3968
928.267	4063
928.373	4706
928.479	4059
928.585	3842
928.69	4040
928.796	4051
928.901	3960
929.007	3819
929.112	4006
929.218	3983
929.323	3934
929.428	3899
929.533	4116
929.638	3937
929.743	3975
929.848	4029
929.953	4006
930.058	3911
930.163	3793
930.267	3804
930.372	3968
930.477	3842
930.581	4063
930.685	3953
930.79	3846
930.894	3884
930.998	3865
931.103	3987
931.207	3713
931.311	3648
931.415	3682
931.519	3530
931.623	3549
