Data from test_V78500241_1090.txt Node
Date: Fri Mar 25 16:56:34 CST 2022
User: usil
Spectrometer: V785-0024
Trigger mode: 0
Integration Time (sec): 4.000000E-1
Scans to average: 1
Nonlinearity correction enabled: false
Boxcar width: 0
Storing dark spectrum: false
XAxis mode: Wavelengths
Number of Pixels in Spectrum: 1024
>>>>>Begin Spectral Data<<<<<
801.071	8168
801.214	8081
801.356	7944
801.499	7837
801.641	7849
801.783	7818
801.926	7947
802.068	7909
802.211	7997
802.353	7947
802.496	7841
802.638	7837
802.78	7967
802.923	7947
803.065	7940
803.208	7906
803.35	7970
803.492	8153
803.635	8252
803.777	8046
803.919	8115
804.061	8457
804.204	8157
804.346	8111
804.488	7978
804.63	8111
804.773	7997
804.915	8084
805.057	8229
805.199	8096
805.341	8279
805.483	8259
805.626	8218
805.768	8172
805.91	8161
806.052	8195
806.194	8084
806.336	8290
806.478	8107
806.62	8058
806.762	8138
806.904	8320
807.046	8480
807.188	8351
807.33	8267
807.472	8362
807.614	8183
807.756	8130
807.898	7944
808.04	7852
808.182	7947
808.324	7860
808.465	7963
808.607	8043
808.749	8123
808.891	8240
809.033	8286
809.174	8218
809.316	8088
809.458	8050
809.6	8027
809.741	7997
809.883	8024
810.025	8096
810.166	8084
810.308	8012
810.45	8027
810.591	7868
810.733	7677
810.875	7685
811.016	7514
811.158	7506
811.299	7559
811.441	7734
811.582	7708
811.724	7544
811.865	7495
812.007	7518
812.148	7575
812.29	7594
812.431	7693
812.573	7879
812.714	8031
812.855	8126
812.997	8199
813.138	8305
813.279	8134
813.421	8084
813.562	8054
813.703	7830
813.845	7807
813.986	7438
814.127	7289
814.268	7206
814.41	7228
814.551	7168
814.692	7228
814.833	7042
814.974	7072
815.115	7088
815.256	6962
815.397	6894
815.539	6993
815.68	6859
815.821	6768
815.962	6844
816.103	6814
816.244	6726
816.385	6601
816.526	6620
816.666	6559
816.807	6338
816.948	6456
817.089	6471
817.23	6467
817.371	6391
817.512	6403
817.653	6365
817.793	6426
817.934	6426
818.075	6456
818.216	6448
818.356	6475
818.497	6213
818.638	6121
818.778	6194
818.919	6136
819.06	6152
819.2	6285
819.341	6323
819.481	6414
819.622	6540
819.762	6726
819.903	6662
820.043	6635
820.184	6540
820.324	6601
820.465	6696
820.605	6707
820.746	6608
820.886	6544
821.026	6681
821.167	6726
821.307	6814
821.447	6749
821.588	6639
821.728	6620
821.868	6570
822.008	6353
822.149	6376
822.289	6342
822.429	6155
822.569	6110
822.709	6114
822.849	5954
822.99	5847
823.13	5897
823.27	5893
823.41	5794
823.55	5809
823.69	5786
823.83	5794
823.97	5638
824.11	5589
824.25	5478
824.389	5573
824.529	5551
824.669	5516
824.809	5649
824.949	5661
825.089	5615
825.228	5505
825.368	5376
825.508	5284
825.648	5330
825.787	5417
825.927	5379
826.067	5337
826.206	5326
826.346	5391
826.485	5436
826.625	5368
826.765	5562
826.904	5448
827.044	5277
827.183	5197
827.323	5151
827.462	5265
827.601	5220
827.741	5235
827.88	5235
828.02	5174
828.159	5216
828.298	5273
828.437	5395
828.577	5277
828.716	5482
828.855	5341
828.994	5170
829.134	5151
829.273	5178
829.412	5174
829.551	5113
829.69	5178
829.829	5231
829.968	5429
830.107	5277
830.246	5254
830.385	5162
830.524	5079
830.663	5083
830.802	4942
830.941	4892
831.08	4858
831.219	4995
831.357	5014
831.496	5185
831.635	4953
831.774	4828
831.913	4812
832.051	4721
832.19	4748
832.329	4862
832.467	4694
832.606	4641
832.744	4698
832.883	4744
833.022	4710
833.16	4767
833.299	4820
833.437	4854
833.576	4858
833.714	4870
833.852	4900
833.991	4923
834.129	4961
834.267	4984
834.406	4934
834.544	4942
834.682	4991
834.821	4968
834.959	5155
835.097	4995
835.235	5162
835.373	5094
835.511	5155
835.65	5003
835.788	4995
835.926	4900
836.064	4908
836.202	4904
836.34	5159
836.478	5231
836.615	5155
836.753	5250
836.891	5311
837.029	5273
837.167	5151
837.305	5204
837.443	5155
837.58	5105
837.718	5284
837.856	5170
837.993	5162
838.131	5185
838.269	5185
838.406	5181
838.544	5185
838.681	5003
838.819	5006
838.956	4923
839.094	4900
839.231	4946
839.369	5052
839.506	5398
839.643	5239
839.781	5056
839.918	4999
840.055	5086
840.193	5117
840.33	5136
840.467	5147
840.604	5174
840.742	5459
840.879	5086
841.016	5029
841.153	5136
841.29	5357
841.427	5326
841.564	5326
841.701	5360
841.838	5273
841.975	5254
842.112	5235
842.249	5147
842.385	5128
842.522	5303
842.659	5193
842.796	5117
842.933	5239
843.069	5193
843.206	5132
843.343	5307
843.479	5235
843.616	5288
843.752	4972
843.889	5025
844.025	5189
844.162	5022
844.298	5220
844.435	5056
844.571	5064
844.708	5185
844.844	5292
844.98	5372
845.117	5288
845.253	5121
845.389	5064
845.525	5121
845.661	5174
845.798	5064
845.934	5098
846.07	5079
846.206	5227
846.342	5284
846.478	5193
846.614	5048
846.75	4934
846.886	4927
847.022	5128
847.158	5006
847.294	5010
847.429	5132
847.565	5029
847.701	5299
847.837	4854
847.972	4774
848.108	4961
848.244	4919
848.379	4752
848.515	4710
848.65	4706
848.786	4767
848.921	4778
849.057	4847
849.192	4870
849.328	4816
849.463	4828
849.598	4767
849.734	4733
849.869	4664
850.004	4622
850.14	4653
850.275	4649
850.41	4519
850.545	4584
850.68	4546
850.815	4641
850.95	4733
851.085	4843
851.22	4717
851.355	4630
851.49	4592
851.625	4630
851.76	4668
851.895	4531
852.03	4512
852.165	4607
852.299	4725
852.434	4774
852.569	4736
852.703	4748
852.838	4847
852.973	4896
853.107	4881
853.242	4763
853.376	4611
853.511	4550
853.645	4615
853.78	4778
853.914	4725
854.048	4687
854.183	4626
854.317	4698
854.451	4892
854.585	4641
854.72	4603
854.854	4725
854.988	4607
855.122	4672
855.256	4554
855.39	4630
855.524	4748
855.658	4744
855.792	4736
855.926	4752
856.06	4698
856.194	4824
856.327	4702
856.461	4603
856.595	4565
856.729	4565
856.862	4778
856.996	4615
857.13	4767
857.263	4702
857.397	4778
857.53	4660
857.664	4755
857.797	4793
857.931	4748
858.064	4637
858.197	4675
858.331	4656
858.464	4611
858.597	4527
858.731	4618
858.864	4637
858.997	4596
859.13	4668
859.263	4668
859.396	4675
859.529	4596
859.662	4527
859.795	4504
859.928	4672
860.061	4755
860.194	4805
860.327	4615
860.46	4558
860.592	4702
860.725	4710
860.858	4748
860.99	4531
861.123	4535
861.256	4489
861.388	4641
861.521	5387
861.653	4489
861.786	4485
861.918	4432
862.05	4493
862.183	4535
862.315	4550
862.447	4596
862.58	4512
862.712	4363
862.844	4295
862.976	4470
863.108	4443
863.24	4755
863.372	4318
863.504	4383
863.636	4398
863.768	4470
863.9	4413
864.032	4371
864.164	4386
864.296	4470
864.428	4554
864.559	4558
864.691	4493
864.823	4538
864.954	4462
865.086	4512
865.217	4459
865.349	4432
865.48	4428
865.612	4462
865.743	4599
865.875	4432
866.006	4413
866.137	4413
866.269	4421
866.4	4436
866.531	4443
866.662	4379
866.793	4398
866.924	4428
867.055	4531
867.186	4360
867.317	4432
867.448	4386
867.579	4383
867.71	4375
867.841	4390
867.972	4481
868.103	4489
868.233	4459
868.364	4451
868.495	4470
868.625	4668
868.756	4721
868.886	4565
869.017	4580
869.147	4809
869.278	4771
869.408	4645
869.539	4599
869.669	4694
869.799	4637
869.929	4763
870.06	4694
870.19	4900
870.32	4904
870.45	4965
870.58	4976
870.71	5048
870.84	5052
870.97	4900
871.1	4908
871.23	5071
871.36	5128
871.489	5018
871.619	5086
871.749	5071
871.879	5098
872.008	5136
872.138	5060
872.267	4949
872.397	4805
872.526	4786
872.656	4725
872.785	4786
872.915	4961
873.044	4987
873.173	4919
873.303	4908
873.432	4949
873.561	4930
873.69	4847
873.819	4835
873.948	4919
874.077	4828
874.206	4744
874.335	4778
874.464	4930
874.593	5098
874.722	4957
874.851	5105
874.979	5037
875.108	5014
875.237	4896
875.365	4824
875.494	4896
875.623	4930
875.751	4820
875.88	4873
876.008	4987
876.136	5033
876.265	5189
876.393	5368
876.521	5208
876.65	5216
876.778	5166
876.906	5064
877.034	5003
877.162	5006
877.29	4984
877.418	5033
877.546	5006
877.674	4999
877.802	5022
877.93	4991
878.058	4930
878.185	4870
878.313	4976
878.441	4870
878.568	4793
878.696	4835
878.824	4949
878.951	4961
879.079	5105
879.206	5220
879.333	5037
879.461	4957
879.588	4972
879.715	5090
879.842	5277
879.97	4991
880.097	4752
880.224	4721
880.351	4782
880.478	4801
880.605	4820
880.732	4820
880.859	5124
880.986	4908
881.112	4911
881.239	4767
881.366	4649
881.493	4634
881.619	4569
881.746	4630
881.872	4577
881.999	4641
882.125	4660
882.252	4797
882.378	4786
882.505	4915
882.631	4847
882.757	4641
882.883	4744
883.01	4714
883.136	4637
883.262	4577
883.388	4558
883.514	4820
883.64	4862
883.766	4801
883.892	4675
884.018	4694
884.143	4892
884.269	4949
884.395	4717
884.52	4603
884.646	4664
884.772	4584
884.897	4550
885.023	4698
885.148	4717
885.274	4828
885.399	4786
885.524	4729
885.65	4664
885.775	4748
885.9	4698
886.025	4854
886.15	4828
886.275	4714
886.4	4660
886.525	4710
886.65	4706
886.775	4702
886.9	4877
887.025	5010
887.149	4831
887.274	4649
887.399	4542
887.523	4550
887.648	4535
887.773	4538
887.897	4733
888.021	4774
888.146	4653
888.27	4801
888.395	4877
888.519	4774
888.643	4809
888.767	4797
888.891	4679
889.015	4607
889.139	4641
889.263	4615
889.387	4767
889.511	4870
889.635	4805
889.759	4649
889.883	4618
890.006	4714
890.13	4862
890.254	4615
890.377	4683
890.501	4538
890.624	4481
890.748	4580
890.871	4535
890.995	4432
891.118	4363
891.241	4527
891.364	4558
891.488	4634
891.611	4451
891.734	4508
891.857	4618
891.98	4538
892.103	4668
892.226	4584
892.349	4519
892.471	4455
892.594	4523
892.717	4569
892.839	4538
892.962	4542
893.085	4622
893.207	4603
893.33	4466
893.452	4527
893.575	4596
893.697	4542
893.819	4797
893.941	4816
894.064	4763
894.186	4554
894.308	4558
894.43	4755
894.552	4828
894.674	4782
894.796	4531
894.918	4584
895.04	4580
895.161	4672
895.283	4641
895.405	4577
895.526	4645
895.648	4710
895.769	4645
895.891	4717
896.012	4736
896.134	4740
896.255	4660
896.376	4626
896.498	4607
896.619	4668
896.74	4607
896.861	4622
896.982	4915
897.103	5086
897.224	4809
897.345	4714
897.466	4668
897.587	4759
897.708	4793
897.828	4755
897.949	4664
898.07	4527
898.19	4622
898.311	4809
898.431	4637
898.552	4744
898.672	4812
898.792	4797
898.913	4733
899.033	4630
899.153	4478
899.273	4428
899.393	4478
899.513	4516
899.633	4519
899.753	4542
899.873	4531
899.993	4542
900.113	4542
900.232	4538
900.352	4485
900.472	4493
900.591	4394
900.711	4462
900.83	4447
900.95	4523
901.069	4694
901.189	4516
901.308	4386
901.427	4329
901.546	4367
901.665	4478
901.784	4485
901.904	4405
902.023	4344
902.141	4204
902.26	4139
902.379	4310
902.498	4207
902.617	4207
902.735	4398
902.854	4409
902.973	4291
903.091	4192
903.21	4181
903.328	4272
903.446	4280
903.565	4265
903.683	4337
903.801	4257
903.919	4436
904.038	4447
904.156	4272
904.274	4451
904.392	4405
904.51	4466
904.627	4489
904.745	4516
904.863	4637
904.981	4379
905.098	4325
905.216	4329
905.334	4405
905.451	4436
905.569	4402
905.686	4569
905.803	4561
905.921	4447
906.038	4554
906.155	4493
906.272	4386
906.389	4428
906.506	4306
906.623	4367
906.74	4409
906.857	4295
906.974	4371
907.091	4550
907.208	4607
907.324	4592
907.441	4455
907.557	4329
907.674	4337
907.79	4299
907.907	4405
908.023	4481
908.139	4489
908.256	4432
908.372	4500
908.488	4493
908.604	4318
908.72	4318
908.836	4394
908.952	4337
909.068	4440
909.184	4497
909.3	4493
909.415	4558
909.531	4577
909.647	4322
909.762	4348
909.878	4337
909.993	4451
910.108	4371
910.224	4428
910.339	4459
910.454	4379
910.57	4333
910.685	4253
910.8	4656
910.915	4531
911.03	4470
911.145	4337
911.259	4287
911.374	4337
911.489	4318
911.604	4261
911.718	4154
911.833	4192
911.947	4055
912.062	4044
912.176	4147
912.291	4204
912.405	4230
912.519	4470
912.633	4504
912.748	4360
912.862	4337
912.976	4211
913.09	4082
913.204	4177
913.318	4223
913.431	4341
913.545	4356
913.659	4409
913.772	4341
913.886	4253
914	4234
914.113	4375
914.226	4390
914.34	4375
914.453	4204
914.566	4432
914.68	4299
914.793	4318
914.906	4143
915.019	4090
915.132	4078
915.245	4219
915.358	4219
915.47	4230
915.583	4238
915.696	4261
915.809	4341
915.921	4379
916.034	4310
916.146	4272
916.259	4223
916.371	4413
916.483	4325
916.595	4303
916.708	4337
916.82	4310
916.932	4318
917.044	4303
917.156	4295
917.268	4246
917.38	4265
917.491	4238
917.603	4329
917.715	4398
917.826	4443
917.938	4352
918.049	4246
918.161	4375
918.272	4459
918.384	4588
918.495	4493
918.606	4341
918.717	4230
918.828	4322
918.939	4367
919.05	4234
919.161	4329
919.272	4112
919.383	4242
919.494	4394
919.604	4561
919.715	4405
919.826	4344
919.936	4413
920.047	4527
920.157	4508
920.267	4656
920.378	4523
920.488	4459
920.598	4630
920.708	4866
920.818	4774
920.928	4755
921.038	4953
921.148	4862
921.258	4634
921.368	4542
921.477	4474
921.587	4432
921.697	4394
921.806	4573
921.916	4447
922.025	4211
922.134	4242
922.244	4204
922.353	4348
922.462	4112
922.571	4139
922.68	3972
922.789	4017
922.898	4067
923.007	3983
923.116	4139
923.224	4048
923.333	4013
923.442	3960
923.55	3998
923.659	4021
923.767	4101
923.876	4040
923.984	4131
924.092	3972
924.201	4040
924.309	4097
924.417	4128
924.525	4059
924.633	4063
924.741	4995
924.849	3899
924.956	4101
925.064	3983
925.172	3861
925.279	3987
925.387	4048
925.494	4051
925.602	4204
925.709	4154
925.816	4036
925.924	4101
926.031	4246
926.138	4177
926.245	4200
926.352	4048
926.459	4162
926.566	4287
926.673	4120
926.779	4093
926.886	4074
926.993	3998
927.099	3926
927.206	3941
927.312	3945
927.419	4025
927.525	4036
927.631	4086
927.737	3945
927.843	3956
927.95	3842
928.056	3926
928.162	4013
928.267	4097
928.373	4641
928.479	4124
928.585	3892
928.69	3987
928.796	4036
928.901	3960
929.007	3850
929.112	3979
929.218	3964
929.323	3994
929.428	3972
929.533	4131
929.638	3896
929.743	3968
929.848	3975
929.953	3968
930.058	3899
930.163	3774
930.267	3804
930.372	3941
930.477	3804
930.581	4074
930.685	3975
930.79	3819
930.894	3903
930.998	3854
931.103	4078
931.207	3713
931.311	3698
931.415	3625
931.519	3496
931.623	3542
