Data from test_V78500241_2688.txt Node
Date: Fri Mar 25 17:07:41 CST 2022
User: usil
Spectrometer: V785-0024
Trigger mode: 0
Integration Time (sec): 4.000000E-1
Scans to average: 1
Nonlinearity correction enabled: false
Boxcar width: 0
Storing dark spectrum: false
XAxis mode: Wavelengths
Number of Pixels in Spectrum: 1024
>>>>>Begin Spectral Data<<<<<
801.071	7944
801.214	8031
801.356	7871
801.499	7879
801.641	7788
801.783	7871
801.926	8012
802.068	7890
802.211	7955
802.353	7997
802.496	7887
802.638	7864
802.78	7868
802.923	7906
803.065	7894
803.208	7845
803.35	7944
803.492	8111
803.635	8199
803.777	8081
803.919	8176
804.061	8412
804.204	8145
804.346	8058
804.488	7997
804.63	8062
804.773	8016
804.915	8058
805.057	8309
805.199	8153
805.341	8214
805.483	8275
805.626	8282
805.768	8191
805.91	8157
806.052	8172
806.194	8119
806.336	8271
806.478	8081
806.62	8020
806.762	8119
806.904	8191
807.046	8518
807.188	8320
807.33	8271
807.472	8324
807.614	8168
807.756	8134
807.898	8016
808.04	7868
808.182	7860
808.324	7902
808.465	7959
808.607	8149
808.749	8081
808.891	8240
809.033	8263
809.174	8221
809.316	8130
809.458	8115
809.6	7982
809.741	7997
809.883	7997
810.025	8187
810.166	8130
810.308	8039
810.45	7974
810.591	7906
810.733	7727
810.875	7693
811.016	7544
811.158	7460
811.299	7613
811.441	7780
811.582	7723
811.724	7575
811.865	7548
812.007	7647
812.148	7586
812.29	7677
812.431	7734
812.573	7875
812.714	7982
812.855	8149
812.997	8244
813.138	8263
813.279	8176
813.421	8088
813.562	7955
813.703	7894
813.845	7731
813.986	7445
814.127	7324
814.268	7270
814.41	7213
814.551	7110
814.692	7190
814.833	7031
814.974	7023
815.115	7122
815.256	6970
815.397	6947
815.539	6932
815.68	6810
815.821	6776
815.962	6920
816.103	6859
816.244	6688
816.385	6673
816.526	6635
816.666	6486
816.807	6346
816.948	6460
817.089	6509
817.23	6479
817.371	6445
817.512	6391
817.653	6365
817.793	6350
817.934	6403
818.075	6437
818.216	6441
818.356	6391
818.497	6201
818.638	6136
818.778	6155
818.919	6133
819.06	6140
819.2	6304
819.341	6292
819.481	6376
819.622	6521
819.762	6734
819.903	6707
820.043	6604
820.184	6642
820.324	6593
820.465	6665
820.605	6681
820.746	6662
820.886	6479
821.026	6662
821.167	6658
821.307	6859
821.447	6791
821.588	6658
821.728	6593
821.868	6517
822.008	6308
822.149	6380
822.289	6372
822.429	6114
822.569	6102
822.709	6140
822.849	5954
822.99	5889
823.13	5908
823.27	5908
823.41	5779
823.55	5802
823.69	5794
823.83	5828
823.97	5699
824.11	5535
824.25	5501
824.389	5554
824.529	5604
824.669	5554
824.809	5611
824.949	5646
825.089	5642
825.228	5566
825.368	5402
825.508	5349
825.648	5326
825.787	5353
825.927	5372
826.067	5292
826.206	5296
826.346	5372
826.485	5410
826.625	5341
826.765	5566
826.904	5463
827.044	5258
827.183	5208
827.323	5147
827.462	5273
827.601	5159
827.741	5231
827.88	5181
828.02	5090
828.159	5246
828.298	5322
828.437	5334
828.577	5330
828.716	5452
828.855	5334
828.994	5162
829.134	5189
829.273	5159
829.412	5132
829.551	5113
829.69	5151
829.829	5231
829.968	5383
830.107	5315
830.246	5258
830.385	5208
830.524	5143
830.663	5086
830.802	4999
830.941	4923
831.08	4938
831.219	4972
831.357	4965
831.496	5166
831.635	4953
831.774	4862
831.913	4847
832.051	4691
832.19	4714
832.329	4824
832.467	4729
832.606	4645
832.744	4706
832.883	4748
833.022	4714
833.16	4812
833.299	4854
833.437	4831
833.576	4854
833.714	4850
833.852	4854
833.991	4896
834.129	4976
834.267	4949
834.406	4908
834.544	4938
834.682	4991
834.821	4949
834.959	5181
835.097	4942
835.235	5128
835.373	5064
835.511	5052
835.65	4984
835.788	5029
835.926	4805
836.064	4858
836.202	4873
836.34	5162
836.478	5273
836.615	5121
836.753	5212
836.891	5284
837.029	5265
837.167	5178
837.305	5124
837.443	5113
837.58	5037
837.718	5197
837.856	5208
837.993	5136
838.131	5242
838.269	5151
838.406	5197
838.544	5132
838.681	5060
838.819	5006
838.956	4843
839.094	4854
839.231	5014
839.369	5083
839.506	5429
839.643	5216
839.781	5067
839.918	5003
840.055	5117
840.193	5071
840.33	5105
840.467	5124
840.604	5105
840.742	5398
840.879	5052
841.016	5067
841.153	5174
841.29	5337
841.427	5337
841.564	5296
841.701	5353
841.838	5284
841.975	5246
842.112	5273
842.249	5181
842.385	5071
842.522	5315
842.659	5132
842.796	5155
842.933	5201
843.069	5181
843.206	5105
843.343	5261
843.479	5223
843.616	5261
843.752	4987
843.889	5048
844.025	5239
844.162	5018
844.298	5174
844.435	5113
844.571	5064
844.708	5242
844.844	5330
844.98	5315
845.117	5299
845.253	5090
845.389	5090
845.525	5147
845.661	5075
845.798	5014
845.934	5113
846.07	5037
846.206	5231
846.342	5265
846.478	5128
846.614	5022
846.75	4923
846.886	4934
847.022	5136
847.158	4999
847.294	5052
847.429	5128
847.565	5033
847.701	5296
847.837	4881
847.972	4831
848.108	4999
848.244	4946
848.379	4797
848.515	4679
848.65	4740
848.786	4755
848.921	4790
849.057	4816
849.192	4904
849.328	4843
849.463	4820
849.598	4847
849.734	4752
849.869	4717
850.004	4679
850.14	4622
850.275	4637
850.41	4493
850.545	4565
850.68	4565
850.815	4607
850.95	4641
851.085	4759
851.22	4740
851.355	4687
851.49	4626
851.625	4584
851.76	4618
851.895	4569
852.03	4531
852.165	4615
852.299	4710
852.434	4736
852.569	4714
852.703	4736
852.838	4831
852.973	4896
853.107	4930
853.242	4778
853.376	4630
853.511	4561
853.645	4611
853.78	4790
853.914	4664
854.048	4649
854.183	4672
854.317	4729
854.451	4847
854.585	4653
854.72	4615
854.854	4774
854.988	4618
855.122	4599
855.256	4512
855.39	4577
855.524	4755
855.658	4717
855.792	4694
855.926	4748
856.06	4698
856.194	4755
856.327	4729
856.461	4615
856.595	4626
856.729	4656
856.862	4740
856.996	4649
857.13	4736
857.263	4725
857.397	4782
857.53	4672
857.664	4767
857.797	4698
857.931	4763
858.064	4710
858.197	4725
858.331	4653
858.464	4603
858.597	4531
858.731	4603
858.864	4592
858.997	4573
859.13	4672
859.263	4649
859.396	4653
859.529	4538
859.662	4577
859.795	4474
859.928	4630
860.061	4790
860.194	4748
860.327	4603
860.46	4569
860.592	4691
860.725	4721
860.858	4721
860.99	4554
861.123	4527
861.256	4512
861.388	4618
861.521	5345
861.653	4478
861.786	4436
861.918	4432
862.05	4558
862.183	4504
862.315	4615
862.447	4683
862.58	4554
862.712	4417
862.844	4322
862.976	4474
863.108	4481
863.24	4767
863.372	4363
863.504	4436
863.636	4375
863.768	4474
863.9	4432
864.032	4371
864.164	4413
864.296	4455
864.428	4504
864.559	4546
864.691	4466
864.823	4500
864.954	4516
865.086	4470
865.217	4470
865.349	4367
865.48	4459
865.612	4481
865.743	4664
865.875	4443
866.006	4440
866.137	4478
866.269	4485
866.4	4428
866.531	4417
866.662	4379
866.793	4413
866.924	4428
867.055	4474
867.186	4451
867.317	4421
867.448	4424
867.579	4337
867.71	4402
867.841	4375
867.972	4398
868.103	4451
868.233	4451
868.364	4440
868.495	4470
868.625	4683
868.756	4710
868.886	4596
869.017	4637
869.147	4801
869.278	4733
869.408	4615
869.539	4649
869.669	4740
869.799	4687
869.929	4744
870.06	4786
870.19	4923
870.32	4953
870.45	4968
870.58	5014
870.71	5083
870.84	5056
870.97	4949
871.1	4927
871.23	5124
871.36	5113
871.489	5029
871.619	5083
871.749	5086
871.879	5117
872.008	5174
872.138	5056
872.267	4957
872.397	4866
872.526	4793
872.656	4752
872.785	4786
872.915	4911
873.044	5033
873.173	4927
873.303	4934
873.432	4946
873.561	4976
873.69	4866
873.819	4866
873.948	4934
874.077	4793
874.206	4755
874.335	4797
874.464	4919
874.593	5056
874.722	4976
874.851	5090
874.979	5121
875.108	5033
875.237	4911
875.365	4904
875.494	4866
875.623	4965
875.751	4870
875.88	4900
876.008	4987
876.136	5014
876.265	5166
876.393	5334
876.521	5235
876.65	5193
876.778	5143
876.906	5132
877.034	5014
877.162	4995
877.29	5018
877.418	5037
877.546	5041
877.674	5052
877.802	5025
877.93	5060
878.058	4892
878.185	4881
878.313	4942
878.441	4968
878.568	4820
878.696	4877
878.824	4923
878.951	5010
879.079	5124
879.206	5277
879.333	5098
879.461	5022
879.588	4972
879.715	5083
879.842	5227
879.97	5025
880.097	4805
880.224	4759
880.351	4824
880.478	4816
880.605	4755
880.732	4694
880.859	5121
880.986	4919
881.112	4885
881.239	4752
881.366	4668
881.493	4622
881.619	4580
881.746	4656
881.872	4675
881.999	4675
882.125	4702
882.252	4767
882.378	4824
882.505	5003
882.631	4824
882.757	4672
882.883	4721
883.01	4729
883.136	4714
883.262	4634
883.388	4592
883.514	4790
883.64	4816
883.766	4759
883.892	4653
884.018	4714
884.143	4881
884.269	4995
884.395	4664
884.52	4645
884.646	4645
884.772	4565
884.897	4569
885.023	4649
885.148	4782
885.274	4889
885.399	4774
885.524	4706
885.65	4714
885.775	4736
885.9	4721
886.025	4862
886.15	4782
886.275	4714
886.4	4641
886.525	4729
886.65	4687
886.775	4691
886.9	4877
887.025	4995
887.149	4782
887.274	4664
887.399	4554
887.523	4580
887.648	4565
887.773	4611
887.897	4797
888.021	4771
888.146	4683
888.27	4805
888.395	4870
888.519	4790
888.643	4793
888.767	4847
888.891	4687
889.015	4577
889.139	4634
889.263	4626
889.387	4733
889.511	4828
889.635	4828
889.759	4672
889.883	4569
890.006	4725
890.13	4812
890.254	4630
890.377	4660
890.501	4523
890.624	4531
890.748	4599
890.871	4504
890.995	4443
891.118	4405
891.241	4519
891.364	4519
891.488	4615
891.611	4466
891.734	4561
891.857	4580
891.98	4569
892.103	4653
892.226	4607
892.349	4508
892.471	4421
892.594	4535
892.717	4531
892.839	4554
892.962	4577
893.085	4698
893.207	4622
893.33	4474
893.452	4546
893.575	4637
893.697	4542
893.819	4812
893.941	4824
894.064	4797
894.186	4523
894.308	4512
894.43	4725
894.552	4797
894.674	4774
894.796	4561
894.918	4634
895.04	4558
895.161	4668
895.283	4637
895.405	4596
895.526	4694
895.648	4740
895.769	4683
895.891	4725
896.012	4748
896.134	4702
896.255	4702
896.376	4664
896.498	4607
896.619	4687
896.74	4599
896.861	4645
896.982	4934
897.103	5048
897.224	4809
897.345	4721
897.466	4687
897.587	4698
897.708	4839
897.828	4752
897.949	4729
898.07	4519
898.19	4634
898.311	4862
898.431	4641
898.552	4729
898.672	4801
898.792	4820
898.913	4759
899.033	4599
899.153	4512
899.273	4432
899.393	4440
899.513	4519
899.633	4519
899.753	4542
899.873	4504
899.993	4538
900.113	4546
900.232	4599
900.352	4554
900.472	4466
900.591	4398
900.711	4527
900.83	4421
900.95	4596
901.069	4641
901.189	4542
901.308	4337
901.427	4272
901.546	4344
901.665	4424
901.784	4508
901.904	4371
902.023	4333
902.141	4223
902.26	4177
902.379	4284
902.498	4219
902.617	4238
902.735	4344
902.854	4428
902.973	4348
903.091	4196
903.21	4276
903.328	4329
903.446	4287
903.565	4246
903.683	4337
903.801	4344
903.919	4424
904.038	4443
904.156	4352
904.274	4443
904.392	4436
904.51	4447
904.627	4516
904.745	4649
904.863	4698
904.981	4375
905.098	4344
905.216	4398
905.334	4470
905.451	4451
905.569	4436
905.686	4599
905.803	4569
905.921	4436
906.038	4634
906.155	4481
906.272	4481
906.389	4523
906.506	4337
906.623	4436
906.74	4398
906.857	4318
906.974	4440
907.091	4611
907.208	4767
907.324	4641
907.441	4535
907.557	4402
907.674	4409
907.79	4337
907.907	4440
908.023	4504
908.139	4512
908.256	4440
908.372	4588
908.488	4516
908.604	4386
908.72	4379
908.836	4413
908.952	4371
909.068	4489
909.184	4618
909.3	4512
909.415	4596
909.531	4637
909.647	4421
909.762	4455
909.878	4360
909.993	4474
910.108	4443
910.224	4474
910.339	4516
910.454	4421
910.57	4405
910.685	4344
910.8	4672
910.915	4664
911.03	4538
911.145	4367
911.259	4390
911.374	4398
911.489	4367
911.604	4318
911.718	4223
911.833	4249
911.947	4131
912.062	4093
912.176	4261
912.291	4310
912.405	4268
912.519	4497
912.633	4554
912.748	4447
912.862	4375
912.976	4215
913.09	4166
913.204	4200
913.318	4249
913.431	4447
913.545	4360
913.659	4485
913.772	4371
913.886	4284
914	4291
914.113	4421
914.226	4436
914.34	4424
914.453	4291
914.566	4462
914.68	4375
914.793	4386
914.906	4200
915.019	4192
915.132	4135
915.245	4173
915.358	4295
915.47	4284
915.583	4306
915.696	4306
915.809	4466
915.921	4451
916.034	4356
916.146	4295
916.259	4246
916.371	4455
916.483	4405
916.595	4295
916.708	4356
916.82	4360
916.932	4360
917.044	4398
917.156	4337
917.268	4291
917.38	4287
917.491	4344
917.603	4394
917.715	4474
917.826	4436
917.938	4398
918.049	4272
918.161	4424
918.272	4584
918.384	4542
918.495	4440
918.606	4318
918.717	4249
918.828	4360
918.939	4390
919.05	4310
919.161	4341
919.272	4158
919.383	4303
919.494	4508
919.604	4618
919.715	4474
919.826	4375
919.936	4417
920.047	4531
920.157	4554
920.267	4691
920.378	4630
920.488	4500
920.598	4725
920.708	4919
920.818	4805
920.928	4782
921.038	4980
921.148	4930
921.258	4664
921.368	4584
921.477	4558
921.587	4462
921.697	4447
921.806	4523
921.916	4493
922.025	4337
922.134	4318
922.244	4268
922.353	4322
922.462	4249
922.571	4188
922.68	4059
922.789	3983
922.898	4090
923.007	4010
923.116	4150
923.224	4105
923.333	4120
923.442	4002
923.55	4006
923.659	4032
923.767	4109
923.876	4063
923.984	4120
924.092	4002
924.201	4059
924.309	4154
924.417	4112
924.525	4090
924.633	4185
924.741	5121
924.849	3915
924.956	4124
925.064	3983
925.172	3937
925.279	4002
925.387	4086
925.494	4082
925.602	4211
925.709	4249
925.816	4086
925.924	4166
926.031	4261
926.138	4177
926.245	4234
926.352	4124
926.459	4249
926.566	4314
926.673	4188
926.779	4131
926.886	4109
926.993	4029
927.099	3960
927.206	3945
927.312	3960
927.419	4071
927.525	4063
927.631	4150
927.737	4002
927.843	4006
927.95	3865
928.056	3998
928.162	4040
928.267	4128
928.373	4599
928.479	4154
928.585	3964
928.69	4082
928.796	4093
928.901	4021
929.007	3876
929.112	4055
929.218	4010
929.323	3972
929.428	3953
929.533	4112
929.638	3949
929.743	3975
929.848	4059
929.953	4048
930.058	3953
930.163	3808
930.267	3869
930.372	3998
930.477	3846
930.581	4128
930.685	3968
930.79	3888
930.894	3861
930.998	3907
931.103	4051
931.207	3743
931.311	3701
931.415	3675
931.519	3542
931.623	3625
