Data from test_V78500241_1574.txt Node
Date: Fri Mar 25 16:59:56 CST 2022
User: usil
Spectrometer: V785-0024
Trigger mode: 0
Integration Time (sec): 4.000000E-1
Scans to average: 1
Nonlinearity correction enabled: false
Boxcar width: 0
Storing dark spectrum: false
XAxis mode: Wavelengths
Number of Pixels in Spectrum: 1024
>>>>>Begin Spectral Data<<<<<
801.071	7986
801.214	8092
801.356	7860
801.499	7822
801.641	7852
801.783	7814
801.926	7986
802.068	7989
802.211	7947
802.353	7967
802.496	7776
802.638	7868
802.78	7936
802.923	7883
803.065	7875
803.208	7845
803.35	7902
803.492	8088
803.635	8088
803.777	7963
803.919	8123
804.061	8427
804.204	8130
804.346	8050
804.488	7947
804.63	8062
804.773	8024
804.915	8107
805.057	8237
805.199	8149
805.341	8195
805.483	8279
805.626	8145
805.768	8157
805.91	8191
806.052	8248
806.194	8092
806.336	8263
806.478	8031
806.62	8050
806.762	8145
806.904	8309
807.046	8473
807.188	8313
807.33	8385
807.472	8240
807.614	8134
807.756	8115
807.898	7974
808.04	7830
808.182	7951
808.324	7864
808.465	7898
808.607	8119
808.749	8065
808.891	8199
809.033	8343
809.174	8126
809.316	8100
809.458	8092
809.6	8001
809.741	8012
809.883	8046
810.025	8111
810.166	8001
810.308	7986
810.45	7917
810.591	7902
810.733	7685
810.875	7613
811.016	7594
811.158	7510
811.299	7681
811.441	7696
811.582	7647
811.724	7590
811.865	7525
812.007	7594
812.148	7552
812.29	7662
812.431	7750
812.573	7909
812.714	8020
812.855	8092
812.997	8206
813.138	8309
813.279	8225
813.421	8054
813.562	7902
813.703	7765
813.845	7696
813.986	7430
814.127	7236
814.268	7225
814.41	7194
814.551	7095
814.692	7202
814.833	7107
814.974	7137
815.115	7110
815.256	6985
815.397	6894
815.539	6897
815.68	6802
815.821	6787
815.962	6890
816.103	6806
816.244	6677
816.385	6692
816.526	6566
816.666	6429
816.807	6331
816.948	6448
817.089	6418
817.23	6372
817.371	6429
817.512	6304
817.653	6441
817.793	6376
817.934	6365
818.075	6407
818.216	6433
818.356	6365
818.497	6254
818.638	6083
818.778	6144
818.919	6163
819.06	6167
819.2	6266
819.341	6331
819.481	6464
819.622	6536
819.762	6753
819.903	6684
820.043	6566
820.184	6559
820.324	6623
820.465	6726
820.605	6665
820.746	6642
820.886	6494
821.026	6684
821.167	6658
821.307	6745
821.447	6757
821.588	6620
821.728	6566
821.868	6464
822.008	6334
822.149	6342
822.289	6319
822.429	6095
822.569	6087
822.709	6072
822.849	5927
822.99	5901
823.13	5946
823.27	5908
823.41	5798
823.55	5760
823.69	5733
823.83	5764
823.97	5657
824.11	5535
824.25	5532
824.389	5505
824.529	5551
824.669	5539
824.809	5600
824.949	5649
825.089	5596
825.228	5520
825.368	5322
825.508	5315
825.648	5341
825.787	5364
825.927	5357
826.067	5277
826.206	5303
826.346	5414
826.485	5372
826.625	5429
826.765	5585
826.904	5474
827.044	5227
827.183	5227
827.323	5105
827.462	5250
827.601	5128
827.741	5204
827.88	5277
828.02	5121
828.159	5250
828.298	5258
828.437	5345
828.577	5265
828.716	5501
828.855	5337
828.994	5174
829.134	5178
829.273	5181
829.412	5128
829.551	5102
829.69	5159
829.829	5223
829.968	5372
830.107	5261
830.246	5223
830.385	5193
830.524	5143
830.663	5079
830.802	4980
830.941	4908
831.08	4892
831.219	4938
831.357	4976
831.496	5140
831.635	4972
831.774	4843
831.913	4839
832.051	4759
832.19	4721
832.329	4824
832.467	4668
832.606	4641
832.744	4710
832.883	4679
833.022	4675
833.16	4733
833.299	4805
833.437	4809
833.576	4805
833.714	4831
833.852	4850
833.991	4870
834.129	4957
834.267	4957
834.406	4881
834.544	4987
834.682	4980
834.821	4995
834.959	5128
835.097	4991
835.235	5117
835.373	5071
835.511	5064
835.65	5052
835.788	5014
835.926	4881
836.064	4843
836.202	4866
836.34	5155
836.478	5227
836.615	5124
836.753	5212
836.891	5330
837.029	5216
837.167	5193
837.305	5128
837.443	5086
837.58	5033
837.718	5181
837.856	5166
837.993	5151
838.131	5239
838.269	5181
838.406	5166
838.544	5197
838.681	4972
838.819	5006
838.956	4957
839.094	4889
839.231	4965
839.369	5102
839.506	5357
839.643	5189
839.781	5048
839.918	5022
840.055	5102
840.193	5056
840.33	5075
840.467	5105
840.604	5212
840.742	5391
840.879	5079
841.016	5075
841.153	5181
841.29	5387
841.427	5334
841.564	5303
841.701	5372
841.838	5246
841.975	5197
842.112	5208
842.249	5151
842.385	5052
842.522	5307
842.659	5143
842.796	5136
842.933	5166
843.069	5170
843.206	5136
843.343	5246
843.479	5254
843.616	5239
843.752	5060
843.889	4999
844.025	5208
844.162	4984
844.298	5189
844.435	5075
844.571	5075
844.708	5155
844.844	5292
844.98	5311
845.117	5269
845.253	5143
845.389	5109
845.525	5109
845.661	5121
845.798	5060
845.934	5109
846.07	5064
846.206	5239
846.342	5258
846.478	5166
846.614	4972
846.75	5025
846.886	4972
847.022	5143
847.158	4995
847.294	5094
847.429	5071
847.565	5086
847.701	5330
847.837	4809
847.972	4820
848.108	4911
848.244	4911
848.379	4774
848.515	4736
848.65	4710
848.786	4710
848.921	4771
849.057	4889
849.192	4870
849.328	4809
849.463	4835
849.598	4771
849.734	4710
849.869	4675
850.004	4584
850.14	4634
850.275	4580
850.41	4493
850.545	4500
850.68	4641
850.815	4588
850.95	4637
851.085	4805
851.22	4740
851.355	4641
851.49	4603
851.625	4668
851.76	4622
851.895	4592
852.03	4527
852.165	4656
852.299	4687
852.434	4805
852.569	4675
852.703	4797
852.838	4854
852.973	4889
853.107	4900
853.242	4725
853.376	4683
853.511	4561
853.645	4592
853.78	4805
853.914	4626
854.048	4694
854.183	4645
854.317	4710
854.451	4839
854.585	4630
854.72	4645
854.854	4725
854.988	4573
855.122	4607
855.256	4504
855.39	4672
855.524	4797
855.658	4717
855.792	4710
855.926	4790
856.06	4721
856.194	4782
856.327	4668
856.461	4641
856.595	4672
856.729	4637
856.862	4679
856.996	4694
857.13	4683
857.263	4729
857.397	4759
857.53	4577
857.664	4797
857.797	4736
857.931	4786
858.064	4687
858.197	4752
858.331	4618
858.464	4592
858.597	4531
858.731	4607
858.864	4615
858.997	4599
859.13	4630
859.263	4698
859.396	4656
859.529	4592
859.662	4573
859.795	4519
859.928	4637
860.061	4744
860.194	4774
860.327	4603
860.46	4577
860.592	4740
860.725	4641
860.858	4721
860.99	4538
861.123	4474
861.256	4489
861.388	4618
861.521	5143
861.653	4436
861.786	4462
861.918	4447
862.05	4508
862.183	4538
862.315	4554
862.447	4683
862.58	4531
862.712	4398
862.844	4333
862.976	4493
863.108	4470
863.24	4828
863.372	4299
863.504	4398
863.636	4375
863.768	4451
863.9	4440
864.032	4363
864.164	4417
864.296	4459
864.428	4535
864.559	4584
864.691	4512
864.823	4546
864.954	4535
865.086	4436
865.217	4459
865.349	4462
865.48	4440
865.612	4493
865.743	4588
865.875	4440
866.006	4386
866.137	4462
866.269	4440
866.4	4402
866.531	4386
866.662	4402
866.793	4375
866.924	4394
867.055	4474
867.186	4398
867.317	4398
867.448	4352
867.579	4390
867.71	4409
867.841	4371
867.972	4481
868.103	4459
868.233	4462
868.364	4451
868.495	4424
868.625	4672
868.756	4744
868.886	4550
869.017	4622
869.147	4790
869.278	4755
869.408	4615
869.539	4637
869.669	4717
869.799	4637
869.929	4805
870.06	4782
870.19	4934
870.32	4900
870.45	4938
870.58	4991
870.71	5052
870.84	5098
870.97	4927
871.1	4866
871.23	5090
871.36	5121
871.489	5067
871.619	5098
871.749	5113
871.879	5079
872.008	5124
872.138	5003
872.267	4984
872.397	4854
872.526	4786
872.656	4721
872.785	4812
872.915	4930
873.044	4991
873.173	4930
873.303	4908
873.432	4911
873.561	4976
873.69	4946
873.819	4877
873.948	4900
874.077	4831
874.206	4736
874.335	4812
874.464	4927
874.593	5029
874.722	4972
874.851	5037
874.979	5014
875.108	5014
875.237	4953
875.365	4866
875.494	4831
875.623	4980
875.751	4831
875.88	4847
876.008	4980
876.136	5025
876.265	5185
876.393	5337
876.521	5311
876.65	5216
876.778	5159
876.906	5060
877.034	5041
877.162	5025
877.29	5003
877.418	5037
877.546	5045
877.674	5037
877.802	5010
877.93	5003
878.058	4942
878.185	4850
878.313	4938
878.441	4930
878.568	4782
878.696	4889
878.824	4915
878.951	4987
879.079	5109
879.206	5296
879.333	5045
879.461	4965
879.588	5014
879.715	5109
879.842	5239
879.97	4991
880.097	4774
880.224	4786
880.351	4771
880.478	4755
880.605	4736
880.732	4774
880.859	5056
880.986	4850
881.112	4904
881.239	4740
881.366	4660
881.493	4580
881.619	4573
881.746	4634
881.872	4649
881.999	4622
882.125	4687
882.252	4744
882.378	4831
882.505	4999
882.631	4793
882.757	4622
882.883	4714
883.01	4755
883.136	4675
883.262	4622
883.388	4641
883.514	4774
883.64	4908
883.766	4828
883.892	4656
884.018	4698
884.143	4843
884.269	5003
884.395	4672
884.52	4645
884.646	4687
884.772	4569
884.897	4573
885.023	4675
885.148	4778
885.274	4858
885.399	4786
885.524	4691
885.65	4698
885.775	4767
885.9	4694
886.025	4850
886.15	4736
886.275	4694
886.4	4653
886.525	4740
886.65	4660
886.775	4660
886.9	4919
887.025	5045
887.149	4820
887.274	4592
887.399	4599
887.523	4656
887.648	4603
887.773	4588
887.897	4805
888.021	4748
888.146	4660
888.27	4831
888.395	4911
888.519	4774
888.643	4809
888.767	4835
888.891	4672
889.015	4546
889.139	4622
889.263	4588
889.387	4733
889.511	4870
889.635	4805
889.759	4626
889.883	4615
890.006	4668
890.13	4835
890.254	4573
890.377	4672
890.501	4527
890.624	4527
890.748	4588
890.871	4504
890.995	4398
891.118	4394
891.241	4474
891.364	4508
891.488	4649
891.611	4558
891.734	4508
891.857	4622
891.98	4546
892.103	4668
892.226	4603
892.349	4554
892.471	4371
892.594	4565
892.717	4569
892.839	4584
892.962	4611
893.085	4683
893.207	4592
893.33	4462
893.452	4538
893.575	4634
893.697	4558
893.819	4774
893.941	4828
894.064	4774
894.186	4527
894.308	4554
894.43	4698
894.552	4790
894.674	4706
894.796	4573
894.918	4618
895.04	4580
895.161	4668
895.283	4656
895.405	4599
895.526	4596
895.648	4683
895.769	4721
895.891	4683
896.012	4767
896.134	4664
896.255	4672
896.376	4630
896.498	4588
896.619	4641
896.74	4596
896.861	4653
896.982	4877
897.103	5090
897.224	4839
897.345	4752
897.466	4691
897.587	4744
897.708	4835
897.828	4778
897.949	4664
898.07	4603
898.19	4580
898.311	4839
898.431	4714
898.552	4698
898.672	4774
898.792	4809
898.913	4698
899.033	4615
899.153	4481
899.273	4459
899.393	4459
899.513	4504
899.633	4485
899.753	4550
899.873	4500
899.993	4573
900.113	4535
900.232	4588
900.352	4489
900.472	4500
900.591	4375
900.711	4481
900.83	4436
900.95	4603
901.069	4691
901.189	4523
901.308	4379
901.427	4310
901.546	4383
901.665	4497
901.784	4489
901.904	4329
902.023	4352
902.141	4188
902.26	4154
902.379	4329
902.498	4207
902.617	4219
902.735	4386
902.854	4379
902.973	4375
903.091	4207
903.21	4249
903.328	4310
903.446	4280
903.565	4268
903.683	4341
903.801	4268
903.919	4371
904.038	4421
904.156	4341
904.274	4398
904.392	4367
904.51	4466
904.627	4443
904.745	4588
904.863	4637
904.981	4436
905.098	4329
905.216	4360
905.334	4360
905.451	4443
905.569	4436
905.686	4554
905.803	4588
905.921	4424
906.038	4565
906.155	4493
906.272	4409
906.389	4466
906.506	4341
906.623	4424
906.74	4386
906.857	4291
906.974	4348
907.091	4554
907.208	4714
907.324	4580
907.441	4497
907.557	4329
907.674	4325
907.79	4344
907.907	4363
908.023	4508
908.139	4474
908.256	4436
908.372	4497
908.488	4466
908.604	4363
908.72	4322
908.836	4390
908.952	4352
909.068	4455
909.184	4565
909.3	4462
909.415	4550
909.531	4565
909.647	4375
909.762	4318
909.878	4310
909.993	4424
910.108	4413
910.224	4352
910.339	4474
910.454	4421
910.57	4329
910.685	4322
910.8	4672
910.915	4542
911.03	4508
911.145	4310
911.259	4341
911.374	4402
911.489	4249
911.604	4287
911.718	4181
911.833	4219
911.947	4078
912.062	4055
912.176	4219
912.291	4211
912.405	4230
912.519	4462
912.633	4481
912.748	4314
912.862	4348
912.976	4204
913.09	4071
913.204	4204
913.318	4246
913.431	4352
913.545	4394
913.659	4447
913.772	4375
913.886	4234
914	4207
914.113	4371
914.226	4428
914.34	4402
914.453	4204
914.566	4470
914.68	4310
914.793	4318
914.906	4181
915.019	4143
915.132	4086
915.245	4204
915.358	4196
915.47	4276
915.583	4257
915.696	4261
915.809	4386
915.921	4371
916.034	4261
916.146	4284
916.259	4238
916.371	4337
916.483	4333
916.595	4215
916.708	4306
916.82	4303
916.932	4322
917.044	4314
917.156	4344
917.268	4223
917.38	4246
917.491	4227
917.603	4303
917.715	4428
917.826	4466
917.938	4318
918.049	4246
918.161	4375
918.272	4546
918.384	4542
918.495	4489
918.606	4314
918.717	4287
918.828	4348
918.939	4409
919.05	4291
919.161	4322
919.272	4150
919.383	4211
919.494	4413
919.604	4660
919.715	4432
919.826	4325
919.936	4436
920.047	4538
920.157	4474
920.267	4630
920.378	4531
920.488	4478
920.598	4710
920.708	4896
920.818	4755
920.928	4714
921.038	4957
921.148	4911
921.258	4626
921.368	4550
921.477	4443
921.587	4451
921.697	4341
921.806	4535
921.916	4413
922.025	4268
922.134	4272
922.244	4215
922.353	4344
922.462	4166
922.571	4105
922.68	3987
922.789	3975
922.898	4010
923.007	3979
923.116	4074
923.224	4059
923.333	4040
923.442	3998
923.55	3960
923.659	4051
923.767	4093
923.876	4032
923.984	4071
924.092	3960
924.201	4059
924.309	4116
924.417	4086
924.525	4055
924.633	4116
924.741	4854
924.849	3892
924.956	4059
925.064	3949
925.172	3915
925.279	3907
925.387	4029
925.494	4048
925.602	4196
925.709	4173
925.816	4006
925.924	4150
926.031	4246
926.138	4185
926.245	4185
926.352	4147
926.459	4230
926.566	4284
926.673	4131
926.779	4105
926.886	4109
926.993	3972
927.099	3934
927.206	3922
927.312	3975
927.419	4048
927.525	4074
927.631	4120
927.737	4021
927.843	3884
927.95	3846
928.056	3937
928.162	4032
928.267	4013
928.373	4550
928.479	4116
928.585	3892
928.69	4044
928.796	4048
928.901	3968
929.007	3861
929.112	4036
929.218	3960
929.323	3915
929.428	3915
929.533	4120
929.638	3903
929.743	3934
929.848	4017
929.953	4002
930.058	3922
930.163	3793
930.267	3838
930.372	3979
930.477	3819
930.581	4101
930.685	3960
930.79	3831
930.894	3880
930.998	3842
931.103	4067
931.207	3743
931.311	3701
931.415	3660
931.519	3523
931.623	3545
