Data from test_V78500241_841.txt Node
Date: Fri Mar 25 16:54:51 CST 2022
User: usil
Spectrometer: V785-0024
Trigger mode: 0
Integration Time (sec): 4.000000E-1
Scans to average: 1
Nonlinearity correction enabled: false
Boxcar width: 0
Storing dark spectrum: false
XAxis mode: Wavelengths
Number of Pixels in Spectrum: 1024
>>>>>Begin Spectral Data<<<<<
801.071	8031
801.214	8005
801.356	7913
801.499	7856
801.641	7841
801.783	7830
801.926	7951
802.068	7944
802.211	7913
802.353	7997
802.496	7811
802.638	7788
802.78	7909
802.923	7830
803.065	7917
803.208	7879
803.35	8031
803.492	8107
803.635	8195
803.777	8077
803.919	8100
804.061	8336
804.204	8100
804.346	8058
804.488	8012
804.63	8119
804.773	7974
804.915	8107
805.057	8282
805.199	8115
805.341	8172
805.483	8256
805.626	8111
805.768	8164
805.91	8164
806.052	8180
806.194	8084
806.336	8286
806.478	8107
806.62	7997
806.762	8142
806.904	8240
807.046	8431
807.188	8366
807.33	8343
807.472	8263
807.614	8077
807.756	8161
807.898	7894
808.04	7898
808.182	7826
808.324	7898
808.465	7902
808.607	7947
808.749	8035
808.891	8111
809.033	8298
809.174	8138
809.316	8031
809.458	8039
809.6	7963
809.741	8073
809.883	7989
810.025	8111
810.166	8107
810.308	8012
810.45	8024
810.591	7875
810.733	7727
810.875	7666
811.016	7525
811.158	7491
811.299	7590
811.441	7689
811.582	7582
811.724	7533
811.865	7453
812.007	7552
812.148	7624
812.29	7624
812.431	7738
812.573	7818
812.714	7898
812.855	8031
812.997	8191
813.138	8259
813.279	8153
813.421	8077
813.562	7982
813.703	7795
813.845	7761
813.986	7483
814.127	7282
814.268	7190
814.41	7160
814.551	7103
814.692	7145
814.833	6981
814.974	7133
815.115	7088
815.256	6932
815.397	6878
815.539	6947
815.68	6806
815.821	6779
815.962	6814
816.103	6798
816.244	6692
816.385	6665
816.526	6593
816.666	6460
816.807	6235
816.948	6448
817.089	6479
817.23	6426
817.371	6323
817.512	6372
817.653	6407
817.793	6361
817.934	6357
818.075	6422
818.216	6334
818.356	6407
818.497	6232
818.638	6136
818.778	6121
818.919	6064
819.06	6091
819.2	6323
819.341	6346
819.481	6384
819.622	6521
819.762	6787
819.903	6688
820.043	6563
820.184	6544
820.324	6521
820.465	6673
820.605	6635
820.746	6639
820.886	6528
821.026	6658
821.167	6646
821.307	6760
821.447	6757
821.588	6681
821.728	6593
821.868	6422
822.008	6304
822.149	6410
822.289	6388
822.429	6125
822.569	6003
822.709	6125
822.849	5893
822.99	5916
823.13	5912
823.27	5874
823.41	5756
823.55	5786
823.69	5726
823.83	5783
823.97	5676
824.11	5516
824.25	5482
824.389	5528
824.529	5554
824.669	5520
824.809	5627
824.949	5630
825.089	5627
825.228	5573
825.368	5383
825.508	5318
825.648	5360
825.787	5322
825.927	5330
826.067	5315
826.206	5292
826.346	5307
826.485	5364
826.625	5414
826.765	5528
826.904	5463
827.044	5292
827.183	5185
827.323	5064
827.462	5204
827.601	5147
827.741	5162
827.88	5197
828.02	5056
828.159	5231
828.298	5273
828.437	5349
828.577	5280
828.716	5501
828.855	5296
828.994	5132
829.134	5132
829.273	5185
829.412	5090
829.551	5098
829.69	5151
829.829	5223
829.968	5345
830.107	5246
830.246	5273
830.385	5124
830.524	5124
830.663	5079
830.802	4965
830.941	4873
831.08	4885
831.219	4968
831.357	4919
831.496	5136
831.635	4904
831.774	4782
831.913	4801
832.051	4736
832.19	4664
832.329	4885
832.467	4683
832.606	4626
832.744	4710
832.883	4733
833.022	4717
833.16	4763
833.299	4790
833.437	4801
833.576	4767
833.714	4862
833.852	4847
833.991	4896
834.129	4965
834.267	4968
834.406	4858
834.544	5006
834.682	4965
834.821	4957
834.959	5227
835.097	5014
835.235	5132
835.373	5105
835.511	5090
835.65	4984
835.788	4949
835.926	4847
836.064	4885
836.202	4896
836.34	5166
836.478	5193
836.615	5136
836.753	5212
836.891	5307
837.029	5277
837.167	5185
837.305	5140
837.443	5071
837.58	5060
837.718	5201
837.856	5170
837.993	5109
838.131	5201
838.269	5155
838.406	5170
838.544	5174
838.681	5010
838.819	4984
838.956	4858
839.094	4919
839.231	4957
839.369	5079
839.506	5425
839.643	5246
839.781	5060
839.918	5052
840.055	5033
840.193	5056
840.33	5067
840.467	5117
840.604	5155
840.742	5402
840.879	5033
841.016	5094
841.153	5086
841.29	5345
841.427	5349
841.564	5334
841.701	5349
841.838	5258
841.975	5246
842.112	5277
842.249	5098
842.385	5094
842.522	5284
842.659	5140
842.796	5159
842.933	5227
843.069	5098
843.206	5102
843.343	5269
843.479	5178
843.616	5277
843.752	5098
843.889	4953
844.025	5181
844.162	4976
844.298	5155
844.435	5083
844.571	4999
844.708	5212
844.844	5208
844.98	5341
845.117	5258
845.253	5113
845.389	5079
845.525	5147
845.661	5109
845.798	5075
845.934	5121
846.07	5041
846.206	5220
846.342	5204
846.478	5147
846.614	4972
846.75	4938
846.886	4915
847.022	5083
847.158	4961
847.294	5075
847.429	5094
847.565	5067
847.701	5288
847.837	4835
847.972	4797
848.108	4892
848.244	4946
848.379	4748
848.515	4710
848.65	4744
848.786	4782
848.921	4759
849.057	4850
849.192	4896
849.328	4782
849.463	4862
849.598	4740
849.734	4710
849.869	4683
850.004	4630
850.14	4634
850.275	4626
850.41	4516
850.545	4546
850.68	4569
850.815	4611
850.95	4622
851.085	4805
851.22	4748
851.355	4626
851.49	4607
851.625	4622
851.76	4645
851.895	4512
852.03	4538
852.165	4634
852.299	4717
852.434	4763
852.569	4721
852.703	4733
852.838	4812
852.973	4866
853.107	4892
853.242	4767
853.376	4656
853.511	4554
853.645	4611
853.78	4755
853.914	4687
854.048	4653
854.183	4596
854.317	4577
854.451	4881
854.585	4641
854.72	4641
854.854	4721
854.988	4607
855.122	4634
855.256	4519
855.39	4672
855.524	4763
855.658	4687
855.792	4660
855.926	4710
856.06	4759
856.194	4790
856.327	4706
856.461	4596
856.595	4611
856.729	4630
856.862	4702
856.996	4679
857.13	4694
857.263	4759
857.397	4733
857.53	4607
857.664	4714
857.797	4744
857.931	4752
858.064	4634
858.197	4717
858.331	4653
858.464	4584
858.597	4493
858.731	4618
858.864	4618
858.997	4569
859.13	4634
859.263	4668
859.396	4714
859.529	4535
859.662	4546
859.795	4523
859.928	4641
860.061	4767
860.194	4729
860.327	4611
860.46	4573
860.592	4714
860.725	4725
860.858	4740
860.99	4542
861.123	4504
861.256	4512
861.388	4599
861.521	5284
861.653	4421
861.786	4440
861.918	4455
862.05	4504
862.183	4542
862.315	4592
862.447	4622
862.58	4569
862.712	4398
862.844	4318
862.976	4523
863.108	4485
863.24	4767
863.372	4333
863.504	4371
863.636	4375
863.768	4500
863.9	4371
864.032	4341
864.164	4462
864.296	4443
864.428	4561
864.559	4500
864.691	4516
864.823	4485
864.954	4493
865.086	4489
865.217	4474
865.349	4371
865.48	4405
865.612	4493
865.743	4618
865.875	4459
866.006	4413
866.137	4470
866.269	4409
866.4	4440
866.531	4402
866.662	4421
866.793	4421
866.924	4417
867.055	4462
867.186	4436
867.317	4367
867.448	4363
867.579	4371
867.71	4348
867.841	4322
867.972	4447
868.103	4409
868.233	4451
868.364	4432
868.495	4538
868.625	4607
868.756	4755
868.886	4512
869.017	4592
869.147	4763
869.278	4767
869.408	4668
869.539	4618
869.669	4691
869.799	4687
869.929	4744
870.06	4710
870.19	4972
870.32	4919
870.45	4923
870.58	4968
870.71	5048
870.84	5071
870.97	4946
871.1	4858
871.23	5109
871.36	5128
871.489	5029
871.619	5052
871.749	5140
871.879	5113
872.008	5132
872.138	5048
872.267	4976
872.397	4843
872.526	4805
872.656	4725
872.785	4782
872.915	4915
873.044	4949
873.173	4873
873.303	4930
873.432	4942
873.561	4904
873.69	4843
873.819	4892
873.948	4889
874.077	4774
874.206	4752
874.335	4805
874.464	4915
874.593	5079
874.722	4927
874.851	5083
874.979	5033
875.108	5010
875.237	4896
875.365	4885
875.494	4866
875.623	4930
875.751	4816
875.88	4877
876.008	4949
876.136	5033
876.265	5128
876.393	5349
876.521	5242
876.65	5227
876.778	5117
876.906	5022
877.034	5003
877.162	5045
877.29	4976
877.418	5056
877.546	4980
877.674	5022
877.802	4984
877.93	5025
878.058	4919
878.185	4866
878.313	4911
878.441	4915
878.568	4744
878.696	4835
878.824	4919
878.951	4949
879.079	5090
879.206	5292
879.333	5098
879.461	4938
879.588	4942
879.715	5105
879.842	5181
879.97	5010
880.097	4797
880.224	4721
880.351	4763
880.478	4793
880.605	4752
880.732	4759
880.859	5094
880.986	4900
881.112	4877
881.239	4805
881.366	4653
881.493	4596
881.619	4561
881.746	4618
881.872	4603
881.999	4596
882.125	4637
882.252	4778
882.378	4801
882.505	4911
882.631	4736
882.757	4653
882.883	4679
883.01	4771
883.136	4630
883.262	4542
883.388	4611
883.514	4759
883.64	4843
883.766	4729
883.892	4649
884.018	4668
884.143	4862
884.269	5003
884.395	4630
884.52	4550
884.646	4573
884.772	4561
884.897	4558
885.023	4649
885.148	4767
885.274	4892
885.399	4797
885.524	4710
885.65	4710
885.775	4717
885.9	4653
886.025	4858
886.15	4771
886.275	4710
886.4	4637
886.525	4710
886.65	4656
886.775	4649
886.9	4881
887.025	4965
887.149	4816
887.274	4656
887.399	4569
887.523	4584
887.648	4588
887.773	4622
887.897	4778
888.021	4782
888.146	4698
888.27	4839
888.395	4923
888.519	4850
888.643	4816
888.767	4866
888.891	4733
889.015	4660
889.139	4668
889.263	4573
889.387	4733
889.511	4847
889.635	4790
889.759	4626
889.883	4668
890.006	4763
890.13	4809
890.254	4668
890.377	4691
890.501	4565
890.624	4588
890.748	4626
890.871	4550
890.995	4440
891.118	4421
891.241	4535
891.364	4561
891.488	4645
891.611	4508
891.734	4611
891.857	4603
891.98	4554
892.103	4683
892.226	4573
892.349	4554
892.471	4432
892.594	4542
892.717	4618
892.839	4607
892.962	4592
893.085	4694
893.207	4599
893.33	4516
893.452	4523
893.575	4714
893.697	4634
893.819	4820
893.941	4877
894.064	4763
894.186	4618
894.308	4580
894.43	4778
894.552	4877
894.674	4790
894.796	4592
894.918	4672
895.04	4577
895.161	4675
895.283	4698
895.405	4630
895.526	4687
895.648	4729
895.769	4729
895.891	4717
896.012	4793
896.134	4755
896.255	4668
896.376	4687
896.498	4637
896.619	4694
896.74	4615
896.861	4683
896.982	4904
897.103	5094
897.224	4858
897.345	4763
897.466	4630
897.587	4740
897.708	4839
897.828	4805
897.949	4687
898.07	4580
898.19	4649
898.311	4862
898.431	4710
898.552	4687
898.672	4862
898.792	4831
898.913	4782
899.033	4694
899.153	4504
899.273	4497
899.393	4535
899.513	4580
899.633	4542
899.753	4580
899.873	4558
899.993	4603
900.113	4558
900.232	4603
900.352	4558
900.472	4474
900.591	4451
900.711	4512
900.83	4432
900.95	4630
901.069	4729
901.189	4565
901.308	4421
901.427	4348
901.546	4356
901.665	4504
901.784	4542
901.904	4398
902.023	4363
902.141	4215
902.26	4207
902.379	4356
902.498	4280
902.617	4223
902.735	4409
902.854	4375
902.973	4390
903.091	4211
903.21	4246
903.328	4333
903.446	4310
903.565	4280
903.683	4379
903.801	4261
903.919	4398
904.038	4451
904.156	4417
904.274	4481
904.392	4428
904.51	4440
904.627	4508
904.745	4596
904.863	4653
904.981	4462
905.098	4375
905.216	4337
905.334	4443
905.451	4409
905.569	4474
905.686	4584
905.803	4569
905.921	4493
906.038	4618
906.155	4485
906.272	4462
906.389	4474
906.506	4356
906.623	4379
906.74	4398
906.857	4333
906.974	4421
907.091	4603
907.208	4660
907.324	4634
907.441	4546
907.557	4341
907.674	4379
907.79	4360
907.907	4413
908.023	4481
908.139	4508
908.256	4481
908.372	4497
908.488	4459
908.604	4417
908.72	4344
908.836	4402
908.952	4428
909.068	4474
909.184	4607
909.3	4512
909.415	4558
909.531	4611
909.647	4394
909.762	4394
909.878	4360
909.993	4497
910.108	4455
910.224	4424
910.339	4504
910.454	4417
910.57	4405
910.685	4306
910.8	4653
910.915	4641
911.03	4523
911.145	4341
911.259	4348
911.374	4375
911.489	4348
911.604	4318
911.718	4211
911.833	4272
911.947	4128
912.062	4036
912.176	4257
912.291	4265
912.405	4249
912.519	4512
912.633	4573
912.748	4390
912.862	4348
912.976	4204
913.09	4120
913.204	4192
913.318	4344
913.431	4386
913.545	4402
913.659	4474
913.772	4375
913.886	4295
914	4207
914.113	4394
914.226	4462
914.34	4421
914.453	4276
914.566	4447
914.68	4348
914.793	4363
914.906	4192
915.019	4135
915.132	4109
915.245	4192
915.358	4230
915.47	4257
915.583	4287
915.696	4352
915.809	4432
915.921	4455
916.034	4280
916.146	4223
916.259	4246
916.371	4398
916.483	4363
916.595	4303
916.708	4333
916.82	4383
916.932	4375
917.044	4402
917.156	4333
917.268	4253
917.38	4303
917.491	4291
917.603	4386
917.715	4379
917.826	4447
917.938	4409
918.049	4257
918.161	4455
918.272	4558
918.384	4565
918.495	4462
918.606	4325
918.717	4257
918.828	4363
918.939	4371
919.05	4284
919.161	4394
919.272	4124
919.383	4246
919.494	4405
919.604	4653
919.715	4432
919.826	4367
919.936	4424
920.047	4535
920.157	4500
920.267	4683
920.378	4538
920.488	4481
920.598	4740
920.708	4942
920.818	4759
920.928	4812
921.038	4911
921.148	4946
921.258	4675
921.368	4626
921.477	4516
921.587	4462
921.697	4402
921.806	4554
921.916	4500
922.025	4276
922.134	4295
922.244	4261
922.353	4325
922.462	4211
922.571	4143
922.68	3983
922.789	3987
922.898	4040
923.007	3991
923.116	4154
923.224	4082
923.333	4128
923.442	4036
923.55	3991
923.659	4029
923.767	4120
923.876	3991
923.984	4185
924.092	4025
924.201	4120
924.309	4154
924.417	4124
924.525	4044
924.633	4101
924.741	4911
924.849	3953
924.956	4131
925.064	3964
925.172	3911
925.279	4010
925.387	4029
925.494	4078
925.602	4227
925.709	4204
925.816	4048
925.924	4158
926.031	4238
926.138	4181
926.245	4207
926.352	4112
926.459	4348
926.566	4318
926.673	4192
926.779	4090
926.886	4078
926.993	4006
927.099	3998
927.206	3934
927.312	3922
927.419	4055
927.525	4067
927.631	4120
927.737	4010
927.843	3998
927.95	3888
928.056	3922
928.162	3994
928.267	4074
928.373	4675
928.479	4109
928.585	3918
928.69	4040
928.796	4051
928.901	3934
929.007	3861
929.112	4055
929.218	4006
929.323	3975
929.428	3994
929.533	4105
929.638	3960
929.743	3972
929.848	4067
929.953	3991
930.058	3949
930.163	3785
930.267	3827
930.372	3994
930.477	3831
930.581	4093
930.685	3949
930.79	3861
930.894	3888
930.998	3854
931.103	4063
931.207	3717
931.311	3751
931.415	3686
931.519	3557
931.623	3526
