Data from test_V78500241_1643.txt Node
Date: Fri Mar 25 17:00:25 CST 2022
User: usil
Spectrometer: V785-0024
Trigger mode: 0
Integration Time (sec): 4.000000E-1
Scans to average: 1
Nonlinearity correction enabled: false
Boxcar width: 0
Storing dark spectrum: false
XAxis mode: Wavelengths
Number of Pixels in Spectrum: 1024
>>>>>Begin Spectral Data<<<<<
801.071	7951
801.214	8024
801.356	7887
801.499	7792
801.641	7761
801.783	7845
801.926	7940
802.068	7947
802.211	7944
802.353	7906
802.496	7803
802.638	7818
802.78	7940
802.923	7921
803.065	7856
803.208	7875
803.35	7989
803.492	8039
803.635	8115
803.777	8069
803.919	8103
804.061	8434
804.204	8088
804.346	8050
804.488	7925
804.63	8065
804.773	8046
804.915	8142
805.057	8309
805.199	8130
805.341	8130
805.483	8225
805.626	8218
805.768	8180
805.91	8263
806.052	8248
806.194	8138
806.336	8271
806.478	8065
806.62	8035
806.762	8138
806.904	8320
807.046	8488
807.188	8389
807.33	8324
807.472	8298
807.614	8259
807.756	8096
807.898	7986
808.04	7887
808.182	7845
808.324	7932
808.465	7917
808.607	8069
808.749	8130
808.891	8149
809.033	8328
809.174	8210
809.316	8008
809.458	8134
809.6	7982
809.741	8027
809.883	8043
810.025	8126
810.166	8069
810.308	7982
810.45	7982
810.591	7818
810.733	7689
810.875	7651
811.016	7540
811.158	7502
811.299	7544
811.441	7731
811.582	7693
811.724	7582
811.865	7510
812.007	7575
812.148	7613
812.29	7616
812.431	7731
812.573	7887
812.714	8001
812.855	8092
812.997	8206
813.138	8225
813.279	8202
813.421	8035
813.562	7967
813.703	7837
813.845	7719
813.986	7411
814.127	7183
814.268	7236
814.41	7247
814.551	7152
814.692	7278
814.833	7072
814.974	7114
815.115	7145
815.256	6958
815.397	6920
815.539	6962
815.68	6802
815.821	6764
815.962	6905
816.103	6783
816.244	6726
816.385	6601
816.526	6536
816.666	6479
816.807	6304
816.948	6445
817.089	6429
817.23	6410
817.371	6357
817.512	6384
817.653	6399
817.793	6319
817.934	6384
818.075	6464
818.216	6426
818.356	6369
818.497	6235
818.638	6091
818.778	6106
818.919	6136
819.06	6201
819.2	6285
819.341	6315
819.481	6353
819.622	6525
819.762	6738
819.903	6711
820.043	6582
820.184	6559
820.324	6631
820.465	6684
820.605	6688
820.746	6635
820.886	6475
821.026	6627
821.167	6707
821.307	6722
821.447	6711
821.588	6700
821.728	6616
821.868	6464
822.008	6361
822.149	6338
822.289	6319
822.429	6163
822.569	6068
822.709	6095
822.849	5912
822.99	5920
823.13	5939
823.27	5893
823.41	5836
823.55	5790
823.69	5691
823.83	5760
823.97	5688
824.11	5558
824.25	5482
824.389	5566
824.529	5589
824.669	5501
824.809	5634
824.949	5630
825.089	5611
825.228	5543
825.368	5364
825.508	5376
825.648	5296
825.787	5330
825.927	5376
826.067	5296
826.206	5246
826.346	5387
826.485	5395
826.625	5391
826.765	5524
826.904	5463
827.044	5254
827.183	5159
827.323	5079
827.462	5189
827.601	5136
827.741	5212
827.88	5166
828.02	5166
828.159	5231
828.298	5280
828.437	5341
828.577	5265
828.716	5535
828.855	5318
828.994	5147
829.134	5185
829.273	5166
829.412	5109
829.551	5124
829.69	5162
829.829	5239
829.968	5349
830.107	5280
830.246	5208
830.385	5181
830.524	5098
830.663	5014
830.802	4999
830.941	4873
831.08	4854
831.219	4957
831.357	4965
831.496	5140
831.635	4942
831.774	4816
831.913	4862
832.051	4717
832.19	4733
832.329	4843
832.467	4675
832.606	4637
832.744	4714
832.883	4717
833.022	4710
833.16	4755
833.299	4824
833.437	4809
833.576	4824
833.714	4858
833.852	4854
833.991	4889
834.129	4942
834.267	4946
834.406	4934
834.544	4953
834.682	5006
834.821	4900
834.959	5109
835.097	5014
835.235	5132
835.373	5109
835.511	5124
835.65	5022
835.788	5056
835.926	4847
836.064	4820
836.202	4911
836.34	5170
836.478	5220
836.615	5098
836.753	5185
836.891	5284
837.029	5204
837.167	5132
837.305	5143
837.443	5128
837.58	5071
837.718	5246
837.856	5223
837.993	5067
838.131	5197
838.269	5201
838.406	5185
838.544	5159
838.681	5006
838.819	5029
838.956	4820
839.094	4904
839.231	4949
839.369	5037
839.506	5429
839.643	5235
839.781	5048
839.918	4961
840.055	5052
840.193	5102
840.33	5113
840.467	5128
840.604	5143
840.742	5448
840.879	5041
841.016	5094
841.153	5166
841.29	5379
841.427	5341
841.564	5296
841.701	5303
841.838	5231
841.975	5204
842.112	5277
842.249	5124
842.385	5098
842.522	5337
842.659	5162
842.796	5136
842.933	5147
843.069	5124
843.206	5140
843.343	5231
843.479	5201
843.616	5284
843.752	5006
843.889	4976
844.025	5170
844.162	4991
844.298	5208
844.435	5094
844.571	5060
844.708	5174
844.844	5239
844.98	5337
845.117	5269
845.253	5105
845.389	5052
845.525	5155
845.661	5128
845.798	5025
845.934	5132
846.07	5052
846.206	5197
846.342	5265
846.478	5159
846.614	5014
846.75	4968
846.886	4915
847.022	5136
847.158	5056
847.294	5052
847.429	5067
847.565	5018
847.701	5357
847.837	4873
847.972	4755
848.108	4889
848.244	4904
848.379	4759
848.515	4748
848.65	4733
848.786	4698
848.921	4782
849.057	4828
849.192	4911
849.328	4828
849.463	4835
849.598	4774
849.734	4733
849.869	4656
850.004	4634
850.14	4698
850.275	4565
850.41	4531
850.545	4577
850.68	4618
850.815	4630
850.95	4641
851.085	4831
851.22	4733
851.355	4649
851.49	4611
851.625	4637
851.76	4630
851.895	4527
852.03	4504
852.165	4611
852.299	4672
852.434	4786
852.569	4710
852.703	4774
852.838	4854
852.973	4889
853.107	4889
853.242	4736
853.376	4660
853.511	4519
853.645	4615
853.78	4793
853.914	4668
854.048	4634
854.183	4611
854.317	4668
854.451	4809
854.585	4687
854.72	4622
854.854	4824
854.988	4584
855.122	4607
855.256	4535
855.39	4653
855.524	4755
855.658	4717
855.792	4710
855.926	4763
856.06	4759
856.194	4763
856.327	4675
856.461	4596
856.595	4596
856.729	4603
856.862	4809
856.996	4675
857.13	4721
857.263	4744
857.397	4771
857.53	4668
857.664	4736
857.797	4759
857.931	4778
858.064	4698
858.197	4752
858.331	4649
858.464	4603
858.597	4516
858.731	4653
858.864	4618
858.997	4599
859.13	4660
859.263	4664
859.396	4710
859.529	4584
859.662	4565
859.795	4512
859.928	4645
860.061	4736
860.194	4744
860.327	4630
860.46	4588
860.592	4736
860.725	4736
860.858	4755
860.99	4577
861.123	4565
861.256	4538
861.388	4603
861.521	5208
861.653	4470
861.786	4485
861.918	4402
862.05	4474
862.183	4596
862.315	4599
862.447	4687
862.58	4443
862.712	4421
862.844	4310
862.976	4455
863.108	4481
863.24	4767
863.372	4303
863.504	4363
863.636	4413
863.768	4451
863.9	4417
864.032	4367
864.164	4348
864.296	4455
864.428	4558
864.559	4542
864.691	4519
864.823	4531
864.954	4466
865.086	4493
865.217	4432
865.349	4428
865.48	4474
865.612	4504
865.743	4611
865.875	4409
866.006	4428
866.137	4424
866.269	4413
866.4	4462
866.531	4443
866.662	4394
866.793	4383
866.924	4386
867.055	4497
867.186	4485
867.317	4371
867.448	4341
867.579	4383
867.71	4394
867.841	4402
867.972	4462
868.103	4428
868.233	4409
868.364	4428
868.495	4508
868.625	4656
868.756	4763
868.886	4538
869.017	4675
869.147	4782
869.278	4778
869.408	4687
869.539	4664
869.669	4733
869.799	4649
869.929	4736
870.06	4748
870.19	4927
870.32	4892
870.45	4881
870.58	5029
870.71	5033
870.84	5071
870.97	4953
871.1	4904
871.23	5124
871.36	5151
871.489	5048
871.619	4995
871.749	5117
871.879	5143
872.008	5147
872.138	5022
872.267	4934
872.397	4847
872.526	4790
872.656	4691
872.785	4767
872.915	4949
873.044	4995
873.173	4908
873.303	4949
873.432	4908
873.561	4976
873.69	4850
873.819	4892
873.948	4870
874.077	4786
874.206	4771
874.335	4771
874.464	4881
874.593	5102
874.722	4976
874.851	5048
874.979	5033
875.108	5029
875.237	4919
875.365	4862
875.494	4873
875.623	4938
875.751	4835
875.88	4870
876.008	4976
876.136	5010
876.265	5155
876.393	5280
876.521	5231
876.65	5246
876.778	5140
876.906	5003
877.034	4995
877.162	5048
877.29	4972
877.418	4976
877.546	5025
877.674	5014
877.802	5056
877.93	4987
878.058	4930
878.185	4866
878.313	4934
878.441	4949
878.568	4805
878.696	4839
878.824	4896
878.951	5010
879.079	5102
879.206	5273
879.333	5094
879.461	4976
879.588	4987
879.715	5121
879.842	5212
879.97	4987
880.097	4782
880.224	4755
880.351	4782
880.478	4797
880.605	4744
880.732	4725
880.859	5003
880.986	4892
881.112	4896
881.239	4778
881.366	4694
881.493	4558
881.619	4573
881.746	4668
881.872	4634
881.999	4637
882.125	4656
882.252	4793
882.378	4816
882.505	4949
882.631	4835
882.757	4668
882.883	4687
883.01	4744
883.136	4618
883.262	4615
883.388	4592
883.514	4767
883.64	4839
883.766	4820
883.892	4694
884.018	4702
884.143	4862
884.269	4980
884.395	4710
884.52	4607
884.646	4645
884.772	4634
884.897	4584
885.023	4649
885.148	4771
885.274	4858
885.399	4778
885.524	4702
885.65	4729
885.775	4736
885.9	4721
886.025	4797
886.15	4797
886.275	4717
886.4	4611
886.525	4706
886.65	4656
886.775	4706
886.9	4873
887.025	5064
887.149	4778
887.274	4634
887.399	4603
887.523	4569
887.648	4542
887.773	4603
887.897	4729
888.021	4763
888.146	4706
888.27	4733
888.395	4854
888.519	4771
888.643	4828
888.767	4767
888.891	4706
889.015	4573
889.139	4611
889.263	4596
889.387	4725
889.511	4843
889.635	4774
889.759	4653
889.883	4603
890.006	4759
890.13	4824
890.254	4580
890.377	4664
890.501	4542
890.624	4527
890.748	4630
890.871	4523
890.995	4402
891.118	4367
891.241	4493
891.364	4558
891.488	4675
891.611	4531
891.734	4523
891.857	4584
891.98	4546
892.103	4637
892.226	4519
892.349	4535
892.471	4455
892.594	4523
892.717	4607
892.839	4577
892.962	4569
893.085	4645
893.207	4607
893.33	4417
893.452	4558
893.575	4641
893.697	4561
893.819	4790
893.941	4858
894.064	4748
894.186	4588
894.308	4527
894.43	4767
894.552	4767
894.674	4793
894.796	4535
894.918	4603
895.04	4588
895.161	4706
895.283	4611
895.405	4599
895.526	4584
895.648	4641
895.769	4679
895.891	4691
896.012	4755
896.134	4721
896.255	4687
896.376	4622
896.498	4569
896.619	4694
896.74	4561
896.861	4626
896.982	4942
897.103	5071
897.224	4831
897.345	4744
897.466	4649
897.587	4733
897.708	4847
897.828	4778
897.949	4694
898.07	4550
898.19	4649
898.311	4771
898.431	4687
898.552	4717
898.672	4805
898.792	4744
898.913	4710
899.033	4634
899.153	4436
899.273	4398
899.393	4504
899.513	4474
899.633	4538
899.753	4550
899.873	4500
899.993	4573
900.113	4497
900.232	4561
900.352	4550
900.472	4470
900.591	4409
900.711	4504
900.83	4436
900.95	4607
901.069	4702
901.189	4500
901.308	4413
901.427	4314
901.546	4352
901.665	4500
901.784	4508
901.904	4344
902.023	4303
902.141	4169
902.26	4166
902.379	4276
902.498	4219
902.617	4211
902.735	4375
902.854	4379
902.973	4325
903.091	4223
903.21	4188
903.328	4310
903.446	4272
903.565	4291
903.683	4306
903.801	4268
903.919	4325
904.038	4405
904.156	4306
904.274	4428
904.392	4421
904.51	4356
904.627	4500
904.745	4569
904.863	4588
904.981	4447
905.098	4291
905.216	4341
905.334	4459
905.451	4432
905.569	4413
905.686	4538
905.803	4489
905.921	4436
906.038	4546
906.155	4466
906.272	4421
906.389	4436
906.506	4333
906.623	4421
906.74	4360
906.857	4318
906.974	4363
907.091	4565
907.208	4656
907.324	4554
907.441	4504
907.557	4303
907.674	4329
907.79	4303
907.907	4383
908.023	4443
908.139	4459
908.256	4402
908.372	4466
908.488	4451
908.604	4337
908.72	4299
908.836	4337
908.952	4352
909.068	4432
909.184	4561
909.3	4481
909.415	4603
909.531	4558
909.647	4356
909.762	4375
909.878	4299
909.993	4417
910.108	4394
910.224	4405
910.339	4489
910.454	4398
910.57	4360
910.685	4310
910.8	4630
910.915	4596
911.03	4504
911.145	4303
911.259	4348
911.374	4337
911.489	4238
911.604	4265
911.718	4181
911.833	4211
911.947	4120
912.062	4032
912.176	4181
912.291	4207
912.405	4276
912.519	4451
912.633	4531
912.748	4371
912.862	4329
912.976	4173
913.09	4093
913.204	4139
913.318	4215
913.431	4333
913.545	4398
913.659	4417
913.772	4310
913.886	4207
914	4196
914.113	4375
914.226	4409
914.34	4398
914.453	4246
914.566	4436
914.68	4337
914.793	4295
914.906	4131
915.019	4109
915.132	4082
915.245	4181
915.358	4215
915.47	4230
915.583	4310
915.696	4329
915.809	4383
915.921	4379
916.034	4291
916.146	4261
916.259	4215
916.371	4379
916.483	4386
916.595	4268
916.708	4329
916.82	4310
916.932	4291
917.044	4356
917.156	4363
917.268	4257
917.38	4322
917.491	4253
917.603	4356
917.715	4383
917.826	4383
917.938	4344
918.049	4230
918.161	4398
918.272	4550
918.384	4527
918.495	4398
918.606	4306
918.717	4246
918.828	4318
918.939	4379
919.05	4242
919.161	4341
919.272	4181
919.383	4276
919.494	4440
919.604	4649
919.715	4447
919.826	4333
919.936	4367
920.047	4542
920.157	4500
920.267	4698
920.378	4527
920.488	4500
920.598	4736
920.708	4934
920.818	4782
920.928	4786
921.038	4949
921.148	4938
921.258	4618
921.368	4599
921.477	4447
921.587	4417
921.697	4371
921.806	4538
921.916	4371
922.025	4287
922.134	4261
922.244	4219
922.353	4341
922.462	4207
922.571	4143
922.68	4032
922.789	3964
922.898	4067
923.007	3987
923.116	4063
923.224	4032
923.333	4078
923.442	3979
923.55	3972
923.659	4010
923.767	4086
923.876	4036
923.984	4147
924.092	3979
924.201	4078
924.309	4128
924.417	4131
924.525	4010
924.633	4101
924.741	4870
924.849	3934
924.956	4116
925.064	3941
925.172	3880
925.279	3956
925.387	4040
925.494	3998
925.602	4188
925.709	4162
925.816	4036
925.924	4131
926.031	4204
926.138	4162
926.245	4192
926.352	4109
926.459	4223
926.566	4329
926.673	4128
926.779	4051
926.886	4086
926.993	3964
927.099	3975
927.206	3994
927.312	3953
927.419	4082
927.525	3979
927.631	4101
927.737	3972
927.843	3953
927.95	3797
928.056	3930
928.162	3983
928.267	4032
928.373	4527
928.479	4135
928.585	3892
928.69	4044
928.796	4074
928.901	3972
929.007	3819
929.112	3949
929.218	3937
929.323	3915
929.428	3968
929.533	4071
929.638	3926
929.743	3945
929.848	4029
929.953	4013
930.058	3934
930.163	3808
930.267	3854
930.372	3994
930.477	3804
930.581	4078
930.685	3922
930.79	3797
930.894	3854
930.998	3827
931.103	4029
931.207	3686
931.311	3663
931.415	3667
931.519	3538
931.623	3557
