Data from test_V78500241_741.txt Node
Date: Fri Mar 25 16:54:09 CST 2022
User: usil
Spectrometer: V785-0024
Trigger mode: 0
Integration Time (sec): 4.000000E-1
Scans to average: 1
Nonlinearity correction enabled: false
Boxcar width: 0
Storing dark spectrum: false
XAxis mode: Wavelengths
Number of Pixels in Spectrum: 1024
>>>>>Begin Spectral Data<<<<<
801.071	7959
801.214	7989
801.356	7890
801.499	7814
801.641	7826
801.783	7871
801.926	7967
802.068	7830
802.211	7921
802.353	8020
802.496	7951
802.638	7894
802.78	7811
802.923	7883
803.065	7917
803.208	7898
803.35	7936
803.492	8142
803.635	8164
803.777	8039
803.919	8100
804.061	8400
804.204	8065
804.346	7967
804.488	7986
804.63	8077
804.773	7997
804.915	8145
805.057	8328
805.199	8202
805.341	8210
805.483	8298
805.626	8172
805.768	8103
805.91	8214
806.052	8157
806.194	8115
806.336	8298
806.478	8058
806.62	8043
806.762	8081
806.904	8244
807.046	8434
807.188	8351
807.33	8309
807.472	8286
807.614	8206
807.756	8111
807.898	7928
808.04	7852
808.182	7890
808.324	7887
808.465	7921
808.607	8054
808.749	8016
808.891	8134
809.033	8233
809.174	8237
809.316	7959
809.458	8069
809.6	7955
809.741	8008
809.883	8050
810.025	7974
810.166	8065
810.308	8035
810.45	8043
810.591	7860
810.733	7708
810.875	7693
811.016	7529
811.158	7460
811.299	7544
811.441	7719
811.582	7636
811.724	7578
811.865	7556
812.007	7620
812.148	7510
812.29	7495
812.431	7677
812.573	7818
812.714	7970
812.855	8054
812.997	8142
813.138	8267
813.279	8145
813.421	8081
813.562	7986
813.703	7860
813.845	7772
813.986	7422
814.127	7274
814.268	7240
814.41	7160
814.551	7099
814.692	7122
814.833	7027
814.974	7084
815.115	7099
815.256	6954
815.397	6932
815.539	7015
815.68	6920
815.821	6741
815.962	6829
816.103	6806
816.244	6741
816.385	6570
816.526	6608
816.666	6479
816.807	6277
816.948	6460
817.089	6433
817.23	6353
817.371	6407
817.512	6334
817.653	6311
817.793	6315
817.934	6422
818.075	6429
818.216	6376
818.356	6277
818.497	6266
818.638	6106
818.778	6171
818.919	6114
819.06	6155
819.2	6338
819.341	6270
819.481	6369
819.622	6547
819.762	6658
819.903	6665
820.043	6547
820.184	6547
820.324	6597
820.465	6688
820.605	6570
820.746	6604
820.886	6486
821.026	6642
821.167	6673
821.307	6760
821.447	6779
821.588	6673
821.728	6513
821.868	6422
822.008	6327
822.149	6399
822.289	6323
822.429	6106
822.569	6133
822.709	6079
822.849	5882
822.99	5878
823.13	5958
823.27	5840
823.41	5794
823.55	5764
823.69	5771
823.83	5813
823.97	5657
824.11	5547
824.25	5497
824.389	5474
824.529	5589
824.669	5467
824.809	5665
824.949	5623
825.089	5608
825.228	5554
825.368	5383
825.508	5353
825.648	5341
825.787	5387
825.927	5372
826.067	5284
826.206	5220
826.346	5303
826.485	5357
826.625	5398
826.765	5509
826.904	5497
827.044	5284
827.183	5155
827.323	5121
827.462	5223
827.601	5151
827.741	5197
827.88	5151
828.02	5079
828.159	5197
828.298	5288
828.437	5349
828.577	5246
828.716	5493
828.855	5334
828.994	5181
829.134	5151
829.273	5246
829.412	5079
829.551	5052
829.69	5147
829.829	5216
829.968	5330
830.107	5201
830.246	5273
830.385	5208
830.524	5124
830.663	5052
830.802	4949
830.941	4919
831.08	4854
831.219	4980
831.357	4984
831.496	5143
831.635	4927
831.774	4862
831.913	4801
832.051	4725
832.19	4744
832.329	4828
832.467	4656
832.606	4637
832.744	4717
832.883	4725
833.022	4721
833.16	4801
833.299	4812
833.437	4805
833.576	4809
833.714	4809
833.852	4908
833.991	4908
834.129	4961
834.267	4946
834.406	4870
834.544	4976
834.682	4953
834.821	4946
834.959	5151
835.097	5014
835.235	5105
835.373	5056
835.511	5140
835.65	5067
835.788	5018
835.926	4797
836.064	4873
836.202	4930
836.34	5113
836.478	5197
836.615	5132
836.753	5204
836.891	5273
837.029	5227
837.167	5128
837.305	5178
837.443	5159
837.58	5071
837.718	5246
837.856	5162
837.993	5105
838.131	5201
838.269	5223
838.406	5189
838.544	5181
838.681	5014
838.819	4949
838.956	4850
839.094	4911
839.231	5010
839.369	5079
839.506	5387
839.643	5269
839.781	5033
839.918	4995
840.055	5109
840.193	5113
840.33	5075
840.467	5132
840.604	5216
840.742	5402
840.879	5060
841.016	5098
841.153	5124
841.29	5345
841.427	5315
841.564	5334
841.701	5395
841.838	5288
841.975	5239
842.112	5265
842.249	5136
842.385	5109
842.522	5311
842.659	5140
842.796	5124
842.933	5178
843.069	5109
843.206	5067
843.343	5227
843.479	5231
843.616	5265
843.752	5010
843.889	5033
844.025	5204
844.162	5025
844.298	5159
844.435	5121
844.571	5064
844.708	5197
844.844	5326
844.98	5303
845.117	5303
845.253	5132
845.389	5083
845.525	5136
845.661	5121
845.798	5067
845.934	5124
846.07	5022
846.206	5197
846.342	5265
846.478	5181
846.614	4995
846.75	4919
846.886	4953
847.022	5166
847.158	4999
847.294	5022
847.429	5048
847.565	5022
847.701	5307
847.837	4862
847.972	4816
848.108	4949
848.244	4938
848.379	4736
848.515	4706
848.65	4702
848.786	4706
848.921	4786
849.057	4889
849.192	4885
849.328	4778
849.463	4854
849.598	4763
849.734	4771
849.869	4729
850.004	4580
850.14	4683
850.275	4584
850.41	4523
850.545	4538
850.68	4569
850.815	4611
850.95	4596
851.085	4801
851.22	4748
851.355	4733
851.49	4542
851.625	4558
851.76	4656
851.895	4542
852.03	4546
852.165	4641
852.299	4725
852.434	4767
852.569	4702
852.703	4759
852.838	4839
852.973	4900
853.107	4949
853.242	4752
853.376	4634
853.511	4531
853.645	4558
853.78	4793
853.914	4683
854.048	4675
854.183	4592
854.317	4683
854.451	4782
854.585	4630
854.72	4653
854.854	4744
854.988	4603
855.122	4622
855.256	4538
855.39	4710
855.524	4748
855.658	4717
855.792	4641
855.926	4706
856.06	4725
856.194	4790
856.327	4740
856.461	4569
856.595	4580
856.729	4630
856.862	4752
856.996	4714
857.13	4767
857.263	4725
857.397	4805
857.53	4634
857.664	4702
857.797	4736
857.931	4786
858.064	4675
858.197	4778
858.331	4683
858.464	4626
858.597	4550
858.731	4645
858.864	4637
858.997	4580
859.13	4675
859.263	4679
859.396	4668
859.529	4577
859.662	4516
859.795	4558
859.928	4622
860.061	4752
860.194	4729
860.327	4550
860.46	4508
860.592	4694
860.725	4702
860.858	4717
860.99	4542
861.123	4485
861.256	4478
861.388	4561
861.521	5459
861.653	4485
861.786	4440
861.918	4424
862.05	4493
862.183	4535
862.315	4588
862.447	4691
862.58	4527
862.712	4405
862.844	4318
862.976	4489
863.108	4451
863.24	4881
863.372	4318
863.504	4367
863.636	4394
863.768	4447
863.9	4462
864.032	4341
864.164	4348
864.296	4500
864.428	4516
864.559	4531
864.691	4516
864.823	4531
864.954	4485
865.086	4523
865.217	4402
865.349	4352
865.48	4428
865.612	4485
865.743	4615
865.875	4455
866.006	4360
866.137	4440
866.269	4413
866.4	4413
866.531	4371
866.662	4363
866.793	4421
866.924	4398
867.055	4493
867.186	4417
867.317	4352
867.448	4383
867.579	4379
867.71	4375
867.841	4383
867.972	4462
868.103	4402
868.233	4428
868.364	4466
868.495	4440
868.625	4596
868.756	4706
868.886	4561
869.017	4634
869.147	4759
869.278	4790
869.408	4641
869.539	4660
869.669	4694
869.799	4656
869.929	4736
870.06	4736
870.19	4980
870.32	4965
870.45	4930
870.58	4987
870.71	5128
870.84	5064
870.97	4961
871.1	4938
871.23	5151
871.36	5128
871.489	5079
871.619	5136
871.749	5090
871.879	5132
872.008	5197
872.138	5086
872.267	5022
872.397	4900
872.526	4774
872.656	4740
872.785	4824
872.915	5033
873.044	5056
873.173	4942
873.303	4965
873.432	5022
873.561	5010
873.69	4896
873.819	4900
873.948	4919
874.077	4870
874.206	4774
874.335	4835
874.464	4976
874.593	5060
874.722	4980
874.851	5117
874.979	5083
875.108	5052
875.237	4919
875.365	4957
875.494	4927
875.623	4991
875.751	4839
875.88	4889
876.008	4995
876.136	4984
876.265	5242
876.393	5379
876.521	5261
876.65	5261
876.778	5220
876.906	5117
877.034	5090
877.162	5075
877.29	5048
877.418	5094
877.546	5041
877.674	5094
877.802	5071
877.93	5029
878.058	4927
878.185	4870
878.313	4987
878.441	5010
878.568	4889
878.696	4957
878.824	5010
878.951	5045
879.079	5159
879.206	5299
879.333	5128
879.461	5006
879.588	4991
879.715	5124
879.842	5265
879.97	5014
880.097	4831
880.224	4782
880.351	4850
880.478	4911
880.605	4809
880.732	4828
880.859	5121
880.986	4972
881.112	4965
881.239	4786
881.366	4694
881.493	4588
881.619	4668
881.746	4679
881.872	4691
881.999	4736
882.125	4729
882.252	4805
882.378	4862
882.505	4987
882.631	4828
882.757	4702
882.883	4771
883.01	4767
883.136	4740
883.262	4668
883.388	4641
883.514	4862
883.64	4892
883.766	4797
883.892	4672
884.018	4755
884.143	4934
884.269	5025
884.395	4675
884.52	4672
884.646	4687
884.772	4622
884.897	4634
885.023	4714
885.148	4805
885.274	4892
885.399	4809
885.524	4774
885.65	4721
885.775	4767
885.9	4714
886.025	4908
886.15	4816
886.275	4748
886.4	4717
886.525	4740
886.65	4691
886.775	4683
886.9	4942
887.025	5037
887.149	4870
887.274	4668
887.399	4592
887.523	4584
887.648	4592
887.773	4622
887.897	4782
888.021	4786
888.146	4698
888.27	4812
888.395	4923
888.519	4793
888.643	4831
888.767	4847
888.891	4698
889.015	4580
889.139	4721
889.263	4558
889.387	4793
889.511	4877
889.635	4816
889.759	4679
889.883	4668
890.006	4714
890.13	4870
890.254	4596
890.377	4702
890.501	4592
890.624	4542
890.748	4668
890.871	4535
890.995	4485
891.118	4436
891.241	4527
891.364	4599
891.488	4660
891.611	4504
891.734	4573
891.857	4596
891.98	4603
892.103	4630
892.226	4596
892.349	4588
892.471	4470
892.594	4626
892.717	4584
892.839	4561
892.962	4580
893.085	4706
893.207	4622
893.33	4447
893.452	4519
893.575	4729
893.697	4622
893.819	4809
893.941	4858
894.064	4752
894.186	4607
894.308	4573
894.43	4778
894.552	4854
894.674	4721
894.796	4599
894.918	4603
895.04	4588
895.161	4714
895.283	4656
895.405	4630
895.526	4645
895.648	4710
895.769	4691
895.891	4763
896.012	4755
896.134	4797
896.255	4645
896.376	4672
896.498	4645
896.619	4691
896.74	4626
896.861	4637
896.982	4949
897.103	5094
897.224	4854
897.345	4801
897.466	4637
897.587	4736
897.708	4904
897.828	4801
897.949	4702
898.07	4626
898.19	4634
898.311	4870
898.431	4687
898.552	4778
898.672	4831
898.792	4843
898.913	4774
899.033	4649
899.153	4512
899.273	4451
899.393	4527
899.513	4546
899.633	4527
899.753	4592
899.873	4512
899.993	4660
900.113	4550
900.232	4622
900.352	4558
900.472	4481
900.591	4428
900.711	4558
900.83	4474
900.95	4580
901.069	4733
901.189	4607
901.308	4390
901.427	4344
901.546	4386
901.665	4512
901.784	4592
901.904	4405
902.023	4299
902.141	4238
902.26	4211
902.379	4337
902.498	4253
902.617	4265
902.735	4367
902.854	4428
902.973	4371
903.091	4223
903.21	4265
903.328	4299
903.446	4303
903.565	4257
903.683	4337
903.801	4272
903.919	4451
904.038	4500
904.156	4356
904.274	4402
904.392	4462
904.51	4485
904.627	4531
904.745	4634
904.863	4656
904.981	4455
905.098	4322
905.216	4394
905.334	4466
905.451	4466
905.569	4432
905.686	4558
905.803	4588
905.921	4409
906.038	4550
906.155	4497
906.272	4398
906.389	4462
906.506	4386
906.623	4443
906.74	4424
906.857	4333
906.974	4409
907.091	4592
907.208	4694
907.324	4584
907.441	4519
907.557	4375
907.674	4424
907.79	4356
907.907	4390
908.023	4478
908.139	4512
908.256	4455
908.372	4493
908.488	4504
908.604	4356
908.72	4363
908.836	4390
908.952	4367
909.068	4466
909.184	4588
909.3	4577
909.415	4607
909.531	4546
909.647	4344
909.762	4398
909.878	4394
909.993	4451
910.108	4413
910.224	4459
910.339	4493
910.454	4383
910.57	4360
910.685	4303
910.8	4683
910.915	4649
911.03	4504
911.145	4360
911.259	4394
911.374	4383
911.489	4303
911.604	4337
911.718	4204
911.833	4227
911.947	4086
912.062	4078
912.176	4257
912.291	4265
912.405	4310
912.519	4462
912.633	4577
912.748	4379
912.862	4352
912.976	4204
913.09	4128
913.204	4188
913.318	4287
913.431	4379
913.545	4371
913.659	4489
913.772	4405
913.886	4261
914	4219
914.113	4337
914.226	4455
914.34	4417
914.453	4249
914.566	4405
914.68	4310
914.793	4367
914.906	4124
915.019	4135
915.132	4101
915.245	4166
915.358	4223
915.47	4284
915.583	4318
915.696	4276
915.809	4432
915.921	4466
916.034	4291
916.146	4246
916.259	4246
916.371	4383
916.483	4386
916.595	4276
916.708	4337
916.82	4371
916.932	4390
917.044	4394
917.156	4325
917.268	4257
917.38	4291
917.491	4276
917.603	4363
917.715	4428
917.826	4462
917.938	4409
918.049	4284
918.161	4421
918.272	4535
918.384	4550
918.495	4447
918.606	4310
918.717	4276
918.828	4322
918.939	4394
919.05	4287
919.161	4310
919.272	4143
919.383	4227
919.494	4470
919.604	4607
919.715	4455
919.826	4344
919.936	4363
920.047	4573
920.157	4561
920.267	4694
920.378	4504
920.488	4508
920.598	4725
920.708	4889
920.818	4748
920.928	4870
921.038	4949
921.148	4946
921.258	4618
921.368	4584
921.477	4519
921.587	4417
921.697	4383
921.806	4596
921.916	4466
922.025	4280
922.134	4257
922.244	4238
922.353	4360
922.462	4185
922.571	4143
922.68	4006
922.789	4017
922.898	4040
923.007	4017
923.116	4093
923.224	4090
923.333	4071
923.442	4002
923.55	4044
923.659	4093
923.767	4078
923.876	3987
923.984	4139
924.092	4021
924.201	4097
924.309	4093
924.417	4135
924.525	4067
924.633	4120
924.741	4873
924.849	3956
924.956	4135
925.064	3983
925.172	3930
925.279	3972
925.387	4059
925.494	4082
925.602	4253
925.709	4169
925.816	4082
925.924	4158
926.031	4284
926.138	4173
926.245	4192
926.352	4090
926.459	4261
926.566	4352
926.673	4223
926.779	4105
926.886	4112
926.993	4013
927.099	3987
927.206	3975
927.312	3953
927.419	4090
927.525	4010
927.631	4097
927.737	4010
927.843	3964
927.95	3865
928.056	4013
928.162	3994
928.267	4082
928.373	4702
928.479	4143
928.585	3876
928.69	4055
928.796	4082
928.901	3960
929.007	3880
929.112	4029
929.218	3991
929.323	3949
929.428	3907
929.533	4082
929.638	3941
929.743	3953
929.848	4074
929.953	3994
930.058	3922
930.163	3800
930.267	3850
930.372	3972
930.477	3835
930.581	4086
930.685	3968
930.79	3838
930.894	3907
930.998	3907
931.103	4002
931.207	3717
931.311	3724
931.415	3663
931.519	3561
931.623	3507
