Data from test_V78500241_2079.txt Node
Date: Fri Mar 25 17:03:27 CST 2022
User: usil
Spectrometer: V785-0024
Trigger mode: 0
Integration Time (sec): 4.000000E-1
Scans to average: 1
Nonlinearity correction enabled: false
Boxcar width: 0
Storing dark spectrum: false
XAxis mode: Wavelengths
Number of Pixels in Spectrum: 1024
>>>>>Begin Spectral Data<<<<<
801.071	8054
801.214	8005
801.356	7906
801.499	7860
801.641	7837
801.783	7814
801.926	7974
802.068	7913
802.211	8008
802.353	7967
802.496	7890
802.638	7864
802.78	7887
802.923	7906
803.065	7864
803.208	7932
803.35	8008
803.492	8088
803.635	8199
803.777	8081
803.919	8168
804.061	8442
804.204	8187
804.346	8058
804.488	7997
804.63	8073
804.773	8001
804.915	8119
805.057	8347
805.199	8161
805.341	8206
805.483	8298
805.626	8202
805.768	8096
805.91	8134
806.052	8180
806.194	8172
806.336	8282
806.478	8134
806.62	8088
806.762	8176
806.904	8233
807.046	8575
807.188	8328
807.33	8309
807.472	8313
807.614	8252
807.756	8100
807.898	8096
808.04	7822
808.182	7864
808.324	7921
808.465	7940
808.607	8069
808.749	8103
808.891	8199
809.033	8271
809.174	8259
809.316	8073
809.458	8103
809.6	8012
809.741	7986
809.883	8100
810.025	8183
810.166	8062
810.308	8031
810.45	8035
810.591	7906
810.733	7761
810.875	7643
811.016	7506
811.158	7476
811.299	7559
811.441	7723
811.582	7693
811.724	7601
811.865	7525
812.007	7597
812.148	7620
812.29	7605
812.431	7799
812.573	7852
812.714	7947
812.855	8138
812.997	8199
813.138	8279
813.279	8168
813.421	8062
813.562	7944
813.703	7852
813.845	7784
813.986	7426
814.127	7266
814.268	7297
814.41	7198
814.551	7183
814.692	7240
814.833	7110
814.974	7099
815.115	7095
815.256	6981
815.397	6958
815.539	6958
815.68	6783
815.821	6730
815.962	6954
816.103	6833
816.244	6696
816.385	6669
816.526	6601
816.666	6502
816.807	6311
816.948	6460
817.089	6471
817.23	6433
817.371	6391
817.512	6403
817.653	6357
817.793	6308
817.934	6410
818.075	6540
818.216	6479
818.356	6380
818.497	6251
818.638	6110
818.778	6159
818.919	6186
819.06	6190
819.2	6311
819.341	6300
819.481	6346
819.622	6467
819.762	6749
819.903	6677
820.043	6582
820.184	6547
820.324	6578
820.465	6700
820.605	6684
820.746	6623
820.886	6566
821.026	6696
821.167	6741
821.307	6757
821.447	6722
821.588	6654
821.728	6563
821.868	6475
822.008	6361
822.149	6350
822.289	6418
822.429	6175
822.569	6117
822.709	6152
822.849	5889
822.99	5920
823.13	5942
823.27	5935
823.41	5756
823.55	5802
823.69	5779
823.83	5813
823.97	5714
824.11	5558
824.25	5539
824.389	5558
824.529	5608
824.669	5509
824.809	5634
824.949	5634
825.089	5630
825.228	5539
825.368	5414
825.508	5337
825.648	5357
825.787	5402
825.927	5360
826.067	5288
826.206	5337
826.346	5406
826.485	5444
826.625	5448
826.765	5573
826.904	5474
827.044	5212
827.183	5220
827.323	5121
827.462	5273
827.601	5204
827.741	5250
827.88	5265
828.02	5128
828.159	5223
828.298	5318
828.437	5402
828.577	5273
828.716	5467
828.855	5292
828.994	5193
829.134	5124
829.273	5212
829.412	5204
829.551	5143
829.69	5201
829.829	5269
829.968	5345
830.107	5288
830.246	5277
830.385	5181
830.524	5151
830.663	5071
830.802	4987
830.941	4911
831.08	4877
831.219	4934
831.357	5025
831.496	5136
831.635	4923
831.774	4915
831.913	4839
832.051	4725
832.19	4736
832.329	4828
832.467	4687
832.606	4615
832.744	4733
832.883	4717
833.022	4767
833.16	4767
833.299	4828
833.437	4820
833.576	4820
833.714	4843
833.852	4877
833.991	4854
834.129	4953
834.267	4957
834.406	4896
834.544	4949
834.682	4968
834.821	4927
834.959	5128
835.097	4984
835.235	5121
835.373	5083
835.511	5102
835.65	5014
835.788	5022
835.926	4980
836.064	4877
836.202	4946
836.34	5174
836.478	5261
836.615	5094
836.753	5189
836.891	5299
837.029	5261
837.167	5189
837.305	5155
837.443	5181
837.58	5136
837.718	5284
837.856	5189
837.993	5132
838.131	5189
838.269	5189
838.406	5201
838.544	5220
838.681	5037
838.819	4957
838.956	4889
839.094	4919
839.231	5010
839.369	5151
839.506	5395
839.643	5284
839.781	5071
839.918	5025
840.055	5117
840.193	5109
840.33	5105
840.467	5094
840.604	5178
840.742	5463
840.879	5090
841.016	5098
841.153	5178
841.29	5387
841.427	5307
841.564	5303
841.701	5299
841.838	5242
841.975	5250
842.112	5242
842.249	5124
842.385	5086
842.522	5296
842.659	5151
842.796	5105
842.933	5235
843.069	5102
843.206	5109
843.343	5292
843.479	5216
843.616	5258
843.752	5014
843.889	5006
844.025	5239
844.162	5018
844.298	5189
844.435	5064
844.571	5045
844.708	5181
844.844	5292
844.98	5398
845.117	5299
845.253	5155
845.389	5094
845.525	5151
845.661	5155
845.798	5064
845.934	5117
846.07	5033
846.206	5181
846.342	5299
846.478	5159
846.614	5033
846.75	4965
846.886	4965
847.022	5098
847.158	5025
847.294	5060
847.429	5140
847.565	5037
847.701	5277
847.837	4820
847.972	4809
848.108	4968
848.244	4896
848.379	4786
848.515	4771
848.65	4679
848.786	4714
848.921	4771
849.057	4885
849.192	4850
849.328	4812
849.463	4820
849.598	4816
849.734	4736
849.869	4725
850.004	4603
850.14	4649
850.275	4584
850.41	4481
850.545	4584
850.68	4603
850.815	4573
850.95	4607
851.085	4885
851.22	4729
851.355	4664
851.49	4611
851.625	4645
851.76	4622
851.895	4580
852.03	4531
852.165	4603
852.299	4744
852.434	4748
852.569	4748
852.703	4767
852.838	4786
852.973	4892
853.107	4915
853.242	4763
853.376	4694
853.511	4584
853.645	4592
853.78	4778
853.914	4714
854.048	4653
854.183	4641
854.317	4717
854.451	4847
854.585	4687
854.72	4626
854.854	4774
854.988	4603
855.122	4630
855.256	4500
855.39	4645
855.524	4774
855.658	4748
855.792	4668
855.926	4710
856.06	4736
856.194	4771
856.327	4679
856.461	4615
856.595	4653
856.729	4580
856.862	4752
856.996	4660
857.13	4736
857.263	4774
857.397	4790
857.53	4584
857.664	4740
857.797	4736
857.931	4786
858.064	4675
858.197	4752
858.331	4668
858.464	4603
858.597	4497
858.731	4580
858.864	4596
858.997	4615
859.13	4641
859.263	4637
859.396	4698
859.529	4641
859.662	4561
859.795	4561
859.928	4641
860.061	4801
860.194	4778
860.327	4592
860.46	4558
860.592	4721
860.725	4687
860.858	4725
860.99	4554
861.123	4542
861.256	4485
861.388	4592
861.521	5280
861.653	4497
861.786	4455
861.918	4443
862.05	4485
862.183	4558
862.315	4588
862.447	4649
862.58	4561
862.712	4379
862.844	4299
862.976	4497
863.108	4512
863.24	4801
863.372	4325
863.504	4405
863.636	4390
863.768	4516
863.9	4462
864.032	4344
864.164	4409
864.296	4451
864.428	4535
864.559	4546
864.691	4523
864.823	4485
864.954	4508
865.086	4436
865.217	4451
865.349	4409
865.48	4481
865.612	4508
865.743	4592
865.875	4428
866.006	4390
866.137	4455
866.269	4447
866.4	4443
866.531	4402
866.662	4394
866.793	4390
866.924	4413
867.055	4466
867.186	4417
867.317	4436
867.448	4379
867.579	4405
867.71	4386
867.841	4383
867.972	4436
868.103	4459
868.233	4466
868.364	4481
868.495	4489
868.625	4679
868.756	4786
868.886	4569
869.017	4603
869.147	4736
869.278	4771
869.408	4637
869.539	4615
869.669	4725
869.799	4653
869.929	4778
870.06	4736
870.19	4946
870.32	4934
870.45	4938
870.58	5029
870.71	5071
870.84	5143
870.97	4934
871.1	4900
871.23	5178
871.36	5170
871.489	5033
871.619	5067
871.749	5048
871.879	5109
872.008	5140
872.138	5060
872.267	4946
872.397	4881
872.526	4759
872.656	4698
872.785	4767
872.915	4930
873.044	4980
873.173	4946
873.303	4923
873.432	4995
873.561	4942
873.69	4870
873.819	4828
873.948	4908
874.077	4843
874.206	4771
874.335	4793
874.464	4904
874.593	5022
874.722	5022
874.851	5109
874.979	5067
875.108	5003
875.237	4900
875.365	4892
875.494	4889
875.623	4961
875.751	4847
875.88	4877
876.008	4972
876.136	5029
876.265	5254
876.393	5391
876.521	5250
876.65	5239
876.778	5117
876.906	5098
877.034	5033
877.162	5025
877.29	4987
877.418	5060
877.546	5117
877.674	4999
877.802	4999
877.93	4976
878.058	4930
878.185	4930
878.313	4953
878.441	4938
878.568	4774
878.696	4831
878.824	4938
878.951	4957
879.079	5121
879.206	5269
879.333	5113
879.461	4976
879.588	5010
879.715	5071
879.842	5204
879.97	5018
880.097	4793
880.224	4767
880.351	4835
880.478	4790
880.605	4809
880.732	4763
880.859	5083
880.986	4896
881.112	4900
881.239	4748
881.366	4626
881.493	4641
881.619	4554
881.746	4645
881.872	4615
881.999	4664
882.125	4694
882.252	4809
882.378	4858
882.505	4927
882.631	4797
882.757	4683
882.883	4790
883.01	4729
883.136	4672
883.262	4649
883.388	4599
883.514	4812
883.64	4839
883.766	4793
883.892	4641
884.018	4679
884.143	4866
884.269	5086
884.395	4687
884.52	4634
884.646	4645
884.772	4588
884.897	4603
885.023	4626
885.148	4801
885.274	4881
885.399	4774
885.524	4729
885.65	4679
885.775	4725
885.9	4721
886.025	4839
886.15	4820
886.275	4752
886.4	4611
886.525	4683
886.65	4694
886.775	4687
886.9	4911
887.025	5094
887.149	4809
887.274	4691
887.399	4596
887.523	4569
887.648	4588
887.773	4577
887.897	4748
888.021	4740
888.146	4710
888.27	4809
888.395	4900
888.519	4771
888.643	4812
888.767	4828
888.891	4683
889.015	4630
889.139	4630
889.263	4634
889.387	4729
889.511	4847
889.635	4763
889.759	4622
889.883	4668
890.006	4736
890.13	4831
890.254	4599
890.377	4710
890.501	4523
890.624	4474
890.748	4645
890.871	4527
890.995	4417
891.118	4394
891.241	4500
891.364	4508
891.488	4618
891.611	4478
891.734	4489
891.857	4565
891.98	4573
892.103	4641
892.226	4554
892.349	4519
892.471	4485
892.594	4558
892.717	4611
892.839	4615
892.962	4603
893.085	4664
893.207	4573
893.33	4451
893.452	4519
893.575	4645
893.697	4588
893.819	4809
893.941	4805
894.064	4755
894.186	4603
894.308	4561
894.43	4755
894.552	4850
894.674	4797
894.796	4538
894.918	4538
895.04	4584
895.161	4714
895.283	4691
895.405	4588
895.526	4634
895.648	4714
895.769	4683
895.891	4698
896.012	4748
896.134	4744
896.255	4645
896.376	4649
896.498	4645
896.619	4694
896.74	4577
896.861	4622
896.982	4934
897.103	5064
897.224	4774
897.345	4687
897.466	4649
897.587	4763
897.708	4835
897.828	4790
897.949	4664
898.07	4561
898.19	4733
898.311	4839
898.431	4660
898.552	4721
898.672	4763
898.792	4786
898.913	4694
899.033	4596
899.153	4485
899.273	4440
899.393	4504
899.513	4558
899.633	4531
899.753	4588
899.873	4489
899.993	4584
900.113	4554
900.232	4569
900.352	4531
900.472	4516
900.591	4398
900.711	4462
900.83	4432
900.95	4573
901.069	4675
901.189	4580
901.308	4390
901.427	4322
901.546	4344
901.665	4417
901.784	4527
901.904	4348
902.023	4295
902.141	4242
902.26	4158
902.379	4318
902.498	4207
902.617	4227
902.735	4375
902.854	4409
902.973	4318
903.091	4223
903.21	4204
903.328	4272
903.446	4253
903.565	4253
903.683	4348
903.801	4276
903.919	4405
904.038	4386
904.156	4253
904.274	4451
904.392	4383
904.51	4390
904.627	4443
904.745	4622
904.863	4649
904.981	4409
905.098	4352
905.216	4386
905.334	4421
905.451	4417
905.569	4386
905.686	4519
905.803	4615
905.921	4436
906.038	4565
906.155	4500
906.272	4417
906.389	4409
906.506	4360
906.623	4405
906.74	4375
906.857	4268
906.974	4322
907.091	4516
907.208	4660
907.324	4565
907.441	4474
907.557	4363
907.674	4333
907.79	4299
907.907	4379
908.023	4436
908.139	4516
908.256	4459
908.372	4485
908.488	4443
908.604	4390
908.72	4348
908.836	4386
908.952	4333
909.068	4394
909.184	4573
909.3	4523
909.415	4637
909.531	4561
909.647	4371
909.762	4363
909.878	4310
909.993	4443
910.108	4405
910.224	4436
910.339	4443
910.454	4402
910.57	4360
910.685	4280
910.8	4698
910.915	4584
911.03	4474
911.145	4352
911.259	4363
911.374	4360
911.489	4303
911.604	4284
911.718	4177
911.833	4246
911.947	4120
912.062	4017
912.176	4223
912.291	4196
912.405	4223
912.519	4455
912.633	4485
912.748	4383
912.862	4299
912.976	4162
913.09	4109
913.204	4192
913.318	4272
913.431	4367
913.545	4348
913.659	4466
913.772	4379
913.886	4227
914	4242
914.113	4394
914.226	4402
914.34	4371
914.453	4219
914.566	4413
914.68	4310
914.793	4379
914.906	4135
915.019	4101
915.132	4101
915.245	4169
915.358	4196
915.47	4219
915.583	4234
915.696	4306
915.809	4356
915.921	4383
916.034	4219
916.146	4238
916.259	4181
916.371	4417
916.483	4367
916.595	4249
916.708	4314
916.82	4333
916.932	4306
917.044	4325
917.156	4303
917.268	4185
917.38	4329
917.491	4215
917.603	4375
917.715	4413
917.826	4451
917.938	4333
918.049	4177
918.161	4383
918.272	4561
918.384	4512
918.495	4402
918.606	4295
918.717	4261
918.828	4333
918.939	4360
919.05	4257
919.161	4284
919.272	4120
919.383	4227
919.494	4417
919.604	4615
919.715	4432
919.826	4325
919.936	4367
920.047	4535
920.157	4497
920.267	4668
920.378	4531
920.488	4516
920.598	4668
920.708	4911
920.818	4752
920.928	4759
921.038	4904
921.148	4911
921.258	4649
921.368	4542
921.477	4462
921.587	4508
921.697	4390
921.806	4519
921.916	4409
922.025	4272
922.134	4265
922.244	4227
922.353	4306
922.462	4204
922.571	4131
922.68	4025
922.789	3960
922.898	4029
923.007	3953
923.116	4105
923.224	4067
923.333	4071
923.442	4010
923.55	3991
923.659	4029
923.767	4150
923.876	4040
923.984	4093
924.092	3979
924.201	4105
924.309	4074
924.417	4071
924.525	4036
924.633	4166
924.741	5041
924.849	3922
924.956	4154
925.064	3911
925.172	3888
925.279	3956
925.387	4071
925.494	4082
925.602	4230
925.709	4192
925.816	4059
925.924	4101
926.031	4261
926.138	4139
926.245	4219
926.352	4074
926.459	4230
926.566	4280
926.673	4090
926.779	4078
926.886	4071
926.993	4002
927.099	3915
927.206	3945
927.312	3926
927.419	4059
927.525	4013
927.631	4071
927.737	3994
927.843	3960
927.95	3873
928.056	3953
928.162	3941
928.267	4097
928.373	4546
928.479	4120
928.585	3907
928.69	4032
928.796	4082
928.901	3972
929.007	3880
929.112	3987
929.218	3972
929.323	3903
929.428	3953
929.533	4120
929.638	3907
929.743	3930
929.848	4044
929.953	3964
930.058	3934
930.163	3755
930.267	3793
930.372	3953
930.477	3800
930.581	4105
930.685	3949
930.79	3785
930.894	3922
930.998	3873
931.103	4067
931.207	3740
931.311	3724
931.415	3667
931.519	3534
931.623	3564
