Data from test_V78500241_1883.txt Node
Date: Fri Mar 25 17:02:05 CST 2022
User: usil
Spectrometer: V785-0024
Trigger mode: 0
Integration Time (sec): 4.000000E-1
Scans to average: 1
Nonlinearity correction enabled: false
Boxcar width: 0
Storing dark spectrum: false
XAxis mode: Wavelengths
Number of Pixels in Spectrum: 1024
>>>>>Begin Spectral Data<<<<<
801.071	7978
801.214	7967
801.356	7856
801.499	7852
801.641	7807
801.783	7807
801.926	7955
802.068	7906
802.211	7944
802.353	7947
802.496	7868
802.638	7856
802.78	7814
802.923	7860
803.065	7940
803.208	7814
803.35	7959
803.492	8119
803.635	8138
803.777	8054
803.919	8157
804.061	8533
804.204	8214
804.346	8069
804.488	7982
804.63	8054
804.773	7993
804.915	8058
805.057	8290
805.199	8180
805.341	8183
805.483	8210
805.626	8191
805.768	8073
805.91	8244
806.052	8229
806.194	8123
806.336	8320
806.478	8115
806.62	8020
806.762	8115
806.904	8317
807.046	8438
807.188	8408
807.33	8286
807.472	8328
807.614	8157
807.756	8123
807.898	7944
808.04	7879
808.182	7803
808.324	7932
808.465	7947
808.607	8073
808.749	8145
808.891	8195
809.033	8267
809.174	8176
809.316	8073
809.458	8115
809.6	8012
809.741	8046
809.883	8096
810.025	8100
810.166	8035
810.308	8073
810.45	7928
810.591	7845
810.733	7753
810.875	7643
811.016	7529
811.158	7491
811.299	7605
811.441	7727
811.582	7674
811.724	7594
811.865	7586
812.007	7666
812.148	7540
812.29	7616
812.431	7731
812.573	7909
812.714	8024
812.855	8119
812.997	8229
813.138	8362
813.279	8214
813.421	8081
813.562	7951
813.703	7757
813.845	7723
813.986	7400
814.127	7198
814.268	7206
814.41	7156
814.551	7183
814.692	7247
814.833	7141
814.974	7126
815.115	7168
815.256	6977
815.397	6985
815.539	6935
815.68	6806
815.821	6802
815.962	6833
816.103	6779
816.244	6673
816.385	6601
816.526	6578
816.666	6544
816.807	6296
816.948	6448
817.089	6475
817.23	6460
817.371	6357
817.512	6456
817.653	6380
817.793	6361
817.934	6357
818.075	6471
818.216	6426
818.356	6395
818.497	6258
818.638	6110
818.778	6190
818.919	6197
819.06	6144
819.2	6304
819.341	6300
819.481	6388
819.622	6525
819.762	6684
819.903	6677
820.043	6574
820.184	6597
820.324	6593
820.465	6719
820.605	6650
820.746	6639
820.886	6521
821.026	6677
821.167	6707
821.307	6749
821.447	6753
821.588	6673
821.728	6578
821.868	6464
822.008	6334
822.149	6361
822.289	6323
822.429	6159
822.569	6076
822.709	6136
822.849	5912
822.99	5904
823.13	5935
823.27	5920
823.41	5767
823.55	5798
823.69	5805
823.83	5756
823.97	5710
824.11	5554
824.25	5440
824.389	5615
824.529	5570
824.669	5532
824.809	5646
824.949	5657
825.089	5657
825.228	5573
825.368	5376
825.508	5326
825.648	5383
825.787	5334
825.927	5360
826.067	5292
826.206	5277
826.346	5398
826.485	5398
826.625	5387
826.765	5547
826.904	5497
827.044	5208
827.183	5208
827.323	5147
827.462	5292
827.601	5189
827.741	5170
827.88	5223
828.02	5098
828.159	5227
828.298	5254
828.437	5383
828.577	5227
828.716	5448
828.855	5303
828.994	5220
829.134	5189
829.273	5220
829.412	5143
829.551	5136
829.69	5181
829.829	5258
829.968	5387
830.107	5216
830.246	5296
830.385	5212
830.524	5124
830.663	5052
830.802	4927
830.941	4877
831.08	4866
831.219	4957
831.357	4961
831.496	5132
831.635	4942
831.774	4866
831.913	4843
832.051	4694
832.19	4752
832.329	4797
832.467	4653
832.606	4645
832.744	4668
832.883	4714
833.022	4687
833.16	4805
833.299	4847
833.437	4812
833.576	4801
833.714	4801
833.852	4866
833.991	4824
834.129	4942
834.267	4915
834.406	4900
834.544	4942
834.682	4923
834.821	4946
834.959	5185
835.097	4972
835.235	5140
835.373	5056
835.511	5113
835.65	5022
835.788	5025
835.926	4896
836.064	4839
836.202	4889
836.34	5128
836.478	5132
836.615	5117
836.753	5208
836.891	5288
837.029	5227
837.167	5239
837.305	5132
837.443	5094
837.58	5029
837.718	5284
837.856	5151
837.993	5128
838.131	5189
838.269	5178
838.406	5265
838.544	5174
838.681	5029
838.819	5025
838.956	4858
839.094	4870
839.231	4999
839.369	5067
839.506	5395
839.643	5223
839.781	5083
839.918	4991
840.055	5064
840.193	5056
840.33	5155
840.467	5105
840.604	5185
840.742	5376
840.879	5094
841.016	5064
841.153	5094
841.29	5376
841.427	5307
841.564	5337
841.701	5334
841.838	5231
841.975	5216
842.112	5277
842.249	5140
842.385	5090
842.522	5311
842.659	5098
842.796	5155
842.933	5151
843.069	5143
843.206	5113
843.343	5303
843.479	5220
843.616	5231
843.752	5029
843.889	5006
844.025	5193
844.162	4972
844.298	5208
844.435	5075
844.571	5071
844.708	5208
844.844	5246
844.98	5299
845.117	5288
845.253	5181
845.389	5064
845.525	5166
845.661	5140
845.798	5025
845.934	5140
846.07	5060
846.206	5201
846.342	5208
846.478	5170
846.614	5018
846.75	4953
846.886	4968
847.022	5159
847.158	5022
847.294	5109
847.429	5098
847.565	5045
847.701	5280
847.837	4797
847.972	4740
848.108	5018
848.244	4946
848.379	4744
848.515	4759
848.65	4717
848.786	4755
848.921	4786
849.057	4816
849.192	4854
849.328	4847
849.463	4835
849.598	4793
849.734	4767
849.869	4679
850.004	4592
850.14	4664
850.275	4603
850.41	4577
850.545	4573
850.68	4588
850.815	4626
850.95	4622
851.085	4824
851.22	4771
851.355	4668
851.49	4634
851.625	4577
851.76	4637
851.895	4558
852.03	4569
852.165	4630
852.299	4679
852.434	4793
852.569	4729
852.703	4744
852.838	4809
852.973	4946
853.107	4900
853.242	4702
853.376	4645
853.511	4558
853.645	4622
853.78	4774
853.914	4653
854.048	4634
854.183	4675
854.317	4694
854.451	4862
854.585	4710
854.72	4599
854.854	4706
854.988	4592
855.122	4679
855.256	4527
855.39	4653
855.524	4744
855.658	4729
855.792	4714
855.926	4683
856.06	4778
856.194	4816
856.327	4714
856.461	4592
856.595	4584
856.729	4656
856.862	4755
856.996	4683
857.13	4687
857.263	4725
857.397	4824
857.53	4660
857.664	4744
857.797	4717
857.931	4710
858.064	4649
858.197	4740
858.331	4630
858.464	4584
858.597	4542
858.731	4641
858.864	4687
858.997	4565
859.13	4656
859.263	4626
859.396	4687
859.529	4558
859.662	4523
859.795	4500
859.928	4637
860.061	4725
860.194	4729
860.327	4550
860.46	4558
860.592	4664
860.725	4702
860.858	4736
860.99	4599
861.123	4531
861.256	4546
861.388	4615
861.521	5349
861.653	4474
861.786	4462
861.918	4481
862.05	4493
862.183	4531
862.315	4592
862.447	4645
862.58	4531
862.712	4402
862.844	4314
862.976	4493
863.108	4405
863.24	4877
863.372	4341
863.504	4432
863.636	4405
863.768	4440
863.9	4375
864.032	4379
864.164	4451
864.296	4485
864.428	4588
864.559	4584
864.691	4538
864.823	4538
864.954	4462
865.086	4516
865.217	4462
865.349	4417
865.48	4470
865.612	4497
865.743	4599
865.875	4405
866.006	4447
866.137	4466
866.269	4443
866.4	4447
866.531	4443
866.662	4409
866.793	4386
866.924	4421
867.055	4497
867.186	4409
867.317	4409
867.448	4402
867.579	4394
867.71	4367
867.841	4375
867.972	4432
868.103	4462
868.233	4440
868.364	4481
868.495	4459
868.625	4634
868.756	4778
868.886	4516
869.017	4634
869.147	4748
869.278	4771
869.408	4702
869.539	4645
869.669	4717
869.799	4615
869.929	4767
870.06	4717
870.19	4900
870.32	4900
870.45	4904
870.58	5010
870.71	5121
870.84	5064
870.97	4938
871.1	4930
871.23	5136
871.36	5159
871.489	4991
871.619	5094
871.749	5056
871.879	5121
872.008	5189
872.138	5041
872.267	4980
872.397	4866
872.526	4801
872.656	4744
872.785	4812
872.915	4984
873.044	5025
873.173	4942
873.303	4965
873.432	4949
873.561	4984
873.69	4873
873.819	4858
873.948	4896
874.077	4797
874.206	4778
874.335	4774
874.464	4866
874.593	5037
874.722	4961
874.851	5041
874.979	5094
875.108	5037
875.237	4900
875.365	4892
875.494	4908
875.623	4923
875.751	4847
875.88	4885
876.008	4927
876.136	5010
876.265	5155
876.393	5303
876.521	5254
876.65	5162
876.778	5094
876.906	5071
877.034	4987
877.162	5025
877.29	4961
877.418	5014
877.546	5056
877.674	5067
877.802	5014
877.93	5010
878.058	4923
878.185	4984
878.313	4972
878.441	4961
878.568	4797
878.696	4866
878.824	4934
878.951	4953
879.079	5086
879.206	5349
879.333	5083
879.461	5006
879.588	4976
879.715	5147
879.842	5231
879.97	5067
880.097	4774
880.224	4748
880.351	4755
880.478	4839
880.605	4782
880.732	4801
880.859	5064
880.986	4854
881.112	4938
881.239	4767
881.366	4683
881.493	4592
881.619	4558
881.746	4653
881.872	4664
881.999	4679
882.125	4653
882.252	4793
882.378	4843
882.505	4965
882.631	4812
882.757	4698
882.883	4759
883.01	4702
883.136	4687
883.262	4626
883.388	4580
883.514	4771
883.64	4900
883.766	4790
883.892	4615
884.018	4679
884.143	4911
884.269	4968
884.395	4679
884.52	4592
884.646	4656
884.772	4546
884.897	4592
885.023	4656
885.148	4793
885.274	4862
885.399	4797
885.524	4694
885.65	4714
885.775	4702
885.9	4721
886.025	4858
886.15	4774
886.275	4672
886.4	4630
886.525	4721
886.65	4656
886.775	4660
886.9	4946
887.025	5056
887.149	4797
887.274	4675
887.399	4607
887.523	4592
887.648	4573
887.773	4599
887.897	4744
888.021	4797
888.146	4656
888.27	4824
888.395	4892
888.519	4816
888.643	4831
888.767	4831
888.891	4656
889.015	4630
889.139	4611
889.263	4599
889.387	4748
889.511	4889
889.635	4828
889.759	4611
889.883	4634
890.006	4717
890.13	4771
890.254	4611
890.377	4679
890.501	4596
890.624	4535
890.748	4637
890.871	4481
890.995	4398
891.118	4386
891.241	4516
891.364	4478
891.488	4660
891.611	4474
891.734	4538
891.857	4580
891.98	4573
892.103	4649
892.226	4565
892.349	4527
892.471	4428
892.594	4523
892.717	4584
892.839	4607
892.962	4607
893.085	4660
893.207	4584
893.33	4455
893.452	4508
893.575	4656
893.697	4531
893.819	4812
893.941	4797
894.064	4740
894.186	4542
894.308	4523
894.43	4691
894.552	4816
894.674	4797
894.796	4558
894.918	4565
895.04	4546
895.161	4721
895.283	4672
895.405	4580
895.526	4641
895.648	4694
895.769	4637
895.891	4698
896.012	4721
896.134	4721
896.255	4710
896.376	4641
896.498	4580
896.619	4698
896.74	4622
896.861	4618
896.982	4953
897.103	5037
897.224	4824
897.345	4763
897.466	4660
897.587	4717
897.708	4835
897.828	4790
897.949	4599
898.07	4519
898.19	4622
898.311	4797
898.431	4675
898.552	4736
898.672	4828
898.792	4805
898.913	4771
899.033	4626
899.153	4504
899.273	4443
899.393	4470
899.513	4459
899.633	4531
899.753	4542
899.873	4500
899.993	4565
900.113	4504
900.232	4561
900.352	4512
900.472	4462
900.591	4428
900.711	4485
900.83	4455
900.95	4599
901.069	4687
901.189	4527
901.308	4375
901.427	4314
901.546	4341
901.665	4443
901.784	4489
901.904	4394
902.023	4337
902.141	4196
902.26	4162
902.379	4280
902.498	4223
902.617	4242
902.735	4390
902.854	4383
902.973	4363
903.091	4249
903.21	4207
903.328	4265
903.446	4246
903.565	4280
903.683	4390
903.801	4291
903.919	4348
904.038	4478
904.156	4333
904.274	4405
904.392	4451
904.51	4481
904.627	4466
904.745	4584
904.863	4607
904.981	4337
905.098	4291
905.216	4379
905.334	4432
905.451	4493
905.569	4421
905.686	4596
905.803	4550
905.921	4421
906.038	4569
906.155	4474
906.272	4390
906.389	4424
906.506	4386
906.623	4333
906.74	4402
906.857	4322
906.974	4367
907.091	4558
907.208	4630
907.324	4603
907.441	4466
907.557	4337
907.674	4310
907.79	4322
907.907	4390
908.023	4485
908.139	4470
908.256	4440
908.372	4485
908.488	4474
908.604	4360
908.72	4295
908.836	4386
908.952	4341
909.068	4459
909.184	4577
909.3	4485
909.415	4577
909.531	4577
909.647	4341
909.762	4344
909.878	4341
909.993	4432
910.108	4424
910.224	4455
910.339	4485
910.454	4367
910.57	4371
910.685	4325
910.8	4679
910.915	4561
911.03	4481
911.145	4318
911.259	4325
911.374	4363
911.489	4299
911.604	4310
911.718	4207
911.833	4215
911.947	4097
912.062	4013
912.176	4219
912.291	4329
912.405	4238
912.519	4462
912.633	4481
912.748	4314
912.862	4306
912.976	4223
913.09	4090
913.204	4215
913.318	4242
913.431	4337
913.545	4371
913.659	4402
913.772	4333
913.886	4219
914	4242
914.113	4402
914.226	4394
914.34	4379
914.453	4238
914.566	4451
914.68	4306
914.793	4314
914.906	4169
915.019	4154
915.132	4090
915.245	4166
915.358	4257
915.47	4265
915.583	4276
915.696	4303
915.809	4417
915.921	4409
916.034	4257
916.146	4272
916.259	4177
916.371	4409
916.483	4333
916.595	4272
916.708	4303
916.82	4318
916.932	4291
917.044	4344
917.156	4322
917.268	4223
917.38	4280
917.491	4227
917.603	4333
917.715	4443
917.826	4417
917.938	4367
918.049	4230
918.161	4348
918.272	4542
918.384	4546
918.495	4440
918.606	4306
918.717	4223
918.828	4337
918.939	4367
919.05	4291
919.161	4314
919.272	4150
919.383	4211
919.494	4436
919.604	4622
919.715	4413
919.826	4337
919.936	4409
920.047	4523
920.157	4474
920.267	4668
920.378	4500
920.488	4474
920.598	4744
920.708	4911
920.818	4740
920.928	4790
921.038	4942
921.148	4900
921.258	4596
921.368	4561
921.477	4493
921.587	4451
921.697	4398
921.806	4550
921.916	4459
922.025	4268
922.134	4284
922.244	4249
922.353	4363
922.462	4173
922.571	4101
922.68	4002
922.789	4017
922.898	4063
923.007	3991
923.116	4090
923.224	4093
923.333	4036
923.442	3991
923.55	3964
923.659	4029
923.767	4112
923.876	4032
923.984	4101
924.092	3994
924.201	4002
924.309	4116
924.417	4082
924.525	4086
924.633	4067
924.741	5060
924.849	3930
924.956	4120
925.064	3979
925.172	3949
925.279	3987
925.387	4032
925.494	4063
925.602	4185
925.709	4162
925.816	4006
925.924	4147
926.031	4215
926.138	4185
926.245	4204
926.352	4120
926.459	4249
926.566	4280
926.673	4162
926.779	4120
926.886	4135
926.993	3968
927.099	3949
927.206	3926
927.312	3949
927.419	4093
927.525	3983
927.631	4074
927.737	3987
927.843	3960
927.95	3865
928.056	3934
928.162	3991
928.267	4029
928.373	4550
928.479	4128
928.585	3857
928.69	3998
928.796	4059
928.901	3949
929.007	3850
929.112	4036
929.218	3964
929.323	3918
929.428	3918
929.533	4116
929.638	3907
929.743	3972
929.848	4029
929.953	4006
930.058	3926
930.163	3804
930.267	3831
930.372	3979
930.477	3819
930.581	4143
930.685	3953
930.79	3819
930.894	3876
930.998	3831
931.103	4029
931.207	3667
931.311	3686
931.415	3652
931.519	3485
931.623	3500
