Data from test_V78500241_1082.txt Node
Date: Fri Mar 25 16:56:31 CST 2022
User: usil
Spectrometer: V785-0024
Trigger mode: 0
Integration Time (sec): 4.000000E-1
Scans to average: 1
Nonlinearity correction enabled: false
Boxcar width: 0
Storing dark spectrum: false
XAxis mode: Wavelengths
Number of Pixels in Spectrum: 1024
>>>>>Begin Spectral Data<<<<<
801.071	8024
801.214	7989
801.356	7898
801.499	7864
801.641	7765
801.783	7784
801.926	7955
802.068	7925
802.211	7932
802.353	7944
802.496	7833
802.638	7841
802.78	7917
802.923	7917
803.065	7871
803.208	7906
803.35	7955
803.492	8123
803.635	8180
803.777	8012
803.919	8103
804.061	8446
804.204	8187
804.346	8020
804.488	7928
804.63	8043
804.773	8005
804.915	8107
805.057	8279
805.199	8180
805.341	8180
805.483	8183
805.626	8202
805.768	8069
805.91	8145
806.052	8176
806.194	8092
806.336	8271
806.478	8107
806.62	8024
806.762	8130
806.904	8210
807.046	8427
807.188	8370
807.33	8286
807.472	8313
807.614	8119
807.756	8142
807.898	7959
808.04	7890
808.182	7902
808.324	7860
808.465	7818
808.607	8107
808.749	8077
808.891	8195
809.033	8206
809.174	8191
809.316	8012
809.458	8058
809.6	8005
809.741	8069
809.883	7986
810.025	8035
810.166	8111
810.308	7978
810.45	8016
810.591	7811
810.733	7655
810.875	7594
811.016	7506
811.158	7487
811.299	7674
811.441	7734
811.582	7700
811.724	7628
811.865	7453
812.007	7540
812.148	7624
812.29	7578
812.431	7715
812.573	7803
812.714	8001
812.855	8081
812.997	8172
813.138	8248
813.279	8142
813.421	8084
813.562	7986
813.703	7852
813.845	7742
813.986	7510
814.127	7263
814.268	7232
814.41	7194
814.551	7034
814.692	7122
814.833	6989
814.974	7076
815.115	7084
815.256	6909
815.397	6905
815.539	6928
815.68	6856
815.821	6810
815.962	6890
816.103	6749
816.244	6681
816.385	6597
816.526	6646
816.666	6441
816.807	6277
816.948	6433
817.089	6467
817.23	6460
817.371	6334
817.512	6403
817.653	6410
817.793	6353
817.934	6433
818.075	6456
818.216	6429
818.356	6448
818.497	6232
818.638	6125
818.778	6106
818.919	6117
819.06	6140
819.2	6311
819.341	6334
819.481	6334
819.622	6498
819.762	6719
819.903	6684
820.043	6547
820.184	6597
820.324	6604
820.465	6681
820.605	6688
820.746	6642
820.886	6544
821.026	6616
821.167	6673
821.307	6814
821.447	6745
821.588	6635
821.728	6570
821.868	6509
822.008	6292
822.149	6315
822.289	6292
822.429	6155
822.569	6098
822.709	6076
822.849	5863
822.99	5878
823.13	5897
823.27	5885
823.41	5756
823.55	5771
823.69	5805
823.83	5798
823.97	5604
824.11	5524
824.25	5512
824.389	5554
824.529	5615
824.669	5516
824.809	5611
824.949	5627
825.089	5577
825.228	5516
825.368	5395
825.508	5315
825.648	5353
825.787	5387
825.927	5398
826.067	5318
826.206	5254
826.346	5387
826.485	5376
826.625	5376
826.765	5497
826.904	5417
827.044	5280
827.183	5159
827.323	5067
827.462	5258
827.601	5162
827.741	5098
827.88	5201
828.02	5124
828.159	5216
828.298	5246
828.437	5341
828.577	5246
828.716	5452
828.855	5296
828.994	5113
829.134	5151
829.273	5185
829.412	5094
829.551	5121
829.69	5136
829.829	5235
829.968	5379
830.107	5235
830.246	5231
830.385	5151
830.524	5109
830.663	5079
830.802	4942
830.941	4850
831.08	4843
831.219	4999
831.357	4972
831.496	5174
831.635	4904
831.774	4843
831.913	4831
832.051	4694
832.19	4759
832.329	4854
832.467	4679
832.606	4634
832.744	4706
832.883	4717
833.022	4733
833.16	4740
833.299	4854
833.437	4809
833.576	4809
833.714	4889
833.852	4858
833.991	4850
834.129	4999
834.267	4923
834.406	4927
834.544	4991
834.682	5014
834.821	4976
834.959	5155
835.097	4980
835.235	5109
835.373	5083
835.511	5094
835.65	5006
835.788	5033
835.926	4892
836.064	4862
836.202	4938
836.34	5147
836.478	5258
836.615	5079
836.753	5223
836.891	5280
837.029	5216
837.167	5189
837.305	5124
837.443	5151
837.58	5071
837.718	5258
837.856	5201
837.993	5079
838.131	5204
838.269	5197
838.406	5166
838.544	5201
838.681	5029
838.819	5071
838.956	4904
839.094	4870
839.231	4999
839.369	5102
839.506	5395
839.643	5223
839.781	5056
839.918	5029
840.055	5056
840.193	5102
840.33	5109
840.467	5121
840.604	5162
840.742	5429
840.879	5067
841.016	5064
841.153	5136
841.29	5322
841.427	5299
841.564	5322
841.701	5326
841.838	5227
841.975	5220
842.112	5296
842.249	5102
842.385	5071
842.522	5303
842.659	5174
842.796	5155
842.933	5174
843.069	5132
843.206	5193
843.343	5307
843.479	5208
843.616	5250
843.752	5052
843.889	4987
844.025	5227
844.162	4953
844.298	5155
844.435	5075
844.571	5018
844.708	5212
844.844	5292
844.98	5288
845.117	5261
845.253	5162
845.389	5060
845.525	5143
845.661	5124
845.798	5029
845.934	5128
846.07	4995
846.206	5193
846.342	5254
846.478	5117
846.614	5010
846.75	4953
846.886	4934
847.022	5117
847.158	4961
847.294	5048
847.429	5090
847.565	5064
847.701	5318
847.837	4793
847.972	4797
848.108	4953
848.244	4885
848.379	4801
848.515	4771
848.65	4641
848.786	4748
848.921	4721
849.057	4797
849.192	4900
849.328	4801
849.463	4774
849.598	4774
849.734	4767
849.869	4702
850.004	4588
850.14	4630
850.275	4569
850.41	4531
850.545	4535
850.68	4538
850.815	4611
850.95	4649
851.085	4816
851.22	4725
851.355	4637
851.49	4641
851.625	4634
851.76	4634
851.895	4558
852.03	4535
852.165	4611
852.299	4664
852.434	4733
852.569	4725
852.703	4786
852.838	4839
852.973	4961
853.107	4885
853.242	4767
853.376	4649
853.511	4561
853.645	4592
853.78	4774
853.914	4668
854.048	4675
854.183	4672
854.317	4675
854.451	4843
854.585	4641
854.72	4565
854.854	4744
854.988	4569
855.122	4615
855.256	4512
855.39	4637
855.524	4774
855.658	4717
855.792	4698
855.926	4714
856.06	4714
856.194	4797
856.327	4702
856.461	4565
856.595	4630
856.729	4596
856.862	4752
856.996	4660
857.13	4725
857.263	4755
857.397	4828
857.53	4637
857.664	4698
857.797	4759
857.931	4790
858.064	4698
858.197	4729
858.331	4618
858.464	4596
858.597	4481
858.731	4599
858.864	4592
858.997	4565
859.13	4630
859.263	4641
859.396	4675
859.529	4584
859.662	4615
859.795	4497
859.928	4637
860.061	4778
860.194	4736
860.327	4577
860.46	4550
860.592	4660
860.725	4702
860.858	4706
860.99	4573
861.123	4519
861.256	4523
861.388	4618
861.521	5360
861.653	4466
861.786	4440
861.918	4462
862.05	4459
862.183	4504
862.315	4622
862.447	4622
862.58	4561
862.712	4394
862.844	4341
862.976	4474
863.108	4440
863.24	4885
863.372	4329
863.504	4421
863.636	4421
863.768	4409
863.9	4390
864.032	4344
864.164	4363
864.296	4493
864.428	4538
864.559	4546
864.691	4531
864.823	4512
864.954	4459
865.086	4470
865.217	4462
865.349	4413
865.48	4405
865.612	4478
865.743	4615
865.875	4489
866.006	4436
866.137	4432
866.269	4421
866.4	4421
866.531	4386
866.662	4390
866.793	4405
866.924	4493
867.055	4440
867.186	4421
867.317	4398
867.448	4390
867.579	4390
867.71	4352
867.841	4394
867.972	4443
868.103	4405
868.233	4424
868.364	4428
868.495	4478
868.625	4626
868.756	4729
868.886	4493
869.017	4596
869.147	4744
869.278	4812
869.408	4687
869.539	4653
869.669	4721
869.799	4622
869.929	4702
870.06	4717
870.19	4965
870.32	4870
870.45	4908
870.58	5052
870.71	5098
870.84	5075
870.97	4930
871.1	4835
871.23	5178
871.36	5102
871.489	5029
871.619	5029
871.749	5109
871.879	5166
872.008	5166
872.138	5052
872.267	4965
872.397	4870
872.526	4759
872.656	4725
872.785	4759
872.915	4911
873.044	5018
873.173	4965
873.303	4957
873.432	4946
873.561	4923
873.69	4862
873.819	4824
873.948	4873
874.077	4771
874.206	4778
874.335	4778
874.464	4957
874.593	5033
874.722	4957
874.851	5033
874.979	5067
875.108	5033
875.237	4885
875.365	4854
875.494	4843
875.623	4961
875.751	4809
875.88	4904
876.008	4984
876.136	5025
876.265	5227
876.393	5334
876.521	5235
876.65	5227
876.778	5128
876.906	5071
877.034	4987
877.162	5041
877.29	4968
877.418	5067
877.546	4972
877.674	5048
877.802	5003
877.93	4999
878.058	4923
878.185	4866
878.313	4927
878.441	4915
878.568	4812
878.696	4801
878.824	4953
878.951	4999
879.079	5098
879.206	5299
879.333	5071
879.461	4946
879.588	5003
879.715	5098
879.842	5170
879.97	5022
880.097	4778
880.224	4714
880.351	4790
880.478	4835
880.605	4786
880.732	4767
880.859	5121
880.986	4870
881.112	4904
881.239	4767
881.366	4660
881.493	4615
881.619	4630
881.746	4584
881.872	4664
881.999	4634
882.125	4664
882.252	4740
882.378	4797
882.505	4889
882.631	4774
882.757	4679
882.883	4694
883.01	4710
883.136	4672
883.262	4611
883.388	4641
883.514	4805
883.64	4873
883.766	4752
883.892	4637
884.018	4679
884.143	4858
884.269	5003
884.395	4656
884.52	4599
884.646	4641
884.772	4577
884.897	4554
885.023	4641
885.148	4744
885.274	4812
885.399	4831
885.524	4698
885.65	4691
885.775	4733
885.9	4698
886.025	4843
886.15	4767
886.275	4698
886.4	4630
886.525	4736
886.65	4694
886.775	4691
886.9	4850
887.025	5006
887.149	4786
887.274	4561
887.399	4523
887.523	4592
887.648	4554
887.773	4580
887.897	4714
888.021	4786
888.146	4683
888.27	4892
888.395	4881
888.519	4797
888.643	4801
888.767	4774
888.891	4637
889.015	4603
889.139	4626
889.263	4599
889.387	4774
889.511	4816
889.635	4786
889.759	4615
889.883	4599
890.006	4694
890.13	4790
890.254	4592
890.377	4668
890.501	4558
890.624	4504
890.748	4634
890.871	4516
890.995	4478
891.118	4344
891.241	4497
891.364	4531
891.488	4573
891.611	4455
891.734	4497
891.857	4580
891.98	4527
892.103	4668
892.226	4580
892.349	4500
892.471	4417
892.594	4580
892.717	4573
892.839	4565
892.962	4603
893.085	4618
893.207	4637
893.33	4447
893.452	4504
893.575	4660
893.697	4596
893.819	4812
893.941	4824
894.064	4771
894.186	4546
894.308	4538
894.43	4729
894.552	4828
894.674	4752
894.796	4550
894.918	4599
895.04	4565
895.161	4721
895.283	4615
895.405	4550
895.526	4630
895.648	4721
895.769	4691
895.891	4660
896.012	4706
896.134	4710
896.255	4649
896.376	4558
896.498	4592
896.619	4694
896.74	4637
896.861	4558
896.982	4904
897.103	5060
897.224	4786
897.345	4736
897.466	4706
897.587	4752
897.708	4767
897.828	4763
897.949	4630
898.07	4588
898.19	4596
898.311	4820
898.431	4683
898.552	4717
898.672	4801
898.792	4820
898.913	4759
899.033	4615
899.153	4485
899.273	4440
899.393	4447
899.513	4516
899.633	4535
899.753	4538
899.873	4535
899.993	4573
900.113	4580
900.232	4542
900.352	4550
900.472	4447
900.591	4375
900.711	4493
900.83	4459
900.95	4630
901.069	4641
901.189	4535
901.308	4344
901.427	4306
901.546	4367
901.665	4474
901.784	4493
901.904	4405
902.023	4333
902.141	4173
902.26	4154
902.379	4310
902.498	4265
902.617	4223
902.735	4386
902.854	4394
902.973	4333
903.091	4173
903.21	4166
903.328	4265
903.446	4200
903.565	4265
903.683	4379
903.801	4211
903.919	4402
904.038	4390
904.156	4299
904.274	4497
904.392	4371
904.51	4409
904.627	4402
904.745	4485
904.863	4615
904.981	4390
905.098	4291
905.216	4314
905.334	4409
905.451	4402
905.569	4405
905.686	4550
905.803	4550
905.921	4409
906.038	4538
906.155	4485
906.272	4360
906.389	4443
906.506	4333
906.623	4329
906.74	4398
906.857	4268
906.974	4291
907.091	4512
907.208	4626
907.324	4573
907.441	4447
907.557	4295
907.674	4344
907.79	4303
907.907	4367
908.023	4485
908.139	4459
908.256	4390
908.372	4428
908.488	4402
908.604	4341
908.72	4341
908.836	4390
908.952	4367
909.068	4421
909.184	4561
909.3	4451
909.415	4558
909.531	4523
909.647	4314
909.762	4383
909.878	4329
909.993	4447
910.108	4417
910.224	4447
910.339	4466
910.454	4440
910.57	4379
910.685	4276
910.8	4630
910.915	4611
911.03	4447
911.145	4299
911.259	4360
911.374	4383
911.489	4287
911.604	4257
911.718	4185
911.833	4185
911.947	4067
912.062	4025
912.176	4166
912.291	4196
912.405	4242
912.519	4470
912.633	4519
912.748	4356
912.862	4306
912.976	4154
913.09	4082
913.204	4181
913.318	4242
913.431	4394
913.545	4329
913.659	4417
913.772	4356
913.886	4211
914	4215
914.113	4333
914.226	4428
914.34	4390
914.453	4230
914.566	4432
914.68	4280
914.793	4310
914.906	4131
915.019	4109
915.132	4097
915.245	4188
915.358	4196
915.47	4196
915.583	4246
915.696	4329
915.809	4386
915.921	4386
916.034	4200
916.146	4257
916.259	4223
916.371	4337
916.483	4337
916.595	4265
916.708	4329
916.82	4291
916.932	4314
917.044	4295
917.156	4318
917.268	4265
917.38	4268
917.491	4246
917.603	4322
917.715	4432
917.826	4474
917.938	4318
918.049	4249
918.161	4375
918.272	4538
918.384	4569
918.495	4424
918.606	4325
918.717	4238
918.828	4310
918.939	4363
919.05	4299
919.161	4310
919.272	4124
919.383	4230
919.494	4398
919.604	4565
919.715	4413
919.826	4314
919.936	4333
920.047	4508
920.157	4470
920.267	4694
920.378	4474
920.488	4504
920.598	4702
920.708	4862
920.818	4759
920.928	4752
921.038	4911
921.148	4892
921.258	4641
921.368	4554
921.477	4470
921.587	4428
921.697	4383
921.806	4554
921.916	4409
922.025	4227
922.134	4287
922.244	4242
922.353	4329
922.462	4143
922.571	4181
922.68	4029
922.789	3937
922.898	4002
923.007	3972
923.116	4078
923.224	4044
923.333	4112
923.442	3998
923.55	3903
923.659	3998
923.767	4029
923.876	3983
923.984	4074
924.092	3960
924.201	4059
924.309	4082
924.417	4086
924.525	4059
924.633	4082
924.741	5010
924.849	3892
924.956	4105
925.064	4017
925.172	3861
925.279	3991
925.387	4036
925.494	4017
925.602	4181
925.709	4196
925.816	4036
925.924	4143
926.031	4265
926.138	4188
926.245	4211
926.352	4090
926.459	4204
926.566	4310
926.673	4128
926.779	4093
926.886	4071
926.993	3979
927.099	3956
927.206	3945
927.312	3956
927.419	4010
927.525	3994
927.631	4086
927.737	3991
927.843	3949
927.95	3827
928.056	3983
928.162	3972
928.267	4013
928.373	4675
928.479	4124
928.585	3884
928.69	4006
928.796	4044
928.901	3972
929.007	3838
929.112	3972
929.218	3941
929.323	3937
929.428	3930
929.533	4097
929.638	3896
929.743	3972
929.848	4040
929.953	4002
930.058	3899
930.163	3785
930.267	3781
930.372	3979
930.477	3793
930.581	4090
930.685	3953
930.79	3823
930.894	3880
930.998	3816
931.103	4032
931.207	3717
931.311	3720
931.415	3641
931.519	3523
931.623	3538
