Data from test_V78500241_1109.txt Node
Date: Fri Mar 25 16:56:42 CST 2022
User: usil
Spectrometer: V785-0024
Trigger mode: 0
Integration Time (sec): 4.000000E-1
Scans to average: 1
Nonlinearity correction enabled: false
Boxcar width: 0
Storing dark spectrum: false
XAxis mode: Wavelengths
Number of Pixels in Spectrum: 1024
>>>>>Begin Spectral Data<<<<<
801.071	8126
801.214	8054
801.356	7913
801.499	7871
801.641	7811
801.783	7841
801.926	8005
802.068	7986
802.211	7978
802.353	7947
802.496	7887
802.638	7856
802.78	7951
802.923	7902
803.065	7936
803.208	7909
803.35	7967
803.492	8096
803.635	8210
803.777	8008
803.919	8123
804.061	8499
804.204	8206
804.346	8008
804.488	7967
804.63	8088
804.773	8096
804.915	8157
805.057	8320
805.199	8244
805.341	8305
805.483	8286
805.626	8210
805.768	8100
805.91	8210
806.052	8187
806.194	8084
806.336	8233
806.478	8073
806.62	8073
806.762	8096
806.904	8225
807.046	8446
807.188	8385
807.33	8267
807.472	8275
807.614	8187
807.756	8073
807.898	8024
808.04	7818
808.182	7879
808.324	7944
808.465	7963
808.607	8039
808.749	8134
808.891	8202
809.033	8305
809.174	8252
809.316	8008
809.458	8039
809.6	8012
809.741	8088
809.883	8054
810.025	8157
810.166	8027
810.308	8050
810.45	8065
810.591	7902
810.733	7769
810.875	7639
811.016	7540
811.158	7510
811.299	7567
811.441	7712
811.582	7662
811.724	7575
811.865	7575
812.007	7578
812.148	7571
812.29	7582
812.431	7769
812.573	7909
812.714	8020
812.855	8088
812.997	8195
813.138	8301
813.279	8149
813.421	8164
813.562	7986
813.703	7860
813.845	7700
813.986	7468
814.127	7270
814.268	7202
814.41	7168
814.551	7145
814.692	7168
814.833	7027
814.974	7000
815.115	7110
815.256	6951
815.397	6878
815.539	6966
815.68	6837
815.821	6772
815.962	6833
816.103	6787
816.244	6757
816.385	6681
816.526	6646
816.666	6441
816.807	6315
816.948	6429
817.089	6471
817.23	6467
817.371	6350
817.512	6365
817.653	6414
817.793	6384
817.934	6353
818.075	6429
818.216	6426
818.356	6365
818.497	6235
818.638	6140
818.778	6159
818.919	6148
819.06	6144
819.2	6334
819.341	6342
819.481	6357
819.622	6589
819.762	6757
819.903	6700
820.043	6627
820.184	6582
820.324	6536
820.465	6654
820.605	6707
820.746	6665
820.886	6464
821.026	6700
821.167	6707
821.307	6814
821.447	6749
821.588	6696
821.728	6547
821.868	6464
822.008	6357
822.149	6346
822.289	6357
822.429	6175
822.569	6083
822.709	6098
822.849	5923
822.99	5939
823.13	5882
823.27	5882
823.41	5767
823.55	5802
823.69	5714
823.83	5786
823.97	5623
824.11	5551
824.25	5535
824.389	5589
824.529	5600
824.669	5562
824.809	5653
824.949	5688
825.089	5592
825.228	5585
825.368	5433
825.508	5410
825.648	5383
825.787	5364
825.927	5436
826.067	5318
826.206	5326
826.346	5463
826.485	5414
826.625	5429
826.765	5585
826.904	5467
827.044	5280
827.183	5250
827.323	5166
827.462	5223
827.601	5178
827.741	5189
827.88	5170
828.02	5124
828.159	5284
828.298	5360
828.437	5368
828.577	5341
828.716	5524
828.855	5318
828.994	5216
829.134	5155
829.273	5201
829.412	5155
829.551	5201
829.69	5140
829.829	5288
829.968	5391
830.107	5246
830.246	5250
830.385	5178
830.524	5151
830.663	5105
830.802	4984
830.941	4873
831.08	4904
831.219	4987
831.357	5006
831.496	5201
831.635	4976
831.774	4911
831.913	4854
832.051	4744
832.19	4736
832.329	4923
832.467	4710
832.606	4653
832.744	4812
832.883	4714
833.022	4786
833.16	4809
833.299	4831
833.437	4866
833.576	4877
833.714	4797
833.852	4881
833.991	4923
834.129	4972
834.267	5006
834.406	4919
834.544	4976
834.682	4980
834.821	5022
834.959	5197
835.097	5014
835.235	5121
835.373	5109
835.511	5113
835.65	5117
835.788	5071
835.926	4942
836.064	4976
836.202	4946
836.34	5223
836.478	5261
836.615	5155
836.753	5223
836.891	5349
837.029	5284
837.167	5201
837.305	5174
837.443	5155
837.58	5109
837.718	5273
837.856	5174
837.993	5132
838.131	5246
838.269	5258
838.406	5189
838.544	5193
838.681	5094
838.819	5090
838.956	4900
839.094	4923
839.231	5025
839.369	5140
839.506	5410
839.643	5265
839.781	5102
839.918	5045
840.055	5067
840.193	5113
840.33	5098
840.467	5143
840.604	5185
840.742	5486
840.879	5098
841.016	5102
841.153	5170
841.29	5433
841.427	5345
841.564	5311
841.701	5353
841.838	5307
841.975	5235
842.112	5269
842.249	5159
842.385	5083
842.522	5387
842.659	5193
842.796	5178
842.933	5181
843.069	5159
843.206	5174
843.343	5292
843.479	5288
843.616	5261
843.752	5083
843.889	5014
844.025	5197
844.162	5037
844.298	5235
844.435	5113
844.571	5018
844.708	5246
844.844	5322
844.98	5326
845.117	5299
845.253	5166
845.389	5067
845.525	5136
845.661	5170
845.798	5075
845.934	5223
846.07	5022
846.206	5231
846.342	5303
846.478	5174
846.614	5048
846.75	5003
846.886	4972
847.022	5181
847.158	5037
847.294	5117
847.429	5075
847.565	5083
847.701	5307
847.837	4847
847.972	4816
848.108	4968
848.244	4991
848.379	4767
848.515	4767
848.65	4748
848.786	4805
848.921	4774
849.057	4904
849.192	4881
849.328	4835
849.463	4873
849.598	4881
849.734	4763
849.869	4706
850.004	4656
850.14	4691
850.275	4672
850.41	4580
850.545	4634
850.68	4660
850.815	4702
850.95	4653
851.085	4934
851.22	4740
851.355	4725
851.49	4611
851.625	4641
851.76	4630
851.895	4577
852.03	4554
852.165	4637
852.299	4733
852.434	4828
852.569	4839
852.703	4812
852.838	4831
852.973	4946
853.107	4915
853.242	4774
853.376	4672
853.511	4561
853.645	4664
853.78	4774
853.914	4740
854.048	4672
854.183	4637
854.317	4637
854.451	4850
854.585	4668
854.72	4607
854.854	4797
854.988	4588
855.122	4656
855.256	4569
855.39	4683
855.524	4797
855.658	4717
855.792	4752
855.926	4748
856.06	4774
856.194	4797
856.327	4721
856.461	4618
856.595	4641
856.729	4656
856.862	4786
856.996	4668
857.13	4782
857.263	4816
857.397	4797
857.53	4675
857.664	4744
857.797	4778
857.931	4759
858.064	4721
858.197	4778
858.331	4694
858.464	4649
858.597	4527
858.731	4668
858.864	4645
858.997	4607
859.13	4675
859.263	4664
859.396	4694
859.529	4599
859.662	4554
859.795	4565
859.928	4630
860.061	4831
860.194	4748
860.327	4656
860.46	4630
860.592	4740
860.725	4672
860.858	4729
860.99	4550
861.123	4546
861.256	4561
861.388	4622
861.521	5337
861.653	4481
861.786	4474
861.918	4459
862.05	4531
862.183	4508
862.315	4660
862.447	4721
862.58	4592
862.712	4470
862.844	4329
862.976	4485
863.108	4474
863.24	4771
863.372	4394
863.504	4390
863.636	4417
863.768	4470
863.9	4440
864.032	4379
864.164	4417
864.296	4428
864.428	4580
864.559	4535
864.691	4527
864.823	4573
864.954	4546
865.086	4508
865.217	4493
865.349	4447
865.48	4512
865.612	4508
865.743	4641
865.875	4459
866.006	4474
866.137	4497
866.269	4447
866.4	4451
866.531	4424
866.662	4428
866.793	4394
866.924	4443
867.055	4523
867.186	4481
867.317	4375
867.448	4379
867.579	4402
867.71	4436
867.841	4402
867.972	4459
868.103	4459
868.233	4500
868.364	4478
868.495	4462
868.625	4660
868.756	4774
868.886	4626
869.017	4645
869.147	4786
869.278	4782
869.408	4656
869.539	4637
869.669	4721
869.799	4691
869.929	4740
870.06	4744
870.19	4987
870.32	4961
870.45	4904
870.58	5056
870.71	5102
870.84	5128
870.97	4934
871.1	4854
871.23	5124
871.36	5113
871.489	5041
871.619	5052
871.749	5079
871.879	5166
872.008	5208
872.138	5033
872.267	4953
872.397	4873
872.526	4824
872.656	4717
872.785	4839
872.915	5003
873.044	5041
873.173	4980
873.303	4968
873.432	4965
873.561	4946
873.69	4942
873.819	4885
873.948	5022
874.077	4828
874.206	4774
874.335	4805
874.464	4949
874.593	5113
874.722	4949
874.851	5124
874.979	5067
875.108	5014
875.237	4946
875.365	4919
875.494	4934
875.623	4961
875.751	4812
875.88	4904
876.008	4946
876.136	5045
876.265	5189
876.393	5337
876.521	5239
876.65	5204
876.778	5128
876.906	5109
877.034	5033
877.162	5037
877.29	4949
877.418	5045
877.546	5056
877.674	5094
877.802	5090
877.93	4991
878.058	4915
878.185	4862
878.313	4961
878.441	4968
878.568	4801
878.696	4889
878.824	4942
878.951	5018
879.079	5060
879.206	5288
879.333	5094
879.461	4987
879.588	4991
879.715	5143
879.842	5269
879.97	5003
880.097	4755
880.224	4733
880.351	4812
880.478	4854
880.605	4774
880.732	4752
880.859	5090
880.986	4927
881.112	4892
881.239	4805
881.366	4736
881.493	4641
881.619	4599
881.746	4615
881.872	4679
881.999	4668
882.125	4702
882.252	4809
882.378	4828
882.505	4991
882.631	4805
882.757	4698
882.883	4759
883.01	4736
883.136	4660
883.262	4592
883.388	4622
883.514	4831
883.64	4850
883.766	4797
883.892	4668
884.018	4725
884.143	4892
884.269	5025
884.395	4714
884.52	4683
884.646	4687
884.772	4588
884.897	4523
885.023	4706
885.148	4797
885.274	4847
885.399	4892
885.524	4744
885.65	4717
885.775	4782
885.9	4706
886.025	4881
886.15	4771
886.275	4721
886.4	4698
886.525	4748
886.65	4748
886.775	4725
886.9	4904
887.025	4984
887.149	4862
887.274	4702
887.399	4645
887.523	4645
887.648	4630
887.773	4592
887.897	4774
888.021	4774
888.146	4672
888.27	4824
888.395	4930
888.519	4786
888.643	4839
888.767	4812
888.891	4649
889.015	4675
889.139	4660
889.263	4615
889.387	4763
889.511	4873
889.635	4816
889.759	4603
889.883	4622
890.006	4759
890.13	4812
890.254	4603
890.377	4664
890.501	4531
890.624	4519
890.748	4622
890.871	4478
890.995	4447
891.118	4417
891.241	4523
891.364	4565
891.488	4672
891.611	4542
891.734	4538
891.857	4641
891.98	4584
892.103	4615
892.226	4615
892.349	4542
892.471	4417
892.594	4519
892.717	4630
892.839	4584
892.962	4618
893.085	4656
893.207	4634
893.33	4462
893.452	4565
893.575	4687
893.697	4561
893.819	4793
893.941	4870
894.064	4774
894.186	4573
894.308	4584
894.43	4698
894.552	4854
894.674	4744
894.796	4550
894.918	4618
895.04	4603
895.161	4736
895.283	4683
895.405	4592
895.526	4618
895.648	4694
895.769	4710
895.891	4725
896.012	4740
896.134	4755
896.255	4702
896.376	4622
896.498	4603
896.619	4702
896.74	4653
896.861	4660
896.982	4934
897.103	5041
897.224	4835
897.345	4767
897.466	4641
897.587	4736
897.708	4862
897.828	4710
897.949	4744
898.07	4538
898.19	4668
898.311	4820
898.431	4672
898.552	4710
898.672	4839
898.792	4774
898.913	4725
899.033	4672
899.153	4508
899.273	4417
899.393	4447
899.513	4500
899.633	4531
899.753	4538
899.873	4504
899.993	4596
900.113	4516
900.232	4599
900.352	4554
900.472	4500
900.591	4390
900.711	4504
900.83	4481
900.95	4603
901.069	4675
901.189	4584
901.308	4398
901.427	4306
901.546	4363
901.665	4455
901.784	4485
901.904	4367
902.023	4348
902.141	4207
902.26	4135
902.379	4299
902.498	4280
902.617	4177
902.735	4375
902.854	4360
902.973	4337
903.091	4204
903.21	4265
903.328	4333
903.446	4276
903.565	4257
903.683	4333
903.801	4291
903.919	4348
904.038	4451
904.156	4322
904.274	4447
904.392	4402
904.51	4470
904.627	4432
904.745	4622
904.863	4637
904.981	4394
905.098	4322
905.216	4386
905.334	4436
905.451	4455
905.569	4443
905.686	4546
905.803	4535
905.921	4409
906.038	4538
906.155	4462
906.272	4428
906.389	4447
906.506	4348
906.623	4398
906.74	4379
906.857	4291
906.974	4386
907.091	4611
907.208	4679
907.324	4512
907.441	4538
907.557	4299
907.674	4337
907.79	4314
907.907	4363
908.023	4481
908.139	4451
908.256	4386
908.372	4481
908.488	4451
908.604	4352
908.72	4344
908.836	4394
908.952	4360
909.068	4470
909.184	4577
909.3	4466
909.415	4611
909.531	4618
909.647	4360
909.762	4344
909.878	4333
909.993	4440
910.108	4424
910.224	4383
910.339	4489
910.454	4424
910.57	4383
910.685	4310
910.8	4634
910.915	4592
911.03	4485
911.145	4295
911.259	4314
911.374	4363
911.489	4253
911.604	4280
911.718	4135
911.833	4242
911.947	4063
912.062	4051
912.176	4150
912.291	4242
912.405	4234
912.519	4436
912.633	4531
912.748	4409
912.862	4333
912.976	4200
913.09	4120
913.204	4204
913.318	4249
913.431	4363
913.545	4383
913.659	4443
913.772	4360
913.886	4234
914	4173
914.113	4375
914.226	4451
914.34	4417
914.453	4257
914.566	4447
914.68	4287
914.793	4303
914.906	4139
915.019	4112
915.132	4067
915.245	4192
915.358	4185
915.47	4223
915.583	4238
915.696	4287
915.809	4413
915.921	4440
916.034	4265
916.146	4227
916.259	4242
916.371	4371
916.483	4375
916.595	4246
916.708	4329
916.82	4314
916.932	4337
917.044	4352
917.156	4375
917.268	4268
917.38	4261
917.491	4238
917.603	4329
917.715	4421
917.826	4405
917.938	4348
918.049	4238
918.161	4421
918.272	4554
918.384	4554
918.495	4527
918.606	4318
918.717	4238
918.828	4265
918.939	4379
919.05	4242
919.161	4287
919.272	4124
919.383	4265
919.494	4462
919.604	4615
919.715	4405
919.826	4310
919.936	4394
920.047	4504
920.157	4512
920.267	4694
920.378	4542
920.488	4485
920.598	4664
920.708	4854
920.818	4801
920.928	4702
921.038	4984
921.148	4904
921.258	4584
921.368	4550
921.477	4535
921.587	4474
921.697	4344
921.806	4554
921.916	4432
922.025	4280
922.134	4265
922.244	4234
922.353	4417
922.462	4147
922.571	4135
922.68	3979
922.789	3968
922.898	4040
923.007	3945
923.116	4082
923.224	4101
923.333	4067
923.442	3975
923.55	3998
923.659	4063
923.767	4120
923.876	3994
923.984	4131
924.092	3972
924.201	4105
924.309	4105
924.417	4147
924.525	4078
924.633	4128
924.741	4850
924.849	3899
924.956	4074
925.064	3972
925.172	3869
925.279	3953
925.387	4048
925.494	4055
925.602	4207
925.709	4188
925.816	4029
925.924	4162
926.031	4223
926.138	4158
926.245	4185
926.352	4063
926.459	4230
926.566	4261
926.673	4150
926.779	4040
926.886	4101
926.993	3972
927.099	4002
927.206	3922
927.312	3953
927.419	4059
927.525	3991
927.631	4082
927.737	3926
927.843	3956
927.95	3842
928.056	3945
928.162	4010
928.267	4109
928.373	4668
928.479	4131
928.585	3903
928.69	4032
928.796	4067
928.901	3937
929.007	3808
929.112	4002
929.218	3979
929.323	3972
929.428	3945
929.533	4071
929.638	3865
929.743	3949
929.848	4044
929.953	3979
930.058	3907
930.163	3785
930.267	3816
930.372	3968
930.477	3804
930.581	4124
930.685	3964
930.79	3816
930.894	3911
930.998	3804
931.103	4025
931.207	3724
931.311	3686
931.415	3660
931.519	3538
931.623	3526
