Data from test_V78500241_2373.txt Node
Date: Fri Mar 25 17:05:30 CST 2022
User: usil
Spectrometer: V785-0024
Trigger mode: 0
Integration Time (sec): 4.000000E-1
Scans to average: 1
Nonlinearity correction enabled: false
Boxcar width: 0
Storing dark spectrum: false
XAxis mode: Wavelengths
Number of Pixels in Spectrum: 1024
>>>>>Begin Spectral Data<<<<<
801.071	8065
801.214	7959
801.356	7871
801.499	7833
801.641	7765
801.783	7856
801.926	7967
802.068	7917
802.211	8046
802.353	8012
802.496	7894
802.638	7841
802.78	7955
802.923	7917
803.065	7845
803.208	7822
803.35	7928
803.492	8027
803.635	8107
803.777	8050
803.919	8092
804.061	8404
804.204	8153
804.346	8107
804.488	7963
804.63	8062
804.773	7989
804.915	8111
805.057	8279
805.199	8138
805.341	8233
805.483	8240
805.626	8244
805.768	8115
805.91	8180
806.052	8202
806.194	8096
806.336	8240
806.478	8081
806.62	8054
806.762	8092
806.904	8202
807.046	8431
807.188	8336
807.33	8271
807.472	8313
807.614	8130
807.756	8168
807.898	8005
808.04	7906
808.182	7909
808.324	7837
808.465	7856
808.607	8103
808.749	8119
808.891	8161
809.033	8275
809.174	8240
809.316	8134
809.458	8081
809.6	8069
809.741	8050
809.883	8039
810.025	8005
810.166	8046
810.308	7967
810.45	8020
810.591	7826
810.733	7696
810.875	7651
811.016	7544
811.158	7434
811.299	7582
811.441	7655
811.582	7655
811.724	7601
811.865	7571
812.007	7590
812.148	7651
812.29	7601
812.431	7807
812.573	7852
812.714	7974
812.855	8107
812.997	8145
813.138	8336
813.279	8172
813.421	8012
813.562	7944
813.703	7833
813.845	7727
813.986	7422
814.127	7228
814.268	7228
814.41	7149
814.551	7202
814.692	7225
814.833	7069
814.974	7061
815.115	7145
815.256	7004
815.397	6947
815.539	6939
815.68	6806
815.821	6768
815.962	6852
816.103	6840
816.244	6692
816.385	6593
816.526	6627
816.666	6506
816.807	6319
816.948	6399
817.089	6483
817.23	6437
817.371	6426
817.512	6357
817.653	6380
817.793	6357
817.934	6418
818.075	6479
818.216	6395
818.356	6388
818.497	6292
818.638	6106
818.778	6152
818.919	6190
819.06	6133
819.2	6327
819.341	6350
819.481	6361
819.622	6536
819.762	6696
819.903	6684
820.043	6608
820.184	6547
820.324	6627
820.465	6642
820.605	6642
820.746	6623
820.886	6528
821.026	6681
821.167	6658
821.307	6833
821.447	6779
821.588	6631
821.728	6578
821.868	6494
822.008	6308
822.149	6346
822.289	6346
822.429	6190
822.569	6026
822.709	6167
822.849	5923
822.99	5916
823.13	5882
823.27	5920
823.41	5805
823.55	5771
823.69	5733
823.83	5733
823.97	5634
824.11	5547
824.25	5459
824.389	5539
824.529	5562
824.669	5539
824.809	5646
824.949	5653
825.089	5615
825.228	5543
825.368	5406
825.508	5330
825.648	5368
825.787	5387
825.927	5387
826.067	5269
826.206	5299
826.346	5417
826.485	5433
826.625	5357
826.765	5543
826.904	5455
827.044	5258
827.183	5220
827.323	5132
827.462	5254
827.601	5174
827.741	5189
827.88	5250
828.02	5113
828.159	5269
828.298	5273
828.437	5368
828.577	5326
828.716	5478
828.855	5345
828.994	5193
829.134	5204
829.273	5227
829.412	5174
829.551	5193
829.69	5227
829.829	5315
829.968	5379
830.107	5273
830.246	5318
830.385	5227
830.524	5208
830.663	5075
830.802	5003
830.941	4953
831.08	4957
831.219	4976
831.357	5006
831.496	5178
831.635	4938
831.774	4896
831.913	4900
832.051	4706
832.19	4778
832.329	4873
832.467	4721
832.606	4653
832.744	4710
832.883	4759
833.022	4778
833.16	4828
833.299	4870
833.437	4862
833.576	4866
833.714	4908
833.852	4934
833.991	4904
834.129	4987
834.267	5003
834.406	4927
834.544	5086
834.682	5041
834.821	4965
834.959	5181
835.097	5064
835.235	5143
835.373	5102
835.511	5121
835.65	5064
835.788	5071
835.926	4908
836.064	4953
836.202	5018
836.34	5204
836.478	5273
836.615	5143
836.753	5246
836.891	5364
837.029	5242
837.167	5246
837.305	5277
837.443	5212
837.58	5136
837.718	5292
837.856	5269
837.993	5220
838.131	5223
838.269	5239
838.406	5273
838.544	5242
838.681	5060
838.819	5060
838.956	4904
839.094	4900
839.231	5045
839.369	5105
839.506	5440
839.643	5250
839.781	5136
839.918	5060
840.055	5090
840.193	5155
840.33	5151
840.467	5174
840.604	5227
840.742	5433
840.879	5113
841.016	5117
841.153	5197
841.29	5436
841.427	5383
841.564	5383
841.701	5414
841.838	5299
841.975	5280
842.112	5250
842.249	5197
842.385	5132
842.522	5398
842.659	5189
842.796	5178
842.933	5227
843.069	5159
843.206	5143
843.343	5307
843.479	5273
843.616	5337
843.752	5064
843.889	5105
844.025	5197
844.162	5022
844.298	5239
844.435	5147
844.571	5124
844.708	5254
844.844	5357
844.98	5429
845.117	5334
845.253	5227
845.389	5071
845.525	5254
845.661	5204
845.798	4999
845.934	5128
846.07	5071
846.206	5277
846.342	5326
846.478	5212
846.614	5083
846.75	5003
846.886	4934
847.022	5189
847.158	5029
847.294	5109
847.429	5086
847.565	5022
847.701	5341
847.837	4877
847.972	4793
848.108	4968
848.244	4938
848.379	4767
848.515	4725
848.65	4763
848.786	4774
848.921	4763
849.057	4870
849.192	4961
849.328	4881
849.463	4911
849.598	4809
849.734	4694
849.869	4774
850.004	4698
850.14	4714
850.275	4637
850.41	4558
850.545	4577
850.68	4596
850.815	4634
850.95	4618
851.085	4877
851.22	4797
851.355	4706
851.49	4641
851.625	4653
851.76	4645
851.895	4573
852.03	4500
852.165	4664
852.299	4774
852.434	4816
852.569	4786
852.703	4816
852.838	4904
852.973	4991
853.107	4900
853.242	4771
853.376	4679
853.511	4569
853.645	4630
853.78	4809
853.914	4733
854.048	4706
854.183	4683
854.317	4748
854.451	4847
854.585	4687
854.72	4679
854.854	4793
854.988	4637
855.122	4672
855.256	4561
855.39	4733
855.524	4774
855.658	4733
855.792	4672
855.926	4774
856.06	4759
856.194	4847
856.327	4698
856.461	4645
856.595	4672
856.729	4706
856.862	4809
856.996	4725
857.13	4748
857.263	4771
857.397	4870
857.53	4687
857.664	4736
857.797	4790
857.931	4828
858.064	4672
858.197	4755
858.331	4691
858.464	4622
858.597	4592
858.731	4645
858.864	4675
858.997	4588
859.13	4672
859.263	4755
859.396	4744
859.529	4637
859.662	4584
859.795	4584
859.928	4653
860.061	4759
860.194	4763
860.327	4630
860.46	4538
860.592	4736
860.725	4725
860.858	4763
860.99	4656
861.123	4561
861.256	4580
861.388	4637
861.521	5303
861.653	4493
861.786	4516
861.918	4535
862.05	4558
862.183	4599
862.315	4664
862.447	4679
862.58	4542
862.712	4375
862.844	4360
862.976	4554
863.108	4443
863.24	4930
863.372	4341
863.504	4443
863.636	4432
863.768	4481
863.9	4500
864.032	4417
864.164	4432
864.296	4497
864.428	4592
864.559	4592
864.691	4565
864.823	4565
864.954	4512
865.086	4516
865.217	4478
865.349	4436
865.48	4451
865.612	4523
865.743	4675
865.875	4466
866.006	4459
866.137	4451
866.269	4493
866.4	4451
866.531	4478
866.662	4451
866.793	4436
866.924	4489
867.055	4542
867.186	4508
867.317	4436
867.448	4409
867.579	4367
867.71	4409
867.841	4371
867.972	4466
868.103	4489
868.233	4500
868.364	4455
868.495	4481
868.625	4706
868.756	4824
868.886	4599
869.017	4637
869.147	4828
869.278	4816
869.408	4672
869.539	4664
869.669	4763
869.799	4664
869.929	4755
870.06	4767
870.19	4972
870.32	4949
870.45	4972
870.58	5014
870.71	5109
870.84	5113
870.97	4984
871.1	4942
871.23	5117
871.36	5166
871.489	4976
871.619	5113
871.749	5147
871.879	5121
872.008	5204
872.138	5086
872.267	4915
872.397	4824
872.526	4858
872.656	4793
872.785	4824
872.915	5010
873.044	5060
873.173	4972
873.303	5018
873.432	5018
873.561	4961
873.69	4930
873.819	4850
873.948	4984
874.077	4854
874.206	4752
874.335	4828
874.464	4953
874.593	5025
874.722	4980
874.851	5124
874.979	5075
875.108	5067
875.237	4957
875.365	4949
875.494	4957
875.623	4987
875.751	4892
875.88	4946
876.008	5037
876.136	5109
876.265	5212
876.393	5326
876.521	5307
876.65	5269
876.778	5174
876.906	5109
877.034	5075
877.162	5079
877.29	5022
877.418	5079
877.546	5064
877.674	5060
877.802	5086
877.93	5056
878.058	4976
878.185	4873
878.313	4972
878.441	4999
878.568	4835
878.696	4968
878.824	4930
878.951	4999
879.079	5189
879.206	5299
879.333	5136
879.461	5022
879.588	5037
879.715	5121
879.842	5277
879.97	5056
880.097	4790
880.224	4752
880.351	4847
880.478	4919
880.605	4797
880.732	4801
880.859	5102
880.986	4908
881.112	4877
881.239	4755
881.366	4675
881.493	4634
881.619	4637
881.746	4634
881.872	4694
881.999	4645
882.125	4691
882.252	4824
882.378	4873
882.505	4949
882.631	4835
882.757	4717
882.883	4736
883.01	4774
883.136	4698
883.262	4615
883.388	4607
883.514	4786
883.64	4877
883.766	4782
883.892	4714
884.018	4714
884.143	4923
884.269	5033
884.395	4710
884.52	4626
884.646	4675
884.772	4634
884.897	4596
885.023	4710
885.148	4797
885.274	4881
885.399	4812
885.524	4729
885.65	4694
885.775	4790
885.9	4698
886.025	4839
886.15	4805
886.275	4748
886.4	4683
886.525	4759
886.65	4721
886.775	4729
886.9	4957
887.025	5064
887.149	4805
887.274	4645
887.399	4603
887.523	4630
887.648	4622
887.773	4569
887.897	4759
888.021	4797
888.146	4702
888.27	4790
888.395	4866
888.519	4858
888.643	4820
888.767	4824
888.891	4691
889.015	4672
889.139	4626
889.263	4622
889.387	4740
889.511	4870
889.635	4828
889.759	4668
889.883	4679
890.006	4706
890.13	4870
890.254	4615
890.377	4694
890.501	4569
890.624	4546
890.748	4645
890.871	4493
890.995	4440
891.118	4402
891.241	4508
891.364	4573
891.488	4626
891.611	4489
891.734	4599
891.857	4584
891.98	4565
892.103	4660
892.226	4637
892.349	4588
892.471	4409
892.594	4516
892.717	4603
892.839	4584
892.962	4580
893.085	4660
893.207	4618
893.33	4447
893.452	4550
893.575	4683
893.697	4603
893.819	4828
893.941	4850
894.064	4786
894.186	4512
894.308	4584
894.43	4744
894.552	4782
894.674	4778
894.796	4565
894.918	4641
895.04	4596
895.161	4702
895.283	4679
895.405	4573
895.526	4679
895.648	4691
895.769	4702
895.891	4733
896.012	4778
896.134	4733
896.255	4721
896.376	4596
896.498	4641
896.619	4683
896.74	4626
896.861	4687
896.982	4892
897.103	5079
897.224	4782
897.345	4790
897.466	4672
897.587	4706
897.708	4820
897.828	4714
897.949	4675
898.07	4618
898.19	4645
898.311	4812
898.431	4672
898.552	4767
898.672	4771
898.792	4744
898.913	4790
899.033	4637
899.153	4474
899.273	4462
899.393	4455
899.513	4546
899.633	4523
899.753	4535
899.873	4542
899.993	4565
900.113	4538
900.232	4599
900.352	4538
900.472	4504
900.591	4394
900.711	4558
900.83	4432
900.95	4599
901.069	4706
901.189	4577
901.308	4402
901.427	4356
901.546	4375
901.665	4504
901.784	4569
901.904	4386
902.023	4344
902.141	4257
902.26	4192
902.379	4325
902.498	4268
902.617	4242
902.735	4428
902.854	4428
902.973	4432
903.091	4268
903.21	4265
903.328	4383
903.446	4318
903.565	4295
903.683	4352
903.801	4322
903.919	4424
904.038	4443
904.156	4344
904.274	4500
904.392	4443
904.51	4474
904.627	4497
904.745	4588
904.863	4653
904.981	4447
905.098	4352
905.216	4443
905.334	4466
905.451	4455
905.569	4497
905.686	4569
905.803	4672
905.921	4478
906.038	4588
906.155	4531
906.272	4459
906.389	4554
906.506	4405
906.623	4413
906.74	4424
906.857	4363
906.974	4417
907.091	4626
907.208	4752
907.324	4634
907.441	4538
907.557	4386
907.674	4375
907.79	4341
907.907	4443
908.023	4542
908.139	4527
908.256	4504
908.372	4542
908.488	4504
908.604	4417
908.72	4383
908.836	4379
908.952	4421
909.068	4481
909.184	4618
909.3	4523
909.415	4630
909.531	4561
909.647	4405
909.762	4379
909.878	4398
909.993	4500
910.108	4443
910.224	4436
910.339	4500
910.454	4451
910.57	4421
910.685	4371
910.8	4706
910.915	4660
911.03	4531
911.145	4390
911.259	4371
911.374	4348
911.489	4306
911.604	4322
911.718	4215
911.833	4265
911.947	4131
912.062	4109
912.176	4265
912.291	4291
912.405	4295
912.519	4493
912.633	4489
912.748	4394
912.862	4379
912.976	4192
913.09	4154
913.204	4204
913.318	4265
913.431	4390
913.545	4398
913.659	4451
913.772	4363
913.886	4303
914	4284
914.113	4402
914.226	4500
914.34	4470
914.453	4280
914.566	4466
914.68	4295
914.793	4344
914.906	4173
915.019	4143
915.132	4078
915.245	4185
915.358	4253
915.47	4272
915.583	4310
915.696	4367
915.809	4470
915.921	4478
916.034	4272
916.146	4325
916.259	4280
916.371	4405
916.483	4379
916.595	4299
916.708	4371
916.82	4329
916.932	4341
917.044	4363
917.156	4360
917.268	4306
917.38	4329
917.491	4295
917.603	4383
917.715	4459
917.826	4447
917.938	4421
918.049	4276
918.161	4413
918.272	4561
918.384	4550
918.495	4500
918.606	4344
918.717	4284
918.828	4402
918.939	4421
919.05	4272
919.161	4360
919.272	4120
919.383	4280
919.494	4462
919.604	4653
919.715	4493
919.826	4363
919.936	4459
920.047	4584
920.157	4531
920.267	4710
920.378	4580
920.488	4554
920.598	4740
920.708	4946
920.818	4725
920.928	4786
921.038	4976
921.148	4999
921.258	4675
921.368	4592
921.477	4523
921.587	4538
921.697	4428
921.806	4527
921.916	4481
922.025	4295
922.134	4325
922.244	4287
922.353	4303
922.462	4200
922.571	4135
922.68	4036
922.789	3983
922.898	4044
923.007	4059
923.116	4101
923.224	4109
923.333	4169
923.442	3991
923.55	4017
923.659	4128
923.767	4150
923.876	4105
923.984	4166
924.092	4063
924.201	4078
924.309	4112
924.417	4112
924.525	4109
924.633	4143
924.741	5056
924.849	3899
924.956	4150
925.064	4010
925.172	3911
925.279	4002
925.387	4086
925.494	4109
925.602	4227
925.709	4238
925.816	4097
925.924	4188
926.031	4253
926.138	4211
926.245	4207
926.352	4105
926.459	4291
926.566	4337
926.673	4185
926.779	4112
926.886	4158
926.993	4006
927.099	3975
927.206	3968
927.312	3991
927.419	4112
927.525	4105
927.631	4071
927.737	3987
927.843	3941
927.95	3850
928.056	3983
928.162	4010
928.267	4078
928.373	4626
928.479	4131
928.585	3869
928.69	4078
928.796	4109
928.901	3937
929.007	3880
929.112	4040
929.218	4032
929.323	3972
929.428	3991
929.533	4166
929.638	3972
929.743	3945
929.848	4071
929.953	4021
930.058	3937
930.163	3797
930.267	3838
930.372	4021
930.477	3884
930.581	4131
930.685	3998
930.79	3846
930.894	3926
930.998	3922
931.103	4055
931.207	3759
931.311	3717
931.415	3717
931.519	3523
931.623	3595
