Data from test_V78500241_1582.txt Node
Date: Fri Mar 25 17:00:00 CST 2022
User: usil
Spectrometer: V785-0024
Trigger mode: 0
Integration Time (sec): 4.000000E-1
Scans to average: 1
Nonlinearity correction enabled: false
Boxcar width: 0
Storing dark spectrum: false
XAxis mode: Wavelengths
Number of Pixels in Spectrum: 1024
>>>>>Begin Spectral Data<<<<<
801.071	7967
801.214	8020
801.356	7940
801.499	7841
801.641	7814
801.783	7860
801.926	7879
802.068	7982
802.211	7925
802.353	7906
802.496	7780
802.638	7845
802.78	7951
802.923	7902
803.065	7868
803.208	7784
803.35	7982
803.492	8065
803.635	8130
803.777	7997
803.919	8088
804.061	8419
804.204	8092
804.346	7940
804.488	7963
804.63	8039
804.773	7970
804.915	7997
805.057	8305
805.199	8180
805.341	8218
805.483	8248
805.626	8214
805.768	8069
805.91	8195
806.052	8214
806.194	8153
806.336	8320
806.478	8096
806.62	8058
806.762	8130
806.904	8290
807.046	8446
807.188	8355
807.33	8259
807.472	8290
807.614	8172
807.756	8157
807.898	8024
808.04	7906
808.182	7837
808.324	7883
808.465	7890
808.607	8062
808.749	8107
808.891	8225
809.033	8275
809.174	8145
809.316	8081
809.458	8012
809.6	8031
809.741	8027
809.883	7970
810.025	8111
810.166	8046
810.308	7967
810.45	7986
810.591	7860
810.733	7670
810.875	7537
811.016	7495
811.158	7457
811.299	7563
811.441	7666
811.582	7674
811.724	7575
811.865	7556
812.007	7548
812.148	7533
812.29	7647
812.431	7715
812.573	7852
812.714	7951
812.855	8058
812.997	8187
813.138	8298
813.279	8191
813.421	8103
813.562	7967
813.703	7822
813.845	7776
813.986	7384
814.127	7247
814.268	7251
814.41	7209
814.551	7149
814.692	7217
814.833	7164
814.974	7050
815.115	7118
815.256	6962
815.397	6924
815.539	6996
815.68	6810
815.821	6753
815.962	6852
816.103	6783
816.244	6646
816.385	6578
816.526	6604
816.666	6513
816.807	6300
816.948	6445
817.089	6441
817.23	6448
817.371	6372
817.512	6418
817.653	6391
817.793	6372
817.934	6429
818.075	6441
818.216	6410
818.356	6433
818.497	6258
818.638	6129
818.778	6125
818.919	6072
819.06	6155
819.2	6353
819.341	6273
819.481	6342
819.622	6551
819.762	6707
819.903	6658
820.043	6631
820.184	6574
820.324	6532
820.465	6719
820.605	6700
820.746	6616
820.886	6433
821.026	6715
821.167	6703
821.307	6840
821.447	6719
821.588	6711
821.728	6551
821.868	6528
822.008	6350
822.149	6338
822.289	6334
822.429	6106
822.569	6136
822.709	6117
822.849	5863
822.99	5912
823.13	5946
823.27	5908
823.41	5786
823.55	5733
823.69	5783
823.83	5802
823.97	5634
824.11	5535
824.25	5528
824.389	5551
824.529	5562
824.669	5516
824.809	5581
824.949	5653
825.089	5615
825.228	5520
825.368	5417
825.508	5303
825.648	5345
825.787	5406
825.927	5334
826.067	5330
826.206	5261
826.346	5357
826.485	5391
826.625	5429
826.765	5509
826.904	5505
827.044	5223
827.183	5174
827.323	5071
827.462	5193
827.601	5181
827.741	5193
827.88	5204
828.02	5128
828.159	5231
828.298	5334
828.437	5318
828.577	5235
828.716	5482
828.855	5341
828.994	5151
829.134	5094
829.273	5170
829.412	5109
829.551	5128
829.69	5181
829.829	5261
829.968	5379
830.107	5208
830.246	5277
830.385	5105
830.524	5140
830.663	5045
830.802	4930
830.941	4915
831.08	4858
831.219	4953
831.357	4987
831.496	5147
831.635	4885
831.774	4809
831.913	4790
832.051	4755
832.19	4691
832.329	4835
832.467	4694
832.606	4611
832.744	4687
832.883	4698
833.022	4694
833.16	4694
833.299	4820
833.437	4847
833.576	4786
833.714	4809
833.852	4854
833.991	4873
834.129	4923
834.267	4953
834.406	4896
834.544	4927
834.682	4991
834.821	4972
834.959	5102
835.097	4942
835.235	5136
835.373	5117
835.511	5090
835.65	5014
835.788	5037
835.926	4889
836.064	4839
836.202	4900
836.34	5143
836.478	5121
836.615	5064
836.753	5189
836.891	5280
837.029	5178
837.167	5197
837.305	5128
837.443	5121
837.58	5056
837.718	5227
837.856	5147
837.993	5113
838.131	5242
838.269	5201
838.406	5174
838.544	5155
838.681	5048
838.819	5018
838.956	4828
839.094	4980
839.231	4930
839.369	5083
839.506	5368
839.643	5223
839.781	5033
839.918	5003
840.055	5102
840.193	5090
840.33	5022
840.467	5132
840.604	5159
840.742	5376
840.879	5056
841.016	5071
841.153	5147
841.29	5353
841.427	5284
841.564	5299
841.701	5357
841.838	5227
841.975	5223
842.112	5181
842.249	5143
842.385	5029
842.522	5376
842.659	5086
842.796	5147
842.933	5162
843.069	5121
843.206	5181
843.343	5269
843.479	5220
843.616	5197
843.752	5025
843.889	4984
844.025	5166
844.162	4984
844.298	5178
844.435	5060
844.571	5064
844.708	5223
844.844	5288
844.98	5353
845.117	5265
845.253	5174
845.389	5094
845.525	5151
845.661	5140
845.798	5083
845.934	5189
846.07	5010
846.206	5166
846.342	5292
846.478	5170
846.614	5022
846.75	4965
846.886	4911
847.022	5136
847.158	5037
847.294	5045
847.429	5117
847.565	5029
847.701	5360
847.837	4850
847.972	4805
848.108	4923
848.244	4957
848.379	4793
848.515	4805
848.65	4694
848.786	4736
848.921	4790
849.057	4896
849.192	4904
849.328	4816
849.463	4847
849.598	4831
849.734	4782
849.869	4759
850.004	4672
850.14	4653
850.275	4611
850.41	4592
850.545	4584
850.68	4637
850.815	4637
850.95	4645
851.085	4843
851.22	4801
851.355	4706
851.49	4653
851.625	4656
851.76	4634
851.895	4630
852.03	4535
852.165	4717
852.299	4733
852.434	4835
852.569	4721
852.703	4816
852.838	4858
852.973	4999
853.107	4999
853.242	4755
853.376	4683
853.511	4577
853.645	4645
853.78	4862
853.914	4729
854.048	4721
854.183	4660
854.317	4725
854.451	4877
854.585	4714
854.72	4694
854.854	4763
854.988	4672
855.122	4683
855.256	4596
855.39	4714
855.524	4854
855.658	4744
855.792	4694
855.926	4752
856.06	4793
856.194	4801
856.327	4736
856.461	4626
856.595	4675
856.729	4660
856.862	4774
856.996	4698
857.13	4755
857.263	4805
857.397	4843
857.53	4618
857.664	4771
857.797	4763
857.931	4835
858.064	4721
858.197	4767
858.331	4668
858.464	4660
858.597	4561
858.731	4622
858.864	4683
858.997	4634
859.13	4698
859.263	4691
859.396	4736
859.529	4626
859.662	4607
859.795	4622
859.928	4641
860.061	4809
860.194	4816
860.327	4656
860.46	4584
860.592	4771
860.725	4717
860.858	4725
860.99	4584
861.123	4535
861.256	4561
861.388	4641
861.521	5254
861.653	4550
861.786	4470
861.918	4462
862.05	4618
862.183	4577
862.315	4634
862.447	4634
862.58	4607
862.712	4417
862.844	4333
862.976	4500
863.108	4470
863.24	4812
863.372	4341
863.504	4451
863.636	4371
863.768	4523
863.9	4455
864.032	4424
864.164	4440
864.296	4504
864.428	4546
864.559	4592
864.691	4542
864.823	4508
864.954	4546
865.086	4546
865.217	4466
865.349	4459
865.48	4462
865.612	4523
865.743	4634
865.875	4516
866.006	4489
866.137	4493
866.269	4440
866.4	4432
866.531	4428
866.662	4424
866.793	4447
866.924	4451
867.055	4527
867.186	4459
867.317	4443
867.448	4417
867.579	4409
867.71	4413
867.841	4432
867.972	4459
868.103	4485
868.233	4500
868.364	4508
868.495	4516
868.625	4679
868.756	4782
868.886	4538
869.017	4660
869.147	4771
869.278	4782
869.408	4645
869.539	4664
869.669	4710
869.799	4660
869.929	4771
870.06	4767
870.19	5006
870.32	4984
870.45	4999
870.58	5056
870.71	5109
870.84	5166
870.97	4991
871.1	4946
871.23	5128
871.36	5155
871.489	5083
871.619	5094
871.749	5098
871.879	5140
872.008	5185
872.138	5090
872.267	4980
872.397	4885
872.526	4774
872.656	4736
872.785	4847
872.915	4942
873.044	5014
873.173	5006
873.303	4995
873.432	4934
873.561	4946
873.69	4927
873.819	4877
873.948	4904
874.077	4828
874.206	4809
874.335	4866
874.464	4972
874.593	5060
874.722	5010
874.851	5102
874.979	5083
875.108	5071
875.237	4949
875.365	4892
875.494	4923
875.623	4968
875.751	4850
875.88	4892
876.008	4976
876.136	5079
876.265	5235
876.393	5372
876.521	5212
876.65	5265
876.778	5181
876.906	5079
877.034	5071
877.162	5083
877.29	4972
877.418	5079
877.546	5083
877.674	5083
877.802	5090
877.93	5060
878.058	4923
878.185	4908
878.313	4984
878.441	4942
878.568	4881
878.696	4850
878.824	4949
878.951	5003
879.079	5181
879.206	5277
879.333	5155
879.461	5014
879.588	5037
879.715	5178
879.842	5258
879.97	5052
880.097	4850
880.224	4771
880.351	4790
880.478	4889
880.605	4877
880.732	4824
880.859	5048
880.986	4911
881.112	4946
881.239	4763
881.366	4687
881.493	4637
881.619	4599
881.746	4596
881.872	4672
881.999	4645
882.125	4733
882.252	4790
882.378	4870
882.505	4968
882.631	4824
882.757	4668
882.883	4752
883.01	4733
883.136	4698
883.262	4683
883.388	4634
883.514	4870
883.64	4877
883.766	4839
883.892	4706
884.018	4771
884.143	4915
884.269	5075
884.395	4691
884.52	4634
884.646	4675
884.772	4607
884.897	4584
885.023	4672
885.148	4763
885.274	4881
885.399	4862
885.524	4729
885.65	4755
885.775	4793
885.9	4733
886.025	4892
886.15	4839
886.275	4721
886.4	4687
886.525	4717
886.65	4710
886.775	4714
886.9	4911
887.025	5064
887.149	4835
887.274	4622
887.399	4577
887.523	4588
887.648	4592
887.773	4611
887.897	4835
888.021	4862
888.146	4748
888.27	4793
888.395	4953
888.519	4793
888.643	4824
888.767	4877
888.891	4645
889.015	4599
889.139	4679
889.263	4637
889.387	4763
889.511	4896
889.635	4843
889.759	4656
889.883	4664
890.006	4748
890.13	4839
890.254	4645
890.377	4691
890.501	4584
890.624	4531
890.748	4630
890.871	4512
890.995	4493
891.118	4394
891.241	4542
891.364	4565
891.488	4637
891.611	4485
891.734	4538
891.857	4641
891.98	4512
892.103	4698
892.226	4622
892.349	4546
892.471	4436
892.594	4554
892.717	4573
892.839	4599
892.962	4622
893.085	4664
893.207	4634
893.33	4462
893.452	4519
893.575	4691
893.697	4588
893.819	4782
893.941	4839
894.064	4778
894.186	4550
894.308	4554
894.43	4752
894.552	4816
894.674	4767
894.796	4573
894.918	4611
895.04	4641
895.161	4694
895.283	4660
895.405	4580
895.526	4664
895.648	4694
895.769	4714
895.891	4752
896.012	4725
896.134	4729
896.255	4664
896.376	4645
896.498	4596
896.619	4675
896.74	4641
896.861	4630
896.982	4968
897.103	5094
897.224	4843
897.345	4774
897.466	4675
897.587	4698
897.708	4862
897.828	4809
897.949	4744
898.07	4588
898.19	4679
898.311	4881
898.431	4664
898.552	4797
898.672	4850
898.792	4759
898.913	4755
899.033	4664
899.153	4573
899.273	4462
899.393	4527
899.513	4554
899.633	4538
899.753	4538
899.873	4504
899.993	4603
900.113	4512
900.232	4588
900.352	4565
900.472	4481
900.591	4402
900.711	4523
900.83	4466
900.95	4653
901.069	4740
901.189	4500
901.308	4405
901.427	4303
901.546	4379
901.665	4451
901.784	4523
901.904	4394
902.023	4322
902.141	4169
902.26	4143
902.379	4314
902.498	4261
902.617	4227
902.735	4337
902.854	4386
902.973	4386
903.091	4246
903.21	4196
903.328	4299
903.446	4284
903.565	4310
903.683	4363
903.801	4318
903.919	4443
904.038	4447
904.156	4386
904.274	4455
904.392	4466
904.51	4436
904.627	4478
904.745	4527
904.863	4630
904.981	4402
905.098	4314
905.216	4432
905.334	4417
905.451	4455
905.569	4405
905.686	4603
905.803	4599
905.921	4394
906.038	4550
906.155	4474
906.272	4478
906.389	4478
906.506	4394
906.623	4386
906.74	4409
906.857	4318
906.974	4413
907.091	4615
907.208	4717
907.324	4580
907.441	4500
907.557	4329
907.674	4348
907.79	4371
907.907	4398
908.023	4500
908.139	4512
908.256	4459
908.372	4459
908.488	4432
908.604	4379
908.72	4333
908.836	4383
908.952	4363
909.068	4428
909.184	4588
909.3	4462
909.415	4558
909.531	4550
909.647	4341
909.762	4402
909.878	4363
909.993	4443
910.108	4443
910.224	4432
910.339	4462
910.454	4440
910.57	4375
910.685	4268
910.8	4687
910.915	4611
911.03	4516
911.145	4310
911.259	4325
911.374	4348
911.489	4322
911.604	4276
911.718	4173
911.833	4219
911.947	4082
912.062	4078
912.176	4219
912.291	4261
912.405	4249
912.519	4455
912.633	4481
912.748	4386
912.862	4337
912.976	4196
913.09	4147
913.204	4158
913.318	4234
913.431	4352
913.545	4428
913.659	4405
913.772	4413
913.886	4242
914	4227
914.113	4356
914.226	4443
914.34	4356
914.453	4268
914.566	4466
914.68	4325
914.793	4367
914.906	4181
915.019	4120
915.132	4090
915.245	4192
915.358	4181
915.47	4310
915.583	4287
915.696	4284
915.809	4447
915.921	4447
916.034	4310
916.146	4295
916.259	4249
916.371	4367
916.483	4398
916.595	4295
916.708	4344
916.82	4371
916.932	4356
917.044	4367
917.156	4363
917.268	4253
917.38	4306
917.491	4314
917.603	4371
917.715	4451
917.826	4455
917.938	4367
918.049	4276
918.161	4402
918.272	4542
918.384	4558
918.495	4459
918.606	4322
918.717	4295
918.828	4402
918.939	4421
919.05	4276
919.161	4398
919.272	4147
919.383	4276
919.494	4523
919.604	4683
919.715	4451
919.826	4428
919.936	4386
920.047	4561
920.157	4550
920.267	4763
920.378	4603
920.488	4565
920.598	4805
920.708	4961
920.818	4847
920.928	4805
921.038	4919
921.148	4976
921.258	4645
921.368	4622
921.477	4554
921.587	4519
921.697	4459
921.806	4607
921.916	4455
922.025	4303
922.134	4333
922.244	4295
922.353	4318
922.462	4196
922.571	4185
922.68	4040
922.789	3994
922.898	4082
923.007	4048
923.116	4173
923.224	4120
923.333	4090
923.442	4044
923.55	3991
923.659	4063
923.767	4177
923.876	4044
923.984	4139
924.092	4044
924.201	4074
924.309	4139
924.417	4169
924.525	4093
924.633	4162
924.741	4896
924.849	3960
924.956	4166
925.064	4002
925.172	3937
925.279	4025
925.387	4112
925.494	4071
925.602	4204
925.709	4215
925.816	4078
925.924	4147
926.031	4314
926.138	4196
926.245	4242
926.352	4173
926.459	4299
926.566	4367
926.673	4150
926.779	4120
926.886	4112
926.993	4002
927.099	3994
927.206	3972
927.312	3975
927.419	4086
927.525	4078
927.631	4112
927.737	3956
927.843	3994
927.95	3861
928.056	3994
928.162	4017
928.267	4086
928.373	4637
928.479	4173
928.585	3903
928.69	4021
928.796	4139
928.901	4010
929.007	3918
929.112	4040
929.218	3968
929.323	3945
929.428	3926
929.533	4143
929.638	3915
929.743	4002
929.848	4013
929.953	4002
930.058	3926
930.163	3808
930.267	3892
930.372	3991
930.477	3854
930.581	4154
930.685	4002
930.79	3861
930.894	3930
930.998	3907
931.103	4097
931.207	3770
931.311	3751
931.415	3728
931.519	3584
931.623	3599
