Data from test_V78500241_1095.txt Node
Date: Fri Mar 25 16:56:36 CST 2022
User: usil
Spectrometer: V785-0024
Trigger mode: 0
Integration Time (sec): 4.000000E-1
Scans to average: 1
Nonlinearity correction enabled: false
Boxcar width: 0
Storing dark spectrum: false
XAxis mode: Wavelengths
Number of Pixels in Spectrum: 1024
>>>>>Begin Spectral Data<<<<<
801.071	8096
801.214	8043
801.356	7883
801.499	7909
801.641	7811
801.783	7776
801.926	7947
802.068	7902
802.211	7906
802.353	7951
802.496	7841
802.638	7871
802.78	7849
802.923	8012
803.065	7925
803.208	7871
803.35	7978
803.492	8054
803.635	8183
803.777	8016
803.919	8191
804.061	8374
804.204	8145
804.346	8043
804.488	7955
804.63	8062
804.773	8012
804.915	8081
805.057	8237
805.199	8161
805.341	8210
805.483	8271
805.626	8138
805.768	8100
805.91	8199
806.052	8187
806.194	8111
806.336	8286
806.478	8073
806.62	8096
806.762	8172
806.904	8229
807.046	8419
807.188	8313
807.33	8263
807.472	8282
807.614	8142
807.756	8084
807.898	7989
808.04	7879
808.182	7921
808.324	7898
808.465	7913
808.607	8088
808.749	8077
808.891	8161
809.033	8248
809.174	8183
809.316	8054
809.458	8084
809.6	7928
809.741	8058
809.883	8092
810.025	8081
810.166	8039
810.308	8081
810.45	8084
810.591	7917
810.733	7685
810.875	7594
811.016	7525
811.158	7472
811.299	7590
811.441	7731
811.582	7784
811.724	7559
811.865	7495
812.007	7586
812.148	7556
812.29	7643
812.431	7689
812.573	7780
812.714	7970
812.855	8157
812.997	8145
813.138	8305
813.279	8153
813.421	8084
813.562	8024
813.703	7860
813.845	7772
813.986	7453
814.127	7228
814.268	7206
814.41	7213
814.551	7088
814.692	7156
814.833	7038
814.974	7076
815.115	7103
815.256	6962
815.397	6821
815.539	6966
815.68	6897
815.821	6768
815.962	6783
816.103	6802
816.244	6700
816.385	6616
816.526	6662
816.666	6471
816.807	6292
816.948	6388
817.089	6471
817.23	6388
817.371	6334
817.512	6441
817.653	6407
817.793	6365
817.934	6410
818.075	6471
818.216	6414
818.356	6350
818.497	6266
818.638	6136
818.778	6136
818.919	6091
819.06	6178
819.2	6270
819.341	6334
819.481	6327
819.622	6452
819.762	6757
819.903	6681
820.043	6616
820.184	6536
820.324	6566
820.465	6673
820.605	6677
820.746	6639
820.886	6456
821.026	6623
821.167	6665
821.307	6776
821.447	6719
821.588	6662
821.728	6555
821.868	6464
822.008	6327
822.149	6357
822.289	6376
822.429	6136
822.569	6057
822.709	6087
822.849	5893
822.99	5878
823.13	5927
823.27	5889
823.41	5779
823.55	5760
823.69	5771
823.83	5764
823.97	5726
824.11	5490
824.25	5554
824.389	5528
824.529	5589
824.669	5535
824.809	5585
824.949	5630
825.089	5604
825.228	5478
825.368	5383
825.508	5364
825.648	5273
825.787	5391
825.927	5429
826.067	5231
826.206	5280
826.346	5334
826.485	5353
826.625	5353
826.765	5539
826.904	5433
827.044	5235
827.183	5181
827.323	5098
827.462	5250
827.601	5174
827.741	5193
827.88	5181
828.02	5079
828.159	5178
828.298	5261
828.437	5337
828.577	5258
828.716	5535
828.855	5303
828.994	5159
829.134	5071
829.273	5159
829.412	5083
829.551	5060
829.69	5178
829.829	5178
829.968	5322
830.107	5235
830.246	5296
830.385	5181
830.524	5086
830.663	5037
830.802	4946
830.941	4923
831.08	4850
831.219	4892
831.357	4968
831.496	5132
831.635	4911
831.774	4805
831.913	4843
832.051	4725
832.19	4729
832.329	4801
832.467	4687
832.606	4622
832.744	4706
832.883	4725
833.022	4691
833.16	4824
833.299	4850
833.437	4816
833.576	4805
833.714	4850
833.852	4858
833.991	4858
834.129	4900
834.267	4927
834.406	4908
834.544	4957
834.682	4938
834.821	4995
834.959	5155
835.097	4961
835.235	5113
835.373	5060
835.511	5086
835.65	5022
835.788	4961
835.926	4870
836.064	4870
836.202	4923
836.34	5174
836.478	5197
836.615	5117
836.753	5170
836.891	5299
837.029	5216
837.167	5178
837.305	5143
837.443	5090
837.58	5056
837.718	5258
837.856	5204
837.993	5083
838.131	5242
838.269	5166
838.406	5223
838.544	5162
838.681	5025
838.819	4984
838.956	4824
839.094	4896
839.231	4942
839.369	5075
839.506	5395
839.643	5216
839.781	5064
839.918	4968
840.055	5075
840.193	4995
840.33	5083
840.467	5117
840.604	5162
840.742	5406
840.879	5060
841.016	5083
841.153	5178
841.29	5379
841.427	5307
841.564	5288
841.701	5307
841.838	5311
841.975	5201
842.112	5212
842.249	5143
842.385	5090
842.522	5284
842.659	5117
842.796	5098
842.933	5166
843.069	5079
843.206	5083
843.343	5292
843.479	5151
843.616	5261
843.752	4942
843.889	4980
844.025	5174
844.162	5014
844.298	5162
844.435	5060
844.571	5052
844.708	5223
844.844	5265
844.98	5311
845.117	5242
845.253	5147
845.389	5056
845.525	5151
845.661	5113
845.798	4987
845.934	5117
846.07	4984
846.206	5178
846.342	5242
846.478	5117
846.614	4995
846.75	4934
846.886	4873
847.022	5159
847.158	4984
847.294	5018
847.429	5083
847.565	5071
847.701	5307
847.837	4835
847.972	4786
848.108	4953
848.244	4957
848.379	4733
848.515	4759
848.65	4752
848.786	4752
848.921	4733
849.057	4828
849.192	4911
849.328	4831
849.463	4870
849.598	4809
849.734	4816
849.869	4626
850.004	4668
850.14	4622
850.275	4592
850.41	4516
850.545	4550
850.68	4580
850.815	4660
850.95	4592
851.085	4866
851.22	4774
851.355	4691
851.49	4611
851.625	4634
851.76	4675
851.895	4592
852.03	4561
852.165	4660
852.299	4725
852.434	4812
852.569	4797
852.703	4729
852.838	4862
852.973	4957
853.107	4946
853.242	4748
853.376	4683
853.511	4554
853.645	4653
853.78	4843
853.914	4691
854.048	4702
854.183	4679
854.317	4702
854.451	4862
854.585	4691
854.72	4660
854.854	4763
854.988	4603
855.122	4691
855.256	4580
855.39	4687
855.524	4847
855.658	4793
855.792	4733
855.926	4759
856.06	4752
856.194	4786
856.327	4729
856.461	4573
856.595	4668
856.729	4626
856.862	4782
856.996	4748
857.13	4752
857.263	4828
857.397	4782
857.53	4653
857.664	4721
857.797	4812
857.931	4824
858.064	4710
858.197	4809
858.331	4698
858.464	4660
858.597	4569
858.731	4660
858.864	4664
858.997	4622
859.13	4679
859.263	4714
859.396	4740
859.529	4645
859.662	4660
859.795	4603
859.928	4626
860.061	4786
860.194	4759
860.327	4630
860.46	4573
860.592	4702
860.725	4744
860.858	4763
860.99	4592
861.123	4565
861.256	4516
861.388	4596
861.521	5410
861.653	4504
861.786	4489
861.918	4478
862.05	4512
862.183	4584
862.315	4653
862.447	4691
862.58	4542
862.712	4417
862.844	4325
862.976	4481
863.108	4436
863.24	4828
863.372	4337
863.504	4447
863.636	4451
863.768	4470
863.9	4440
864.032	4367
864.164	4402
864.296	4512
864.428	4535
864.559	4618
864.691	4565
864.823	4527
864.954	4538
865.086	4478
865.217	4489
865.349	4447
865.48	4542
865.612	4489
865.743	4653
865.875	4478
866.006	4462
866.137	4466
866.269	4489
866.4	4440
866.531	4436
866.662	4474
866.793	4432
866.924	4386
867.055	4497
867.186	4523
867.317	4424
867.448	4375
867.579	4440
867.71	4428
867.841	4405
867.972	4485
868.103	4474
868.233	4447
868.364	4432
868.495	4519
868.625	4660
868.756	4710
868.886	4542
869.017	4622
869.147	4835
869.278	4774
869.408	4672
869.539	4656
869.669	4759
869.799	4675
869.929	4812
870.06	4733
870.19	4919
870.32	4938
870.45	4927
870.58	5052
870.71	5113
870.84	5124
870.97	4942
871.1	4911
871.23	5155
871.36	5128
871.489	5003
871.619	5067
871.749	5151
871.879	5174
872.008	5189
872.138	5071
872.267	5052
872.397	4858
872.526	4805
872.656	4755
872.785	4847
872.915	4965
873.044	5025
873.173	4957
873.303	4953
873.432	4957
873.561	4949
873.69	4930
873.819	4885
873.948	4946
874.077	4862
874.206	4778
874.335	4809
874.464	5003
874.593	5075
874.722	4965
874.851	5083
874.979	5067
875.108	5045
875.237	4930
875.365	4881
875.494	4923
875.623	5018
875.751	4847
875.88	4930
876.008	5006
876.136	5045
876.265	5140
876.393	5296
876.521	5223
876.65	5280
876.778	5159
876.906	5094
877.034	5025
877.162	5048
877.29	4995
877.418	5094
877.546	4953
877.674	5048
877.802	5086
877.93	4987
878.058	4976
878.185	4854
878.313	4953
878.441	5010
878.568	4850
878.696	4927
878.824	4911
878.951	5010
879.079	5140
879.206	5322
879.333	5117
879.461	5003
879.588	5052
879.715	5147
879.842	5239
879.97	5037
880.097	4831
880.224	4752
880.351	4835
880.478	4835
880.605	4824
880.732	4805
880.859	5079
880.986	4881
881.112	4953
881.239	4809
881.366	4687
881.493	4584
881.619	4565
881.746	4675
881.872	4702
881.999	4679
882.125	4672
882.252	4755
882.378	4866
882.505	5014
882.631	4866
882.757	4683
882.883	4759
883.01	4763
883.136	4668
883.262	4641
883.388	4596
883.514	4854
883.64	4927
883.766	4805
883.892	4664
884.018	4721
884.143	4896
884.269	4984
884.395	4717
884.52	4622
884.646	4634
884.772	4607
884.897	4588
885.023	4717
885.148	4831
885.274	4862
885.399	4843
885.524	4710
885.65	4755
885.775	4736
885.9	4752
886.025	4919
886.15	4816
886.275	4763
886.4	4653
886.525	4755
886.65	4721
886.775	4698
886.9	4927
887.025	5014
887.149	4812
887.274	4698
887.399	4577
887.523	4664
887.648	4607
887.773	4637
887.897	4736
888.021	4858
888.146	4634
888.27	4847
888.395	4896
888.519	4809
888.643	4816
888.767	4820
888.891	4694
889.015	4611
889.139	4660
889.263	4603
889.387	4790
889.511	4911
889.635	4786
889.759	4630
889.883	4630
890.006	4748
890.13	4839
890.254	4668
890.377	4668
890.501	4554
890.624	4485
890.748	4649
890.871	4554
890.995	4428
891.118	4379
891.241	4542
891.364	4535
891.488	4611
891.611	4497
891.734	4554
891.857	4603
891.98	4596
892.103	4630
892.226	4588
892.349	4561
892.471	4451
892.594	4554
892.717	4592
892.839	4550
892.962	4637
893.085	4672
893.207	4626
893.33	4466
893.452	4508
893.575	4668
893.697	4596
893.819	4809
893.941	4862
894.064	4809
894.186	4615
894.308	4554
894.43	4752
894.552	4820
894.674	4793
894.796	4588
894.918	4577
895.04	4558
895.161	4683
895.283	4649
895.405	4592
895.526	4622
895.648	4656
895.769	4721
895.891	4736
896.012	4767
896.134	4714
896.255	4702
896.376	4626
896.498	4622
896.619	4702
896.74	4611
896.861	4607
896.982	4911
897.103	5033
897.224	4873
897.345	4778
897.466	4714
897.587	4698
897.708	4885
897.828	4786
897.949	4637
898.07	4538
898.19	4668
898.311	4873
898.431	4691
898.552	4763
898.672	4824
898.792	4801
898.913	4729
899.033	4622
899.153	4523
899.273	4447
899.393	4523
899.513	4527
899.633	4569
899.753	4546
899.873	4569
899.993	4588
900.113	4592
900.232	4588
900.352	4542
900.472	4474
900.591	4474
900.711	4493
900.83	4402
900.95	4615
901.069	4714
901.189	4527
901.308	4341
901.427	4303
901.546	4352
901.665	4485
901.784	4519
901.904	4421
902.023	4303
902.141	4211
902.26	4177
902.379	4329
902.498	4276
902.617	4200
902.735	4386
902.854	4379
902.973	4383
903.091	4238
903.21	4242
903.328	4291
903.446	4284
903.565	4272
903.683	4379
903.801	4284
903.919	4383
904.038	4459
904.156	4291
904.274	4440
904.392	4428
904.51	4436
904.627	4470
904.745	4584
904.863	4687
904.981	4447
905.098	4325
905.216	4386
905.334	4413
905.451	4390
905.569	4474
905.686	4512
905.803	4535
905.921	4466
906.038	4573
906.155	4504
906.272	4428
906.389	4474
906.506	4363
906.623	4386
906.74	4383
906.857	4329
906.974	4398
907.091	4558
907.208	4733
907.324	4577
907.441	4489
907.557	4383
907.674	4314
907.79	4348
907.907	4344
908.023	4481
908.139	4474
908.256	4462
908.372	4523
908.488	4462
908.604	4413
908.72	4363
908.836	4379
908.952	4383
909.068	4489
909.184	4500
909.3	4424
909.415	4535
909.531	4565
909.647	4329
909.762	4356
909.878	4333
909.993	4459
910.108	4375
910.224	4440
910.339	4508
910.454	4424
910.57	4367
910.685	4367
910.8	4717
910.915	4588
911.03	4478
911.145	4356
911.259	4348
911.374	4352
911.489	4303
911.604	4291
911.718	4215
911.833	4227
911.947	4040
912.062	4036
912.176	4207
912.291	4253
912.405	4242
912.519	4470
912.633	4546
912.748	4352
912.862	4287
912.976	4204
913.09	4086
913.204	4147
913.318	4261
913.431	4386
913.545	4352
913.659	4447
913.772	4337
913.886	4284
914	4234
914.113	4436
914.226	4443
914.34	4371
914.453	4253
914.566	4466
914.68	4280
914.793	4341
914.906	4166
915.019	4150
915.132	4097
915.245	4188
915.358	4215
915.47	4181
915.583	4287
915.696	4295
915.809	4371
915.921	4432
916.034	4246
916.146	4268
916.259	4204
916.371	4409
916.483	4360
916.595	4280
916.708	4325
916.82	4322
916.932	4322
917.044	4333
917.156	4314
917.268	4230
917.38	4261
917.491	4280
917.603	4390
917.715	4409
917.826	4432
917.938	4386
918.049	4265
918.161	4447
918.272	4546
918.384	4546
918.495	4470
918.606	4341
918.717	4242
918.828	4379
918.939	4379
919.05	4306
919.161	4333
919.272	4162
919.383	4249
919.494	4478
919.604	4691
919.715	4485
919.826	4428
919.936	4436
920.047	4542
920.157	4512
920.267	4721
920.378	4592
920.488	4550
920.598	4736
920.708	4946
920.818	4820
920.928	4786
921.038	4980
921.148	4942
921.258	4649
921.368	4641
921.477	4565
921.587	4497
921.697	4447
921.806	4634
921.916	4470
922.025	4295
922.134	4337
922.244	4280
922.353	4436
922.462	4242
922.571	4177
922.68	4048
922.789	4036
922.898	4055
923.007	4013
923.116	4124
923.224	4135
923.333	4139
923.442	4055
923.55	4029
923.659	4090
923.767	4166
923.876	4025
923.984	4109
924.092	4025
924.201	4131
924.309	4120
924.417	4166
924.525	4082
924.633	4101
924.741	5071
924.849	3975
924.956	4200
925.064	4029
925.172	3945
925.279	3975
925.387	4097
925.494	4071
925.602	4238
925.709	4242
925.816	4097
925.924	4143
926.031	4306
926.138	4234
926.245	4261
926.352	4143
926.459	4284
926.566	4333
926.673	4219
926.779	4101
926.886	4128
926.993	4059
927.099	3994
927.206	3972
927.312	3983
927.419	4063
927.525	4071
927.631	4131
927.737	3979
927.843	3983
927.95	3865
928.056	3991
928.162	4044
928.267	4063
928.373	4653
928.479	4196
928.585	3915
928.69	4032
928.796	4109
928.901	4017
929.007	3873
929.112	4044
929.218	4002
929.323	4002
929.428	3994
929.533	4147
929.638	3968
929.743	3979
929.848	4063
929.953	4036
930.058	3945
930.163	3789
930.267	3873
930.372	4002
930.477	3861
930.581	4173
930.685	3987
930.79	3850
930.894	3930
930.998	3846
931.103	4063
931.207	3766
931.311	3698
931.415	3686
931.519	3511
931.623	3580
