Data from test_V78500241_2796.txt Node
Date: Fri Mar 25 17:08:26 CST 2022
User: usil
Spectrometer: V785-0024
Trigger mode: 0
Integration Time (sec): 4.000000E-1
Scans to average: 1
Nonlinearity correction enabled: false
Boxcar width: 0
Storing dark spectrum: false
XAxis mode: Wavelengths
Number of Pixels in Spectrum: 1024
>>>>>Begin Spectral Data<<<<<
801.071	8008
801.214	8065
801.356	7890
801.499	7928
801.641	7959
801.783	7845
801.926	8001
802.068	7993
802.211	8016
802.353	8084
802.496	7974
802.638	7906
802.78	7955
802.923	7963
803.065	7890
803.208	7822
803.35	7982
803.492	8180
803.635	8191
803.777	8073
803.919	8119
804.061	8503
804.204	8183
804.346	8088
804.488	7978
804.63	8111
804.773	8050
804.915	8077
805.057	8294
805.199	8183
805.341	8225
805.483	8282
805.626	8225
805.768	8103
805.91	8180
806.052	8259
806.194	8153
806.336	8362
806.478	8210
806.62	8065
806.762	8229
806.904	8286
807.046	8545
807.188	8320
807.33	8271
807.472	8370
807.614	8168
807.756	8145
807.898	8024
808.04	7913
808.182	7917
808.324	7921
808.465	7955
808.607	8130
808.749	8157
808.891	8351
809.033	8351
809.174	8214
809.316	8153
809.458	8126
809.6	8005
809.741	7978
809.883	8043
810.025	8191
810.166	8081
810.308	8073
810.45	8016
810.591	7906
810.733	7795
810.875	7765
811.016	7613
811.158	7575
811.299	7620
811.441	7803
811.582	7670
811.724	7556
811.865	7624
812.007	7616
812.148	7609
812.29	7677
812.431	7734
812.573	7902
812.714	8054
812.855	8180
812.997	8275
813.138	8313
813.279	8138
813.421	8164
813.562	7955
813.703	7826
813.845	7765
813.986	7476
814.127	7392
814.268	7293
814.41	7293
814.551	7240
814.692	7255
814.833	7012
814.974	7053
815.115	7057
815.256	6951
815.397	6962
815.539	6962
815.68	6852
815.821	6825
815.962	6867
816.103	6821
816.244	6715
816.385	6574
816.526	6692
816.666	6525
816.807	6289
816.948	6437
817.089	6540
817.23	6437
817.371	6384
817.512	6384
817.653	6334
817.793	6338
817.934	6441
818.075	6448
818.216	6460
818.356	6372
818.497	6209
818.638	6129
818.778	6182
818.919	6095
819.06	6216
819.2	6331
819.341	6346
819.481	6369
819.622	6589
819.762	6711
819.903	6738
820.043	6654
820.184	6574
820.324	6677
820.465	6688
820.605	6673
820.746	6684
820.886	6551
821.026	6700
821.167	6696
821.307	6810
821.447	6757
821.588	6730
821.728	6555
821.868	6509
822.008	6388
822.149	6422
822.289	6391
822.429	6232
822.569	6125
822.709	6129
822.849	5927
822.99	5916
823.13	5961
823.27	5916
823.41	5779
823.55	5783
823.69	5817
823.83	5817
823.97	5661
824.11	5539
824.25	5547
824.389	5558
824.529	5596
824.669	5589
824.809	5672
824.949	5680
825.089	5623
825.228	5611
825.368	5417
825.508	5360
825.648	5410
825.787	5398
825.927	5414
826.067	5284
826.206	5261
826.346	5383
826.485	5372
826.625	5467
826.765	5547
826.904	5471
827.044	5239
827.183	5231
827.323	5132
827.462	5292
827.601	5189
827.741	5162
827.88	5227
828.02	5132
828.159	5273
828.298	5353
828.437	5376
828.577	5326
828.716	5520
828.855	5284
828.994	5185
829.134	5132
829.273	5189
829.412	5155
829.551	5140
829.69	5189
829.829	5311
829.968	5376
830.107	5299
830.246	5334
830.385	5159
830.524	5113
830.663	5075
830.802	4987
830.941	4847
831.08	4881
831.219	4991
831.357	5003
831.496	5121
831.635	4938
831.774	4885
831.913	4889
832.051	4725
832.19	4729
832.329	4839
832.467	4714
832.606	4634
832.744	4774
832.883	4755
833.022	4763
833.16	4748
833.299	4820
833.437	4809
833.576	4889
833.714	4866
833.852	4927
833.991	4904
834.129	4972
834.267	4987
834.406	4923
834.544	4984
834.682	4946
834.821	4995
834.959	5151
835.097	4984
835.235	5162
835.373	5071
835.511	5102
835.65	4953
835.788	5071
835.926	4877
836.064	4862
836.202	4889
836.34	5189
836.478	5178
836.615	5170
836.753	5189
836.891	5311
837.029	5296
837.167	5193
837.305	5174
837.443	5181
837.58	5075
837.718	5265
837.856	5227
837.993	5197
838.131	5193
838.269	5250
838.406	5227
838.544	5170
838.681	5090
838.819	5010
838.956	4881
839.094	4938
839.231	5006
839.369	5060
839.506	5406
839.643	5273
839.781	5056
839.918	5052
840.055	5136
840.193	5102
840.33	5090
840.467	5124
840.604	5178
840.742	5414
840.879	5071
841.016	5083
841.153	5227
841.29	5383
841.427	5322
841.564	5265
841.701	5330
841.838	5258
841.975	5204
842.112	5231
842.249	5166
842.385	5105
842.522	5315
842.659	5128
842.796	5102
842.933	5181
843.069	5170
843.206	5113
843.343	5315
843.479	5239
843.616	5334
843.752	5048
843.889	4995
844.025	5208
844.162	4995
844.298	5128
844.435	5075
844.571	5041
844.708	5181
844.844	5326
844.98	5292
845.117	5231
845.253	5151
845.389	5124
845.525	5159
845.661	5136
845.798	5064
845.934	5159
846.07	5060
846.206	5246
846.342	5315
846.478	5136
846.614	5006
846.75	4987
846.886	4900
847.022	5140
847.158	5010
847.294	5079
847.429	5090
847.565	5079
847.701	5345
847.837	4885
847.972	4843
848.108	4930
848.244	4953
848.379	4767
848.515	4744
848.65	4721
848.786	4793
848.921	4820
849.057	4858
849.192	4938
849.328	4850
849.463	4866
849.598	4801
849.734	4763
849.869	4714
850.004	4660
850.14	4668
850.275	4607
850.41	4531
850.545	4588
850.68	4618
850.815	4664
850.95	4618
851.085	4828
851.22	4744
851.355	4736
851.49	4672
851.625	4618
851.76	4679
851.895	4577
852.03	4577
852.165	4630
852.299	4748
852.434	4831
852.569	4733
852.703	4786
852.838	4843
852.973	4980
853.107	4904
853.242	4759
853.376	4694
853.511	4592
853.645	4618
853.78	4870
853.914	4721
854.048	4698
854.183	4660
854.317	4710
854.451	4927
854.585	4687
854.72	4672
854.854	4790
854.988	4675
855.122	4702
855.256	4580
855.39	4706
855.524	4782
855.658	4721
855.792	4717
855.926	4812
856.06	4752
856.194	4786
856.327	4729
856.461	4649
856.595	4683
856.729	4702
856.862	4809
856.996	4755
857.13	4824
857.263	4782
857.397	4870
857.53	4653
857.664	4752
857.797	4828
857.931	4824
858.064	4733
858.197	4782
858.331	4687
858.464	4649
858.597	4565
858.731	4672
858.864	4710
858.997	4645
859.13	4698
859.263	4694
859.396	4759
859.529	4618
859.662	4584
859.795	4558
859.928	4615
860.061	4824
860.194	4809
860.327	4653
860.46	4599
860.592	4767
860.725	4717
860.858	4778
860.99	4573
861.123	4546
861.256	4596
861.388	4622
861.521	5330
861.653	4504
861.786	4493
861.918	4489
862.05	4508
862.183	4626
862.315	4630
862.447	4687
862.58	4561
862.712	4447
862.844	4348
862.976	4500
863.108	4451
863.24	4877
863.372	4390
863.504	4443
863.636	4424
863.768	4519
863.9	4485
864.032	4337
864.164	4478
864.296	4542
864.428	4607
864.559	4577
864.691	4546
864.823	4550
864.954	4538
865.086	4516
865.217	4554
865.349	4432
865.48	4455
865.612	4531
865.743	4668
865.875	4481
866.006	4440
866.137	4523
866.269	4466
866.4	4489
866.531	4474
866.662	4402
866.793	4500
866.924	4440
867.055	4523
867.186	4504
867.317	4500
867.448	4447
867.579	4432
867.71	4424
867.841	4402
867.972	4508
868.103	4519
868.233	4523
868.364	4542
868.495	4558
868.625	4694
868.756	4744
868.886	4588
869.017	4645
869.147	4816
869.278	4805
869.408	4702
869.539	4694
869.669	4752
869.799	4694
869.929	4828
870.06	4782
870.19	4999
870.32	4980
870.45	4942
870.58	5064
870.71	5117
870.84	5098
870.97	4961
871.1	4927
871.23	5174
871.36	5189
871.489	5083
871.619	5121
871.749	5143
871.879	5174
872.008	5265
872.138	5060
872.267	5045
872.397	4938
872.526	4839
872.656	4786
872.785	4786
872.915	4991
873.044	5048
873.173	5014
873.303	5064
873.432	4972
873.561	5041
873.69	4991
873.819	4862
873.948	4961
874.077	4885
874.206	4793
874.335	4866
874.464	4995
874.593	5128
874.722	5010
874.851	5143
874.979	5117
875.108	5094
875.237	4984
875.365	4927
875.494	4908
875.623	5010
875.751	4892
875.88	4942
876.008	5045
876.136	5075
876.265	5277
876.393	5391
876.521	5284
876.65	5265
876.778	5212
876.906	5113
877.034	5052
877.162	5086
877.29	5041
877.418	5098
877.546	5090
877.674	5064
877.802	5079
877.93	5006
878.058	4991
878.185	4942
878.313	5029
878.441	5006
878.568	4900
878.696	4915
878.824	5025
878.951	5037
879.079	5185
879.206	5311
879.333	5143
879.461	4961
879.588	5048
879.715	5170
879.842	5204
879.97	5022
880.097	4816
880.224	4839
880.351	4843
880.478	4885
880.605	4900
880.732	4816
880.859	5060
880.986	4930
881.112	4946
881.239	4797
881.366	4702
881.493	4607
881.619	4637
881.746	4634
881.872	4675
881.999	4679
882.125	4714
882.252	4843
882.378	4866
882.505	5014
882.631	4877
882.757	4706
882.883	4797
883.01	4740
883.136	4641
883.262	4618
883.388	4664
883.514	4850
883.64	4911
883.766	4870
883.892	4736
884.018	4771
884.143	4919
884.269	4999
884.395	4748
884.52	4634
884.646	4641
884.772	4630
884.897	4592
885.023	4691
885.148	4805
885.274	4919
885.399	4877
885.524	4763
885.65	4740
885.775	4793
885.9	4736
886.025	4881
886.15	4824
886.275	4786
886.4	4649
886.525	4763
886.65	4729
886.775	4698
886.9	4904
887.025	5041
887.149	4900
887.274	4717
887.399	4592
887.523	4611
887.648	4641
887.773	4561
887.897	4820
888.021	4774
888.146	4736
888.27	4873
888.395	4927
888.519	4850
888.643	4839
888.767	4847
888.891	4706
889.015	4679
889.139	4645
889.263	4573
889.387	4786
889.511	4911
889.635	4877
889.759	4656
889.883	4672
890.006	4790
890.13	4839
890.254	4649
890.377	4675
890.501	4565
890.624	4558
890.748	4653
890.871	4489
890.995	4443
891.118	4436
891.241	4554
891.364	4546
891.488	4672
891.611	4588
891.734	4531
891.857	4611
891.98	4611
892.103	4714
892.226	4622
892.349	4611
892.471	4455
892.594	4599
892.717	4660
892.839	4542
892.962	4618
893.085	4691
893.207	4637
893.33	4504
893.452	4569
893.575	4668
893.697	4573
893.819	4820
893.941	4866
894.064	4812
894.186	4580
894.308	4558
894.43	4755
894.552	4805
894.674	4797
894.796	4527
894.918	4615
895.04	4626
895.161	4748
895.283	4668
895.405	4611
895.526	4637
895.648	4714
895.769	4782
895.891	4721
896.012	4786
896.134	4755
896.255	4691
896.376	4698
896.498	4618
896.619	4714
896.74	4664
896.861	4645
896.982	4911
897.103	5140
897.224	4870
897.345	4771
897.466	4710
897.587	4793
897.708	4881
897.828	4843
897.949	4679
898.07	4577
898.19	4675
898.311	4885
898.431	4683
898.552	4759
898.672	4866
898.792	4843
898.913	4763
899.033	4653
899.153	4489
899.273	4413
899.393	4554
899.513	4519
899.633	4535
899.753	4531
899.873	4523
899.993	4584
900.113	4512
900.232	4611
900.352	4519
900.472	4493
900.591	4478
900.711	4546
900.83	4478
900.95	4645
901.069	4698
901.189	4561
901.308	4360
901.427	4322
901.546	4424
901.665	4462
901.784	4519
901.904	4428
902.023	4356
902.141	4265
902.26	4192
902.379	4295
902.498	4276
902.617	4246
902.735	4352
902.854	4417
902.973	4386
903.091	4196
903.21	4238
903.328	4360
903.446	4299
903.565	4268
903.683	4379
903.801	4333
903.919	4417
904.038	4447
904.156	4318
904.274	4443
904.392	4459
904.51	4436
904.627	4481
904.745	4577
904.863	4664
904.981	4428
905.098	4341
905.216	4390
905.334	4462
905.451	4436
905.569	4512
905.686	4561
905.803	4588
905.921	4466
906.038	4546
906.155	4481
906.272	4375
906.389	4455
906.506	4394
906.623	4413
906.74	4451
906.857	4363
906.974	4333
907.091	4615
907.208	4645
907.324	4611
907.441	4512
907.557	4356
907.674	4383
907.79	4375
907.907	4398
908.023	4485
908.139	4554
908.256	4478
908.372	4508
908.488	4424
908.604	4375
908.72	4352
908.836	4394
908.952	4413
909.068	4451
909.184	4634
909.3	4527
909.415	4622
909.531	4592
909.647	4363
909.762	4421
909.878	4375
909.993	4497
910.108	4413
910.224	4455
910.339	4466
910.454	4413
910.57	4379
910.685	4371
910.8	4630
910.915	4611
911.03	4577
911.145	4322
911.259	4386
911.374	4417
911.489	4322
911.604	4265
911.718	4200
911.833	4257
911.947	4067
912.062	4025
912.176	4238
912.291	4246
912.405	4272
912.519	4523
912.633	4493
912.748	4413
912.862	4322
912.976	4207
913.09	4090
913.204	4200
913.318	4280
913.431	4424
913.545	4390
913.659	4455
913.772	4371
913.886	4284
914	4280
914.113	4421
914.226	4459
914.34	4421
914.453	4314
914.566	4447
914.68	4310
914.793	4413
914.906	4181
915.019	4173
915.132	4101
915.245	4230
915.358	4249
915.47	4219
915.583	4314
915.696	4303
915.809	4398
915.921	4428
916.034	4310
916.146	4257
916.259	4257
916.371	4417
916.483	4405
916.595	4280
916.708	4314
916.82	4333
916.932	4375
917.044	4329
917.156	4367
917.268	4257
917.38	4348
917.491	4287
917.603	4375
917.715	4413
917.826	4489
917.938	4398
918.049	4242
918.161	4424
918.272	4630
918.384	4550
918.495	4466
918.606	4356
918.717	4291
918.828	4375
918.939	4394
919.05	4295
919.161	4341
919.272	4166
919.383	4261
919.494	4466
919.604	4630
919.715	4497
919.826	4348
919.936	4379
920.047	4542
920.157	4546
920.267	4774
920.378	4630
920.488	4538
920.598	4740
920.708	4885
920.818	4778
920.928	4782
921.038	4946
921.148	4934
921.258	4656
921.368	4580
921.477	4470
921.587	4538
921.697	4405
921.806	4588
921.916	4500
922.025	4337
922.134	4253
922.244	4257
922.353	4303
922.462	4200
922.571	4131
922.68	4074
922.789	4010
922.898	4048
923.007	4067
923.116	4139
923.224	4120
923.333	4109
923.442	4032
923.55	4017
923.659	4044
923.767	4147
923.876	4044
923.984	4177
924.092	4010
924.201	4128
924.309	4082
924.417	4158
924.525	4040
924.633	4086
924.741	4911
924.849	3918
924.956	4154
925.064	3991
925.172	3918
925.279	4017
925.387	4093
925.494	4059
925.602	4280
925.709	4227
925.816	4036
925.924	4158
926.031	4268
926.138	4181
926.245	4238
926.352	4082
926.459	4291
926.566	4310
926.673	4230
926.779	4109
926.886	4101
926.993	3987
927.099	4032
927.206	3941
927.312	4010
927.419	4109
927.525	4055
927.631	4071
927.737	3979
927.843	3968
927.95	3896
928.056	3991
928.162	4032
928.267	4082
928.373	4759
928.479	4158
928.585	3899
928.69	4017
928.796	4093
928.901	3979
929.007	3899
929.112	3998
929.218	4006
929.323	3968
929.428	3975
929.533	4120
929.638	3937
929.743	3979
929.848	4112
929.953	4051
930.058	3937
930.163	3827
930.267	3838
930.372	3956
930.477	3827
930.581	4150
930.685	3945
930.79	3797
930.894	3896
930.998	3903
931.103	4074
931.207	3751
931.311	3724
931.415	3717
931.519	3557
931.623	3564
