Data from test_V78500241_2181.txt Node
Date: Fri Mar 25 17:04:10 CST 2022
User: usil
Spectrometer: V785-0024
Trigger mode: 0
Integration Time (sec): 4.000000E-1
Scans to average: 1
Nonlinearity correction enabled: false
Boxcar width: 0
Storing dark spectrum: false
XAxis mode: Wavelengths
Number of Pixels in Spectrum: 1024
>>>>>Begin Spectral Data<<<<<
801.071	7997
801.214	7989
801.356	7826
801.499	7811
801.641	7780
801.783	7795
801.926	7913
802.068	7906
802.211	7993
802.353	8005
802.496	7811
802.638	7818
802.78	7852
802.923	7852
803.065	7890
803.208	7856
803.35	7906
803.492	8115
803.635	8134
803.777	8081
803.919	8081
804.061	8408
804.204	8111
804.346	8008
804.488	7970
804.63	8058
804.773	8020
804.915	8073
805.057	8282
805.199	8126
805.341	8134
805.483	8282
805.626	8168
805.768	8134
805.91	8218
806.052	8206
806.194	8111
806.336	8252
806.478	8046
806.62	8039
806.762	8115
806.904	8259
807.046	8408
807.188	8393
807.33	8336
807.472	8324
807.614	8149
807.756	8183
807.898	7982
808.04	7906
808.182	7856
808.324	7852
808.465	7921
808.607	8058
808.749	8077
808.891	8214
809.033	8309
809.174	8134
809.316	8096
809.458	8062
809.6	7947
809.741	8050
809.883	7989
810.025	8077
810.166	8031
810.308	8027
810.45	7944
810.591	7830
810.733	7715
810.875	7655
811.016	7468
811.158	7491
811.299	7582
811.441	7674
811.582	7636
811.724	7502
811.865	7529
812.007	7586
812.148	7628
812.29	7624
812.431	7795
812.573	7868
812.714	7974
812.855	8172
812.997	8153
813.138	8275
813.279	8126
813.421	8043
813.562	7936
813.703	7849
813.845	7704
813.986	7403
814.127	7225
814.268	7190
814.41	7084
814.551	7164
814.692	7198
814.833	7072
814.974	7088
815.115	7057
815.256	6954
815.397	6954
815.539	6924
815.68	6833
815.821	6734
815.962	6913
816.103	6791
816.244	6711
816.385	6566
816.526	6612
816.666	6509
816.807	6266
816.948	6426
817.089	6467
817.23	6410
817.371	6346
817.512	6391
817.653	6384
817.793	6391
817.934	6384
818.075	6410
818.216	6483
818.356	6410
818.497	6232
818.638	6114
818.778	6140
818.919	6083
819.06	6186
819.2	6285
819.341	6289
819.481	6350
819.622	6475
819.762	6669
819.903	6703
820.043	6559
820.184	6555
820.324	6623
820.465	6604
820.605	6700
820.746	6650
820.886	6448
821.026	6631
821.167	6669
821.307	6753
821.447	6700
821.588	6631
821.728	6547
821.868	6498
822.008	6350
822.149	6292
822.289	6327
822.429	6163
822.569	6068
822.709	6155
822.849	5958
822.99	5920
823.13	5980
823.27	5958
823.41	5775
823.55	5817
823.69	5745
823.83	5764
823.97	5649
824.11	5570
824.25	5543
824.389	5535
824.529	5562
824.669	5562
824.809	5592
824.949	5733
825.089	5668
825.228	5627
825.368	5433
825.508	5322
825.648	5376
825.787	5395
825.927	5364
826.067	5326
826.206	5311
826.346	5429
826.485	5440
826.625	5425
826.765	5627
826.904	5573
827.044	5280
827.183	5280
827.323	5174
827.462	5318
827.601	5185
827.741	5227
827.88	5261
828.02	5109
828.159	5265
828.298	5299
828.437	5395
828.577	5315
828.716	5566
828.855	5360
828.994	5220
829.134	5159
829.273	5220
829.412	5201
829.551	5185
829.69	5265
829.829	5235
829.968	5345
830.107	5353
830.246	5326
830.385	5239
830.524	5193
830.663	5102
830.802	5014
830.941	4942
831.08	4908
831.219	4999
831.357	5033
831.496	5227
831.635	4972
831.774	4824
831.913	4930
832.051	4729
832.19	4801
832.329	4881
832.467	4767
832.606	4687
832.744	4774
832.883	4759
833.022	4790
833.16	4843
833.299	4847
833.437	4862
833.576	4870
833.714	4930
833.852	4866
833.991	4927
834.129	4995
834.267	4995
834.406	4949
834.544	5006
834.682	5018
834.821	4968
834.959	5181
835.097	5033
835.235	5140
835.373	5067
835.511	5181
835.65	5056
835.788	5086
835.926	4881
836.064	4911
836.202	4949
836.34	5181
836.478	5227
836.615	5159
836.753	5242
836.891	5334
837.029	5318
837.167	5185
837.305	5178
837.443	5147
837.58	5132
837.718	5254
837.856	5235
837.993	5178
838.131	5261
838.269	5318
838.406	5261
838.544	5212
838.681	5094
838.819	5083
838.956	4930
839.094	4896
839.231	5018
839.369	5178
839.506	5440
839.643	5273
839.781	5060
839.918	5029
840.055	5105
840.193	5109
840.33	5151
840.467	5174
840.604	5250
840.742	5474
840.879	5147
841.016	5113
841.153	5185
841.29	5410
841.427	5372
841.564	5337
841.701	5410
841.838	5315
841.975	5299
842.112	5292
842.249	5162
842.385	5147
842.522	5395
842.659	5181
842.796	5140
842.933	5155
843.069	5162
843.206	5178
843.343	5357
843.479	5277
843.616	5303
843.752	5014
843.889	5037
844.025	5208
844.162	5022
844.298	5296
844.435	5090
844.571	5113
844.708	5254
844.844	5383
844.98	5353
845.117	5277
845.253	5159
845.389	5079
845.525	5189
845.661	5201
845.798	5048
845.934	5162
846.07	5048
846.206	5201
846.342	5315
846.478	5178
846.614	5029
846.75	4965
846.886	4968
847.022	5166
847.158	5056
847.294	5117
847.429	5121
847.565	5056
847.701	5288
847.837	4873
847.972	4831
848.108	4999
848.244	4984
848.379	4828
848.515	4778
848.65	4748
848.786	4835
848.921	4835
849.057	4908
849.192	4934
849.328	4870
849.463	4862
849.598	4809
849.734	4831
849.869	4721
850.004	4691
850.14	4706
850.275	4691
850.41	4569
850.545	4607
850.68	4637
850.815	4645
850.95	4675
851.085	4805
851.22	4759
851.355	4694
851.49	4626
851.625	4664
851.76	4641
851.895	4592
852.03	4554
852.165	4694
852.299	4771
852.434	4835
852.569	4797
852.703	4816
852.838	4900
852.973	4957
853.107	4915
853.242	4778
853.376	4710
853.511	4607
853.645	4618
853.78	4847
853.914	4729
854.048	4687
854.183	4694
854.317	4691
854.451	4839
854.585	4691
854.72	4698
854.854	4729
854.988	4607
855.122	4615
855.256	4519
855.39	4706
855.524	4854
855.658	4740
855.792	4710
855.926	4733
856.06	4812
856.194	4835
856.327	4672
856.461	4637
856.595	4641
856.729	4698
856.862	4774
856.996	4694
857.13	4771
857.263	4790
857.397	4900
857.53	4664
857.664	4771
857.797	4824
857.931	4858
858.064	4763
858.197	4767
858.331	4649
858.464	4702
858.597	4535
858.731	4668
858.864	4683
858.997	4603
859.13	4729
859.263	4736
859.396	4710
859.529	4603
859.662	4592
859.795	4569
859.928	4607
860.061	4782
860.194	4797
860.327	4634
860.46	4596
860.592	4748
860.725	4729
860.858	4714
860.99	4596
861.123	4565
861.256	4550
861.388	4634
861.521	5425
861.653	4569
861.786	4497
861.918	4504
862.05	4500
862.183	4607
862.315	4630
862.447	4645
862.58	4599
862.712	4413
862.844	4352
862.976	4523
863.108	4485
863.24	4782
863.372	4390
863.504	4409
863.636	4409
863.768	4558
863.9	4440
864.032	4417
864.164	4455
864.296	4527
864.428	4565
864.559	4558
864.691	4577
864.823	4550
864.954	4497
865.086	4542
865.217	4504
865.349	4405
865.48	4459
865.612	4485
865.743	4653
865.875	4527
866.006	4470
866.137	4478
866.269	4459
866.4	4459
866.531	4447
866.662	4413
866.793	4474
866.924	4428
867.055	4516
867.186	4459
867.317	4455
867.448	4356
867.579	4432
867.71	4424
867.841	4413
867.972	4481
868.103	4504
868.233	4459
868.364	4470
868.495	4481
868.625	4687
868.756	4786
868.886	4615
869.017	4660
869.147	4812
869.278	4793
869.408	4660
869.539	4687
869.669	4725
869.799	4660
869.929	4771
870.06	4755
870.19	4976
870.32	4881
870.45	4953
870.58	4972
870.71	5094
870.84	5109
870.97	5003
871.1	4927
871.23	5166
871.36	5102
871.489	5075
871.619	5147
871.749	5117
871.879	5143
872.008	5204
872.138	5113
872.267	4995
872.397	4881
872.526	4862
872.656	4752
872.785	4820
872.915	5022
873.044	5079
873.173	4984
873.303	4984
873.432	4972
873.561	4987
873.69	4919
873.819	4877
873.948	4915
874.077	4885
874.206	4771
874.335	4812
874.464	4984
874.593	5067
874.722	4946
874.851	5170
874.979	5102
875.108	5079
875.237	4915
875.365	4877
875.494	4904
875.623	5048
875.751	4873
875.88	4900
876.008	4968
876.136	5052
876.265	5250
876.393	5383
876.521	5273
876.65	5265
876.778	5181
876.906	5136
877.034	5056
877.162	5067
877.29	5033
877.418	5064
877.546	5045
877.674	5079
877.802	5147
877.93	5045
878.058	4980
878.185	4900
878.313	4980
878.441	4980
878.568	4843
878.696	4919
878.824	4976
878.951	5006
879.079	5136
879.206	5303
879.333	5090
879.461	4999
879.588	5045
879.715	5113
879.842	5292
879.97	5029
880.097	4820
880.224	4824
880.351	4850
880.478	4866
880.605	4790
880.732	4839
880.859	5132
880.986	4942
881.112	4885
881.239	4809
881.366	4702
881.493	4641
881.619	4637
881.746	4653
881.872	4634
881.999	4660
882.125	4660
882.252	4782
882.378	4877
882.505	4980
882.631	4809
882.757	4706
882.883	4774
883.01	4744
883.136	4672
883.262	4569
883.388	4656
883.514	4824
883.64	4831
883.766	4839
883.892	4672
884.018	4717
884.143	4889
884.269	5003
884.395	4725
884.52	4656
884.646	4660
884.772	4596
884.897	4565
885.023	4691
885.148	4839
885.274	4858
885.399	4850
885.524	4736
885.65	4755
885.775	4767
885.9	4721
886.025	4892
886.15	4816
886.275	4740
886.4	4637
886.525	4748
886.65	4736
886.775	4698
886.9	4873
887.025	5056
887.149	4858
887.274	4691
887.399	4596
887.523	4622
887.648	4607
887.773	4634
887.897	4786
888.021	4812
888.146	4702
888.27	4824
888.395	4942
888.519	4835
888.643	4839
888.767	4854
888.891	4763
889.015	4618
889.139	4691
889.263	4618
889.387	4778
889.511	4908
889.635	4824
889.759	4637
889.883	4691
890.006	4717
890.13	4801
890.254	4668
890.377	4698
890.501	4538
890.624	4523
890.748	4618
890.871	4512
890.995	4455
891.118	4413
891.241	4538
891.364	4573
891.488	4637
891.611	4497
891.734	4542
891.857	4599
891.98	4558
892.103	4599
892.226	4596
892.349	4569
892.471	4455
892.594	4565
892.717	4622
892.839	4561
892.962	4565
893.085	4653
893.207	4630
893.33	4451
893.452	4565
893.575	4645
893.697	4626
893.819	4786
893.941	4850
894.064	4748
894.186	4603
894.308	4615
894.43	4752
894.552	4816
894.674	4740
894.796	4596
894.918	4611
895.04	4512
895.161	4706
895.283	4672
895.405	4573
895.526	4656
895.648	4694
895.769	4736
895.891	4717
896.012	4744
896.134	4752
896.255	4664
896.376	4618
896.498	4637
896.619	4687
896.74	4649
896.861	4702
896.982	4946
897.103	5079
897.224	4835
897.345	4790
897.466	4645
897.587	4714
897.708	4831
897.828	4771
897.949	4668
898.07	4565
898.19	4641
898.311	4824
898.431	4687
898.552	4691
898.672	4812
898.792	4828
898.913	4755
899.033	4691
899.153	4554
899.273	4459
899.393	4497
899.513	4497
899.633	4577
899.753	4565
899.873	4481
899.993	4603
900.113	4546
900.232	4588
900.352	4584
900.472	4535
900.591	4386
900.711	4470
900.83	4424
900.95	4645
901.069	4664
901.189	4573
901.308	4390
901.427	4299
901.546	4379
901.665	4481
901.784	4554
901.904	4398
902.023	4276
902.141	4227
902.26	4169
902.379	4284
902.498	4257
902.617	4207
902.735	4390
902.854	4428
902.973	4371
903.091	4192
903.21	4204
903.328	4337
903.446	4246
903.565	4265
903.683	4344
903.801	4272
903.919	4337
904.038	4421
904.156	4306
904.274	4436
904.392	4398
904.51	4443
904.627	4447
904.745	4599
904.863	4653
904.981	4409
905.098	4303
905.216	4363
905.334	4500
905.451	4462
905.569	4447
905.686	4577
905.803	4580
905.921	4398
906.038	4554
906.155	4497
906.272	4352
906.389	4504
906.506	4383
906.623	4428
906.74	4383
906.857	4329
906.974	4371
907.091	4531
907.208	4683
907.324	4599
907.441	4497
907.557	4352
907.674	4379
907.79	4314
907.907	4417
908.023	4462
908.139	4478
908.256	4462
908.372	4489
908.488	4440
908.604	4344
908.72	4329
908.836	4386
908.952	4405
909.068	4402
909.184	4607
909.3	4523
909.415	4596
909.531	4538
909.647	4348
909.762	4371
909.878	4344
909.993	4462
910.108	4421
910.224	4440
910.339	4447
910.454	4436
910.57	4356
910.685	4318
910.8	4656
910.915	4538
911.03	4550
911.145	4299
911.259	4337
911.374	4348
911.489	4325
911.604	4287
911.718	4196
911.833	4215
911.947	4097
912.062	4021
912.176	4265
912.291	4227
912.405	4272
912.519	4500
912.633	4554
912.748	4443
912.862	4348
912.976	4169
913.09	4131
913.204	4147
913.318	4230
913.431	4367
913.545	4337
913.659	4440
913.772	4386
913.886	4249
914	4246
914.113	4375
914.226	4413
914.34	4360
914.453	4246
914.566	4424
914.68	4284
914.793	4325
914.906	4154
915.019	4090
915.132	4051
915.245	4200
915.358	4196
915.47	4204
915.583	4291
915.696	4280
915.809	4436
915.921	4398
916.034	4295
916.146	4253
916.259	4238
916.371	4379
916.483	4310
916.595	4257
916.708	4287
916.82	4306
916.932	4329
917.044	4325
917.156	4310
917.268	4219
917.38	4295
917.491	4265
917.603	4318
917.715	4424
917.826	4470
917.938	4344
918.049	4188
918.161	4371
918.272	4508
918.384	4550
918.495	4436
918.606	4284
918.717	4253
918.828	4348
918.939	4363
919.05	4246
919.161	4318
919.272	4086
919.383	4215
919.494	4440
919.604	4656
919.715	4451
919.826	4356
919.936	4443
920.047	4504
920.157	4493
920.267	4672
920.378	4550
920.488	4523
920.598	4668
920.708	4908
920.818	4729
920.928	4748
921.038	4946
921.148	4896
921.258	4618
921.368	4550
921.477	4508
921.587	4466
921.697	4371
921.806	4504
921.916	4451
922.025	4246
922.134	4234
922.244	4207
922.353	4325
922.462	4162
922.571	4101
922.68	4006
922.789	3934
922.898	4017
923.007	3987
923.116	4109
923.224	4051
923.333	4040
923.442	4017
923.55	3964
923.659	4086
923.767	4067
923.876	3953
923.984	4120
924.092	4017
924.201	4071
924.309	4093
924.417	4112
924.525	4059
924.633	4131
924.741	5094
924.849	3918
924.956	4090
925.064	3903
925.172	3865
925.279	3972
925.387	4044
925.494	4032
925.602	4215
925.709	4181
925.816	4071
925.924	4120
926.031	4257
926.138	4181
926.245	4207
926.352	4097
926.459	4181
926.566	4303
926.673	4139
926.779	4071
926.886	4013
926.993	4029
927.099	3937
927.206	3915
927.312	3979
927.419	4086
927.525	4063
927.631	4105
927.737	3994
927.843	3903
927.95	3816
928.056	3949
928.162	3972
928.267	4010
928.373	4656
928.479	4097
928.585	3884
928.69	3998
928.796	4090
928.901	3975
929.007	3873
929.112	3994
929.218	3964
929.323	3964
929.428	3953
929.533	4097
929.638	3956
929.743	3991
929.848	4078
929.953	4013
930.058	3930
930.163	3789
930.267	3827
930.372	3998
930.477	3823
930.581	4082
930.685	3949
930.79	3804
930.894	3857
930.998	3819
931.103	4017
931.207	3724
931.311	3732
931.415	3701
931.519	3488
931.623	3576
