Data from test_V78500241_831.txt Node
Date: Fri Mar 25 16:54:46 CST 2022
User: usil
Spectrometer: V785-0024
Trigger mode: 0
Integration Time (sec): 4.000000E-1
Scans to average: 1
Nonlinearity correction enabled: false
Boxcar width: 0
Storing dark spectrum: false
XAxis mode: Wavelengths
Number of Pixels in Spectrum: 1024
>>>>>Begin Spectral Data<<<<<
801.071	7993
801.214	7989
801.356	7864
801.499	7830
801.641	7792
801.783	7795
801.926	7974
802.068	7951
802.211	7955
802.353	7947
802.496	7833
802.638	7898
802.78	7849
802.923	7906
803.065	7913
803.208	7864
803.35	8039
803.492	8073
803.635	8218
803.777	8016
803.919	8103
804.061	8385
804.204	8123
804.346	8039
804.488	7970
804.63	8100
804.773	7986
804.915	8111
805.057	8202
805.199	8138
805.341	8259
805.483	8202
805.626	8187
805.768	8119
805.91	8176
806.052	8164
806.194	8119
806.336	8206
806.478	8130
806.62	8058
806.762	8111
806.904	8256
807.046	8450
807.188	8362
807.33	8267
807.472	8358
807.614	8149
807.756	8092
807.898	7947
808.04	7875
808.182	7974
808.324	7852
808.465	7894
808.607	8001
808.749	8065
808.891	8145
809.033	8324
809.174	8206
809.316	8065
809.458	7970
809.6	7944
809.741	7993
809.883	8012
810.025	8092
810.166	8027
810.308	8005
810.45	8005
810.591	7917
810.733	7715
810.875	7643
811.016	7525
811.158	7495
811.299	7594
811.441	7651
811.582	7750
811.724	7540
811.865	7476
812.007	7582
812.148	7529
812.29	7636
812.431	7677
812.573	7795
812.714	7951
812.855	8123
812.997	8183
813.138	8221
813.279	8149
813.421	8126
813.562	8001
813.703	7879
813.845	7818
813.986	7495
814.127	7297
814.268	7251
814.41	7187
814.551	7126
814.692	7080
814.833	7034
814.974	7076
815.115	7103
815.256	6890
815.397	6947
815.539	6993
815.68	6776
815.821	6764
815.962	6852
816.103	6821
816.244	6654
816.385	6612
816.526	6604
816.666	6460
816.807	6254
816.948	6422
817.089	6464
817.23	6426
817.371	6331
817.512	6376
817.653	6353
817.793	6346
817.934	6452
818.075	6372
818.216	6410
818.356	6422
818.497	6235
818.638	6110
818.778	6087
818.919	6060
819.06	6155
819.2	6277
819.341	6311
819.481	6391
819.622	6563
819.762	6665
819.903	6726
820.043	6582
820.184	6528
820.324	6532
820.465	6604
820.605	6669
820.746	6585
820.886	6536
821.026	6623
821.167	6715
821.307	6722
821.447	6719
821.588	6608
821.728	6555
821.868	6437
822.008	6319
822.149	6346
822.289	6308
822.429	6152
822.569	6098
822.709	6140
822.849	5832
822.99	5908
823.13	5893
823.27	5863
823.41	5817
823.55	5844
823.69	5745
823.83	5748
823.97	5665
824.11	5547
824.25	5520
824.389	5554
824.529	5611
824.669	5547
824.809	5649
824.949	5653
825.089	5600
825.228	5505
825.368	5360
825.508	5345
825.648	5330
825.787	5337
825.927	5341
826.067	5277
826.206	5250
826.346	5410
826.485	5360
826.625	5376
826.765	5535
826.904	5467
827.044	5284
827.183	5193
827.323	5056
827.462	5212
827.601	5147
827.741	5143
827.88	5235
828.02	5071
828.159	5220
828.298	5223
828.437	5383
828.577	5307
828.716	5486
828.855	5307
828.994	5136
829.134	5151
829.273	5178
829.412	5121
829.551	5121
829.69	5166
829.829	5223
829.968	5391
830.107	5269
830.246	5254
830.385	5105
830.524	5117
830.663	5052
830.802	4980
830.941	4885
831.08	4896
831.219	4987
831.357	4987
831.496	5162
831.635	4900
831.774	4820
831.913	4812
832.051	4725
832.19	4729
832.329	4854
832.467	4656
832.606	4637
832.744	4759
832.883	4740
833.022	4725
833.16	4763
833.299	4793
833.437	4782
833.576	4843
833.714	4862
833.852	4885
833.991	4873
834.129	4919
834.267	4919
834.406	4850
834.544	4972
834.682	4965
834.821	4999
834.959	5170
835.097	4984
835.235	5090
835.373	5079
835.511	5086
835.65	5018
835.788	5018
835.926	4908
836.064	4862
836.202	4900
836.34	5178
836.478	5193
836.615	5140
836.753	5170
836.891	5311
837.029	5269
837.167	5170
837.305	5151
837.443	5159
837.58	5052
837.718	5223
837.856	5197
837.993	5170
838.131	5231
838.269	5155
838.406	5124
838.544	5140
838.681	5022
838.819	5067
838.956	4877
839.094	4904
839.231	4976
839.369	5098
839.506	5376
839.643	5261
839.781	5048
839.918	5014
840.055	5052
840.193	5098
840.33	5098
840.467	5090
840.604	5231
840.742	5455
840.879	5102
841.016	5025
841.153	5102
841.29	5368
841.427	5341
841.564	5296
841.701	5322
841.838	5284
841.975	5223
842.112	5258
842.249	5128
842.385	5090
842.522	5337
842.659	5159
842.796	5155
842.933	5204
843.069	5136
843.206	5201
843.343	5284
843.479	5181
843.616	5201
843.752	5052
843.889	5029
844.025	5197
844.162	4934
844.298	5178
844.435	5060
844.571	5075
844.708	5185
844.844	5277
844.98	5341
845.117	5318
845.253	5060
845.389	5064
845.525	5143
845.661	5090
845.798	5060
845.934	5102
846.07	5048
846.206	5174
846.342	5235
846.478	5185
846.614	5003
846.75	4949
846.886	4938
847.022	5132
847.158	5010
847.294	5056
847.429	5094
847.565	4987
847.701	5337
847.837	4824
847.972	4824
848.108	4934
848.244	4942
848.379	4782
848.515	4653
848.65	4679
848.786	4759
848.921	4767
849.057	4866
849.192	4870
849.328	4839
849.463	4839
849.598	4801
849.734	4706
849.869	4649
850.004	4618
850.14	4660
850.275	4577
850.41	4542
850.545	4554
850.68	4611
850.815	4603
850.95	4607
851.085	4812
851.22	4702
851.355	4641
851.49	4588
851.625	4607
851.76	4634
851.895	4538
852.03	4596
852.165	4603
852.299	4702
852.434	4729
852.569	4687
852.703	4767
852.838	4809
852.973	4911
853.107	4908
853.242	4778
853.376	4668
853.511	4584
853.645	4634
853.78	4736
853.914	4702
854.048	4706
854.183	4618
854.317	4683
854.451	4854
854.585	4664
854.72	4603
854.854	4755
854.988	4538
855.122	4618
855.256	4527
855.39	4611
855.524	4782
855.658	4691
855.792	4706
855.926	4721
856.06	4771
856.194	4831
856.327	4668
856.461	4618
856.595	4656
856.729	4603
856.862	4736
856.996	4675
857.13	4729
857.263	4763
857.397	4805
857.53	4637
857.664	4694
857.797	4767
857.931	4782
858.064	4675
858.197	4733
858.331	4656
858.464	4584
858.597	4485
858.731	4607
858.864	4653
858.997	4569
859.13	4668
859.263	4653
859.396	4660
859.529	4569
859.662	4573
859.795	4550
859.928	4660
860.061	4733
860.194	4733
860.327	4626
860.46	4599
860.592	4698
860.725	4672
860.858	4733
860.99	4542
861.123	4493
861.256	4531
861.388	4649
861.521	5299
861.653	4485
861.786	4424
861.918	4455
862.05	4478
862.183	4561
862.315	4580
862.447	4618
862.58	4531
862.712	4398
862.844	4325
862.976	4481
863.108	4459
863.24	4759
863.372	4352
863.504	4436
863.636	4379
863.768	4470
863.9	4481
864.032	4363
864.164	4379
864.296	4455
864.428	4569
864.559	4565
864.691	4493
864.823	4516
864.954	4466
865.086	4478
865.217	4428
865.349	4398
865.48	4424
865.612	4478
865.743	4599
865.875	4462
866.006	4398
866.137	4447
866.269	4466
866.4	4394
866.531	4443
866.662	4379
866.793	4402
866.924	4428
867.055	4451
867.186	4421
867.317	4413
867.448	4318
867.579	4409
867.71	4348
867.841	4367
867.972	4436
868.103	4459
868.233	4459
868.364	4383
868.495	4470
868.625	4656
868.756	4763
868.886	4592
869.017	4660
869.147	4790
869.278	4778
869.408	4641
869.539	4656
869.669	4733
869.799	4634
869.929	4752
870.06	4664
870.19	4942
870.32	4946
870.45	4911
870.58	5075
870.71	5033
870.84	5102
870.97	4889
871.1	4896
871.23	5143
871.36	5086
871.489	4991
871.619	5045
871.749	5071
871.879	5155
872.008	5147
872.138	5018
872.267	4976
872.397	4805
872.526	4797
872.656	4656
872.785	4797
872.915	4915
873.044	4991
873.173	4915
873.303	4923
873.432	4965
873.561	4946
873.69	4908
873.819	4847
873.948	4900
874.077	4809
874.206	4752
874.335	4771
874.464	4908
874.593	5079
874.722	4991
874.851	5083
874.979	5079
875.108	4999
875.237	4946
875.365	4915
875.494	4854
875.623	4942
875.751	4809
875.88	4946
876.008	4965
876.136	4995
876.265	5201
876.393	5307
876.521	5193
876.65	5212
876.778	5147
876.906	5010
877.034	5067
877.162	5018
877.29	4930
877.418	5067
877.546	5029
877.674	5029
877.802	4949
877.93	4984
878.058	4915
878.185	4870
878.313	4919
878.441	4957
878.568	4786
878.696	4870
878.824	4961
878.951	5010
879.079	5162
879.206	5288
879.333	5090
879.461	4961
879.588	5033
879.715	5117
879.842	5185
879.97	5025
880.097	4752
880.224	4752
880.351	4786
880.478	4774
880.605	4820
880.732	4740
880.859	5003
880.986	4896
881.112	4961
881.239	4763
881.366	4675
881.493	4596
881.619	4577
881.746	4660
881.872	4615
881.999	4675
882.125	4691
882.252	4790
882.378	4797
882.505	4908
882.631	4744
882.757	4683
882.883	4736
883.01	4714
883.136	4653
883.262	4641
883.388	4554
883.514	4816
883.64	4889
883.766	4774
883.892	4679
884.018	4698
884.143	4892
884.269	5037
884.395	4687
884.52	4588
884.646	4672
884.772	4561
884.897	4588
885.023	4698
885.148	4790
885.274	4786
885.399	4778
885.524	4740
885.65	4660
885.775	4706
885.9	4710
886.025	4816
886.15	4763
886.275	4740
886.4	4630
886.525	4729
886.65	4645
886.775	4664
886.9	4923
887.025	5060
887.149	4771
887.274	4653
887.399	4596
887.523	4637
887.648	4596
887.773	4573
887.897	4767
888.021	4717
888.146	4691
888.27	4805
888.395	4870
888.519	4782
888.643	4801
888.767	4778
888.891	4664
889.015	4588
889.139	4645
889.263	4565
889.387	4767
889.511	4835
889.635	4736
889.759	4596
889.883	4641
890.006	4729
890.13	4805
890.254	4637
890.377	4694
890.501	4527
890.624	4535
890.748	4622
890.871	4508
890.995	4466
891.118	4360
891.241	4508
891.364	4558
891.488	4637
891.611	4489
891.734	4516
891.857	4577
891.98	4580
892.103	4622
892.226	4573
892.349	4519
892.471	4417
892.594	4478
892.717	4580
892.839	4584
892.962	4607
893.085	4721
893.207	4558
893.33	4424
893.452	4462
893.575	4675
893.697	4538
893.819	4809
893.941	4828
894.064	4778
894.186	4588
894.308	4558
894.43	4698
894.552	4782
894.674	4714
894.796	4504
894.918	4603
895.04	4607
895.161	4687
895.283	4607
895.405	4580
895.526	4546
895.648	4672
895.769	4687
895.891	4771
896.012	4668
896.134	4733
896.255	4641
896.376	4645
896.498	4558
896.619	4683
896.74	4622
896.861	4637
896.982	4877
897.103	5041
897.224	4824
897.345	4702
897.466	4675
897.587	4767
897.708	4904
897.828	4809
897.949	4622
898.07	4535
898.19	4637
898.311	4850
898.431	4645
898.552	4729
898.672	4835
898.792	4706
898.913	4710
899.033	4641
899.153	4516
899.273	4424
899.393	4489
899.513	4527
899.633	4527
899.753	4516
899.873	4516
899.993	4607
900.113	4531
900.232	4535
900.352	4546
900.472	4451
900.591	4329
900.711	4428
900.83	4421
900.95	4634
901.069	4649
901.189	4519
901.308	4383
901.427	4363
901.546	4375
901.665	4428
901.784	4531
901.904	4379
902.023	4303
902.141	4196
902.26	4192
902.379	4276
902.498	4265
902.617	4211
902.735	4352
902.854	4383
902.973	4371
903.091	4204
903.21	4188
903.328	4306
903.446	4276
903.565	4287
903.683	4352
903.801	4284
903.919	4405
904.038	4432
904.156	4318
904.274	4398
904.392	4394
904.51	4405
904.627	4421
904.745	4565
904.863	4596
904.981	4459
905.098	4268
905.216	4348
905.334	4402
905.451	4447
905.569	4417
905.686	4527
905.803	4588
905.921	4371
906.038	4512
906.155	4402
906.272	4352
906.389	4413
906.506	4352
906.623	4360
906.74	4352
906.857	4253
906.974	4360
907.091	4538
907.208	4660
907.324	4611
907.441	4512
907.557	4352
907.674	4344
907.79	4284
907.907	4409
908.023	4470
908.139	4470
908.256	4470
908.372	4485
908.488	4497
908.604	4360
908.72	4337
908.836	4390
908.952	4371
909.068	4432
909.184	4592
909.3	4481
909.415	4569
909.531	4535
909.647	4318
909.762	4314
909.878	4284
909.993	4379
910.108	4390
910.224	4386
910.339	4459
910.454	4428
910.57	4356
910.685	4310
910.8	4611
910.915	4592
911.03	4500
911.145	4333
911.259	4310
911.374	4413
911.489	4295
911.604	4242
911.718	4162
911.833	4215
911.947	4086
912.062	4002
912.176	4227
912.291	4227
912.405	4253
912.519	4455
912.633	4512
912.748	4402
912.862	4344
912.976	4234
913.09	4120
913.204	4185
913.318	4215
913.431	4325
913.545	4341
913.659	4428
913.772	4303
913.886	4261
914	4200
914.113	4402
914.226	4447
914.34	4394
914.453	4196
914.566	4443
914.68	4329
914.793	4280
914.906	4162
915.019	4105
915.132	4071
915.245	4200
915.358	4192
915.47	4268
915.583	4276
915.696	4234
915.809	4394
915.921	4379
916.034	4257
916.146	4268
916.259	4188
916.371	4379
916.483	4341
916.595	4242
916.708	4310
916.82	4291
916.932	4325
917.044	4253
917.156	4329
917.268	4196
917.38	4276
917.491	4230
917.603	4333
917.715	4394
917.826	4421
917.938	4371
918.049	4242
918.161	4428
918.272	4489
918.384	4527
918.495	4432
918.606	4341
918.717	4253
918.828	4303
918.939	4299
919.05	4219
919.161	4318
919.272	4109
919.383	4173
919.494	4402
919.604	4630
919.715	4413
919.826	4310
919.936	4348
920.047	4504
920.157	4500
920.267	4694
920.378	4596
920.488	4516
920.598	4721
920.708	4927
920.818	4755
920.928	4797
921.038	4885
921.148	4870
921.258	4634
921.368	4523
921.477	4497
921.587	4466
921.697	4402
921.806	4550
921.916	4421
922.025	4242
922.134	4261
922.244	4219
922.353	4367
922.462	4150
922.571	4158
922.68	3994
922.789	3991
922.898	4036
923.007	3968
923.116	4124
923.224	4025
923.333	4101
923.442	3983
923.55	3960
923.659	4021
923.767	4128
923.876	3994
923.984	4101
924.092	3987
924.201	4067
924.309	4078
924.417	4105
924.525	4036
924.633	4093
924.741	4900
924.849	3899
924.956	4101
925.064	3880
925.172	3892
925.279	3979
925.387	4051
925.494	4002
925.602	4211
925.709	4150
925.816	4044
925.924	4086
926.031	4196
926.138	4192
926.245	4162
926.352	4071
926.459	4230
926.566	4295
926.673	4158
926.779	4086
926.886	4082
926.993	3968
927.099	3956
927.206	3949
927.312	3911
927.419	4048
927.525	4032
927.631	4059
927.737	3930
927.843	3945
927.95	3850
928.056	3941
928.162	4036
928.267	4029
928.373	4622
928.479	4128
928.585	3884
928.69	4025
928.796	4124
928.901	3949
929.007	3793
929.112	4010
929.218	3953
929.323	3941
929.428	3899
929.533	4105
929.638	3854
929.743	3949
929.848	4051
929.953	3934
930.058	3876
930.163	3781
930.267	3797
930.372	3964
930.477	3797
930.581	4128
930.685	3953
930.79	3835
930.894	3907
930.998	3812
931.103	4017
931.207	3686
931.311	3694
931.415	3671
931.519	3504
931.623	3549
