Data from test_V78500241_2615.txt Node
Date: Fri Mar 25 17:07:11 CST 2022
User: usil
Spectrometer: V785-0024
Trigger mode: 0
Integration Time (sec): 4.000000E-1
Scans to average: 1
Nonlinearity correction enabled: false
Boxcar width: 0
Storing dark spectrum: false
XAxis mode: Wavelengths
Number of Pixels in Spectrum: 1024
>>>>>Begin Spectral Data<<<<<
801.071	7967
801.214	8046
801.356	7898
801.499	7833
801.641	7765
801.783	7841
801.926	7955
802.068	7944
802.211	7997
802.353	8058
802.496	7879
802.638	7925
802.78	7890
802.923	7879
803.065	7856
803.208	7845
803.35	7955
803.492	8077
803.635	8172
803.777	8050
803.919	8164
804.061	8396
804.204	8164
804.346	8027
804.488	7963
804.63	8054
804.773	7982
804.915	8073
805.057	8305
805.199	8172
805.341	8218
805.483	8313
805.626	8218
805.768	8161
805.91	8187
806.052	8195
806.194	8142
806.336	8214
806.478	8035
806.62	8058
806.762	8077
806.904	8187
807.046	8537
807.188	8374
807.33	8366
807.472	8309
807.614	8199
807.756	8077
807.898	7986
808.04	7898
808.182	7792
808.324	7902
808.465	7951
808.607	8081
808.749	8126
808.891	8214
809.033	8275
809.174	8218
809.316	8084
809.458	8054
809.6	8084
809.741	8016
809.883	7974
810.025	8130
810.166	8111
810.308	7959
810.45	8027
810.591	7856
810.733	7750
810.875	7620
811.016	7533
811.158	7483
811.299	7548
811.441	7685
811.582	7738
811.724	7590
811.865	7533
812.007	7636
812.148	7571
812.29	7628
812.431	7780
812.573	7856
812.714	7997
812.855	8088
812.997	8225
813.138	8320
813.279	8225
813.421	8115
813.562	7993
813.703	7803
813.845	7761
813.986	7430
814.127	7232
814.268	7240
814.41	7194
814.551	7228
814.692	7221
814.833	7099
814.974	7110
815.115	7103
815.256	6935
815.397	6924
815.539	6970
815.68	6814
815.821	6749
815.962	6897
816.103	6814
816.244	6673
816.385	6631
816.526	6650
816.666	6525
816.807	6388
816.948	6426
817.089	6456
817.23	6399
817.371	6357
817.512	6437
817.653	6395
817.793	6346
817.934	6418
818.075	6498
818.216	6437
818.356	6384
818.497	6311
818.638	6121
818.778	6110
818.919	6129
819.06	6125
819.2	6327
819.341	6448
819.481	6380
819.622	6528
819.762	6681
819.903	6741
820.043	6608
820.184	6654
820.324	6578
820.465	6677
820.605	6612
820.746	6631
820.886	6528
821.026	6726
821.167	6734
821.307	6829
821.447	6776
821.588	6623
821.728	6540
821.868	6536
822.008	6308
822.149	6384
822.289	6315
822.429	6144
822.569	6144
822.709	6175
822.849	5946
822.99	5931
823.13	5935
823.27	5942
823.41	5794
823.55	5821
823.69	5741
823.83	5798
823.97	5665
824.11	5524
824.25	5490
824.389	5585
824.529	5566
824.669	5497
824.809	5608
824.949	5703
825.089	5653
825.228	5558
825.368	5414
825.508	5391
825.648	5322
825.787	5349
825.927	5398
826.067	5292
826.206	5292
826.346	5387
826.485	5429
826.625	5414
826.765	5524
826.904	5421
827.044	5261
827.183	5201
827.323	5166
827.462	5178
827.601	5197
827.741	5178
827.88	5216
828.02	5094
828.159	5277
828.298	5341
828.437	5337
828.577	5326
828.716	5467
828.855	5360
828.994	5159
829.134	5117
829.273	5197
829.412	5151
829.551	5155
829.69	5143
829.829	5193
829.968	5322
830.107	5273
830.246	5250
830.385	5212
830.524	5147
830.663	5064
830.802	5003
830.941	4892
831.08	4873
831.219	4965
831.357	5018
831.496	5136
831.635	4942
831.774	4847
831.913	4866
832.051	4778
832.19	4706
832.329	4824
832.467	4664
832.606	4622
832.744	4736
832.883	4744
833.022	4774
833.16	4797
833.299	4828
833.437	4850
833.576	4850
833.714	4828
833.852	4892
833.991	4900
834.129	4965
834.267	4927
834.406	4968
834.544	4984
834.682	5010
834.821	4965
834.959	5208
835.097	5006
835.235	5124
835.373	5037
835.511	5060
835.65	5010
835.788	5075
835.926	4870
836.064	4885
836.202	4923
836.34	5136
836.478	5250
836.615	5098
836.753	5223
836.891	5303
837.029	5280
837.167	5216
837.305	5166
837.443	5117
837.58	5098
837.718	5269
837.856	5166
837.993	5181
838.131	5242
838.269	5208
838.406	5193
838.544	5273
838.681	5018
838.819	5018
838.956	4854
839.094	4858
839.231	4961
839.369	5037
839.506	5391
839.643	5299
839.781	5003
839.918	5014
840.055	5086
840.193	5094
840.33	5189
840.467	5124
840.604	5166
840.742	5410
840.879	5064
841.016	5132
841.153	5166
841.29	5372
841.427	5326
841.564	5288
841.701	5322
841.838	5265
841.975	5227
842.112	5273
842.249	5170
842.385	5090
842.522	5345
842.659	5204
842.796	5128
842.933	5185
843.069	5117
843.206	5174
843.343	5284
843.479	5159
843.616	5235
843.752	5060
843.889	5018
844.025	5181
844.162	5003
844.298	5197
844.435	5045
844.571	5079
844.708	5212
844.844	5265
844.98	5288
845.117	5334
845.253	5151
845.389	5056
845.525	5151
845.661	5136
845.798	5010
845.934	5162
846.07	5014
846.206	5216
846.342	5303
846.478	5143
846.614	5060
846.75	4946
846.886	4946
847.022	5151
847.158	4980
847.294	5113
847.429	5162
847.565	5060
847.701	5379
847.837	4850
847.972	4831
848.108	4968
848.244	4923
848.379	4805
848.515	4759
848.65	4717
848.786	4759
848.921	4729
849.057	4892
849.192	4930
849.328	4790
849.463	4854
849.598	4797
849.734	4774
849.869	4672
850.004	4596
850.14	4618
850.275	4561
850.41	4508
850.545	4558
850.68	4596
850.815	4634
850.95	4637
851.085	4812
851.22	4710
851.355	4687
851.49	4592
851.625	4596
851.76	4626
851.895	4569
852.03	4497
852.165	4664
852.299	4725
852.434	4733
852.569	4752
852.703	4763
852.838	4828
852.973	4961
853.107	4923
853.242	4717
853.376	4618
853.511	4561
853.645	4664
853.78	4812
853.914	4664
854.048	4615
854.183	4645
854.317	4683
854.451	4850
854.585	4660
854.72	4660
854.854	4748
854.988	4569
855.122	4656
855.256	4504
855.39	4656
855.524	4782
855.658	4752
855.792	4714
855.926	4664
856.06	4748
856.194	4824
856.327	4698
856.461	4653
856.595	4645
856.729	4603
856.862	4729
856.996	4710
857.13	4698
857.263	4679
857.397	4805
857.53	4687
857.664	4755
857.797	4809
857.931	4767
858.064	4660
858.197	4771
858.331	4618
858.464	4550
858.597	4558
858.731	4584
858.864	4675
858.997	4561
859.13	4664
859.263	4691
859.396	4660
859.529	4580
859.662	4554
859.795	4504
859.928	4653
860.061	4767
860.194	4824
860.327	4618
860.46	4565
860.592	4736
860.725	4668
860.858	4664
860.99	4546
861.123	4519
861.256	4573
861.388	4542
861.521	5372
861.653	4405
861.786	4440
861.918	4443
862.05	4504
862.183	4558
862.315	4569
862.447	4691
862.58	4550
862.712	4447
862.844	4299
862.976	4512
863.108	4485
863.24	4733
863.372	4284
863.504	4417
863.636	4417
863.768	4489
863.9	4405
864.032	4386
864.164	4356
864.296	4481
864.428	4603
864.559	4531
864.691	4542
864.823	4481
864.954	4455
865.086	4478
865.217	4432
865.349	4398
865.48	4493
865.612	4500
865.743	4584
865.875	4493
866.006	4451
866.137	4459
866.269	4447
866.4	4451
866.531	4455
866.662	4379
866.793	4398
866.924	4424
867.055	4451
867.186	4470
867.317	4386
867.448	4402
867.579	4409
867.71	4409
867.841	4394
867.972	4478
868.103	4470
868.233	4478
868.364	4462
868.495	4481
868.625	4649
868.756	4771
868.886	4561
869.017	4615
869.147	4805
869.278	4748
869.408	4679
869.539	4656
869.669	4702
869.799	4675
869.929	4812
870.06	4740
870.19	4942
870.32	4942
870.45	4942
870.58	4972
870.71	5117
870.84	5109
870.97	4919
871.1	4843
871.23	5090
871.36	5132
871.489	5003
871.619	5083
871.749	5117
871.879	5113
872.008	5178
872.138	5022
872.267	5018
872.397	4877
872.526	4858
872.656	4725
872.785	4824
872.915	4953
873.044	5071
873.173	4896
873.303	4976
873.432	4923
873.561	4908
873.69	4854
873.819	4870
873.948	4942
874.077	4812
874.206	4752
874.335	4786
874.464	4908
874.593	5056
874.722	4972
874.851	5071
874.979	5071
875.108	5033
875.237	4900
875.365	4900
875.494	4896
875.623	4934
875.751	4854
875.88	4908
876.008	4976
876.136	5037
876.265	5174
876.393	5334
876.521	5220
876.65	5197
876.778	5155
876.906	5094
877.034	5025
877.162	5037
877.29	4999
877.418	5033
877.546	5105
877.674	5056
877.802	5022
877.93	4987
878.058	4923
878.185	4919
878.313	4968
878.441	4965
878.568	4831
878.696	4862
878.824	4961
878.951	5003
879.079	5109
879.206	5299
879.333	5109
879.461	5029
879.588	4999
879.715	5079
879.842	5227
879.97	5037
880.097	4816
880.224	4778
880.351	4839
880.478	4805
880.605	4816
880.732	4778
880.859	5098
880.986	4904
881.112	4904
881.239	4790
881.366	4664
881.493	4577
881.619	4618
881.746	4641
881.872	4630
881.999	4714
882.125	4755
882.252	4774
882.378	4828
882.505	4987
882.631	4843
882.757	4660
882.883	4706
883.01	4744
883.136	4675
883.262	4599
883.388	4618
883.514	4858
883.64	4828
883.766	4763
883.892	4733
884.018	4714
884.143	4885
884.269	5025
884.395	4645
884.52	4615
884.646	4656
884.772	4653
884.897	4546
885.023	4653
885.148	4752
885.274	4870
885.399	4828
885.524	4641
885.65	4721
885.775	4748
885.9	4721
886.025	4828
886.15	4797
886.275	4679
886.4	4687
886.525	4702
886.65	4664
886.775	4694
886.9	4961
887.025	4999
887.149	4805
887.274	4611
887.399	4569
887.523	4558
887.648	4573
887.773	4607
887.897	4729
888.021	4778
888.146	4668
888.27	4805
888.395	4881
888.519	4767
888.643	4824
888.767	4835
888.891	4664
889.015	4577
889.139	4656
889.263	4653
889.387	4752
889.511	4873
889.635	4805
889.759	4615
889.883	4641
890.006	4721
890.13	4885
890.254	4611
890.377	4679
890.501	4588
890.624	4569
890.748	4603
890.871	4535
890.995	4390
891.118	4390
891.241	4569
891.364	4542
891.488	4641
891.611	4516
891.734	4573
891.857	4584
891.98	4565
892.103	4607
892.226	4558
892.349	4546
892.471	4428
892.594	4504
892.717	4611
892.839	4558
892.962	4584
893.085	4656
893.207	4615
893.33	4470
893.452	4508
893.575	4668
893.697	4538
893.819	4809
893.941	4809
894.064	4809
894.186	4603
894.308	4565
894.43	4736
894.552	4839
894.674	4748
894.796	4546
894.918	4618
895.04	4580
895.161	4710
895.283	4653
895.405	4596
895.526	4626
895.648	4668
895.769	4664
895.891	4683
896.012	4694
896.134	4744
896.255	4683
896.376	4637
896.498	4596
896.619	4714
896.74	4584
896.861	4645
896.982	4911
897.103	5083
897.224	4862
897.345	4733
897.466	4679
897.587	4721
897.708	4850
897.828	4801
897.949	4672
898.07	4596
898.19	4645
898.311	4778
898.431	4672
898.552	4725
898.672	4839
898.792	4755
898.913	4717
899.033	4637
899.153	4538
899.273	4432
899.393	4466
899.513	4519
899.633	4535
899.753	4550
899.873	4489
899.993	4611
900.113	4508
900.232	4554
900.352	4516
900.472	4523
900.591	4417
900.711	4462
900.83	4497
900.95	4656
901.069	4653
901.189	4531
901.308	4371
901.427	4306
901.546	4367
901.665	4447
901.784	4519
901.904	4352
902.023	4325
902.141	4215
902.26	4147
902.379	4306
902.498	4211
902.617	4261
902.735	4360
902.854	4413
902.973	4371
903.091	4200
903.21	4192
903.328	4280
903.446	4265
903.565	4238
903.683	4367
903.801	4268
903.919	4394
904.038	4390
904.156	4303
904.274	4455
904.392	4421
904.51	4421
904.627	4451
904.745	4596
904.863	4580
904.981	4402
905.098	4314
905.216	4356
905.334	4379
905.451	4436
905.569	4474
905.686	4565
905.803	4485
905.921	4440
906.038	4550
906.155	4462
906.272	4402
906.389	4481
906.506	4371
906.623	4405
906.74	4402
906.857	4344
906.974	4405
907.091	4561
907.208	4687
907.324	4596
907.441	4493
907.557	4371
907.674	4337
907.79	4348
907.907	4421
908.023	4424
908.139	4508
908.256	4451
908.372	4462
908.488	4409
908.604	4379
908.72	4287
908.836	4371
908.952	4386
909.068	4421
909.184	4558
909.3	4470
909.415	4588
909.531	4565
909.647	4363
909.762	4352
909.878	4348
909.993	4421
910.108	4386
910.224	4394
910.339	4474
910.454	4405
910.57	4386
910.685	4253
910.8	4641
910.915	4622
911.03	4481
911.145	4306
911.259	4325
911.374	4356
911.489	4314
911.604	4280
911.718	4162
911.833	4215
911.947	4116
912.062	4059
912.176	4242
912.291	4188
912.405	4318
912.519	4493
912.633	4542
912.748	4451
912.862	4299
912.976	4200
913.09	4082
913.204	4177
913.318	4207
913.431	4383
913.545	4356
913.659	4440
913.772	4379
913.886	4257
914	4230
914.113	4360
914.226	4432
914.34	4402
914.453	4204
914.566	4402
914.68	4299
914.793	4310
914.906	4143
915.019	4101
915.132	4086
915.245	4185
915.358	4246
915.47	4276
915.583	4227
915.696	4291
915.809	4405
915.921	4371
916.034	4272
916.146	4249
916.259	4234
916.371	4405
916.483	4375
916.595	4268
916.708	4306
916.82	4303
916.932	4333
917.044	4341
917.156	4337
917.268	4257
917.38	4246
917.491	4276
917.603	4337
917.715	4462
917.826	4398
917.938	4303
918.049	4253
918.161	4394
918.272	4569
918.384	4542
918.495	4443
918.606	4253
918.717	4230
918.828	4299
918.939	4375
919.05	4257
919.161	4299
919.272	4131
919.383	4219
919.494	4417
919.604	4592
919.715	4447
919.826	4287
919.936	4402
920.047	4519
920.157	4489
920.267	4679
920.378	4531
920.488	4478
920.598	4710
920.708	4889
920.818	4763
920.928	4759
921.038	4999
921.148	4866
921.258	4649
921.368	4569
921.477	4512
921.587	4451
921.697	4383
921.806	4542
921.916	4375
922.025	4249
922.134	4261
922.244	4192
922.353	4398
922.462	4177
922.571	4131
922.68	4021
922.789	3994
922.898	4051
923.007	3964
923.116	4116
923.224	4071
923.333	4040
923.442	4013
923.55	3987
923.659	3998
923.767	4139
923.876	3956
923.984	4150
924.092	3991
924.201	4059
924.309	4044
924.417	4090
924.525	4044
924.633	4101
924.741	5060
924.849	3968
924.956	4131
925.064	3975
925.172	3907
925.279	3994
925.387	4051
925.494	4063
925.602	4196
925.709	4131
925.816	4086
925.924	4120
926.031	4215
926.138	4166
926.245	4154
926.352	4055
926.459	4242
926.566	4318
926.673	4135
926.779	4063
926.886	4025
926.993	3987
927.099	3953
927.206	3991
927.312	3907
927.419	4086
927.525	4063
927.631	4093
927.737	3983
927.843	3949
927.95	3846
928.056	3975
928.162	3968
928.267	4021
928.373	4577
928.479	4116
928.585	3888
928.69	4048
928.796	4059
928.901	3960
929.007	3869
929.112	3983
929.218	3953
929.323	3964
929.428	3892
929.533	4078
929.638	3903
929.743	3949
929.848	4017
929.953	4025
930.058	3926
930.163	3762
930.267	3823
930.372	4002
930.477	3766
930.581	4067
930.685	3915
930.79	3766
930.894	3945
930.998	3816
931.103	4036
931.207	3747
931.311	3728
931.415	3679
931.519	3507
931.623	3545
