Data from test_V78500241_1162.txt Node
Date: Fri Mar 25 16:57:04 CST 2022
User: usil
Spectrometer: V785-0024
Trigger mode: 0
Integration Time (sec): 4.000000E-1
Scans to average: 1
Nonlinearity correction enabled: false
Boxcar width: 0
Storing dark spectrum: false
XAxis mode: Wavelengths
Number of Pixels in Spectrum: 1024
>>>>>Begin Spectral Data<<<<<
801.071	8031
801.214	8092
801.356	7860
801.499	7841
801.641	7792
801.783	7723
801.926	7925
802.068	7928
802.211	7906
802.353	7963
802.496	7799
802.638	7841
802.78	7925
802.923	7925
803.065	7921
803.208	7841
803.35	7944
803.492	8077
803.635	8138
803.777	7982
803.919	8115
804.061	8423
804.204	8183
804.346	8096
804.488	7955
804.63	8077
804.773	8046
804.915	8161
805.057	8298
805.199	8130
805.341	8259
805.483	8286
805.626	8252
805.768	8077
805.91	8225
806.052	8145
806.194	8073
806.336	8305
806.478	8088
806.62	8092
806.762	8142
806.904	8271
807.046	8415
807.188	8279
807.33	8275
807.472	8362
807.614	8153
807.756	8126
807.898	8031
808.04	7833
808.182	7856
808.324	7883
808.465	7944
808.607	8069
808.749	8062
808.891	8145
809.033	8259
809.174	8244
809.316	8058
809.458	8027
809.6	7970
809.741	7997
809.883	8043
810.025	8096
810.166	8043
810.308	8039
810.45	7989
810.591	7807
810.733	7662
810.875	7643
811.016	7540
811.158	7506
811.299	7643
811.441	7757
811.582	7700
811.724	7533
811.865	7590
812.007	7552
812.148	7567
812.29	7582
812.431	7765
812.573	7837
812.714	7913
812.855	8123
812.997	8191
813.138	8377
813.279	8199
813.421	8096
813.562	7997
813.703	7898
813.845	7750
813.986	7403
814.127	7274
814.268	7171
814.41	7152
814.551	7160
814.692	7137
814.833	7069
814.974	7133
815.115	7084
815.256	6981
815.397	6943
815.539	6932
815.68	6783
815.821	6814
815.962	6852
816.103	6806
816.244	6753
816.385	6612
816.526	6631
816.666	6509
816.807	6331
816.948	6467
817.089	6486
817.23	6391
817.371	6357
817.512	6338
817.653	6361
817.793	6380
817.934	6391
818.075	6456
818.216	6452
818.356	6399
818.497	6251
818.638	6041
818.778	6114
818.919	6159
819.06	6152
819.2	6300
819.341	6376
819.481	6281
819.622	6521
819.762	6726
819.903	6673
820.043	6608
820.184	6540
820.324	6555
820.465	6692
820.605	6703
820.746	6616
820.886	6460
821.026	6669
821.167	6677
821.307	6677
821.447	6734
821.588	6673
821.728	6601
821.868	6479
822.008	6266
822.149	6323
822.289	6315
822.429	6121
822.569	6072
822.709	6136
822.849	5920
822.99	5889
823.13	5931
823.27	5840
823.41	5722
823.55	5779
823.69	5756
823.83	5764
823.97	5653
824.11	5516
824.25	5471
824.389	5509
824.529	5585
824.669	5493
824.809	5589
824.949	5623
825.089	5592
825.228	5577
825.368	5318
825.508	5299
825.648	5318
825.787	5360
825.927	5364
826.067	5284
826.206	5261
826.346	5387
826.485	5341
826.625	5429
826.765	5528
826.904	5463
827.044	5254
827.183	5181
827.323	5117
827.462	5178
827.601	5208
827.741	5189
827.88	5197
828.02	5147
828.159	5231
828.298	5303
828.437	5360
828.577	5246
828.716	5452
828.855	5280
828.994	5117
829.134	5159
829.273	5132
829.412	5075
829.551	5147
829.69	5151
829.829	5185
829.968	5315
830.107	5261
830.246	5277
830.385	5193
830.524	5166
830.663	5060
830.802	4915
830.941	4877
831.08	4908
831.219	4968
831.357	4961
831.496	5193
831.635	4885
831.774	4862
831.913	4831
832.051	4679
832.19	4744
832.329	4824
832.467	4637
832.606	4656
832.744	4717
832.883	4721
833.022	4721
833.16	4748
833.299	4831
833.437	4866
833.576	4805
833.714	4839
833.852	4847
833.991	4850
834.129	4976
834.267	4930
834.406	4877
834.544	4991
834.682	4927
834.821	4946
834.959	5193
835.097	4984
835.235	5151
835.373	5094
835.511	5075
835.65	4980
835.788	4976
835.926	4870
836.064	4858
836.202	4927
836.34	5132
836.478	5235
836.615	5086
836.753	5174
836.891	5299
837.029	5235
837.167	5147
837.305	5181
837.443	5174
837.58	5075
837.718	5277
837.856	5197
837.993	5113
838.131	5261
838.269	5147
838.406	5155
838.544	5155
838.681	5037
838.819	5022
838.956	4908
839.094	4873
839.231	4949
839.369	5052
839.506	5417
839.643	5220
839.781	5052
839.918	4991
840.055	5079
840.193	5048
840.33	5098
840.467	5083
840.604	5189
840.742	5372
840.879	5037
841.016	5056
841.153	5147
841.29	5330
841.427	5292
841.564	5330
841.701	5391
841.838	5273
841.975	5250
842.112	5292
842.249	5166
842.385	5143
842.522	5311
842.659	5128
842.796	5170
842.933	5208
843.069	5140
843.206	5083
843.343	5311
843.479	5162
843.616	5197
843.752	5067
843.889	4991
844.025	5201
844.162	5025
844.298	5151
844.435	5083
844.571	5006
844.708	5155
844.844	5303
844.98	5341
845.117	5227
845.253	5140
845.389	5102
845.525	5178
845.661	5124
845.798	4995
845.934	5136
846.07	5048
846.206	5140
846.342	5235
846.478	5136
846.614	5006
846.75	5041
846.886	4866
847.022	5140
847.158	4995
847.294	5079
847.429	5048
847.565	5045
847.701	5353
847.837	4843
847.972	4831
848.108	4930
848.244	4965
848.379	4744
848.515	4755
848.65	4744
848.786	4752
848.921	4786
849.057	4793
849.192	4953
849.328	4774
849.463	4801
849.598	4801
849.734	4733
849.869	4755
850.004	4634
850.14	4683
850.275	4599
850.41	4478
850.545	4565
850.68	4588
850.815	4649
850.95	4603
851.085	4820
851.22	4733
851.355	4649
851.49	4641
851.625	4603
851.76	4634
851.895	4489
852.03	4531
852.165	4588
852.299	4683
852.434	4778
852.569	4748
852.703	4782
852.838	4835
852.973	4892
853.107	4923
853.242	4759
853.376	4656
853.511	4523
853.645	4603
853.78	4774
853.914	4683
854.048	4725
854.183	4645
854.317	4675
854.451	4828
854.585	4675
854.72	4615
854.854	4786
854.988	4550
855.122	4626
855.256	4504
855.39	4603
855.524	4725
855.658	4729
855.792	4626
855.926	4694
856.06	4744
856.194	4801
856.327	4694
856.461	4603
856.595	4577
856.729	4580
856.862	4710
856.996	4721
857.13	4721
857.263	4755
857.397	4763
857.53	4630
857.664	4763
857.797	4744
857.931	4812
858.064	4698
858.197	4744
858.331	4599
858.464	4580
858.597	4500
858.731	4603
858.864	4622
858.997	4634
859.13	4622
859.263	4675
859.396	4714
859.529	4542
859.662	4550
859.795	4561
859.928	4607
860.061	4763
860.194	4809
860.327	4599
860.46	4584
860.592	4653
860.725	4683
860.858	4710
860.99	4592
861.123	4523
861.256	4500
861.388	4603
861.521	5208
861.653	4485
861.786	4447
861.918	4478
862.05	4516
862.183	4508
862.315	4584
862.447	4618
862.58	4531
862.712	4375
862.844	4344
862.976	4466
863.108	4398
863.24	4889
863.372	4352
863.504	4417
863.636	4398
863.768	4462
863.9	4440
864.032	4322
864.164	4402
864.296	4512
864.428	4542
864.559	4500
864.691	4516
864.823	4535
864.954	4470
865.086	4512
865.217	4481
865.349	4462
865.48	4481
865.612	4519
865.743	4660
865.875	4478
866.006	4440
866.137	4459
866.269	4478
866.4	4432
866.531	4390
866.662	4394
866.793	4398
866.924	4379
867.055	4497
867.186	4481
867.317	4383
867.448	4348
867.579	4356
867.71	4386
867.841	4363
867.972	4447
868.103	4436
868.233	4474
868.364	4443
868.495	4428
868.625	4694
868.756	4706
868.886	4535
869.017	4599
869.147	4752
869.278	4729
869.408	4637
869.539	4588
869.669	4733
869.799	4675
869.929	4786
870.06	4733
870.19	4987
870.32	4900
870.45	4881
870.58	4987
870.71	5113
870.84	5052
870.97	4900
871.1	4938
871.23	5136
871.36	5124
871.489	5022
871.619	5045
871.749	5098
871.879	5090
872.008	5159
872.138	5037
872.267	4908
872.397	4847
872.526	4782
872.656	4687
872.785	4812
872.915	4919
873.044	5083
873.173	4923
873.303	4965
873.432	4942
873.561	4908
873.69	4896
873.819	4854
873.948	4881
874.077	4843
874.206	4759
874.335	4812
874.464	4915
874.593	5014
874.722	4896
874.851	5105
874.979	5052
875.108	5048
875.237	4885
875.365	4904
875.494	4877
875.623	5006
875.751	4824
875.88	4839
876.008	4987
876.136	4965
876.265	5181
876.393	5292
876.521	5277
876.65	5220
876.778	5166
876.906	5094
877.034	4984
877.162	5010
877.29	4965
877.418	5060
877.546	5014
877.674	5056
877.802	5018
877.93	4991
878.058	4892
878.185	4850
878.313	4972
878.441	4927
878.568	4774
878.696	4843
878.824	4923
878.951	5018
879.079	5132
879.206	5269
879.333	5102
879.461	4949
879.588	5010
879.715	5105
879.842	5147
879.97	4991
880.097	4774
880.224	4733
880.351	4797
880.478	4809
880.605	4820
880.732	4774
880.859	5033
880.986	4896
881.112	4927
881.239	4774
881.366	4653
881.493	4603
881.619	4584
881.746	4622
881.872	4588
881.999	4618
882.125	4675
882.252	4801
882.378	4797
882.505	4995
882.631	4790
882.757	4645
882.883	4740
883.01	4679
883.136	4664
883.262	4588
883.388	4618
883.514	4828
883.64	4854
883.766	4786
883.892	4668
884.018	4702
884.143	4911
884.269	4976
884.395	4653
884.52	4630
884.646	4660
884.772	4599
884.897	4573
885.023	4637
885.148	4774
885.274	4885
885.399	4801
885.524	4683
885.65	4683
885.775	4740
885.9	4755
886.025	4843
886.15	4782
886.275	4687
886.4	4649
886.525	4725
886.65	4683
886.775	4664
886.9	4904
887.025	5060
887.149	4793
887.274	4630
887.399	4527
887.523	4626
887.648	4546
887.773	4561
887.897	4763
888.021	4721
888.146	4694
888.27	4790
888.395	4915
888.519	4820
888.643	4835
888.767	4828
888.891	4622
889.015	4622
889.139	4672
889.263	4596
889.387	4717
889.511	4873
889.635	4763
889.759	4596
889.883	4656
890.006	4702
890.13	4858
890.254	4588
890.377	4660
890.501	4519
890.624	4531
890.748	4615
890.871	4508
890.995	4424
891.118	4394
891.241	4489
891.364	4531
891.488	4580
891.611	4508
891.734	4516
891.857	4607
891.98	4550
892.103	4691
892.226	4531
892.349	4569
892.471	4402
892.594	4588
892.717	4550
892.839	4584
892.962	4577
893.085	4691
893.207	4618
893.33	4428
893.452	4508
893.575	4672
893.697	4592
893.819	4733
893.941	4835
894.064	4767
894.186	4561
894.308	4554
894.43	4725
894.552	4763
894.674	4786
894.796	4573
894.918	4538
895.04	4508
895.161	4687
895.283	4668
895.405	4565
895.526	4637
895.648	4706
895.769	4634
895.891	4702
896.012	4725
896.134	4755
896.255	4660
896.376	4664
896.498	4618
896.619	4637
896.74	4603
896.861	4656
896.982	4915
897.103	5083
897.224	4812
897.345	4714
897.466	4611
897.587	4664
897.708	4824
897.828	4782
897.949	4656
898.07	4565
898.19	4618
898.311	4801
898.431	4675
898.552	4717
898.672	4763
898.792	4778
898.913	4717
899.033	4634
899.153	4512
899.273	4413
899.393	4512
899.513	4493
899.633	4504
899.753	4565
899.873	4519
899.993	4561
900.113	4546
900.232	4630
900.352	4516
900.472	4447
900.591	4367
900.711	4474
900.83	4443
900.95	4580
901.069	4698
901.189	4542
901.308	4363
901.427	4287
901.546	4386
901.665	4440
901.784	4485
901.904	4383
902.023	4268
902.141	4177
902.26	4181
902.379	4295
902.498	4265
902.617	4230
902.735	4367
902.854	4413
902.973	4322
903.091	4185
903.21	4223
903.328	4249
903.446	4238
903.565	4211
903.683	4341
903.801	4265
903.919	4390
904.038	4466
904.156	4272
904.274	4447
904.392	4421
904.51	4417
904.627	4481
904.745	4538
904.863	4611
904.981	4417
905.098	4280
905.216	4409
905.334	4436
905.451	4443
905.569	4409
905.686	4508
905.803	4573
905.921	4386
906.038	4538
906.155	4459
906.272	4398
906.389	4459
906.506	4322
906.623	4390
906.74	4367
906.857	4333
906.974	4333
907.091	4573
907.208	4649
907.324	4611
907.441	4474
907.557	4352
907.674	4360
907.79	4360
907.907	4428
908.023	4466
908.139	4478
908.256	4421
908.372	4466
908.488	4447
908.604	4299
908.72	4291
908.836	4344
908.952	4306
909.068	4443
909.184	4634
909.3	4459
909.415	4561
909.531	4554
909.647	4363
909.762	4379
909.878	4337
909.993	4409
910.108	4405
910.224	4348
910.339	4500
910.454	4379
910.57	4356
910.685	4257
910.8	4615
910.915	4550
911.03	4519
911.145	4318
911.259	4322
911.374	4314
911.489	4322
911.604	4276
911.718	4196
911.833	4181
911.947	4051
912.062	4059
912.176	4147
912.291	4242
912.405	4276
912.519	4519
912.633	4485
912.748	4390
912.862	4261
912.976	4207
913.09	4101
913.204	4124
913.318	4188
913.431	4363
913.545	4356
913.659	4455
913.772	4356
913.886	4227
914	4238
914.113	4337
914.226	4440
914.34	4337
914.453	4219
914.566	4375
914.68	4272
914.793	4341
914.906	4181
915.019	4105
915.132	4029
915.245	4150
915.358	4204
915.47	4211
915.583	4303
915.696	4272
915.809	4409
915.921	4428
916.034	4261
916.146	4249
916.259	4227
916.371	4367
916.483	4390
916.595	4265
916.708	4322
916.82	4363
916.932	4333
917.044	4310
917.156	4344
917.268	4200
917.38	4280
917.491	4215
917.603	4303
917.715	4398
917.826	4424
917.938	4409
918.049	4192
918.161	4375
918.272	4516
918.384	4519
918.495	4459
918.606	4291
918.717	4211
918.828	4322
918.939	4337
919.05	4257
919.161	4333
919.272	4109
919.383	4242
919.494	4462
919.604	4607
919.715	4413
919.826	4318
919.936	4390
920.047	4508
920.157	4432
920.267	4702
920.378	4516
920.488	4512
920.598	4744
920.708	4839
920.818	4752
920.928	4717
921.038	4927
921.148	4930
921.258	4611
921.368	4523
921.477	4523
921.587	4424
921.697	4360
921.806	4596
921.916	4436
922.025	4268
922.134	4219
922.244	4181
922.353	4291
922.462	4158
922.571	4147
922.68	4017
922.789	3956
922.898	4059
923.007	4013
923.116	4124
923.224	4048
923.333	4063
923.442	4006
923.55	3975
923.659	4013
923.767	4120
923.876	3991
923.984	4082
924.092	3979
924.201	4071
924.309	4036
924.417	4124
924.525	4044
924.633	4059
924.741	5052
924.849	3918
924.956	4154
925.064	3991
925.172	3873
925.279	3991
925.387	4082
925.494	4090
925.602	4188
925.709	4116
925.816	4051
925.924	4128
926.031	4215
926.138	4166
926.245	4204
926.352	4071
926.459	4261
926.566	4333
926.673	4139
926.779	4078
926.886	4067
926.993	3960
927.099	3956
927.206	3899
927.312	3930
927.419	4090
927.525	4006
927.631	4090
927.737	3953
927.843	3953
927.95	3869
928.056	3926
928.162	3956
928.267	4082
928.373	4668
928.479	4109
928.585	3857
928.69	3994
928.796	4036
928.901	3964
929.007	3816
929.112	4002
929.218	3949
929.323	3964
929.428	3994
929.533	4101
929.638	3842
929.743	3979
929.848	4010
929.953	3949
930.058	3937
930.163	3747
930.267	3823
930.372	3987
930.477	3797
930.581	4116
930.685	3949
930.79	3842
930.894	3876
930.998	3880
931.103	4036
931.207	3713
931.311	3724
931.415	3656
931.519	3538
931.623	3584
