Data from test_V78500241_2739.txt Node
Date: Fri Mar 25 17:08:02 CST 2022
User: usil
Spectrometer: V785-0024
Trigger mode: 0
Integration Time (sec): 4.000000E-1
Scans to average: 1
Nonlinearity correction enabled: false
Boxcar width: 0
Storing dark spectrum: false
XAxis mode: Wavelengths
Number of Pixels in Spectrum: 1024
>>>>>Begin Spectral Data<<<<<
801.071	8050
801.214	8008
801.356	7917
801.499	7890
801.641	7814
801.783	7879
801.926	8001
802.068	8016
802.211	8081
802.353	8115
802.496	7849
802.638	7894
802.78	7986
802.923	7902
803.065	7864
803.208	7860
803.35	8016
803.492	8092
803.635	8214
803.777	8088
803.919	8084
804.061	8438
804.204	8164
804.346	8130
804.488	8035
804.63	8115
804.773	8012
804.915	8092
805.057	8248
805.199	8202
805.341	8279
805.483	8275
805.626	8252
805.768	8126
805.91	8233
806.052	8202
806.194	8168
806.336	8393
806.478	8161
806.62	8103
806.762	8138
806.904	8252
807.046	8488
807.188	8408
807.33	8358
807.472	8404
807.614	8218
807.756	8126
807.898	8100
808.04	7902
808.182	7868
808.324	7902
808.465	7909
808.607	8145
808.749	8180
808.891	8256
809.033	8305
809.174	8187
809.316	8145
809.458	8043
809.6	7967
809.741	8027
809.883	8084
810.025	8130
810.166	8058
810.308	8027
810.45	8062
810.591	7944
810.733	7693
810.875	7689
811.016	7567
811.158	7495
811.299	7586
811.441	7811
811.582	7742
811.724	7662
811.865	7590
812.007	7529
812.148	7586
812.29	7662
812.431	7742
812.573	7913
812.714	8039
812.855	8123
812.997	8218
813.138	8320
813.279	8164
813.421	8191
813.562	8046
813.703	7822
813.845	7750
813.986	7476
814.127	7278
814.268	7187
814.41	7160
814.551	7168
814.692	7221
814.833	7091
814.974	7057
815.115	7084
815.256	7023
815.397	6928
815.539	6962
815.68	6829
815.821	6798
815.962	6871
816.103	6886
816.244	6749
816.385	6684
816.526	6658
816.666	6532
816.807	6334
816.948	6376
817.089	6483
817.23	6483
817.371	6353
817.512	6376
817.653	6399
817.793	6365
817.934	6490
818.075	6517
818.216	6399
818.356	6456
818.497	6270
818.638	6091
818.778	6125
818.919	6216
819.06	6140
819.2	6350
819.341	6361
819.481	6357
819.622	6528
819.762	6730
819.903	6684
820.043	6646
820.184	6608
820.324	6616
820.465	6642
820.605	6753
820.746	6616
820.886	6536
821.026	6650
821.167	6760
821.307	6798
821.447	6749
821.588	6662
821.728	6589
821.868	6582
822.008	6361
822.149	6429
822.289	6365
822.429	6144
822.569	6106
822.709	6110
822.849	5954
822.99	5904
823.13	5923
823.27	5958
823.41	5851
823.55	5828
823.69	5783
823.83	5786
823.97	5649
824.11	5528
824.25	5516
824.389	5554
824.529	5600
824.669	5551
824.809	5688
824.949	5619
825.089	5596
825.228	5570
825.368	5345
825.508	5372
825.648	5360
825.787	5368
825.927	5387
826.067	5246
826.206	5280
826.346	5398
826.485	5429
826.625	5417
826.765	5524
826.904	5509
827.044	5277
827.183	5204
827.323	5136
827.462	5197
827.601	5170
827.741	5162
827.88	5254
828.02	5121
828.159	5231
828.298	5315
828.437	5372
828.577	5292
828.716	5474
828.855	5288
828.994	5140
829.134	5174
829.273	5151
829.412	5151
829.551	5117
829.69	5189
829.829	5254
829.968	5364
830.107	5265
830.246	5292
830.385	5155
830.524	5185
830.663	5045
830.802	4987
830.941	4896
831.08	4824
831.219	5029
831.357	4972
831.496	5178
831.635	4949
831.774	4843
831.913	4850
832.051	4733
832.19	4721
832.329	4801
832.467	4717
832.606	4618
832.744	4740
832.883	4759
833.022	4698
833.16	4729
833.299	4839
833.437	4828
833.576	4854
833.714	4862
833.852	4850
833.991	4881
834.129	4949
834.267	4961
834.406	4908
834.544	5022
834.682	5006
834.821	4976
834.959	5185
835.097	4949
835.235	5121
835.373	5094
835.511	5109
835.65	5014
835.788	5037
835.926	4949
836.064	4904
836.202	4877
836.34	5121
836.478	5231
836.615	5105
836.753	5212
836.891	5307
837.029	5254
837.167	5155
837.305	5147
837.443	5136
837.58	5102
837.718	5201
837.856	5212
837.993	5136
838.131	5174
838.269	5246
838.406	5212
838.544	5204
838.681	5041
838.819	4991
838.956	4877
839.094	4870
839.231	4976
839.369	5094
839.506	5421
839.643	5326
839.781	5037
839.918	5025
840.055	5098
840.193	5071
840.33	5140
840.467	5094
840.604	5223
840.742	5436
840.879	5090
841.016	5094
841.153	5113
841.29	5398
841.427	5337
841.564	5273
841.701	5391
841.838	5280
841.975	5242
842.112	5197
842.249	5086
842.385	5147
842.522	5345
842.659	5166
842.796	5178
842.933	5201
843.069	5140
843.206	5128
843.343	5334
843.479	5223
843.616	5239
843.752	5083
843.889	5003
844.025	5181
844.162	5083
844.298	5208
844.435	5064
844.571	5041
844.708	5212
844.844	5341
844.98	5391
845.117	5261
845.253	5155
845.389	5060
845.525	5162
845.661	5162
845.798	5025
845.934	5166
846.07	5079
846.206	5197
846.342	5315
846.478	5227
846.614	4991
846.75	4972
846.886	4965
847.022	5147
847.158	5006
847.294	5060
847.429	5086
847.565	5033
847.701	5311
847.837	4809
847.972	4771
848.108	4976
848.244	4965
848.379	4805
848.515	4721
848.65	4733
848.786	4714
848.921	4797
849.057	4877
849.192	4873
849.328	4786
849.463	4904
849.598	4843
849.734	4790
849.869	4687
850.004	4603
850.14	4717
850.275	4607
850.41	4538
850.545	4542
850.68	4634
850.815	4656
850.95	4622
851.085	4812
851.22	4740
851.355	4675
851.49	4607
851.625	4618
851.76	4630
851.895	4523
852.03	4573
852.165	4664
852.299	4702
852.434	4805
852.569	4771
852.703	4797
852.838	4881
852.973	4946
853.107	4900
853.242	4744
853.376	4683
853.511	4542
853.645	4618
853.78	4801
853.914	4653
854.048	4706
854.183	4637
854.317	4740
854.451	4843
854.585	4683
854.72	4660
854.854	4748
854.988	4615
855.122	4630
855.256	4523
855.39	4599
855.524	4740
855.658	4714
855.792	4721
855.926	4744
856.06	4748
856.194	4782
856.327	4698
856.461	4603
856.595	4630
856.729	4607
856.862	4744
856.996	4706
857.13	4702
857.263	4790
857.397	4790
857.53	4675
857.664	4698
857.797	4710
857.931	4755
858.064	4717
858.197	4725
858.331	4634
858.464	4660
858.597	4535
858.731	4656
858.864	4626
858.997	4573
859.13	4573
859.263	4637
859.396	4748
859.529	4599
859.662	4569
859.795	4527
859.928	4611
860.061	4778
860.194	4721
860.327	4622
860.46	4577
860.592	4710
860.725	4721
860.858	4702
860.99	4561
861.123	4489
861.256	4527
861.388	4649
861.521	5364
861.653	4512
861.786	4466
861.918	4417
862.05	4531
862.183	4607
862.315	4569
862.447	4668
862.58	4535
862.712	4352
862.844	4352
862.976	4493
863.108	4421
863.24	4793
863.372	4398
863.504	4447
863.636	4375
863.768	4424
863.9	4440
864.032	4367
864.164	4443
864.296	4489
864.428	4550
864.559	4569
864.691	4516
864.823	4489
864.954	4470
865.086	4478
865.217	4523
865.349	4436
865.48	4474
865.612	4478
865.743	4615
865.875	4451
866.006	4409
866.137	4481
866.269	4455
866.4	4421
866.531	4440
866.662	4383
866.793	4421
866.924	4421
867.055	4436
867.186	4455
867.317	4424
867.448	4383
867.579	4398
867.71	4367
867.841	4344
867.972	4455
868.103	4455
868.233	4447
868.364	4474
868.495	4470
868.625	4675
868.756	4744
868.886	4527
869.017	4573
869.147	4801
869.278	4759
869.408	4675
869.539	4656
869.669	4706
869.799	4622
869.929	4744
870.06	4740
870.19	4957
870.32	4934
870.45	4919
870.58	5022
870.71	5136
870.84	5064
870.97	4991
871.1	4900
871.23	5166
871.36	5178
871.489	5025
871.619	5109
871.749	5094
871.879	5140
872.008	5189
872.138	5014
872.267	4976
872.397	4862
872.526	4816
872.656	4733
872.785	4778
872.915	4961
873.044	5067
873.173	4980
873.303	4980
873.432	4972
873.561	4961
873.69	4866
873.819	4885
873.948	4923
874.077	4858
874.206	4778
874.335	4801
874.464	4949
874.593	5033
874.722	4976
874.851	5109
874.979	5079
875.108	5033
875.237	4919
875.365	4881
875.494	4858
875.623	5010
875.751	4843
875.88	4896
876.008	4987
876.136	5029
876.265	5143
876.393	5345
876.521	5227
876.65	5212
876.778	5155
876.906	5109
877.034	5022
877.162	5048
877.29	5006
877.418	5056
877.546	5090
877.674	5071
877.802	5071
877.93	4965
878.058	4934
878.185	4862
878.313	4942
878.441	4995
878.568	4843
878.696	4923
878.824	4938
878.951	5014
879.079	5098
879.206	5288
879.333	5075
879.461	4976
879.588	4972
879.715	5117
879.842	5242
879.97	4991
880.097	4812
880.224	4755
880.351	4771
880.478	4809
880.605	4755
880.732	4831
880.859	5075
880.986	4850
881.112	4885
881.239	4812
881.366	4637
881.493	4580
881.619	4599
881.746	4611
881.872	4637
881.999	4702
882.125	4721
882.252	4809
882.378	4862
882.505	4942
882.631	4801
882.757	4649
882.883	4782
883.01	4748
883.136	4691
883.262	4596
883.388	4596
883.514	4805
883.64	4870
883.766	4831
883.892	4702
884.018	4744
884.143	4881
884.269	4972
884.395	4694
884.52	4615
884.646	4675
884.772	4588
884.897	4558
885.023	4687
885.148	4797
885.274	4900
885.399	4831
885.524	4694
885.65	4702
885.775	4752
885.9	4771
886.025	4858
886.15	4782
886.275	4653
886.4	4626
886.525	4664
886.65	4714
886.775	4687
886.9	4877
887.025	5048
887.149	4759
887.274	4637
887.399	4599
887.523	4641
887.648	4577
887.773	4554
887.897	4748
888.021	4786
888.146	4714
888.27	4831
888.395	4915
888.519	4820
888.643	4835
888.767	4847
888.891	4691
889.015	4660
889.139	4706
889.263	4649
889.387	4752
889.511	4828
889.635	4824
889.759	4611
889.883	4653
890.006	4744
890.13	4824
890.254	4592
890.377	4691
890.501	4569
890.624	4554
890.748	4630
890.871	4531
890.995	4455
891.118	4394
891.241	4538
891.364	4550
891.488	4618
891.611	4440
891.734	4558
891.857	4611
891.98	4588
892.103	4599
892.226	4611
892.349	4550
892.471	4436
892.594	4561
892.717	4634
892.839	4512
892.962	4622
893.085	4675
893.207	4607
893.33	4485
893.452	4512
893.575	4675
893.697	4546
893.819	4809
893.941	4847
894.064	4771
894.186	4592
894.308	4573
894.43	4744
894.552	4812
894.674	4691
894.796	4569
894.918	4588
895.04	4565
895.161	4702
895.283	4630
895.405	4565
895.526	4645
895.648	4668
895.769	4698
895.891	4740
896.012	4736
896.134	4679
896.255	4698
896.376	4645
896.498	4630
896.619	4672
896.74	4611
896.861	4653
896.982	4942
897.103	5094
897.224	4786
897.345	4733
897.466	4691
897.587	4744
897.708	4809
897.828	4748
897.949	4641
898.07	4561
898.19	4649
898.311	4858
898.431	4668
898.552	4721
898.672	4778
898.792	4839
898.913	4786
899.033	4626
899.153	4538
899.273	4436
899.393	4455
899.513	4478
899.633	4542
899.753	4531
899.873	4519
899.993	4561
900.113	4535
900.232	4630
900.352	4561
900.472	4497
900.591	4417
900.711	4428
900.83	4424
900.95	4561
901.069	4740
901.189	4542
901.308	4348
901.427	4253
901.546	4371
901.665	4421
901.784	4538
901.904	4383
902.023	4318
902.141	4227
902.26	4147
902.379	4295
902.498	4249
902.617	4257
902.735	4383
902.854	4466
902.973	4344
903.091	4204
903.21	4227
903.328	4318
903.446	4249
903.565	4246
903.683	4367
903.801	4287
903.919	4413
904.038	4413
904.156	4333
904.274	4447
904.392	4363
904.51	4436
904.627	4447
904.745	4569
904.863	4626
904.981	4413
905.098	4280
905.216	4344
905.334	4421
905.451	4432
905.569	4470
905.686	4580
905.803	4577
905.921	4424
906.038	4565
906.155	4500
906.272	4402
906.389	4451
906.506	4322
906.623	4413
906.74	4402
906.857	4329
906.974	4344
907.091	4565
907.208	4698
907.324	4558
907.441	4500
907.557	4306
907.674	4344
907.79	4314
907.907	4402
908.023	4500
908.139	4451
908.256	4363
908.372	4504
908.488	4481
908.604	4386
908.72	4352
908.836	4466
908.952	4402
909.068	4409
909.184	4565
909.3	4485
909.415	4584
909.531	4542
909.647	4371
909.762	4314
909.878	4379
909.993	4417
910.108	4398
910.224	4390
910.339	4519
910.454	4421
910.57	4375
910.685	4261
910.8	4622
910.915	4584
911.03	4489
911.145	4341
911.259	4306
911.374	4367
911.489	4337
911.604	4299
911.718	4192
911.833	4188
911.947	4090
912.062	4013
912.176	4166
912.291	4265
912.405	4230
912.519	4436
912.633	4447
912.748	4363
912.862	4318
912.976	4188
913.09	4131
913.204	4200
913.318	4215
913.431	4367
913.545	4394
913.659	4436
913.772	4379
913.886	4272
914	4207
914.113	4363
914.226	4421
914.34	4383
914.453	4230
914.566	4459
914.68	4306
914.793	4379
914.906	4139
915.019	4154
915.132	4109
915.245	4204
915.358	4211
915.47	4234
915.583	4310
915.696	4280
915.809	4402
915.921	4394
916.034	4299
916.146	4215
916.259	4234
916.371	4375
916.483	4348
916.595	4287
916.708	4333
916.82	4325
916.932	4306
917.044	4325
917.156	4337
917.268	4280
917.38	4265
917.491	4276
917.603	4291
917.715	4436
917.826	4409
917.938	4363
918.049	4261
918.161	4363
918.272	4580
918.384	4531
918.495	4455
918.606	4318
918.717	4234
918.828	4329
918.939	4367
919.05	4238
919.161	4318
919.272	4162
919.383	4219
919.494	4485
919.604	4630
919.715	4466
919.826	4310
919.936	4398
920.047	4497
920.157	4455
920.267	4660
920.378	4523
920.488	4481
920.598	4721
920.708	4889
920.818	4748
920.928	4771
921.038	4946
921.148	4927
921.258	4592
921.368	4592
921.477	4542
921.587	4421
921.697	4409
921.806	4565
921.916	4447
922.025	4280
922.134	4280
922.244	4200
922.353	4295
922.462	4188
922.571	4147
922.68	4017
922.789	3956
922.898	4063
923.007	3934
923.116	4116
923.224	4105
923.333	4082
923.442	3972
923.55	3968
923.659	4025
923.767	4078
923.876	3991
923.984	4101
924.092	3964
924.201	4086
924.309	4139
924.417	4150
924.525	4105
924.633	4059
924.741	5083
924.849	3956
924.956	4128
925.064	3945
925.172	3880
925.279	3922
925.387	4036
925.494	4044
925.602	4238
925.709	4268
925.816	4025
925.924	4097
926.031	4211
926.138	4124
926.245	4188
926.352	4071
926.459	4261
926.566	4333
926.673	4139
926.779	4120
926.886	4055
926.993	3994
927.099	3972
927.206	3953
927.312	3941
927.419	4086
927.525	4036
927.631	4101
927.737	3987
927.843	3937
927.95	3819
928.056	3907
928.162	4032
928.267	4067
928.373	4714
928.479	4120
928.585	3861
928.69	4025
928.796	4074
928.901	3941
929.007	3854
929.112	4017
929.218	4002
929.323	3937
929.428	3972
929.533	4105
929.638	3907
929.743	3998
929.848	4048
929.953	4006
930.058	3930
930.163	3781
930.267	3873
930.372	3998
930.477	3797
930.581	4097
930.685	3930
930.79	3835
930.894	3892
930.998	3899
931.103	4029
931.207	3747
931.311	3686
931.415	3629
931.519	3488
931.623	3515
