Data from test_V78500241_11.txt Node
Date: Fri Mar 25 16:49:04 CST 2022
User: usil
Spectrometer: V785-0024
Trigger mode: 0
Integration Time (sec): 4.000000E-1
Scans to average: 1
Nonlinearity correction enabled: false
Boxcar width: 0
Storing dark spectrum: false
XAxis mode: Wavelengths
Number of Pixels in Spectrum: 1024
>>>>>Begin Spectral Data<<<<<
801.071	8008
801.214	8123
801.356	8005
801.499	8024
801.641	7856
801.783	7811
801.926	8001
802.068	7978
802.211	8024
802.353	8126
802.496	7997
802.638	7963
802.78	7986
802.923	7997
803.065	7909
803.208	7894
803.35	8073
803.492	8210
803.635	8096
803.777	7917
803.919	8153
804.061	8476
804.204	8149
804.346	8012
804.488	7993
804.63	8123
804.773	7982
804.915	8046
805.057	8305
805.199	8183
805.341	8282
805.483	8313
805.626	8244
805.768	8168
805.91	8218
806.052	8233
806.194	8107
806.336	8301
806.478	8119
806.62	8077
806.762	8195
806.904	8347
807.046	8457
807.188	8469
807.33	8332
807.472	8328
807.614	8233
807.756	8187
807.898	8027
808.04	7928
808.182	7947
808.324	7883
808.465	7974
808.607	8031
808.749	8157
808.891	8225
809.033	8256
809.174	8233
809.316	8024
809.458	8084
809.6	8020
809.741	8008
809.883	8024
810.025	8077
810.166	8119
810.308	8153
810.45	8031
810.591	7928
810.733	7704
810.875	7746
811.016	7624
811.158	7609
811.299	7704
811.441	7856
811.582	7723
811.724	7666
811.865	7624
812.007	7586
812.148	7651
812.29	7689
812.431	7761
812.573	7898
812.714	8008
812.855	8088
812.997	8202
813.138	8317
813.279	8259
813.421	8161
813.562	8100
813.703	7894
813.845	7814
813.986	7510
814.127	7343
814.268	7263
814.41	7293
814.551	7297
814.692	7228
814.833	7095
814.974	7126
815.115	7114
815.256	6951
815.397	6996
815.539	6954
815.68	6821
815.821	6844
815.962	6932
816.103	6837
816.244	6783
816.385	6654
816.526	6677
816.666	6540
816.807	6357
816.948	6479
817.089	6521
817.23	6464
817.371	6376
817.512	6407
817.653	6433
817.793	6384
817.934	6464
818.075	6506
818.216	6479
818.356	6532
818.497	6296
818.638	6140
818.778	6182
818.919	6144
819.06	6186
819.2	6346
819.341	6407
819.481	6410
819.622	6555
819.762	6772
819.903	6719
820.043	6669
820.184	6673
820.324	6681
820.465	6741
820.605	6700
820.746	6741
820.886	6551
821.026	6681
821.167	6741
821.307	6848
821.447	6829
821.588	6681
821.728	6662
821.868	6620
822.008	6331
822.149	6429
822.289	6410
822.429	6190
822.569	6121
822.709	6152
822.849	5980
822.99	5942
823.13	5973
823.27	5935
823.41	5764
823.55	5847
823.69	5790
823.83	5882
823.97	5718
824.11	5604
824.25	5554
824.389	5589
824.529	5585
824.669	5562
824.809	5653
824.949	5733
825.089	5684
825.228	5623
825.368	5493
825.508	5463
825.648	5402
825.787	5478
825.927	5414
826.067	5379
826.206	5376
826.346	5433
826.485	5459
826.625	5433
826.765	5600
826.904	5554
827.044	5349
827.183	5284
827.323	5124
827.462	5296
827.601	5193
827.741	5280
827.88	5277
828.02	5124
828.159	5208
828.298	5326
828.437	5318
828.577	5307
828.716	5501
828.855	5402
828.994	5197
829.134	5189
829.273	5254
829.412	5208
829.551	5174
829.69	5201
829.829	5318
829.968	5448
830.107	5307
830.246	5330
830.385	5254
830.524	5174
830.663	5143
830.802	5006
830.941	4923
831.08	4904
831.219	5022
831.357	4984
831.496	5204
831.635	4961
831.774	4877
831.913	4877
832.051	4744
832.19	4755
832.329	4862
832.467	4721
832.606	4691
832.744	4752
832.883	4774
833.022	4744
833.16	4847
833.299	4885
833.437	4847
833.576	4870
833.714	4889
833.852	4854
833.991	4919
834.129	4976
834.267	5022
834.406	4995
834.544	5037
834.682	5071
834.821	4965
834.959	5235
835.097	4957
835.235	5220
835.373	5132
835.511	5136
835.65	5052
835.788	5113
835.926	4930
836.064	4946
836.202	4987
836.34	5261
836.478	5292
836.615	5201
836.753	5242
836.891	5379
837.029	5261
837.167	5242
837.305	5197
837.443	5151
837.58	5178
837.718	5284
837.856	5242
837.993	5227
838.131	5250
838.269	5277
838.406	5261
838.544	5216
838.681	5071
838.819	5056
838.956	4896
839.094	4987
839.231	5067
839.369	5067
839.506	5444
839.643	5307
839.781	5109
839.918	5045
840.055	5140
840.193	5128
840.33	5128
840.467	5201
840.604	5269
840.742	5459
840.879	5132
841.016	5151
841.153	5189
841.29	5372
841.427	5417
841.564	5364
841.701	5410
841.838	5280
841.975	5261
842.112	5326
842.249	5265
842.385	5113
842.522	5376
842.659	5277
842.796	5155
842.933	5261
843.069	5185
843.206	5178
843.343	5357
843.479	5315
843.616	5311
843.752	5113
843.889	5079
844.025	5265
844.162	5064
844.298	5258
844.435	5155
844.571	5094
844.708	5265
844.844	5364
844.98	5353
845.117	5334
845.253	5201
845.389	5090
845.525	5174
845.661	5170
845.798	5041
845.934	5197
846.07	5064
846.206	5204
846.342	5326
846.478	5239
846.614	5052
846.75	5018
846.886	5010
847.022	5140
847.158	5010
847.294	5128
847.429	5105
847.565	5151
847.701	5410
847.837	4942
847.972	4850
848.108	4980
848.244	4999
848.379	4820
848.515	4740
848.65	4721
848.786	4774
848.921	4824
849.057	4927
849.192	4892
849.328	4858
849.463	4904
849.598	4828
849.734	4782
849.869	4744
850.004	4675
850.14	4733
850.275	4668
850.41	4531
850.545	4630
850.68	4660
850.815	4672
850.95	4653
851.085	4885
851.22	4793
851.355	4717
851.49	4649
851.625	4679
851.76	4691
851.895	4577
852.03	4519
852.165	4706
852.299	4767
852.434	4839
852.569	4816
852.703	4843
852.838	4870
852.973	4991
853.107	4980
853.242	4763
853.376	4771
853.511	4641
853.645	4622
853.78	4854
853.914	4714
854.048	4755
854.183	4641
854.317	4805
854.451	4927
854.585	4694
854.72	4721
854.854	4729
854.988	4675
855.122	4611
855.256	4596
855.39	4755
855.524	4786
855.658	4793
855.792	4740
855.926	4797
856.06	4774
856.194	4858
856.327	4706
856.461	4683
856.595	4668
856.729	4653
856.862	4828
856.996	4736
857.13	4744
857.263	4824
857.397	4862
857.53	4694
857.664	4763
857.797	4828
857.931	4881
858.064	4702
858.197	4797
858.331	4698
858.464	4660
858.597	4569
858.731	4656
858.864	4717
858.997	4675
859.13	4687
859.263	4675
859.396	4729
859.529	4622
859.662	4588
859.795	4569
859.928	4637
860.061	4820
860.194	4809
860.327	4622
860.46	4653
860.592	4767
860.725	4721
860.858	4786
860.99	4580
861.123	4500
861.256	4550
861.388	4672
861.521	5421
861.653	4538
861.786	4481
861.918	4459
862.05	4554
862.183	4615
862.315	4615
862.447	4752
862.58	4550
862.712	4500
862.844	4413
862.976	4508
863.108	4538
863.24	4900
863.372	4440
863.504	4459
863.636	4455
863.768	4478
863.9	4481
864.032	4386
864.164	4451
864.296	4523
864.428	4588
864.559	4611
864.691	4603
864.823	4599
864.954	4535
865.086	4531
865.217	4481
865.349	4455
865.48	4485
865.612	4531
865.743	4683
865.875	4504
866.006	4512
866.137	4519
866.269	4481
866.4	4516
866.531	4459
866.662	4466
866.793	4474
866.924	4428
867.055	4535
867.186	4470
867.317	4455
867.448	4383
867.579	4436
867.71	4432
867.841	4409
867.972	4561
868.103	4481
868.233	4512
868.364	4554
868.495	4535
868.625	4729
868.756	4816
868.886	4649
869.017	4656
869.147	4786
869.278	4824
869.408	4717
869.539	4656
869.669	4748
869.799	4672
869.929	4809
870.06	4790
870.19	4991
870.32	4915
870.45	4991
870.58	5037
870.71	5185
870.84	5159
870.97	5048
871.1	4934
871.23	5227
871.36	5147
871.489	5067
871.619	5166
871.749	5136
871.879	5208
872.008	5220
872.138	5132
872.267	5022
872.397	4911
872.526	4839
872.656	4782
872.785	4854
872.915	4991
873.044	5018
873.173	5003
873.303	5060
873.432	4991
873.561	5033
873.69	4961
873.819	4980
873.948	4961
874.077	4809
874.206	4793
874.335	4824
874.464	4930
874.593	5159
874.722	4991
874.851	5121
874.979	5022
875.108	5071
875.237	4987
875.365	4900
875.494	4961
875.623	5029
875.751	4828
875.88	4942
876.008	5029
876.136	5102
876.265	5223
876.393	5425
876.521	5311
876.65	5250
876.778	5216
876.906	5193
877.034	5064
877.162	5083
877.29	5018
877.418	5136
877.546	5067
877.674	5079
877.802	5090
877.93	5037
878.058	4999
878.185	4900
878.313	5029
878.441	4999
878.568	4850
878.696	4885
878.824	4991
878.951	5052
879.079	5189
879.206	5330
879.333	5181
879.461	5022
879.588	5025
879.715	5132
879.842	5318
879.97	5052
880.097	4828
880.224	4831
880.351	4843
880.478	4930
880.605	4843
880.732	4885
880.859	5098
880.986	4881
881.112	4953
881.239	4828
881.366	4675
881.493	4641
881.619	4626
881.746	4687
881.872	4744
881.999	4714
882.125	4744
882.252	4835
882.378	4873
882.505	5006
882.631	4862
882.757	4698
882.883	4790
883.01	4816
883.136	4702
883.262	4656
883.388	4664
883.514	4854
883.64	4915
883.766	4809
883.892	4744
884.018	4752
884.143	4889
884.269	5102
884.395	4729
884.52	4691
884.646	4733
884.772	4660
884.897	4664
885.023	4736
885.148	4797
885.274	4934
885.399	4854
885.524	4790
885.65	4767
885.775	4759
885.9	4763
886.025	4908
886.15	4835
886.275	4778
886.4	4694
886.525	4771
886.65	4733
886.775	4790
886.9	4965
887.025	5048
887.149	4828
887.274	4729
887.399	4615
887.523	4645
887.648	4645
887.773	4569
887.897	4797
888.021	4767
888.146	4744
888.27	4858
888.395	5022
888.519	4835
888.643	4858
888.767	4896
888.891	4771
889.015	4691
889.139	4679
889.263	4634
889.387	4812
889.511	4930
889.635	4835
889.759	4675
889.883	4710
890.006	4793
890.13	4866
890.254	4649
890.377	4729
890.501	4634
890.624	4599
890.748	4672
890.871	4500
890.995	4443
891.118	4443
891.241	4615
891.364	4592
891.488	4710
891.611	4542
891.734	4542
891.857	4664
891.98	4592
892.103	4668
892.226	4649
892.349	4580
892.471	4478
892.594	4599
892.717	4599
892.839	4611
892.962	4637
893.085	4710
893.207	4649
893.33	4470
893.452	4573
893.575	4725
893.697	4592
893.819	4820
893.941	4870
894.064	4858
894.186	4607
894.308	4596
894.43	4759
894.552	4900
894.674	4801
894.796	4626
894.918	4679
895.04	4634
895.161	4797
895.283	4668
895.405	4691
895.526	4717
895.648	4755
895.769	4733
895.891	4755
896.012	4809
896.134	4812
896.255	4694
896.376	4702
896.498	4675
896.619	4706
896.74	4675
896.861	4698
896.982	5003
897.103	5083
897.224	4927
897.345	4774
897.466	4748
897.587	4793
897.708	4915
897.828	4816
897.949	4721
898.07	4615
898.19	4714
898.311	4896
898.431	4744
898.552	4847
898.672	4881
898.792	4843
898.913	4748
899.033	4668
899.153	4546
899.273	4466
899.393	4546
899.513	4584
899.633	4531
899.753	4615
899.873	4558
899.993	4645
900.113	4599
900.232	4637
900.352	4607
900.472	4527
900.591	4432
900.711	4584
900.83	4508
900.95	4626
901.069	4744
901.189	4580
901.308	4363
901.427	4356
901.546	4402
901.665	4481
901.784	4596
901.904	4440
902.023	4371
902.141	4181
902.26	4242
902.379	4367
902.498	4314
902.617	4287
902.735	4421
902.854	4474
902.973	4440
903.091	4268
903.21	4253
903.328	4314
903.446	4310
903.565	4333
903.683	4424
903.801	4265
903.919	4421
904.038	4519
904.156	4386
904.274	4455
904.392	4481
904.51	4459
904.627	4508
904.745	4535
904.863	4717
904.981	4523
905.098	4390
905.216	4402
905.334	4489
905.451	4508
905.569	4508
905.686	4592
905.803	4618
905.921	4405
906.038	4622
906.155	4535
906.272	4451
906.389	4474
906.506	4375
906.623	4455
906.74	4421
906.857	4367
906.974	4413
907.091	4615
907.208	4717
907.324	4596
907.441	4538
907.557	4409
907.674	4417
907.79	4402
907.907	4424
908.023	4512
908.139	4523
908.256	4497
908.372	4535
908.488	4531
908.604	4398
908.72	4394
908.836	4443
908.952	4451
909.068	4481
909.184	4694
909.3	4512
909.415	4611
909.531	4637
909.647	4432
909.762	4394
909.878	4402
909.993	4470
910.108	4409
910.224	4432
910.339	4504
910.454	4455
910.57	4390
910.685	4337
910.8	4771
910.915	4694
911.03	4546
911.145	4348
911.259	4386
911.374	4428
911.489	4341
911.604	4295
911.718	4265
911.833	4268
911.947	4139
912.062	4044
912.176	4272
912.291	4303
912.405	4310
912.519	4519
912.633	4554
912.748	4436
912.862	4356
912.976	4291
913.09	4150
913.204	4223
913.318	4295
913.431	4405
913.545	4478
913.659	4500
913.772	4379
913.886	4295
914	4219
914.113	4436
914.226	4489
914.34	4470
914.453	4280
914.566	4500
914.68	4325
914.793	4337
914.906	4196
915.019	4154
915.132	4143
915.245	4234
915.358	4234
915.47	4276
915.583	4314
915.696	4371
915.809	4459
915.921	4436
916.034	4314
916.146	4299
916.259	4253
916.371	4462
916.483	4383
916.595	4322
916.708	4390
916.82	4405
916.932	4356
917.044	4383
917.156	4386
917.268	4276
917.38	4310
917.491	4295
917.603	4409
917.715	4470
917.826	4527
917.938	4367
918.049	4299
918.161	4421
918.272	4592
918.384	4577
918.495	4481
918.606	4352
918.717	4265
918.828	4405
918.939	4409
919.05	4272
919.161	4367
919.272	4219
919.383	4257
919.494	4523
919.604	4694
919.715	4478
919.826	4394
919.936	4466
920.047	4569
920.157	4565
920.267	4790
920.378	4565
920.488	4512
920.598	4744
920.708	4911
920.818	4847
920.928	4824
921.038	5018
921.148	4976
921.258	4698
921.368	4611
921.477	4588
921.587	4485
921.697	4459
921.806	4618
921.916	4519
922.025	4303
922.134	4329
922.244	4253
922.353	4341
922.462	4234
922.571	4158
922.68	4032
922.789	4036
922.898	4093
923.007	3968
923.116	4211
923.224	4135
923.333	4105
923.442	3975
923.55	4010
923.659	4078
923.767	4150
923.876	4032
923.984	4207
924.092	4036
924.201	4120
924.309	4131
924.417	4150
924.525	4101
924.633	4139
924.741	5094
924.849	3915
924.956	4154
925.064	3953
925.172	3922
925.279	3991
925.387	4109
925.494	4101
925.602	4276
925.709	4196
925.816	4040
925.924	4177
926.031	4303
926.138	4227
926.245	4215
926.352	4150
926.459	4322
926.566	4363
926.673	4215
926.779	4131
926.886	4143
926.993	3972
927.099	4002
927.206	3983
927.312	3964
927.419	4120
927.525	4120
927.631	4158
927.737	4017
927.843	4006
927.95	3922
928.056	4002
928.162	4021
928.267	4090
928.373	4714
928.479	4169
928.585	3968
928.69	4055
928.796	4128
928.901	4006
929.007	3869
929.112	4063
929.218	4036
929.323	3975
929.428	4036
929.533	4185
929.638	3960
929.743	4025
929.848	4078
929.953	4093
930.058	3972
930.163	3816
930.267	3846
930.372	4059
930.477	3873
930.581	4169
930.685	4021
930.79	3861
930.894	3926
930.998	3888
931.103	4078
931.207	3740
931.311	3713
931.415	3720
931.519	3584
931.623	3606
