Data from test_V78500241_2659.txt Node
Date: Fri Mar 25 17:07:29 CST 2022
User: usil
Spectrometer: V785-0024
Trigger mode: 0
Integration Time (sec): 4.000000E-1
Scans to average: 1
Nonlinearity correction enabled: false
Boxcar width: 0
Storing dark spectrum: false
XAxis mode: Wavelengths
Number of Pixels in Spectrum: 1024
>>>>>Begin Spectral Data<<<<<
801.071	8046
801.214	8012
801.356	7883
801.499	7822
801.641	7792
801.783	7803
801.926	7947
802.068	7936
802.211	7959
802.353	8012
802.496	7811
802.638	7883
802.78	7852
802.923	7955
803.065	7849
803.208	7818
803.35	8020
803.492	8103
803.635	8202
803.777	8062
803.919	8180
804.061	8454
804.204	8062
804.346	8054
804.488	7963
804.63	8092
804.773	7986
804.915	8115
805.057	8275
805.199	8180
805.341	8210
805.483	8263
805.626	8191
805.768	8126
805.91	8180
806.052	8176
806.194	8157
806.336	8336
806.478	8092
806.62	8062
806.762	8020
806.904	8259
807.046	8434
807.188	8358
807.33	8332
807.472	8374
807.614	8126
807.756	8107
807.898	8016
808.04	7849
808.182	7879
808.324	7852
808.465	7856
808.607	8084
808.749	8157
808.891	8164
809.033	8290
809.174	8172
809.316	8065
809.458	8103
809.6	7982
809.741	7978
809.883	8058
810.025	8111
810.166	8073
810.308	8016
810.45	8065
810.591	7818
810.733	7746
810.875	7685
811.016	7514
811.158	7514
811.299	7544
811.441	7734
811.582	7685
811.724	7540
811.865	7544
812.007	7609
812.148	7571
812.29	7609
812.431	7772
812.573	7833
812.714	7967
812.855	8077
812.997	8267
813.138	8313
813.279	8149
813.421	8115
813.562	7970
813.703	7913
813.845	7727
813.986	7445
814.127	7266
814.268	7217
814.41	7255
814.551	7152
814.692	7255
814.833	7042
814.974	7091
815.115	7103
815.256	6928
815.397	6935
815.539	6954
815.68	6875
815.821	6779
815.962	6829
816.103	6871
816.244	6719
816.385	6574
816.526	6650
816.666	6471
816.807	6315
816.948	6388
817.089	6429
817.23	6486
817.371	6353
817.512	6433
817.653	6395
817.793	6380
817.934	6407
818.075	6448
818.216	6448
818.356	6429
818.497	6216
818.638	6106
818.778	6167
818.919	6133
819.06	6163
819.2	6353
819.341	6308
819.481	6346
819.622	6559
819.762	6711
819.903	6703
820.043	6620
820.184	6631
820.324	6627
820.465	6677
820.605	6681
820.746	6662
820.886	6486
821.026	6677
821.167	6703
821.307	6802
821.447	6749
821.588	6696
821.728	6559
821.868	6536
822.008	6323
822.149	6369
822.289	6331
822.429	6125
822.569	6106
822.709	6114
822.849	5954
822.99	5912
823.13	5927
823.27	5882
823.41	5741
823.55	5786
823.69	5729
823.83	5764
823.97	5661
824.11	5478
824.25	5478
824.389	5551
824.529	5573
824.669	5528
824.809	5646
824.949	5710
825.089	5585
825.228	5501
825.368	5368
825.508	5353
825.648	5284
825.787	5372
825.927	5379
826.067	5280
826.206	5258
826.346	5349
826.485	5353
826.625	5364
826.765	5532
826.904	5417
827.044	5269
827.183	5155
827.323	5094
827.462	5227
827.601	5220
827.741	5159
827.88	5216
828.02	5136
828.159	5208
828.298	5284
828.437	5330
828.577	5265
828.716	5493
828.855	5315
828.994	5185
829.134	5128
829.273	5204
829.412	5178
829.551	5140
829.69	5223
829.829	5220
829.968	5406
830.107	5231
830.246	5254
830.385	5166
830.524	5086
830.663	5071
830.802	4980
830.941	4892
831.08	4866
831.219	4946
831.357	4999
831.496	5136
831.635	4919
831.774	4828
831.913	4835
832.051	4755
832.19	4805
832.329	4820
832.467	4694
832.606	4615
832.744	4763
832.883	4748
833.022	4714
833.16	4809
833.299	4843
833.437	4824
833.576	4843
833.714	4862
833.852	4828
833.991	4904
834.129	5033
834.267	4987
834.406	4915
834.544	4999
834.682	4987
834.821	5018
834.959	5143
835.097	5056
835.235	5128
835.373	5109
835.511	5151
835.65	5086
835.788	5041
835.926	4938
836.064	4892
836.202	4949
836.34	5250
836.478	5269
836.615	5197
836.753	5220
836.891	5307
837.029	5223
837.167	5201
837.305	5208
837.443	5288
837.58	5124
837.718	5299
837.856	5235
837.993	5197
838.131	5292
838.269	5246
838.406	5235
838.544	5223
838.681	5098
838.819	5033
838.956	4957
839.094	4915
839.231	5014
839.369	5079
839.506	5448
839.643	5299
839.781	5140
839.918	5052
840.055	5121
840.193	5193
840.33	5136
840.467	5121
840.604	5189
840.742	5444
840.879	5151
841.016	5136
841.153	5159
841.29	5372
841.427	5398
841.564	5345
841.701	5383
841.838	5307
841.975	5220
842.112	5299
842.249	5212
842.385	5185
842.522	5349
842.659	5227
842.796	5189
842.933	5250
843.069	5189
843.206	5181
843.343	5318
843.479	5277
843.616	5296
843.752	5086
843.889	5045
844.025	5277
844.162	5033
844.298	5250
844.435	5128
844.571	5090
844.708	5242
844.844	5345
844.98	5474
845.117	5322
845.253	5204
845.389	5151
845.525	5151
845.661	5197
845.798	5064
845.934	5178
846.07	5090
846.206	5235
846.342	5318
846.478	5212
846.614	5083
846.75	5014
846.886	5006
847.022	5178
847.158	5075
847.294	5121
847.429	5132
847.565	5090
847.701	5368
847.837	4911
847.972	4824
848.108	4991
848.244	4995
848.379	4759
848.515	4790
848.65	4744
848.786	4759
848.921	4797
849.057	4965
849.192	4927
849.328	4866
849.463	4866
849.598	4854
849.734	4816
849.869	4736
850.004	4668
850.14	4653
850.275	4618
850.41	4558
850.545	4592
850.68	4607
850.815	4717
850.95	4660
851.085	4862
851.22	4778
851.355	4733
851.49	4649
851.625	4675
851.76	4645
851.895	4603
852.03	4542
852.165	4687
852.299	4755
852.434	4854
852.569	4740
852.703	4816
852.838	4881
852.973	4972
853.107	4919
853.242	4744
853.376	4721
853.511	4558
853.645	4626
853.78	4816
853.914	4759
854.048	4653
854.183	4694
854.317	4733
854.451	4908
854.585	4706
854.72	4660
854.854	4805
854.988	4584
855.122	4645
855.256	4603
855.39	4664
855.524	4854
855.658	4771
855.792	4733
855.926	4736
856.06	4797
856.194	4835
856.327	4710
856.461	4668
856.595	4683
856.729	4656
856.862	4809
856.996	4706
857.13	4755
857.263	4767
857.397	4858
857.53	4691
857.664	4702
857.797	4740
857.931	4843
858.064	4710
858.197	4786
858.331	4710
858.464	4592
858.597	4527
858.731	4660
858.864	4622
858.997	4668
859.13	4702
859.263	4683
859.396	4717
859.529	4607
859.662	4607
859.795	4531
859.928	4668
860.061	4843
860.194	4755
860.327	4630
860.46	4599
860.592	4771
860.725	4736
860.858	4786
860.99	4599
861.123	4516
861.256	4573
861.388	4672
861.521	5490
861.653	4512
861.786	4459
861.918	4542
862.05	4584
862.183	4531
862.315	4611
862.447	4717
862.58	4516
862.712	4428
862.844	4383
862.976	4558
863.108	4538
863.24	4759
863.372	4348
863.504	4481
863.636	4417
863.768	4508
863.9	4516
864.032	4409
864.164	4447
864.296	4512
864.428	4569
864.559	4596
864.691	4588
864.823	4516
864.954	4516
865.086	4504
865.217	4485
865.349	4497
865.48	4504
865.612	4508
865.743	4630
865.875	4504
866.006	4489
866.137	4508
866.269	4493
866.4	4481
866.531	4481
866.662	4424
866.793	4413
866.924	4405
867.055	4516
867.186	4474
867.317	4447
867.448	4428
867.579	4367
867.71	4398
867.841	4440
867.972	4474
868.103	4455
868.233	4508
868.364	4508
868.495	4489
868.625	4672
868.756	4843
868.886	4599
869.017	4668
869.147	4805
869.278	4809
869.408	4675
869.539	4687
869.669	4767
869.799	4691
869.929	4763
870.06	4755
870.19	4942
870.32	4972
870.45	4934
870.58	5018
870.71	5113
870.84	5121
870.97	4980
871.1	4949
871.23	5197
871.36	5185
871.489	5003
871.619	5113
871.749	5143
871.879	5143
872.008	5185
872.138	5132
872.267	5022
872.397	4896
872.526	4797
872.656	4725
872.785	4824
872.915	5014
873.044	5025
873.173	4892
873.303	4987
873.432	4949
873.561	5003
873.69	4908
873.819	4930
873.948	4908
874.077	4854
874.206	4771
874.335	4786
874.464	4953
874.593	5102
874.722	4961
874.851	5128
874.979	5083
875.108	5098
875.237	4961
875.365	4908
875.494	4881
875.623	5010
875.751	4862
875.88	4915
876.008	5048
876.136	5075
876.265	5220
876.393	5368
876.521	5322
876.65	5265
876.778	5189
876.906	5132
877.034	5060
877.162	5094
877.29	5060
877.418	5136
877.546	5105
877.674	5083
877.802	5064
877.93	5033
878.058	4953
878.185	4858
878.313	4991
878.441	4961
878.568	4824
878.696	4904
878.824	4965
878.951	5006
879.079	5193
879.206	5296
879.333	5132
879.461	4968
879.588	4995
879.715	5147
879.842	5227
879.97	5060
880.097	4809
880.224	4774
880.351	4877
880.478	4824
880.605	4839
880.732	4850
880.859	5105
880.986	4930
881.112	4968
881.239	4820
881.366	4710
881.493	4622
881.619	4607
881.746	4653
881.872	4656
881.999	4683
882.125	4698
882.252	4767
882.378	4862
882.505	4987
882.631	4812
882.757	4694
882.883	4755
883.01	4736
883.136	4714
883.262	4626
883.388	4694
883.514	4881
883.64	4923
883.766	4809
883.892	4736
884.018	4725
884.143	4889
884.269	5083
884.395	4721
884.52	4668
884.646	4645
884.772	4630
884.897	4592
885.023	4649
885.148	4839
885.274	4881
885.399	4790
885.524	4702
885.65	4679
885.775	4786
885.9	4752
886.025	4854
886.15	4801
886.275	4721
886.4	4702
886.525	4752
886.65	4736
886.775	4641
886.9	4942
887.025	5086
887.149	4843
887.274	4736
887.399	4607
887.523	4626
887.648	4592
887.773	4611
887.897	4744
888.021	4771
888.146	4679
888.27	4828
888.395	4892
888.519	4786
888.643	4843
888.767	4843
888.891	4698
889.015	4645
889.139	4634
889.263	4641
889.387	4748
889.511	4877
889.635	4816
889.759	4622
889.883	4634
890.006	4782
890.13	4870
890.254	4630
890.377	4672
890.501	4573
890.624	4542
890.748	4675
890.871	4497
890.995	4409
891.118	4421
891.241	4542
891.364	4577
891.488	4694
891.611	4493
891.734	4535
891.857	4656
891.98	4611
892.103	4660
892.226	4603
892.349	4596
892.471	4436
892.594	4550
892.717	4626
892.839	4596
892.962	4634
893.085	4714
893.207	4622
893.33	4447
893.452	4558
893.575	4687
893.697	4596
893.819	4805
893.941	4809
894.064	4782
894.186	4603
894.308	4611
894.43	4782
894.552	4850
894.674	4797
894.796	4603
894.918	4630
895.04	4573
895.161	4736
895.283	4691
895.405	4599
895.526	4649
895.648	4733
895.769	4729
895.891	4752
896.012	4717
896.134	4759
896.255	4706
896.376	4649
896.498	4679
896.619	4660
896.74	4641
896.861	4694
896.982	4957
897.103	5094
897.224	4862
897.345	4759
897.466	4687
897.587	4755
897.708	4870
897.828	4782
897.949	4691
898.07	4546
898.19	4664
898.311	4919
898.431	4706
898.552	4752
898.672	4839
898.792	4809
898.913	4782
899.033	4611
899.153	4538
899.273	4413
899.393	4497
899.513	4538
899.633	4561
899.753	4516
899.873	4519
899.993	4588
900.113	4470
900.232	4577
900.352	4554
900.472	4516
900.591	4375
900.711	4500
900.83	4470
900.95	4630
901.069	4702
901.189	4535
901.308	4367
901.427	4325
901.546	4386
901.665	4470
901.784	4500
901.904	4375
902.023	4322
902.141	4211
902.26	4188
902.379	4314
902.498	4238
902.617	4242
902.735	4356
902.854	4371
902.973	4386
903.091	4227
903.21	4257
903.328	4318
903.446	4291
903.565	4284
903.683	4375
903.801	4287
903.919	4402
904.038	4402
904.156	4337
904.274	4428
904.392	4398
904.51	4470
904.627	4451
904.745	4577
904.863	4615
904.981	4440
905.098	4284
905.216	4398
905.334	4443
905.451	4440
905.569	4440
905.686	4546
905.803	4588
905.921	4421
906.038	4573
906.155	4455
906.272	4443
906.389	4478
906.506	4383
906.623	4398
906.74	4402
906.857	4333
906.974	4405
907.091	4569
907.208	4687
907.324	4603
907.441	4523
907.557	4356
907.674	4341
907.79	4360
907.907	4417
908.023	4523
908.139	4485
908.256	4443
908.372	4538
908.488	4470
908.604	4413
908.72	4379
908.836	4398
908.952	4424
909.068	4481
909.184	4634
909.3	4531
909.415	4615
909.531	4607
909.647	4367
909.762	4398
909.878	4363
909.993	4440
910.108	4489
910.224	4447
910.339	4546
910.454	4421
910.57	4394
910.685	4394
910.8	4710
910.915	4672
911.03	4531
911.145	4383
911.259	4379
911.374	4409
911.489	4356
911.604	4322
911.718	4200
911.833	4211
911.947	4181
912.062	4082
912.176	4268
912.291	4303
912.405	4284
912.519	4489
912.633	4565
912.748	4421
912.862	4360
912.976	4268
913.09	4147
913.204	4200
913.318	4303
913.431	4447
913.545	4447
913.659	4455
913.772	4402
913.886	4280
914	4268
914.113	4386
914.226	4489
914.34	4466
914.453	4265
914.566	4523
914.68	4371
914.793	4367
914.906	4177
915.019	4192
915.132	4109
915.245	4215
915.358	4257
915.47	4219
915.583	4329
915.696	4337
915.809	4489
915.921	4470
916.034	4318
916.146	4310
916.259	4280
916.371	4398
916.483	4375
916.595	4333
916.708	4360
916.82	4360
916.932	4356
917.044	4375
917.156	4402
917.268	4246
917.38	4379
917.491	4265
917.603	4341
917.715	4459
917.826	4493
917.938	4367
918.049	4284
918.161	4428
918.272	4580
918.384	4580
918.495	4508
918.606	4344
918.717	4257
918.828	4386
918.939	4360
919.05	4322
919.161	4386
919.272	4154
919.383	4227
919.494	4421
919.604	4641
919.715	4531
919.826	4447
919.936	4417
920.047	4573
920.157	4527
920.267	4710
920.378	4542
920.488	4550
920.598	4752
920.708	4957
920.818	4831
920.928	4786
921.038	5010
921.148	5014
921.258	4637
921.368	4599
921.477	4538
921.587	4489
921.697	4432
921.806	4569
921.916	4500
922.025	4314
922.134	4280
922.244	4249
922.353	4360
922.462	4211
922.571	4192
922.68	4013
922.789	4010
922.898	4055
923.007	4025
923.116	4147
923.224	4086
923.333	4097
923.442	4017
923.55	4036
923.659	4051
923.767	4120
923.876	4036
923.984	4147
924.092	4025
924.201	4109
924.309	4131
924.417	4173
924.525	4090
924.633	4154
924.741	5098
924.849	3949
924.956	4173
925.064	4010
925.172	3945
925.279	3979
925.387	4093
925.494	4078
925.602	4261
925.709	4158
925.816	4120
925.924	4166
926.031	4257
926.138	4207
926.245	4227
926.352	4143
926.459	4291
926.566	4299
926.673	4166
926.779	4128
926.886	4128
926.993	3991
927.099	3979
927.206	3979
927.312	3956
927.419	4082
927.525	4086
927.631	4086
927.737	3994
927.843	3975
927.95	3892
928.056	3991
928.162	4021
928.267	4128
928.373	4615
928.479	4173
928.585	3884
928.69	4032
928.796	4097
928.901	3998
929.007	3896
929.112	4032
929.218	3991
929.323	3972
929.428	3991
929.533	4128
929.638	3941
929.743	4036
929.848	4044
929.953	4040
930.058	3975
930.163	3838
930.267	3850
930.372	4010
930.477	3861
930.581	4158
930.685	4051
930.79	3854
930.894	3934
930.998	3884
931.103	4048
931.207	3743
931.311	3717
931.415	3724
931.519	3584
931.623	3637
