Data from test_V78500241_1615.txt Node
Date: Fri Mar 25 17:00:13 CST 2022
User: usil
Spectrometer: V785-0024
Trigger mode: 0
Integration Time (sec): 4.000000E-1
Scans to average: 1
Nonlinearity correction enabled: false
Boxcar width: 0
Storing dark spectrum: false
XAxis mode: Wavelengths
Number of Pixels in Spectrum: 1024
>>>>>Begin Spectral Data<<<<<
801.071	7993
801.214	8001
801.356	7864
801.499	7894
801.641	7807
801.783	7788
801.926	8012
802.068	7947
802.211	8008
802.353	7970
802.496	7845
802.638	7898
802.78	7970
802.923	7936
803.065	7845
803.208	7792
803.35	7932
803.492	8065
803.635	8153
803.777	8020
803.919	8062
804.061	8381
804.204	8176
804.346	7993
804.488	7947
804.63	8058
804.773	8027
804.915	8123
805.057	8267
805.199	8168
805.341	8195
805.483	8282
805.626	8275
805.768	8164
805.91	8199
806.052	8164
806.194	8081
806.336	8256
806.478	8119
806.62	8065
806.762	8195
806.904	8218
807.046	8488
807.188	8343
807.33	8324
807.472	8282
807.614	8100
807.756	8191
807.898	8008
808.04	7883
808.182	7909
808.324	7894
808.465	7963
808.607	8081
808.749	8111
808.891	8183
809.033	8275
809.174	8199
809.316	8103
809.458	8081
809.6	8020
809.741	7993
809.883	8054
810.025	8149
810.166	8024
810.308	8027
810.45	7978
810.591	7845
810.733	7693
810.875	7689
811.016	7552
811.158	7487
811.299	7521
811.441	7727
811.582	7651
811.724	7529
811.865	7438
812.007	7578
812.148	7552
812.29	7666
812.431	7666
812.573	7879
812.714	7951
812.855	8103
812.997	8240
813.138	8275
813.279	8240
813.421	8065
813.562	7967
813.703	7856
813.845	7712
813.986	7438
814.127	7232
814.268	7221
814.41	7179
814.551	7110
814.692	7198
814.833	7118
814.974	7019
815.115	7076
815.256	6943
815.397	6863
815.539	6882
815.68	6818
815.821	6795
815.962	6833
816.103	6810
816.244	6688
816.385	6578
816.526	6597
816.666	6429
816.807	6319
816.948	6464
817.089	6452
817.23	6426
817.371	6361
817.512	6376
817.653	6369
817.793	6323
817.934	6369
818.075	6441
818.216	6429
818.356	6414
818.497	6270
818.638	6079
818.778	6201
818.919	6175
819.06	6186
819.2	6315
819.341	6273
819.481	6384
819.622	6502
819.762	6776
819.903	6715
820.043	6597
820.184	6563
820.324	6555
820.465	6700
820.605	6692
820.746	6677
820.886	6532
821.026	6696
821.167	6707
821.307	6795
821.447	6818
821.588	6631
821.728	6574
821.868	6544
822.008	6338
822.149	6346
822.289	6300
822.429	6136
822.569	6041
822.709	6152
822.849	5969
822.99	5882
823.13	5942
823.27	5977
823.41	5764
823.55	5786
823.69	5809
823.83	5802
823.97	5699
824.11	5501
824.25	5482
824.389	5551
824.529	5573
824.669	5596
824.809	5668
824.949	5691
825.089	5642
825.228	5619
825.368	5433
825.508	5311
825.648	5368
825.787	5383
825.927	5410
826.067	5368
826.206	5296
826.346	5414
826.485	5379
826.625	5406
826.765	5562
826.904	5535
827.044	5296
827.183	5250
827.323	5136
827.462	5269
827.601	5181
827.741	5246
827.88	5235
828.02	5147
828.159	5269
828.298	5337
828.437	5402
828.577	5364
828.716	5551
828.855	5391
828.994	5166
829.134	5185
829.273	5231
829.412	5178
829.551	5185
829.69	5178
829.829	5277
829.968	5425
830.107	5292
830.246	5307
830.385	5235
830.524	5231
830.663	5083
830.802	5052
830.941	4927
831.08	4881
831.219	5014
831.357	5041
831.496	5197
831.635	4946
831.774	4881
831.913	4892
832.051	4755
832.19	4782
832.329	4892
832.467	4744
832.606	4656
832.744	4759
832.883	4801
833.022	4774
833.16	4820
833.299	4816
833.437	4873
833.576	4877
833.714	4847
833.852	4915
833.991	4946
834.129	5010
834.267	5022
834.406	4946
834.544	4976
834.682	5018
834.821	4980
834.959	5166
835.097	5067
835.235	5197
835.373	5117
835.511	5151
835.65	5090
835.788	5045
835.926	4919
836.064	4915
836.202	4927
836.34	5162
836.478	5220
836.615	5140
836.753	5261
836.891	5357
837.029	5292
837.167	5223
837.305	5155
837.443	5208
837.58	5143
837.718	5254
837.856	5239
837.993	5174
838.131	5280
838.269	5208
838.406	5216
838.544	5223
838.681	5033
838.819	5037
838.956	4862
839.094	4957
839.231	5029
839.369	5071
839.506	5455
839.643	5341
839.781	5079
839.918	5067
840.055	5124
840.193	5136
840.33	5079
840.467	5159
840.604	5216
840.742	5444
840.879	5117
841.016	5128
841.153	5212
841.29	5353
841.427	5337
841.564	5311
841.701	5353
841.838	5315
841.975	5185
842.112	5318
842.249	5155
842.385	5086
842.522	5322
842.659	5208
842.796	5185
842.933	5201
843.069	5227
843.206	5231
843.343	5296
843.479	5318
843.616	5296
843.752	5079
843.889	5003
844.025	5250
844.162	5075
844.298	5223
844.435	5102
844.571	5090
844.708	5284
844.844	5334
844.98	5326
845.117	5341
845.253	5242
845.389	5113
845.525	5201
845.661	5140
845.798	5094
845.934	5136
846.07	5048
846.206	5174
846.342	5364
846.478	5178
846.614	5045
846.75	4904
846.886	4999
847.022	5170
847.158	5056
847.294	5109
847.429	5220
847.565	5079
847.701	5292
847.837	4892
847.972	4786
848.108	4995
848.244	4972
848.379	4793
848.515	4801
848.65	4702
848.786	4805
848.921	4812
849.057	4949
849.192	4904
849.328	4847
849.463	4850
849.598	4755
849.734	4805
849.869	4725
850.004	4672
850.14	4725
850.275	4630
850.41	4569
850.545	4580
850.68	4649
850.815	4649
850.95	4626
851.085	4889
851.22	4801
851.355	4679
851.49	4664
851.625	4618
851.76	4649
851.895	4611
852.03	4599
852.165	4687
852.299	4759
852.434	4824
852.569	4793
852.703	4767
852.838	4904
852.973	4938
853.107	4930
853.242	4801
853.376	4683
853.511	4561
853.645	4626
853.78	4816
853.914	4752
854.048	4664
854.183	4706
854.317	4725
854.451	4873
854.585	4691
854.72	4668
854.854	4782
854.988	4607
855.122	4649
855.256	4550
855.39	4641
855.524	4790
855.658	4744
855.792	4748
855.926	4786
856.06	4774
856.194	4816
856.327	4714
856.461	4577
856.595	4687
856.729	4634
856.862	4744
856.996	4706
857.13	4702
857.263	4793
857.397	4870
857.53	4683
857.664	4748
857.797	4763
857.931	4782
858.064	4698
858.197	4698
858.331	4668
858.464	4653
858.597	4634
858.731	4649
858.864	4611
858.997	4687
859.13	4706
859.263	4679
859.396	4729
859.529	4626
859.662	4554
859.795	4558
859.928	4679
860.061	4767
860.194	4805
860.327	4641
860.46	4565
860.592	4774
860.725	4759
860.858	4694
860.99	4577
861.123	4554
861.256	4603
861.388	4660
861.521	5212
861.653	4462
861.786	4417
861.918	4493
862.05	4569
862.183	4618
862.315	4615
862.447	4653
862.58	4565
862.712	4455
862.844	4363
862.976	4485
863.108	4459
863.24	4774
863.372	4356
863.504	4462
863.636	4428
863.768	4508
863.9	4455
864.032	4375
864.164	4405
864.296	4489
864.428	4554
864.559	4603
864.691	4588
864.823	4523
864.954	4519
865.086	4584
865.217	4474
865.349	4451
865.48	4478
865.612	4481
865.743	4626
865.875	4489
866.006	4440
866.137	4466
866.269	4447
866.4	4443
866.531	4459
866.662	4428
866.793	4383
866.924	4455
867.055	4558
867.186	4470
867.317	4455
867.448	4424
867.579	4398
867.71	4451
867.841	4409
867.972	4489
868.103	4527
868.233	4493
868.364	4478
868.495	4538
868.625	4645
868.756	4850
868.886	4577
869.017	4649
869.147	4820
869.278	4820
869.408	4698
869.539	4687
869.669	4740
869.799	4714
869.929	4786
870.06	4733
870.19	4961
870.32	4930
870.45	4953
870.58	5033
870.71	5128
870.84	5109
870.97	4961
871.1	4896
871.23	5143
871.36	5147
871.489	5029
871.619	5102
871.749	5140
871.879	5147
872.008	5189
872.138	5056
872.267	5006
872.397	4866
872.526	4839
872.656	4752
872.785	4805
872.915	4976
873.044	5052
873.173	4946
873.303	4987
873.432	5006
873.561	4896
873.69	4908
873.819	4873
873.948	4976
874.077	4824
874.206	4805
874.335	4835
874.464	4991
874.593	5105
874.722	4938
874.851	5098
874.979	5086
875.108	5083
875.237	4946
875.365	4904
875.494	4908
875.623	4961
875.751	4873
875.88	4904
876.008	5003
876.136	4972
876.265	5239
876.393	5364
876.521	5296
876.65	5254
876.778	5155
876.906	5094
877.034	5086
877.162	5033
877.29	4976
877.418	5105
877.546	5045
877.674	5105
877.802	5045
877.93	4999
878.058	4881
878.185	4847
878.313	4934
878.441	4987
878.568	4847
878.696	4881
878.824	5010
878.951	4991
879.079	5185
879.206	5353
879.333	5136
879.461	5029
879.588	5018
879.715	5151
879.842	5242
879.97	4995
880.097	4793
880.224	4759
880.351	4843
880.478	4896
880.605	4805
880.732	4752
880.859	5132
880.986	4889
881.112	4896
881.239	4820
881.366	4668
881.493	4656
881.619	4603
881.746	4660
881.872	4698
881.999	4683
882.125	4714
882.252	4828
882.378	4847
882.505	4949
882.631	4755
882.757	4729
882.883	4725
883.01	4740
883.136	4706
883.262	4626
883.388	4641
883.514	4873
883.64	4862
883.766	4820
883.892	4717
884.018	4721
884.143	4866
884.269	4999
884.395	4687
884.52	4622
884.646	4687
884.772	4603
884.897	4592
885.023	4656
885.148	4778
885.274	4843
885.399	4801
885.524	4702
885.65	4698
885.775	4778
885.9	4774
886.025	4892
886.15	4805
886.275	4744
886.4	4691
886.525	4721
886.65	4664
886.775	4694
886.9	4892
887.025	5010
887.149	4862
887.274	4653
887.399	4592
887.523	4615
887.648	4607
887.773	4588
887.897	4797
888.021	4793
888.146	4691
888.27	4835
888.395	4904
888.519	4847
888.643	4812
888.767	4828
888.891	4717
889.015	4569
889.139	4656
889.263	4584
889.387	4752
889.511	4919
889.635	4790
889.759	4607
889.883	4641
890.006	4778
890.13	4831
890.254	4694
890.377	4675
890.501	4592
890.624	4512
890.748	4603
890.871	4512
890.995	4462
891.118	4398
891.241	4542
891.364	4550
891.488	4660
891.611	4527
891.734	4622
891.857	4637
891.98	4565
892.103	4637
892.226	4626
892.349	4542
892.471	4375
892.594	4573
892.717	4622
892.839	4603
892.962	4615
893.085	4698
893.207	4634
893.33	4459
893.452	4523
893.575	4630
893.697	4649
893.819	4820
893.941	4831
894.064	4786
894.186	4618
894.308	4577
894.43	4721
894.552	4847
894.674	4763
894.796	4569
894.918	4615
895.04	4569
895.161	4672
895.283	4664
895.405	4588
895.526	4622
895.648	4675
895.769	4744
895.891	4683
896.012	4778
896.134	4725
896.255	4694
896.376	4630
896.498	4630
896.619	4710
896.74	4611
896.861	4653
896.982	4919
897.103	5064
897.224	4866
897.345	4748
897.466	4672
897.587	4725
897.708	4843
897.828	4710
897.949	4679
898.07	4565
898.19	4649
898.311	4839
898.431	4687
898.552	4717
898.672	4812
898.792	4763
898.913	4714
899.033	4637
899.153	4504
899.273	4504
899.393	4504
899.513	4538
899.633	4519
899.753	4516
899.873	4535
899.993	4656
900.113	4489
900.232	4558
900.352	4508
900.472	4523
900.591	4398
900.711	4504
900.83	4466
900.95	4649
901.069	4752
901.189	4512
901.308	4383
901.427	4344
901.546	4409
901.665	4455
901.784	4508
901.904	4398
902.023	4299
902.141	4204
902.26	4173
902.379	4341
902.498	4242
902.617	4234
902.735	4348
902.854	4390
902.973	4356
903.091	4204
903.21	4204
903.328	4337
903.446	4249
903.565	4276
903.683	4379
903.801	4318
903.919	4451
904.038	4451
904.156	4325
904.274	4424
904.392	4443
904.51	4409
904.627	4462
904.745	4550
904.863	4641
904.981	4379
905.098	4306
905.216	4375
905.334	4379
905.451	4451
905.569	4432
905.686	4554
905.803	4584
905.921	4459
906.038	4550
906.155	4500
906.272	4375
906.389	4508
906.506	4386
906.623	4363
906.74	4375
906.857	4352
906.974	4417
907.091	4554
907.208	4653
907.324	4573
907.441	4474
907.557	4310
907.674	4428
907.79	4303
907.907	4421
908.023	4478
908.139	4512
908.256	4428
908.372	4459
908.488	4421
908.604	4325
908.72	4337
908.836	4367
908.952	4390
909.068	4455
909.184	4611
909.3	4447
909.415	4580
909.531	4584
909.647	4383
909.762	4367
909.878	4299
909.993	4428
910.108	4413
910.224	4428
910.339	4489
910.454	4421
910.57	4394
910.685	4276
910.8	4611
910.915	4592
911.03	4481
911.145	4337
911.259	4363
911.374	4409
911.489	4348
911.604	4265
911.718	4158
911.833	4223
911.947	4090
912.062	4067
912.176	4192
912.291	4200
912.405	4280
912.519	4394
912.633	4497
912.748	4402
912.862	4356
912.976	4207
913.09	4143
913.204	4200
913.318	4272
913.431	4428
913.545	4344
913.659	4432
913.772	4363
913.886	4230
914	4227
914.113	4325
914.226	4459
914.34	4394
914.453	4246
914.566	4451
914.68	4322
914.793	4291
914.906	4192
915.019	4120
915.132	4101
915.245	4158
915.358	4223
915.47	4200
915.583	4268
915.696	4318
915.809	4413
915.921	4436
916.034	4265
916.146	4238
916.259	4230
916.371	4360
916.483	4360
916.595	4230
916.708	4318
916.82	4341
916.932	4310
917.044	4287
917.156	4348
917.268	4200
917.38	4261
917.491	4242
917.603	4337
917.715	4417
917.826	4443
917.938	4348
918.049	4242
918.161	4413
918.272	4527
918.384	4542
918.495	4447
918.606	4318
918.717	4249
918.828	4344
918.939	4371
919.05	4276
919.161	4318
919.272	4162
919.383	4234
919.494	4405
919.604	4626
919.715	4424
919.826	4383
919.936	4405
920.047	4519
920.157	4478
920.267	4714
920.378	4546
920.488	4504
920.598	4725
920.708	4900
920.818	4740
920.928	4755
921.038	4900
921.148	4896
921.258	4607
921.368	4580
921.477	4497
921.587	4474
921.697	4371
921.806	4535
921.916	4421
922.025	4295
922.134	4219
922.244	4196
922.353	4329
922.462	4181
922.571	4139
922.68	4002
922.789	3983
922.898	4090
923.007	4017
923.116	4048
923.224	4067
923.333	4067
923.442	3987
923.55	4002
923.659	4051
923.767	4090
923.876	4025
923.984	4131
924.092	3994
924.201	4071
924.309	4086
924.417	4188
924.525	4059
924.633	4074
924.741	4923
924.849	3926
924.956	4120
925.064	3994
925.172	3918
925.279	3937
925.387	4055
925.494	4036
925.602	4143
925.709	4196
925.816	4025
925.924	4124
926.031	4253
926.138	4154
926.245	4227
926.352	4078
926.459	4238
926.566	4306
926.673	4131
926.779	4090
926.886	4032
926.993	3968
927.099	3941
927.206	3968
927.312	3972
927.419	4078
927.525	4040
927.631	4112
927.737	3941
927.843	3960
927.95	3827
928.056	3934
928.162	3979
928.267	4055
928.373	4626
928.479	4166
928.585	3884
928.69	4055
928.796	4116
928.901	4010
929.007	3884
929.112	4036
929.218	3998
929.323	3956
929.428	3926
929.533	4086
929.638	3930
929.743	3983
929.848	4051
929.953	4002
930.058	3945
930.163	3774
930.267	3785
930.372	3968
930.477	3827
930.581	4093
930.685	3930
930.79	3781
930.894	3907
930.998	3907
931.103	4044
931.207	3740
931.311	3656
931.415	3660
931.519	3534
931.623	3557
