Data from test_V78500241_2041.txt Node
Date: Fri Mar 25 17:03:11 CST 2022
User: usil
Spectrometer: V785-0024
Trigger mode: 0
Integration Time (sec): 4.000000E-1
Scans to average: 1
Nonlinearity correction enabled: false
Boxcar width: 0
Storing dark spectrum: false
XAxis mode: Wavelengths
Number of Pixels in Spectrum: 1024
>>>>>Begin Spectral Data<<<<<
801.071	8005
801.214	8012
801.356	7852
801.499	7868
801.641	7788
801.783	7871
801.926	7928
802.068	7944
802.211	8039
802.353	8069
802.496	7890
802.638	7951
802.78	7928
802.923	7921
803.065	7875
803.208	7898
803.35	8016
803.492	8134
803.635	8195
803.777	8005
803.919	8153
804.061	8442
804.204	8240
804.346	8130
804.488	7940
804.63	8100
804.773	8043
804.915	8202
805.057	8301
805.199	8206
805.341	8176
805.483	8271
805.626	8180
805.768	8145
805.91	8221
806.052	8252
806.194	8123
806.336	8313
806.478	8096
806.62	8134
806.762	8214
806.904	8225
807.046	8461
807.188	8412
807.33	8347
807.472	8362
807.614	8142
807.756	8161
807.898	8024
808.04	7944
808.182	7951
808.324	7894
808.465	7906
808.607	8062
808.749	8126
808.891	8290
809.033	8313
809.174	8221
809.316	8027
809.458	8103
809.6	8031
809.741	8031
809.883	8107
810.025	8107
810.166	8054
810.308	7963
810.45	7993
810.591	7864
810.733	7731
810.875	7613
811.016	7514
811.158	7419
811.299	7563
811.441	7651
811.582	7670
811.724	7639
811.865	7529
812.007	7552
812.148	7556
812.29	7636
812.431	7742
812.573	7852
812.714	8012
812.855	8111
812.997	8149
813.138	8279
813.279	8164
813.421	8084
813.562	7951
813.703	7902
813.845	7738
813.986	7438
814.127	7244
814.268	7255
814.41	7202
814.551	7206
814.692	7221
814.833	7110
814.974	7213
815.115	7152
815.256	7027
815.397	6981
815.539	6924
815.68	6802
815.821	6802
815.962	6821
816.103	6844
816.244	6745
816.385	6646
816.526	6597
816.666	6551
816.807	6331
816.948	6471
817.089	6448
817.23	6456
817.371	6380
817.512	6384
817.653	6365
817.793	6338
817.934	6418
818.075	6494
818.216	6452
818.356	6429
818.497	6296
818.638	6076
818.778	6140
818.919	6163
819.06	6159
819.2	6334
819.341	6319
819.481	6372
819.622	6578
819.762	6734
819.903	6665
820.043	6612
820.184	6593
820.324	6623
820.465	6700
820.605	6703
820.746	6620
820.886	6532
821.026	6688
821.167	6707
821.307	6859
821.447	6741
821.588	6715
821.728	6604
821.868	6528
822.008	6311
822.149	6426
822.289	6388
822.429	6159
822.569	6144
822.709	6159
822.849	5920
822.99	5920
823.13	5927
823.27	5935
823.41	5813
823.55	5783
823.69	5767
823.83	5809
823.97	5680
824.11	5535
824.25	5497
824.389	5581
824.529	5596
824.669	5509
824.809	5627
824.949	5668
825.089	5623
825.228	5551
825.368	5414
825.508	5383
825.648	5402
825.787	5383
825.927	5455
826.067	5383
826.206	5334
826.346	5444
826.485	5395
826.625	5501
826.765	5535
826.904	5543
827.044	5265
827.183	5265
827.323	5143
827.462	5223
827.601	5151
827.741	5166
827.88	5246
828.02	5151
828.159	5231
828.298	5303
828.437	5395
828.577	5261
828.716	5486
828.855	5349
828.994	5143
829.134	5166
829.273	5261
829.412	5185
829.551	5162
829.69	5231
829.829	5307
829.968	5398
830.107	5307
830.246	5311
830.385	5185
830.524	5132
830.663	5109
830.802	5003
830.941	4904
831.08	4919
831.219	4991
831.357	5006
831.496	5147
831.635	4987
831.774	4892
831.913	4854
832.051	4725
832.19	4736
832.329	4854
832.467	4691
832.606	4634
832.744	4782
832.883	4744
833.022	4752
833.16	4812
833.299	4839
833.437	4839
833.576	4870
833.714	4923
833.852	4877
833.991	4942
834.129	4938
834.267	4972
834.406	4957
834.544	5018
834.682	5014
834.821	4976
834.959	5193
835.097	4976
835.235	5121
835.373	5121
835.511	5098
835.65	5025
835.788	5052
835.926	4915
836.064	4896
836.202	4938
836.34	5231
836.478	5223
836.615	5102
836.753	5185
836.891	5296
837.029	5280
837.167	5223
837.305	5181
837.443	5170
837.58	5132
837.718	5254
837.856	5208
837.993	5197
838.131	5231
838.269	5208
838.406	5223
838.544	5136
838.681	5071
838.819	5018
838.956	4919
839.094	4904
839.231	4976
839.369	5098
839.506	5425
839.643	5239
839.781	5147
839.918	5037
840.055	5105
840.193	5102
840.33	5075
840.467	5174
840.604	5185
840.742	5410
840.879	5052
841.016	5151
841.153	5181
841.29	5372
841.427	5307
841.564	5326
841.701	5360
841.838	5296
841.975	5261
842.112	5261
842.249	5151
842.385	5128
842.522	5307
842.659	5170
842.796	5185
842.933	5220
843.069	5174
843.206	5166
843.343	5273
843.479	5254
843.616	5330
843.752	5045
843.889	5003
844.025	5151
844.162	5029
844.298	5292
844.435	5121
844.571	5109
844.708	5242
844.844	5292
844.98	5330
845.117	5296
845.253	5178
845.389	5067
845.525	5189
845.661	5128
845.798	5041
845.934	5124
846.07	5048
846.206	5231
846.342	5269
846.478	5208
846.614	5048
846.75	4972
846.886	4972
847.022	5189
847.158	5003
847.294	5075
847.429	5098
847.565	5045
847.701	5303
847.837	4866
847.972	4805
848.108	4957
848.244	4942
848.379	4793
848.515	4721
848.65	4752
848.786	4740
848.921	4790
849.057	4881
849.192	4854
849.328	4854
849.463	4828
849.598	4774
849.734	4831
849.869	4706
850.004	4603
850.14	4675
850.275	4641
850.41	4531
850.545	4565
850.68	4542
850.815	4603
850.95	4580
851.085	4801
851.22	4717
851.355	4649
851.49	4656
851.625	4683
851.76	4649
851.895	4558
852.03	4580
852.165	4668
852.299	4759
852.434	4786
852.569	4763
852.703	4752
852.838	4831
852.973	4965
853.107	4892
853.242	4767
853.376	4660
853.511	4611
853.645	4630
853.78	4812
853.914	4729
854.048	4710
854.183	4622
854.317	4725
854.451	4854
854.585	4683
854.72	4641
854.854	4771
854.988	4634
855.122	4630
855.256	4538
855.39	4691
855.524	4736
855.658	4683
855.792	4706
855.926	4725
856.06	4797
856.194	4790
856.327	4691
856.461	4592
856.595	4592
856.729	4691
856.862	4752
856.996	4698
857.13	4763
857.263	4778
857.397	4790
857.53	4630
857.664	4752
857.797	4755
857.931	4805
858.064	4717
858.197	4736
858.331	4702
858.464	4626
858.597	4554
858.731	4592
858.864	4603
858.997	4599
859.13	4637
859.263	4694
859.396	4740
859.529	4611
859.662	4577
859.795	4493
859.928	4622
860.061	4755
860.194	4797
860.327	4618
860.46	4565
860.592	4740
860.725	4740
860.858	4733
860.99	4603
861.123	4527
861.256	4504
861.388	4603
861.521	5265
861.653	4504
861.786	4447
861.918	4470
862.05	4561
862.183	4535
862.315	4599
862.447	4710
862.58	4535
862.712	4428
862.844	4310
862.976	4451
863.108	4394
863.24	4797
863.372	4287
863.504	4409
863.636	4432
863.768	4504
863.9	4436
864.032	4405
864.164	4436
864.296	4508
864.428	4561
864.559	4565
864.691	4500
864.823	4550
864.954	4497
865.086	4516
865.217	4462
865.349	4421
865.48	4459
865.612	4508
865.743	4649
865.875	4508
866.006	4383
866.137	4440
866.269	4485
866.4	4493
866.531	4440
866.662	4379
866.793	4390
866.924	4402
867.055	4493
867.186	4428
867.317	4417
867.448	4390
867.579	4356
867.71	4383
867.841	4413
867.972	4478
868.103	4500
868.233	4447
868.364	4451
868.495	4512
868.625	4687
868.756	4717
868.886	4546
869.017	4641
869.147	4759
869.278	4744
869.408	4679
869.539	4653
869.669	4729
869.799	4672
869.929	4786
870.06	4744
870.19	4991
870.32	4968
870.45	4881
870.58	5006
870.71	5105
870.84	5121
870.97	4965
871.1	4877
871.23	5151
871.36	5143
871.489	5014
871.619	5113
871.749	5109
871.879	5124
872.008	5220
872.138	5029
872.267	4938
872.397	4862
872.526	4809
872.656	4733
872.785	4797
872.915	4930
873.044	4968
873.173	4972
873.303	5018
873.432	4949
873.561	4995
873.69	4885
873.819	4858
873.948	4892
874.077	4816
874.206	4771
874.335	4786
874.464	4923
874.593	5029
874.722	4987
874.851	5067
874.979	5018
875.108	5037
875.237	4900
875.365	4908
875.494	4877
875.623	4946
875.751	4809
875.88	4908
876.008	4991
876.136	4991
876.265	5178
876.393	5318
876.521	5223
876.65	5254
876.778	5117
876.906	5083
877.034	5060
877.162	5033
877.29	5003
877.418	5056
877.546	5010
877.674	5056
877.802	5086
877.93	5025
878.058	4980
878.185	4854
878.313	4976
878.441	4965
878.568	4820
878.696	4911
878.824	4972
878.951	5022
879.079	5162
879.206	5292
879.333	5010
879.461	4968
879.588	5022
879.715	5094
879.842	5223
879.97	5025
880.097	4740
880.224	4828
880.351	4793
880.478	4824
880.605	4797
880.732	4786
880.859	5075
880.986	4923
881.112	4957
881.239	4782
881.366	4660
881.493	4603
881.619	4573
881.746	4615
881.872	4615
881.999	4656
882.125	4733
882.252	4809
882.378	4816
882.505	4927
882.631	4790
882.757	4660
882.883	4717
883.01	4706
883.136	4637
883.262	4561
883.388	4664
883.514	4797
883.64	4816
883.766	4816
883.892	4656
884.018	4733
884.143	4946
884.269	5003
884.395	4710
884.52	4626
884.646	4656
884.772	4603
884.897	4573
885.023	4687
885.148	4793
885.274	4862
885.399	4763
885.524	4714
885.65	4675
885.775	4755
885.9	4710
886.025	4870
886.15	4717
886.275	4675
886.4	4656
886.525	4687
886.65	4725
886.775	4691
886.9	4892
887.025	5086
887.149	4774
887.274	4634
887.399	4580
887.523	4603
887.648	4550
887.773	4561
887.897	4763
888.021	4786
888.146	4694
888.27	4828
888.395	4896
888.519	4809
888.643	4828
888.767	4793
888.891	4660
889.015	4626
889.139	4622
889.263	4584
889.387	4748
889.511	4843
889.635	4820
889.759	4554
889.883	4637
890.006	4725
890.13	4835
890.254	4611
890.377	4706
890.501	4531
890.624	4535
890.748	4653
890.871	4527
890.995	4413
891.118	4348
891.241	4497
891.364	4569
891.488	4660
891.611	4512
891.734	4538
891.857	4592
891.98	4611
892.103	4637
892.226	4615
892.349	4485
892.471	4428
892.594	4599
892.717	4577
892.839	4546
892.962	4523
893.085	4664
893.207	4634
893.33	4421
893.452	4504
893.575	4607
893.697	4565
893.819	4771
893.941	4847
894.064	4748
894.186	4558
894.308	4527
894.43	4729
894.552	4801
894.674	4733
894.796	4531
894.918	4649
895.04	4561
895.161	4706
895.283	4645
895.405	4542
895.526	4618
895.648	4694
895.769	4668
895.891	4691
896.012	4683
896.134	4694
896.255	4683
896.376	4691
896.498	4588
896.619	4641
896.74	4626
896.861	4656
896.982	4995
897.103	5003
897.224	4854
897.345	4679
897.466	4641
897.587	4733
897.708	4835
897.828	4820
897.949	4679
898.07	4565
898.19	4641
898.311	4790
898.431	4653
898.552	4736
898.672	4820
898.792	4809
898.913	4725
899.033	4615
899.153	4508
899.273	4413
899.393	4489
899.513	4542
899.633	4535
899.753	4516
899.873	4519
899.993	4565
900.113	4531
900.232	4588
900.352	4611
900.472	4493
900.591	4417
900.711	4466
900.83	4421
900.95	4615
901.069	4653
901.189	4519
901.308	4398
901.427	4306
901.546	4337
901.665	4455
901.784	4508
901.904	4383
902.023	4303
902.141	4215
902.26	4143
902.379	4310
902.498	4219
902.617	4207
902.735	4356
902.854	4421
902.973	4325
903.091	4223
903.21	4253
903.328	4287
903.446	4261
903.565	4291
903.683	4363
903.801	4230
903.919	4363
904.038	4451
904.156	4325
904.274	4413
904.392	4386
904.51	4409
904.627	4455
904.745	4599
904.863	4615
904.981	4405
905.098	4329
905.216	4356
905.334	4379
905.451	4470
905.569	4436
905.686	4561
905.803	4538
905.921	4443
906.038	4519
906.155	4493
906.272	4421
906.389	4447
906.506	4348
906.623	4390
906.74	4417
906.857	4276
906.974	4322
907.091	4569
907.208	4675
907.324	4538
907.441	4504
907.557	4367
907.674	4348
907.79	4333
907.907	4432
908.023	4459
908.139	4451
908.256	4409
908.372	4424
908.488	4421
908.604	4375
908.72	4306
908.836	4417
908.952	4371
909.068	4417
909.184	4561
909.3	4485
909.415	4565
909.531	4558
909.647	4367
909.762	4402
909.878	4360
909.993	4402
910.108	4413
910.224	4417
910.339	4462
910.454	4363
910.57	4360
910.685	4299
910.8	4630
910.915	4580
911.03	4493
911.145	4322
911.259	4348
911.374	4379
911.489	4322
911.604	4303
911.718	4207
911.833	4207
911.947	4036
912.062	4055
912.176	4227
912.291	4188
912.405	4230
912.519	4417
912.633	4519
912.748	4383
912.862	4379
912.976	4150
913.09	4093
913.204	4147
913.318	4257
913.431	4371
913.545	4390
913.659	4428
913.772	4341
913.886	4238
914	4249
914.113	4402
914.226	4417
914.34	4402
914.453	4227
914.566	4424
914.68	4268
914.793	4352
914.906	4143
915.019	4143
915.132	4101
915.245	4150
915.358	4219
915.47	4261
915.583	4299
915.696	4280
915.809	4409
915.921	4451
916.034	4287
916.146	4261
916.259	4177
916.371	4386
916.483	4337
916.595	4284
916.708	4333
916.82	4291
916.932	4276
917.044	4265
917.156	4310
917.268	4257
917.38	4253
917.491	4284
917.603	4318
917.715	4379
917.826	4428
917.938	4352
918.049	4242
918.161	4371
918.272	4573
918.384	4596
918.495	4451
918.606	4318
918.717	4230
918.828	4295
918.939	4356
919.05	4276
919.161	4329
919.272	4128
919.383	4204
919.494	4451
919.604	4588
919.715	4390
919.826	4303
919.936	4402
920.047	4531
920.157	4466
920.267	4675
920.378	4542
920.488	4474
920.598	4736
920.708	4889
920.818	4778
920.928	4725
921.038	4968
921.148	4877
921.258	4618
921.368	4527
921.477	4516
921.587	4493
921.697	4356
921.806	4542
921.916	4489
922.025	4314
922.134	4268
922.244	4223
922.353	4337
922.462	4143
922.571	4143
922.68	4010
922.789	3979
922.898	4029
923.007	4032
923.116	4051
923.224	4051
923.333	4036
923.442	3987
923.55	4010
923.659	4002
923.767	4090
923.876	3994
923.984	4086
924.092	3987
924.201	4025
924.309	4059
924.417	4116
924.525	4074
924.633	4051
924.741	5018
924.849	3846
924.956	4143
925.064	3922
925.172	3903
925.279	4002
925.387	4059
925.494	4063
925.602	4200
925.709	4166
925.816	4032
925.924	4124
926.031	4246
926.138	4109
926.245	4204
926.352	4097
926.459	4246
926.566	4265
926.673	4131
926.779	4093
926.886	4078
926.993	3960
927.099	3945
927.206	3934
927.312	3926
927.419	4044
927.525	4021
927.631	4051
927.737	3991
927.843	3949
927.95	3781
928.056	3930
928.162	3994
928.267	4048
928.373	4596
928.479	4082
928.585	3880
928.69	4036
928.796	4101
928.901	3926
929.007	3846
929.112	3983
929.218	3930
929.323	3907
929.428	3896
929.533	4116
929.638	3873
929.743	3953
929.848	3987
929.953	3998
930.058	3934
930.163	3766
930.267	3759
930.372	3953
930.477	3808
930.581	4044
930.685	3911
930.79	3827
930.894	3819
930.998	3827
931.103	4013
931.207	3724
931.311	3694
931.415	3652
931.519	3523
931.623	3553
