Data from test_V78500241_1929.txt Node
Date: Fri Mar 25 17:02:24 CST 2022
User: usil
Spectrometer: V785-0024
Trigger mode: 0
Integration Time (sec): 4.000000E-1
Scans to average: 1
Nonlinearity correction enabled: false
Boxcar width: 0
Storing dark spectrum: false
XAxis mode: Wavelengths
Number of Pixels in Spectrum: 1024
>>>>>Begin Spectral Data<<<<<
801.071	7982
801.214	7955
801.356	7917
801.499	7849
801.641	7769
801.783	7811
801.926	7967
802.068	7906
802.211	7970
802.353	7970
802.496	7826
802.638	7818
802.78	7898
802.923	7921
803.065	7875
803.208	7860
803.35	7925
803.492	8024
803.635	8024
803.777	8035
803.919	8115
804.061	8465
804.204	8145
804.346	8088
804.488	7967
804.63	8081
804.773	7967
804.915	8100
805.057	8279
805.199	8199
805.341	8172
805.483	8221
805.626	8252
805.768	8202
805.91	8134
806.052	8180
806.194	8081
806.336	8301
806.478	8145
806.62	8005
806.762	8172
806.904	8244
807.046	8507
807.188	8385
807.33	8366
807.472	8339
807.614	8191
807.756	8221
807.898	8005
808.04	7906
808.182	7894
808.324	7856
808.465	7974
808.607	8077
808.749	8031
808.891	8180
809.033	8343
809.174	8161
809.316	8065
809.458	8138
809.6	8027
809.741	8088
809.883	8008
810.025	8046
810.166	7997
810.308	7993
810.45	8016
810.591	7807
810.733	7715
810.875	7655
811.016	7499
811.158	7499
811.299	7563
811.441	7670
811.582	7662
811.724	7601
811.865	7502
812.007	7540
812.148	7567
812.29	7548
812.431	7753
812.573	7894
812.714	7959
812.855	8123
812.997	8164
813.138	8317
813.279	8123
813.421	8027
813.562	7951
813.703	7780
813.845	7727
813.986	7441
814.127	7190
814.268	7141
814.41	7175
814.551	7209
814.692	7202
814.833	7072
814.974	7046
815.115	7126
815.256	6989
815.397	6909
815.539	6947
815.68	6776
815.821	6749
815.962	6886
816.103	6821
816.244	6688
816.385	6578
816.526	6585
816.666	6479
816.807	6232
816.948	6486
817.089	6437
817.23	6426
817.371	6380
817.512	6399
817.653	6372
817.793	6319
817.934	6331
818.075	6410
818.216	6388
818.356	6467
818.497	6319
818.638	6102
818.778	6140
818.919	6186
819.06	6110
819.2	6224
819.341	6334
819.481	6403
819.622	6547
819.762	6730
819.903	6745
820.043	6616
820.184	6585
820.324	6585
820.465	6635
820.605	6703
820.746	6627
820.886	6490
821.026	6696
821.167	6681
821.307	6810
821.447	6734
821.588	6601
821.728	6597
821.868	6479
822.008	6319
822.149	6372
822.289	6331
822.429	6117
822.569	6163
822.709	6087
822.849	5927
822.99	5870
823.13	5893
823.27	5893
823.41	5813
823.55	5790
823.69	5783
823.83	5771
823.97	5661
824.11	5509
824.25	5528
824.389	5570
824.529	5539
824.669	5516
824.809	5615
824.949	5649
825.089	5649
825.228	5585
825.368	5436
825.508	5414
825.648	5368
825.787	5349
825.927	5414
826.067	5372
826.206	5315
826.346	5406
826.485	5402
826.625	5414
826.765	5562
826.904	5471
827.044	5284
827.183	5265
827.323	5185
827.462	5261
827.601	5227
827.741	5258
827.88	5292
828.02	5147
828.159	5223
828.298	5372
828.437	5406
828.577	5368
828.716	5539
828.855	5303
828.994	5227
829.134	5147
829.273	5277
829.412	5174
829.551	5132
829.69	5178
829.829	5273
829.968	5425
830.107	5349
830.246	5250
830.385	5235
830.524	5128
830.663	5098
830.802	4980
830.941	4957
831.08	4915
831.219	4991
831.357	5075
831.496	5174
831.635	4976
831.774	4877
831.913	4889
832.051	4767
832.19	4774
832.329	4847
832.467	4694
832.606	4656
832.744	4744
832.883	4714
833.022	4748
833.16	4793
833.299	4908
833.437	4858
833.576	4862
833.714	4934
833.852	4885
833.991	4908
834.129	4949
834.267	4942
834.406	5003
834.544	4995
834.682	5067
834.821	5037
834.959	5162
835.097	5052
835.235	5128
835.373	5124
835.511	5117
835.65	5033
835.788	5090
835.926	4953
836.064	4885
836.202	4927
836.34	5216
836.478	5254
836.615	5166
836.753	5231
836.891	5322
837.029	5288
837.167	5197
837.305	5204
837.443	5140
837.58	5048
837.718	5227
837.856	5204
837.993	5223
838.131	5292
838.269	5235
838.406	5242
838.544	5208
838.681	5022
838.819	4980
838.956	4934
839.094	4930
839.231	5029
839.369	5094
839.506	5444
839.643	5303
839.781	5132
839.918	4999
840.055	5181
840.193	5178
840.33	5094
840.467	5204
840.604	5201
840.742	5501
840.879	5147
841.016	5109
841.153	5189
841.29	5395
841.427	5357
841.564	5337
841.701	5349
841.838	5299
841.975	5284
842.112	5277
842.249	5193
842.385	5098
842.522	5330
842.659	5231
842.796	5166
842.933	5197
843.069	5166
843.206	5204
843.343	5353
843.479	5242
843.616	5239
843.752	5025
843.889	5094
844.025	5254
844.162	5025
844.298	5258
844.435	5090
844.571	5109
844.708	5235
844.844	5296
844.98	5334
845.117	5357
845.253	5185
845.389	5113
845.525	5159
845.661	5162
845.798	5098
845.934	5189
846.07	5041
846.206	5227
846.342	5337
846.478	5220
846.614	5010
846.75	4991
846.886	5003
847.022	5197
847.158	5052
847.294	5071
847.429	5140
847.565	5105
847.701	5353
847.837	4896
847.972	4866
848.108	4965
848.244	4927
848.379	4793
848.515	4793
848.65	4740
848.786	4812
848.921	4843
849.057	4896
849.192	4900
849.328	4862
849.463	4885
849.598	4812
849.734	4774
849.869	4740
850.004	4618
850.14	4698
850.275	4675
850.41	4523
850.545	4607
850.68	4607
850.815	4694
850.95	4622
851.085	4904
851.22	4752
851.355	4706
851.49	4664
851.625	4664
851.76	4702
851.895	4577
852.03	4565
852.165	4675
852.299	4774
852.434	4790
852.569	4778
852.703	4843
852.838	4854
852.973	4946
853.107	4930
853.242	4729
853.376	4687
853.511	4573
853.645	4649
853.78	4809
853.914	4767
854.048	4664
854.183	4672
854.317	4721
854.451	4892
854.585	4717
854.72	4668
854.854	4820
854.988	4607
855.122	4645
855.256	4542
855.39	4691
855.524	4790
855.658	4710
855.792	4675
855.926	4763
856.06	4771
856.194	4824
856.327	4748
856.461	4630
856.595	4637
856.729	4679
856.862	4752
856.996	4679
857.13	4774
857.263	4752
857.397	4805
857.53	4687
857.664	4702
857.797	4752
857.931	4858
858.064	4698
858.197	4744
858.331	4622
858.464	4634
858.597	4558
858.731	4702
858.864	4679
858.997	4645
859.13	4668
859.263	4752
859.396	4721
859.529	4645
859.662	4622
859.795	4599
859.928	4664
860.061	4801
860.194	4752
860.327	4679
860.46	4577
860.592	4740
860.725	4763
860.858	4729
860.99	4611
861.123	4558
861.256	4596
861.388	4607
861.521	5315
861.653	4497
861.786	4481
861.918	4527
862.05	4561
862.183	4588
862.315	4569
862.447	4630
862.58	4637
862.712	4417
862.844	4352
862.976	4478
863.108	4485
863.24	4778
863.372	4306
863.504	4459
863.636	4462
863.768	4504
863.9	4443
864.032	4398
864.164	4394
864.296	4558
864.428	4561
864.559	4592
864.691	4516
864.823	4512
864.954	4516
865.086	4519
865.217	4500
865.349	4443
865.48	4493
865.612	4527
865.743	4637
865.875	4493
866.006	4455
866.137	4489
866.269	4466
866.4	4436
866.531	4436
866.662	4451
866.793	4405
866.924	4466
867.055	4523
867.186	4493
867.317	4474
867.448	4405
867.579	4398
867.71	4428
867.841	4344
867.972	4508
868.103	4497
868.233	4523
868.364	4455
868.495	4512
868.625	4710
868.756	4793
868.886	4550
869.017	4634
869.147	4816
869.278	4809
869.408	4714
869.539	4634
869.669	4733
869.799	4706
869.929	4778
870.06	4740
870.19	4980
870.32	4930
870.45	4995
870.58	5029
870.71	5071
870.84	5117
870.97	4953
871.1	4911
871.23	5159
871.36	5136
871.489	5014
871.619	5094
871.749	5079
871.879	5181
872.008	5170
872.138	5056
872.267	5018
872.397	4866
872.526	4831
872.656	4740
872.785	4816
872.915	4915
873.044	5037
873.173	4961
873.303	4980
873.432	4934
873.561	4984
873.69	4862
873.819	4870
873.948	4942
874.077	4835
874.206	4755
874.335	4839
874.464	4972
874.593	5056
874.722	4999
874.851	5136
874.979	5064
875.108	5029
875.237	4957
875.365	4896
875.494	4923
875.623	5025
875.751	4873
875.88	4919
876.008	4942
876.136	5113
876.265	5277
876.393	5376
876.521	5242
876.65	5223
876.778	5204
876.906	5121
877.034	5064
877.162	5064
877.29	4949
877.418	5075
877.546	5037
877.674	5033
877.802	5052
877.93	4980
878.058	4915
878.185	4873
878.313	4953
878.441	4927
878.568	4816
878.696	4904
878.824	4968
878.951	5014
879.079	5109
879.206	5307
879.333	5113
879.461	4999
879.588	5003
879.715	5147
879.842	5227
879.97	5006
880.097	4759
880.224	4786
880.351	4824
880.478	4790
880.605	4782
880.732	4771
880.859	5136
880.986	4877
881.112	4961
881.239	4793
881.366	4714
881.493	4649
881.619	4637
881.746	4694
881.872	4691
881.999	4683
882.125	4698
882.252	4801
882.378	4843
882.505	5003
882.631	4793
882.757	4656
882.883	4740
883.01	4759
883.136	4672
883.262	4618
883.388	4637
883.514	4812
883.64	4904
883.766	4831
883.892	4683
884.018	4683
884.143	4900
884.269	5033
884.395	4683
884.52	4675
884.646	4653
884.772	4626
884.897	4577
885.023	4626
885.148	4778
885.274	4900
885.399	4843
885.524	4691
885.65	4679
885.775	4767
885.9	4694
886.025	4820
886.15	4847
886.275	4752
886.4	4649
886.525	4752
886.65	4687
886.775	4694
886.9	4942
887.025	5060
887.149	4831
887.274	4634
887.399	4577
887.523	4645
887.648	4611
887.773	4599
887.897	4771
888.021	4812
888.146	4683
888.27	4786
888.395	4896
888.519	4812
888.643	4889
888.767	4839
888.891	4706
889.015	4573
889.139	4626
889.263	4580
889.387	4767
889.511	4854
889.635	4763
889.759	4637
889.883	4660
890.006	4759
890.13	4877
890.254	4637
890.377	4668
890.501	4569
890.624	4523
890.748	4634
890.871	4516
890.995	4432
891.118	4413
891.241	4531
891.364	4592
891.488	4641
891.611	4535
891.734	4561
891.857	4664
891.98	4546
892.103	4599
892.226	4592
892.349	4546
892.471	4417
892.594	4573
892.717	4615
892.839	4596
892.962	4649
893.085	4672
893.207	4580
893.33	4493
893.452	4527
893.575	4626
893.697	4580
893.819	4816
893.941	4870
894.064	4755
894.186	4588
894.308	4615
894.43	4706
894.552	4835
894.674	4725
894.796	4569
894.918	4630
895.04	4588
895.161	4736
895.283	4706
895.405	4561
895.526	4687
895.648	4702
895.769	4714
895.891	4675
896.012	4774
896.134	4744
896.255	4672
896.376	4641
896.498	4622
896.619	4710
896.74	4611
896.861	4626
896.982	4980
897.103	5113
897.224	4828
897.345	4748
897.466	4729
897.587	4698
897.708	4854
897.828	4767
897.949	4706
898.07	4538
898.19	4603
898.311	4812
898.431	4664
898.552	4706
898.672	4790
898.792	4793
898.913	4790
899.033	4626
899.153	4504
899.273	4497
899.393	4512
899.513	4519
899.633	4527
899.753	4550
899.873	4527
899.993	4584
900.113	4542
900.232	4573
900.352	4523
900.472	4493
900.591	4440
900.711	4485
900.83	4443
900.95	4596
901.069	4698
901.189	4512
901.308	4383
901.427	4333
901.546	4375
901.665	4485
901.784	4489
901.904	4360
902.023	4344
902.141	4227
902.26	4169
902.379	4306
902.498	4299
902.617	4238
902.735	4390
902.854	4432
902.973	4337
903.091	4253
903.21	4227
903.328	4356
903.446	4246
903.565	4238
903.683	4348
903.801	4268
903.919	4417
904.038	4428
904.156	4306
904.274	4447
904.392	4360
904.51	4417
904.627	4462
904.745	4607
904.863	4637
904.981	4398
905.098	4280
905.216	4322
905.334	4451
905.451	4462
905.569	4451
905.686	4550
905.803	4561
905.921	4390
906.038	4577
906.155	4527
906.272	4428
906.389	4417
906.506	4375
906.623	4344
906.74	4417
906.857	4284
906.974	4402
907.091	4542
907.208	4687
907.324	4558
907.441	4485
907.557	4394
907.674	4344
907.79	4348
907.907	4348
908.023	4531
908.139	4466
908.256	4390
908.372	4443
908.488	4447
908.604	4322
908.72	4322
908.836	4341
908.952	4424
909.068	4428
909.184	4607
909.3	4447
909.415	4580
909.531	4542
909.647	4329
909.762	4443
909.878	4310
909.993	4470
910.108	4409
910.224	4383
910.339	4512
910.454	4390
910.57	4329
910.685	4329
910.8	4660
910.915	4584
911.03	4504
911.145	4295
911.259	4284
911.374	4360
911.489	4265
911.604	4303
911.718	4173
911.833	4196
911.947	4097
912.062	4036
912.176	4287
912.291	4268
912.405	4268
912.519	4508
912.633	4527
912.748	4329
912.862	4318
912.976	4230
913.09	4078
913.204	4181
913.318	4257
913.431	4352
913.545	4344
913.659	4447
913.772	4402
913.886	4230
914	4219
914.113	4394
914.226	4394
914.34	4390
914.453	4227
914.566	4436
914.68	4341
914.793	4287
914.906	4147
915.019	4131
915.132	4082
915.245	4181
915.358	4200
915.47	4219
915.583	4284
915.696	4291
915.809	4455
915.921	4394
916.034	4253
916.146	4253
916.259	4219
916.371	4383
916.483	4375
916.595	4265
916.708	4325
916.82	4348
916.932	4325
917.044	4375
917.156	4314
917.268	4246
917.38	4291
917.491	4230
917.603	4295
917.715	4470
917.826	4432
917.938	4379
918.049	4257
918.161	4409
918.272	4550
918.384	4550
918.495	4470
918.606	4322
918.717	4268
918.828	4310
918.939	4329
919.05	4242
919.161	4310
919.272	4112
919.383	4192
919.494	4462
919.604	4618
919.715	4398
919.826	4352
919.936	4417
920.047	4573
920.157	4504
920.267	4664
920.378	4497
920.488	4508
920.598	4691
920.708	4873
920.818	4778
920.928	4752
921.038	4942
921.148	4911
921.258	4611
921.368	4573
921.477	4493
921.587	4470
921.697	4356
921.806	4550
921.916	4466
922.025	4246
922.134	4265
922.244	4246
922.353	4329
922.462	4169
922.571	4166
922.68	4002
922.789	3991
922.898	4025
923.007	4010
923.116	4097
923.224	4021
923.333	4086
923.442	4017
923.55	4021
923.659	4029
923.767	4101
923.876	3975
923.984	4150
924.092	3960
924.201	4071
924.309	4071
924.417	4105
924.525	4025
924.633	4093
924.741	5090
924.849	3926
924.956	4112
925.064	3987
925.172	3865
925.279	3930
925.387	4025
925.494	4059
925.602	4238
925.709	4162
925.816	4017
925.924	4116
926.031	4227
926.138	4150
926.245	4196
926.352	4093
926.459	4211
926.566	4268
926.673	4162
926.779	4074
926.886	4063
926.993	3964
927.099	4010
927.206	3918
927.312	3979
927.419	4013
927.525	4021
927.631	4048
927.737	3941
927.843	3934
927.95	3850
928.056	3964
928.162	3949
928.267	4116
928.373	4512
928.479	4097
928.585	3857
928.69	4013
928.796	4006
928.901	3960
929.007	3861
929.112	4032
929.218	3960
929.323	3960
929.428	3964
929.533	4143
929.638	3915
929.743	3945
929.848	4006
929.953	4021
930.058	3972
930.163	3762
930.267	3861
930.372	3979
930.477	3812
930.581	4135
930.685	3934
930.79	3812
930.894	3869
930.998	3854
931.103	4032
931.207	3713
931.311	3709
931.415	3686
931.519	3542
931.623	3580
