Data from test_V78500241_1075.txt Node
Date: Fri Mar 25 16:56:28 CST 2022
User: usil
Spectrometer: V785-0024
Trigger mode: 0
Integration Time (sec): 4.000000E-1
Scans to average: 1
Nonlinearity correction enabled: false
Boxcar width: 0
Storing dark spectrum: false
XAxis mode: Wavelengths
Number of Pixels in Spectrum: 1024
>>>>>Begin Spectral Data<<<<<
801.071	8035
801.214	8054
801.356	7906
801.499	7898
801.641	7799
801.783	7761
801.926	7951
802.068	7967
802.211	7944
802.353	7951
802.496	7799
802.638	7860
802.78	7917
802.923	7955
803.065	7894
803.208	7856
803.35	7959
803.492	8069
803.635	8225
803.777	8005
803.919	8100
804.061	8457
804.204	8100
804.346	8142
804.488	7925
804.63	8126
804.773	7986
804.915	8081
805.057	8298
805.199	8206
805.341	8233
805.483	8221
805.626	8233
805.768	8111
805.91	8218
806.052	8271
806.194	8115
806.336	8320
806.478	8172
806.62	8115
806.762	8183
806.904	8332
807.046	8473
807.188	8374
807.33	8347
807.472	8328
807.614	8157
807.756	8172
807.898	8062
808.04	7936
808.182	7902
808.324	7898
808.465	7894
808.607	8111
808.749	8092
808.891	8233
809.033	8332
809.174	8202
809.316	8088
809.458	8077
809.6	8012
809.741	8088
809.883	7978
810.025	8134
810.166	8062
810.308	8008
810.45	7986
810.591	7898
810.733	7780
810.875	7670
811.016	7578
811.158	7464
811.299	7597
811.441	7700
811.582	7704
811.724	7575
811.865	7552
812.007	7578
812.148	7590
812.29	7601
812.431	7712
812.573	7871
812.714	8020
812.855	8138
812.997	8168
813.138	8279
813.279	8206
813.421	8126
813.562	8046
813.703	7849
813.845	7788
813.986	7441
814.127	7270
814.268	7270
814.41	7190
814.551	7171
814.692	7213
814.833	7088
814.974	7080
815.115	7133
815.256	6913
815.397	6920
815.539	6954
815.68	6802
815.821	6768
815.962	6844
816.103	6821
816.244	6726
816.385	6635
816.526	6623
816.666	6502
816.807	6334
816.948	6445
817.089	6506
817.23	6464
817.371	6361
817.512	6433
817.653	6422
817.793	6418
817.934	6479
818.075	6486
818.216	6456
818.356	6418
818.497	6273
818.638	6125
818.778	6182
818.919	6148
819.06	6133
819.2	6296
819.341	6327
819.481	6327
819.622	6536
819.762	6738
819.903	6654
820.043	6616
820.184	6563
820.324	6604
820.465	6745
820.605	6703
820.746	6604
820.886	6513
821.026	6654
821.167	6722
821.307	6776
821.447	6764
821.588	6650
821.728	6513
821.868	6464
822.008	6369
822.149	6418
822.289	6372
822.429	6190
822.569	6041
822.709	6125
822.849	5980
822.99	5950
823.13	5920
823.27	5904
823.41	5798
823.55	5760
823.69	5775
823.83	5722
823.97	5691
824.11	5505
824.25	5543
824.389	5547
824.529	5547
824.669	5539
824.809	5608
824.949	5714
825.089	5600
825.228	5505
825.368	5406
825.508	5288
825.648	5349
825.787	5372
825.927	5349
826.067	5307
826.206	5239
826.346	5440
826.485	5421
826.625	5417
826.765	5592
826.904	5486
827.044	5277
827.183	5223
827.323	5048
827.462	5261
827.601	5201
827.741	5197
827.88	5204
828.02	5121
828.159	5273
828.298	5284
828.437	5376
828.577	5250
828.716	5406
828.855	5315
828.994	5136
829.134	5117
829.273	5143
829.412	5178
829.551	5159
829.69	5174
829.829	5246
829.968	5364
830.107	5242
830.246	5315
830.385	5166
830.524	5178
830.663	5033
830.802	4923
830.941	4930
831.08	4858
831.219	4968
831.357	4949
831.496	5162
831.635	4900
831.774	4839
831.913	4835
832.051	4744
832.19	4759
832.329	4885
832.467	4717
832.606	4649
832.744	4736
832.883	4691
833.022	4774
833.16	4763
833.299	4812
833.437	4793
833.576	4854
833.714	4904
833.852	4866
833.991	4927
834.129	4953
834.267	4927
834.406	4889
834.544	4953
834.682	4965
834.821	4957
834.959	5166
835.097	4972
835.235	5113
835.373	5090
835.511	5060
835.65	5029
835.788	5045
835.926	4923
836.064	4843
836.202	4930
836.34	5162
836.478	5220
836.615	5117
836.753	5246
836.891	5277
837.029	5212
837.167	5166
837.305	5166
837.443	5121
837.58	5060
837.718	5280
837.856	5189
837.993	5132
838.131	5227
838.269	5227
838.406	5220
838.544	5220
838.681	5003
838.819	5033
838.956	4877
839.094	4850
839.231	4965
839.369	5086
839.506	5398
839.643	5216
839.781	5037
839.918	5018
840.055	5102
840.193	5060
840.33	5102
840.467	5124
840.604	5166
840.742	5414
840.879	5109
841.016	5033
841.153	5124
841.29	5326
841.427	5288
841.564	5311
841.701	5353
841.838	5334
841.975	5185
842.112	5277
842.249	5140
842.385	5143
842.522	5360
842.659	5170
842.796	5159
842.933	5170
843.069	5174
843.206	5189
843.343	5330
843.479	5231
843.616	5250
843.752	5037
843.889	5045
844.025	5242
844.162	5048
844.298	5193
844.435	5067
844.571	5060
844.708	5242
844.844	5280
844.98	5334
845.117	5284
845.253	5166
845.389	5090
845.525	5155
845.661	5136
845.798	5037
845.934	5121
846.07	5025
846.206	5223
846.342	5280
846.478	5201
846.614	5045
846.75	4934
846.886	4949
847.022	5117
847.158	5052
847.294	5113
847.429	5124
847.565	4987
847.701	5292
847.837	4839
847.972	4774
848.108	4987
848.244	4953
848.379	4790
848.515	4759
848.65	4717
848.786	4721
848.921	4759
849.057	4854
849.192	4881
849.328	4824
849.463	4828
849.598	4790
849.734	4801
849.869	4740
850.004	4626
850.14	4653
850.275	4615
850.41	4519
850.545	4527
850.68	4588
850.815	4607
850.95	4641
851.085	4877
851.22	4782
851.355	4656
851.49	4592
851.625	4596
851.76	4573
851.895	4599
852.03	4474
852.165	4637
852.299	4710
852.434	4835
852.569	4744
852.703	4759
852.838	4835
852.973	4968
853.107	4923
853.242	4725
853.376	4668
853.511	4565
853.645	4561
853.78	4824
853.914	4664
854.048	4634
854.183	4592
854.317	4702
854.451	4873
854.585	4729
854.72	4615
854.854	4801
854.988	4592
855.122	4637
855.256	4519
855.39	4694
855.524	4812
855.658	4694
855.792	4687
855.926	4694
856.06	4736
856.194	4790
856.327	4691
856.461	4607
856.595	4573
856.729	4615
856.862	4774
856.996	4649
857.13	4694
857.263	4771
857.397	4763
857.53	4653
857.664	4740
857.797	4797
857.931	4767
858.064	4691
858.197	4733
858.331	4656
858.464	4599
858.597	4516
858.731	4626
858.864	4630
858.997	4622
859.13	4714
859.263	4675
859.396	4736
859.529	4607
859.662	4554
859.795	4500
859.928	4603
860.061	4755
860.194	4733
860.327	4580
860.46	4588
860.592	4714
860.725	4679
860.858	4717
860.99	4538
861.123	4504
861.256	4500
861.388	4618
861.521	5414
861.653	4485
861.786	4493
861.918	4474
862.05	4512
862.183	4588
862.315	4577
862.447	4668
862.58	4554
862.712	4383
862.844	4371
862.976	4462
863.108	4432
863.24	4900
863.372	4333
863.504	4383
863.636	4428
863.768	4443
863.9	4485
864.032	4394
864.164	4421
864.296	4474
864.428	4531
864.559	4516
864.691	4485
864.823	4485
864.954	4470
865.086	4519
865.217	4428
865.349	4428
865.48	4421
865.612	4508
865.743	4637
865.875	4432
866.006	4428
866.137	4459
866.269	4462
866.4	4402
866.531	4424
866.662	4383
866.793	4405
866.924	4402
867.055	4512
867.186	4462
867.317	4417
867.448	4356
867.579	4405
867.71	4409
867.841	4367
867.972	4443
868.103	4489
868.233	4443
868.364	4443
868.495	4459
868.625	4618
868.756	4748
868.886	4569
869.017	4611
869.147	4717
869.278	4691
869.408	4626
869.539	4611
869.669	4740
869.799	4645
869.929	4729
870.06	4752
870.19	4942
870.32	4915
870.45	4934
870.58	4995
870.71	5086
870.84	5056
870.97	4900
871.1	4919
871.23	5109
871.36	5162
871.489	4968
871.619	5037
871.749	5086
871.879	5086
872.008	5159
872.138	5086
872.267	4938
872.397	4877
872.526	4744
872.656	4706
872.785	4763
872.915	4965
873.044	5037
873.173	4900
873.303	4953
873.432	4938
873.561	4908
873.69	4896
873.819	4843
873.948	4828
874.077	4820
874.206	4717
874.335	4797
874.464	4949
874.593	5037
874.722	4953
874.851	5075
874.979	5048
875.108	4995
875.237	4938
875.365	4858
875.494	4854
875.623	4965
875.751	4824
875.88	4858
876.008	4942
876.136	4987
876.265	5201
876.393	5326
876.521	5258
876.65	5181
876.778	5128
876.906	5029
877.034	5022
877.162	4995
877.29	4965
877.418	5060
877.546	5071
877.674	5083
877.802	5003
877.93	4972
878.058	4961
878.185	4854
878.313	4953
878.441	4919
878.568	4755
878.696	4896
878.824	4942
878.951	4991
879.079	5079
879.206	5261
879.333	5086
879.461	4938
879.588	4980
879.715	5159
879.842	5220
879.97	5006
880.097	4786
880.224	4744
880.351	4816
880.478	4828
880.605	4805
880.732	4774
880.859	5086
880.986	4843
881.112	4919
881.239	4816
881.366	4683
881.493	4611
881.619	4573
881.746	4637
881.872	4668
881.999	4622
882.125	4725
882.252	4736
882.378	4858
882.505	4923
882.631	4782
882.757	4649
882.883	4748
883.01	4736
883.136	4691
883.262	4592
883.388	4596
883.514	4816
883.64	4839
883.766	4763
883.892	4679
884.018	4710
884.143	4930
884.269	4980
884.395	4668
884.52	4637
884.646	4630
884.772	4561
884.897	4554
885.023	4694
885.148	4828
885.274	4881
885.399	4790
885.524	4702
885.65	4691
885.775	4797
885.9	4679
886.025	4892
886.15	4786
886.275	4763
886.4	4630
886.525	4759
886.65	4687
886.775	4668
886.9	4919
887.025	4999
887.149	4782
887.274	4691
887.399	4573
887.523	4618
887.648	4592
887.773	4603
887.897	4748
888.021	4744
888.146	4679
888.27	4816
888.395	4881
888.519	4771
888.643	4778
888.767	4801
888.891	4622
889.015	4615
889.139	4649
889.263	4599
889.387	4752
889.511	4847
889.635	4809
889.759	4596
889.883	4634
890.006	4729
890.13	4790
890.254	4599
890.377	4687
890.501	4580
890.624	4546
890.748	4622
890.871	4493
890.995	4402
891.118	4375
891.241	4485
891.364	4504
891.488	4634
891.611	4462
891.734	4516
891.857	4611
891.98	4569
892.103	4634
892.226	4592
892.349	4531
892.471	4394
892.594	4523
892.717	4634
892.839	4577
892.962	4592
893.085	4622
893.207	4577
893.33	4386
893.452	4512
893.575	4679
893.697	4558
893.819	4816
893.941	4812
894.064	4782
894.186	4656
894.308	4558
894.43	4702
894.552	4797
894.674	4786
894.796	4573
894.918	4550
895.04	4584
895.161	4645
895.283	4630
895.405	4580
895.526	4622
895.648	4653
895.769	4694
895.891	4717
896.012	4763
896.134	4721
896.255	4626
896.376	4599
896.498	4637
896.619	4622
896.74	4584
896.861	4649
896.982	4934
897.103	5083
897.224	4820
897.345	4710
897.466	4698
897.587	4740
897.708	4896
897.828	4721
897.949	4645
898.07	4580
898.19	4630
898.311	4820
898.431	4653
898.552	4759
898.672	4820
898.792	4831
898.913	4721
899.033	4626
899.153	4512
899.273	4478
899.393	4447
899.513	4504
899.633	4481
899.753	4622
899.873	4512
899.993	4527
900.113	4516
900.232	4641
900.352	4485
900.472	4497
900.591	4421
900.711	4462
900.83	4421
900.95	4607
901.069	4672
901.189	4558
901.308	4341
901.427	4329
901.546	4348
901.665	4493
901.784	4470
901.904	4363
902.023	4337
902.141	4211
902.26	4188
902.379	4291
902.498	4223
902.617	4211
902.735	4360
902.854	4314
902.973	4337
903.091	4188
903.21	4261
903.328	4268
903.446	4272
903.565	4291
903.683	4348
903.801	4246
903.919	4383
904.038	4459
904.156	4314
904.274	4398
904.392	4348
904.51	4443
904.627	4417
904.745	4577
904.863	4618
904.981	4386
905.098	4310
905.216	4329
905.334	4440
905.451	4447
905.569	4443
905.686	4527
905.803	4542
905.921	4405
906.038	4531
906.155	4421
906.272	4371
906.389	4413
906.506	4360
906.623	4348
906.74	4390
906.857	4329
906.974	4371
907.091	4512
907.208	4672
907.324	4535
907.441	4466
907.557	4371
907.674	4344
907.79	4303
907.907	4383
908.023	4478
908.139	4466
908.256	4390
908.372	4500
908.488	4402
908.604	4394
908.72	4344
908.836	4360
908.952	4363
909.068	4459
909.184	4561
909.3	4462
909.415	4588
909.531	4538
909.647	4333
909.762	4303
909.878	4348
909.993	4402
910.108	4363
910.224	4443
910.339	4455
910.454	4363
910.57	4348
910.685	4344
910.8	4691
910.915	4607
911.03	4485
911.145	4344
911.259	4318
911.374	4333
911.489	4246
911.604	4246
911.718	4196
911.833	4234
911.947	4067
912.062	4029
912.176	4181
912.291	4219
912.405	4249
912.519	4421
912.633	4497
912.748	4386
912.862	4261
912.976	4238
913.09	4090
913.204	4192
913.318	4257
913.431	4440
913.545	4352
913.659	4413
913.772	4398
913.886	4257
914	4242
914.113	4310
914.226	4459
914.34	4390
914.453	4230
914.566	4470
914.68	4284
914.793	4337
914.906	4071
915.019	4143
915.132	4086
915.245	4177
915.358	4219
915.47	4238
915.583	4276
915.696	4303
915.809	4371
915.921	4405
916.034	4215
916.146	4280
916.259	4257
916.371	4352
916.483	4352
916.595	4242
916.708	4299
916.82	4322
916.932	4341
917.044	4291
917.156	4314
917.268	4257
917.38	4257
917.491	4272
917.603	4329
917.715	4405
917.826	4455
917.938	4325
918.049	4219
918.161	4363
918.272	4459
918.384	4485
918.495	4432
918.606	4257
918.717	4173
918.828	4280
918.939	4371
919.05	4192
919.161	4306
919.272	4120
919.383	4234
919.494	4421
919.604	4577
919.715	4417
919.826	4341
919.936	4363
920.047	4538
920.157	4443
920.267	4710
920.378	4596
920.488	4481
920.598	4702
920.708	4900
920.818	4748
920.928	4763
921.038	4930
921.148	4873
921.258	4596
921.368	4519
921.477	4478
921.587	4432
921.697	4356
921.806	4519
921.916	4443
922.025	4280
922.134	4257
922.244	4249
922.353	4337
922.462	4173
922.571	4090
922.68	3991
922.789	3949
922.898	4002
923.007	3915
923.116	4071
923.224	4063
923.333	4101
923.442	3960
923.55	3991
923.659	4006
923.767	4067
923.876	4021
923.984	4097
924.092	3964
924.201	4055
924.309	4078
924.417	4090
924.525	4036
924.633	4032
924.741	5045
924.849	3888
924.956	4147
925.064	3918
925.172	3918
925.279	3956
925.387	4074
925.494	4090
925.602	4211
925.709	4169
925.816	4013
925.924	4158
926.031	4215
926.138	4120
926.245	4242
926.352	4116
926.459	4223
926.566	4299
926.673	4139
926.779	4063
926.886	4051
926.993	3964
927.099	3953
927.206	3975
927.312	3907
927.419	4048
927.525	4029
927.631	4105
927.737	3945
927.843	3937
927.95	3838
928.056	3972
928.162	3960
928.267	4093
928.373	4664
928.479	4105
928.585	3880
928.69	3983
928.796	4097
928.901	3953
929.007	3831
929.112	3972
929.218	4006
929.323	3926
929.428	3949
929.533	4116
929.638	3915
929.743	3953
929.848	4021
929.953	3960
930.058	3911
930.163	3755
930.267	3793
930.372	3956
930.477	3804
930.581	4109
930.685	3934
930.79	3793
930.894	3907
930.998	3827
931.103	4063
931.207	3743
931.311	3720
931.415	3690
931.519	3523
931.623	3515
