Data from test_V78500241_369.txt Node
Date: Fri Mar 25 16:51:34 CST 2022
User: usil
Spectrometer: V785-0024
Trigger mode: 0
Integration Time (sec): 4.000000E-1
Scans to average: 1
Nonlinearity correction enabled: false
Boxcar width: 0
Storing dark spectrum: false
XAxis mode: Wavelengths
Number of Pixels in Spectrum: 1024
>>>>>Begin Spectral Data<<<<<
801.071	8077
801.214	8054
801.356	7913
801.499	7944
801.641	7799
801.783	7845
801.926	8001
802.068	7925
802.211	7963
802.353	7913
802.496	7871
802.638	7917
802.78	7947
802.923	7944
803.065	7818
803.208	7852
803.35	7936
803.492	8062
803.635	8069
803.777	7940
803.919	8107
804.061	8473
804.204	8195
804.346	8008
804.488	7940
804.63	8096
804.773	8008
804.915	8096
805.057	8282
805.199	8157
805.341	8256
805.483	8210
805.626	8145
805.768	8043
805.91	8142
806.052	8199
806.194	8077
806.336	8332
806.478	8210
806.62	8210
806.762	8214
806.904	8267
807.046	8419
807.188	8328
807.33	8347
807.472	8347
807.614	8088
807.756	8107
807.898	7974
808.04	7986
808.182	7932
808.324	7932
808.465	7856
808.607	8115
808.749	8115
808.891	8164
809.033	8248
809.174	8240
809.316	8058
809.458	8008
809.6	7993
809.741	8054
809.883	8027
810.025	8081
810.166	8157
810.308	8077
810.45	8020
810.591	7883
810.733	7792
810.875	7693
811.016	7529
811.158	7540
811.299	7677
811.441	7803
811.582	7769
811.724	7636
811.865	7521
812.007	7655
812.148	7662
812.29	7643
812.431	7757
812.573	7887
812.714	7974
812.855	8153
812.997	8183
813.138	8328
813.279	8199
813.421	8088
813.562	8103
813.703	7978
813.845	7792
813.986	7537
814.127	7316
814.268	7266
814.41	7255
814.551	7221
814.692	7187
814.833	7114
814.974	7072
815.115	7099
815.256	6947
815.397	6928
815.539	6935
815.68	6821
815.821	6772
815.962	6924
816.103	6852
816.244	6783
816.385	6681
816.526	6627
816.666	6509
816.807	6334
816.948	6445
817.089	6509
817.23	6445
817.371	6372
817.512	6346
817.653	6418
817.793	6369
817.934	6475
818.075	6506
818.216	6452
818.356	6475
818.497	6224
818.638	6171
818.778	6148
818.919	6178
819.06	6163
819.2	6334
819.341	6315
819.481	6376
819.622	6483
819.762	6757
819.903	6681
820.043	6631
820.184	6604
820.324	6521
820.465	6700
820.605	6631
820.746	6578
820.886	6555
821.026	6673
821.167	6734
821.307	6806
821.447	6719
821.588	6684
821.728	6597
821.868	6521
822.008	6319
822.149	6399
822.289	6376
822.429	6140
822.569	6064
822.709	6136
822.849	5923
822.99	5935
823.13	5912
823.27	5912
823.41	5821
823.55	5824
823.69	5832
823.83	5786
823.97	5714
824.11	5611
824.25	5543
824.389	5535
824.529	5543
824.669	5581
824.809	5638
824.949	5684
825.089	5634
825.228	5566
825.368	5414
825.508	5410
825.648	5387
825.787	5387
825.927	5417
826.067	5368
826.206	5311
826.346	5417
826.485	5406
826.625	5478
826.765	5596
826.904	5524
827.044	5231
827.183	5212
827.323	5124
827.462	5318
827.601	5166
827.741	5193
827.88	5246
828.02	5121
828.159	5269
828.298	5387
828.437	5440
828.577	5307
828.716	5467
828.855	5383
828.994	5242
829.134	5227
829.273	5212
829.412	5208
829.551	5159
829.69	5258
829.829	5296
829.968	5395
830.107	5303
830.246	5410
830.385	5235
830.524	5204
830.663	5121
830.802	5014
830.941	4949
831.08	4980
831.219	5075
831.357	5010
831.496	5277
831.635	4991
831.774	4904
831.913	4885
832.051	4767
832.19	4748
832.329	4911
832.467	4759
832.606	4698
832.744	4778
832.883	4771
833.022	4778
833.16	4843
833.299	4858
833.437	4885
833.576	4889
833.714	4911
833.852	4858
833.991	4949
834.129	5060
834.267	5006
834.406	4900
834.544	5006
834.682	5086
834.821	4995
834.959	5242
835.097	5075
835.235	5227
835.373	5151
835.511	5140
835.65	5056
835.788	5052
835.926	4919
836.064	4930
836.202	4957
836.34	5197
836.478	5273
836.615	5166
836.753	5220
836.891	5379
837.029	5288
837.167	5280
837.305	5208
837.443	5189
837.58	5155
837.718	5284
837.856	5235
837.993	5193
838.131	5273
838.269	5235
838.406	5296
838.544	5250
838.681	5105
838.819	5079
838.956	4934
839.094	4927
839.231	5075
839.369	5113
839.506	5467
839.643	5326
839.781	5124
839.918	5071
840.055	5151
840.193	5159
840.33	5124
840.467	5178
840.604	5212
840.742	5448
840.879	5140
841.016	5105
841.153	5212
841.29	5410
841.427	5383
841.564	5410
841.701	5379
841.838	5360
841.975	5280
842.112	5292
842.249	5159
842.385	5147
842.522	5334
842.659	5216
842.796	5212
842.933	5261
843.069	5193
843.206	5242
843.343	5315
843.479	5315
843.616	5269
843.752	5056
843.889	5056
844.025	5273
844.162	5105
844.298	5299
844.435	5159
844.571	5094
844.708	5246
844.844	5315
844.98	5387
845.117	5311
845.253	5204
845.389	5113
845.525	5201
845.661	5155
845.798	5067
845.934	5181
846.07	5098
846.206	5212
846.342	5334
846.478	5220
846.614	5086
846.75	5037
846.886	4995
847.022	5151
847.158	5056
847.294	5159
847.429	5162
847.565	5071
847.701	5387
847.837	4854
847.972	4866
848.108	4991
848.244	4987
848.379	4850
848.515	4812
848.65	4729
848.786	4809
848.921	4797
849.057	4900
849.192	4949
849.328	4866
849.463	4881
849.598	4828
849.734	4797
849.869	4763
850.004	4664
850.14	4687
850.275	4698
850.41	4535
850.545	4634
850.68	4611
850.815	4675
850.95	4706
851.085	4896
851.22	4786
851.355	4698
851.49	4687
851.625	4679
851.76	4714
851.895	4577
852.03	4588
852.165	4653
852.299	4786
852.434	4873
852.569	4755
852.703	4797
852.838	4915
852.973	5010
853.107	4965
853.242	4759
853.376	4679
853.511	4554
853.645	4660
853.78	4816
853.914	4710
854.048	4664
854.183	4694
854.317	4752
854.451	4831
854.585	4687
854.72	4641
854.854	4771
854.988	4637
855.122	4626
855.256	4558
855.39	4698
855.524	4809
855.658	4733
855.792	4714
855.926	4744
856.06	4809
856.194	4889
856.327	4774
856.461	4683
856.595	4645
856.729	4668
856.862	4793
856.996	4744
857.13	4774
857.263	4812
857.397	4843
857.53	4725
857.664	4736
857.797	4786
857.931	4778
858.064	4733
858.197	4771
858.331	4687
858.464	4672
858.597	4554
858.731	4687
858.864	4698
858.997	4596
859.13	4706
859.263	4714
859.396	4801
859.529	4592
859.662	4615
859.795	4599
859.928	4649
860.061	4812
860.194	4839
860.327	4630
860.46	4607
860.592	4729
860.725	4748
860.858	4759
860.99	4599
861.123	4558
861.256	4603
861.388	4683
861.521	5398
861.653	4512
861.786	4443
861.918	4527
862.05	4565
862.183	4550
862.315	4637
862.447	4717
862.58	4622
862.712	4459
862.844	4367
862.976	4527
863.108	4554
863.24	4824
863.372	4413
863.504	4478
863.636	4405
863.768	4523
863.9	4462
864.032	4417
864.164	4451
864.296	4531
864.428	4580
864.559	4569
864.691	4558
864.823	4630
864.954	4531
865.086	4527
865.217	4474
865.349	4455
865.48	4504
865.612	4531
865.743	4660
865.875	4531
866.006	4474
866.137	4489
866.269	4451
866.4	4516
866.531	4478
866.662	4440
866.793	4443
866.924	4432
867.055	4535
867.186	4538
867.317	4478
867.448	4413
867.579	4398
867.71	4447
867.841	4409
867.972	4504
868.103	4554
868.233	4493
868.364	4485
868.495	4531
868.625	4694
868.756	4767
868.886	4599
869.017	4645
869.147	4771
869.278	4835
869.408	4710
869.539	4683
869.669	4763
869.799	4710
869.929	4759
870.06	4763
870.19	5025
870.32	4984
870.45	4976
870.58	5010
870.71	5159
870.84	5128
870.97	4965
871.1	4987
871.23	5181
871.36	5143
871.489	5022
871.619	5083
871.749	5094
871.879	5151
872.008	5208
872.138	5052
872.267	4953
872.397	4908
872.526	4896
872.656	4744
872.785	4839
872.915	4972
873.044	5079
873.173	4984
873.303	4999
873.432	4995
873.561	4991
873.69	4927
873.819	4930
873.948	4934
874.077	4809
874.206	4797
874.335	4835
874.464	4934
874.593	5083
874.722	5018
874.851	5121
874.979	5117
875.108	5025
875.237	4953
875.365	4877
875.494	4949
875.623	5045
875.751	4862
875.88	4858
876.008	4999
876.136	5071
876.265	5216
876.393	5402
876.521	5318
876.65	5212
876.778	5254
876.906	5052
877.034	5052
877.162	5128
877.29	5056
877.418	5086
877.546	5113
877.674	5025
877.802	5041
877.93	5052
878.058	4953
878.185	4873
878.313	5041
878.441	4980
878.568	4850
878.696	4877
878.824	5006
878.951	4980
879.079	5136
879.206	5315
879.333	5143
879.461	5022
879.588	5022
879.715	5166
879.842	5212
879.97	5029
880.097	4778
880.224	4759
880.351	4812
880.478	4854
880.605	4793
880.732	4809
880.859	5064
880.986	4896
881.112	4927
881.239	4862
881.366	4717
881.493	4622
881.619	4618
881.746	4637
881.872	4694
881.999	4698
882.125	4679
882.252	4820
882.378	4923
882.505	4927
882.631	4858
882.757	4691
882.883	4759
883.01	4774
883.136	4706
883.262	4637
883.388	4653
883.514	4839
883.64	4877
883.766	4809
883.892	4702
884.018	4755
884.143	4961
884.269	4999
884.395	4710
884.52	4653
884.646	4611
884.772	4630
884.897	4542
885.023	4675
885.148	4843
885.274	4896
885.399	4850
885.524	4733
885.65	4714
885.775	4812
885.9	4714
886.025	4881
886.15	4854
886.275	4752
886.4	4672
886.525	4729
886.65	4740
886.775	4755
886.9	4961
887.025	5098
887.149	4847
887.274	4660
887.399	4607
887.523	4618
887.648	4599
887.773	4584
887.897	4763
888.021	4824
888.146	4675
888.27	4843
888.395	4972
888.519	4816
888.643	4782
888.767	4858
888.891	4706
889.015	4660
889.139	4714
889.263	4653
889.387	4820
889.511	4900
889.635	4820
889.759	4634
889.883	4675
890.006	4778
890.13	4839
890.254	4641
890.377	4702
890.501	4584
890.624	4512
890.748	4668
890.871	4554
890.995	4402
891.118	4440
891.241	4497
891.364	4550
891.488	4634
891.611	4546
891.734	4561
891.857	4607
891.98	4577
892.103	4664
892.226	4588
892.349	4558
892.471	4436
892.594	4546
892.717	4653
892.839	4664
892.962	4653
893.085	4706
893.207	4649
893.33	4481
893.452	4584
893.575	4698
893.697	4649
893.819	4774
893.941	4824
894.064	4744
894.186	4584
894.308	4565
894.43	4740
894.552	4820
894.674	4759
894.796	4561
894.918	4596
895.04	4584
895.161	4740
895.283	4664
895.405	4637
895.526	4649
895.648	4725
895.769	4702
895.891	4736
896.012	4744
896.134	4721
896.255	4710
896.376	4679
896.498	4656
896.619	4733
896.74	4637
896.861	4615
896.982	4949
897.103	5124
897.224	4835
897.345	4744
897.466	4706
897.587	4733
897.708	4862
897.828	4759
897.949	4717
898.07	4573
898.19	4645
898.311	4870
898.431	4679
898.552	4717
898.672	4877
898.792	4843
898.913	4721
899.033	4622
899.153	4561
899.273	4421
899.393	4485
899.513	4523
899.633	4580
899.753	4565
899.873	4573
899.993	4615
900.113	4584
900.232	4573
900.352	4527
900.472	4535
900.591	4428
900.711	4508
900.83	4440
900.95	4653
901.069	4721
901.189	4554
901.308	4405
901.427	4356
901.546	4371
901.665	4519
901.784	4523
901.904	4405
902.023	4344
902.141	4204
902.26	4196
902.379	4367
902.498	4272
902.617	4234
902.735	4424
902.854	4413
902.973	4440
903.091	4227
903.21	4253
903.328	4280
903.446	4284
903.565	4314
903.683	4379
903.801	4310
903.919	4383
904.038	4481
904.156	4325
904.274	4436
904.392	4417
904.51	4386
904.627	4497
904.745	4622
904.863	4675
904.981	4417
905.098	4344
905.216	4421
905.334	4474
905.451	4424
905.569	4432
905.686	4561
905.803	4599
905.921	4462
906.038	4554
906.155	4516
906.272	4455
906.389	4485
906.506	4390
906.623	4424
906.74	4367
906.857	4329
906.974	4386
907.091	4596
907.208	4653
907.324	4618
907.441	4516
907.557	4421
907.674	4379
907.79	4371
907.907	4436
908.023	4497
908.139	4508
908.256	4451
908.372	4474
908.488	4478
908.604	4371
908.72	4348
908.836	4417
908.952	4344
909.068	4428
909.184	4630
909.3	4512
909.415	4603
909.531	4523
909.647	4413
909.762	4402
909.878	4360
909.993	4459
910.108	4432
910.224	4462
910.339	4523
910.454	4424
910.57	4398
910.685	4287
910.8	4660
910.915	4626
911.03	4508
911.145	4356
911.259	4284
911.374	4348
911.489	4329
911.604	4272
911.718	4219
911.833	4234
911.947	4116
912.062	4067
912.176	4253
912.291	4272
912.405	4215
912.519	4462
912.633	4550
912.748	4379
912.862	4306
912.976	4192
913.09	4101
913.204	4204
913.318	4284
913.431	4421
913.545	4409
913.659	4421
913.772	4356
913.886	4261
914	4238
914.113	4383
914.226	4451
914.34	4394
914.453	4200
914.566	4455
914.68	4371
914.793	4360
914.906	4147
915.019	4211
915.132	4093
915.245	4196
915.358	4272
915.47	4234
915.583	4287
915.696	4295
915.809	4440
915.921	4424
916.034	4287
916.146	4249
916.259	4207
916.371	4413
916.483	4348
916.595	4287
916.708	4390
916.82	4341
916.932	4318
917.044	4344
917.156	4337
917.268	4211
917.38	4287
917.491	4272
917.603	4333
917.715	4432
917.826	4455
917.938	4367
918.049	4280
918.161	4443
918.272	4512
918.384	4531
918.495	4481
918.606	4299
918.717	4249
918.828	4379
918.939	4360
919.05	4341
919.161	4333
919.272	4181
919.383	4230
919.494	4455
919.604	4675
919.715	4417
919.826	4348
919.936	4421
920.047	4535
920.157	4523
920.267	4660
920.378	4584
920.488	4489
920.598	4691
920.708	4877
920.818	4744
920.928	4778
921.038	4957
921.148	4904
921.258	4687
921.368	4607
921.477	4493
921.587	4500
921.697	4421
921.806	4584
921.916	4462
922.025	4341
922.134	4314
922.244	4219
922.353	4375
922.462	4185
922.571	4150
922.68	4036
922.789	4029
922.898	4040
923.007	4010
923.116	4150
923.224	4063
923.333	4112
923.442	3972
923.55	3991
923.659	4086
923.767	4135
923.876	4010
923.984	4109
924.092	3998
924.201	4063
924.309	4147
924.417	4128
924.525	4078
924.633	4029
924.741	4858
924.849	3937
924.956	4128
925.064	3994
925.172	3911
925.279	3956
925.387	4074
925.494	4032
925.602	4227
925.709	4223
925.816	4044
925.924	4162
926.031	4242
926.138	4169
926.245	4223
926.352	4093
926.459	4238
926.566	4333
926.673	4196
926.779	4101
926.886	4055
926.993	3956
927.099	3934
927.206	3953
927.312	3983
927.419	4067
927.525	4017
927.631	4124
927.737	3934
927.843	3949
927.95	3838
928.056	3930
928.162	3994
928.267	4086
928.373	4721
928.479	4154
928.585	3899
928.69	4032
928.796	4093
928.901	3987
929.007	3854
929.112	3972
929.218	4036
929.323	3949
929.428	3983
929.533	4112
929.638	3888
929.743	3991
929.848	4048
929.953	4036
930.058	3945
930.163	3804
930.267	3876
930.372	3968
930.477	3819
930.581	4105
930.685	3945
930.79	3797
930.894	3880
930.998	3804
931.103	4067
931.207	3728
931.311	3713
931.415	3663
931.519	3557
931.623	3584
