Data from test_V78500241_2094.txt Node
Date: Fri Mar 25 17:03:33 CST 2022
User: usil
Spectrometer: V785-0024
Trigger mode: 0
Integration Time (sec): 4.000000E-1
Scans to average: 1
Nonlinearity correction enabled: false
Boxcar width: 0
Storing dark spectrum: false
XAxis mode: Wavelengths
Number of Pixels in Spectrum: 1024
>>>>>Begin Spectral Data<<<<<
801.071	7982
801.214	7925
801.356	7795
801.499	7803
801.641	7772
801.783	7871
801.926	7959
802.068	7925
802.211	7932
802.353	7974
802.496	7856
802.638	7902
802.78	7890
802.923	7917
803.065	7845
803.208	7753
803.35	8012
803.492	8039
803.635	8130
803.777	7928
803.919	8077
804.061	8461
804.204	8172
804.346	8069
804.488	7906
804.63	8069
804.773	7951
804.915	8058
805.057	8351
805.199	8183
805.341	8168
805.483	8176
805.626	8115
805.768	8161
805.91	8180
806.052	8153
806.194	8123
806.336	8256
806.478	8039
806.62	8065
806.762	8130
806.904	8229
807.046	8434
807.188	8343
807.33	8290
807.472	8294
807.614	8119
807.756	8142
807.898	8024
808.04	7864
808.182	7822
808.324	7849
808.465	7921
808.607	8024
808.749	8126
808.891	8206
809.033	8282
809.174	8149
809.316	8180
809.458	8103
809.6	8050
809.741	8046
809.883	8005
810.025	8100
810.166	8065
810.308	8046
810.45	8005
810.591	7856
810.733	7719
810.875	7708
811.016	7460
811.158	7483
811.299	7609
811.441	7734
811.582	7658
811.724	7609
811.865	7434
812.007	7571
812.148	7609
812.29	7575
812.431	7811
812.573	7955
812.714	7936
812.855	8149
812.997	8145
813.138	8370
813.279	8180
813.421	8065
813.562	7955
813.703	7860
813.845	7700
813.986	7422
814.127	7308
814.268	7228
814.41	7168
814.551	7209
814.692	7228
814.833	7114
814.974	7095
815.115	7141
815.256	6989
815.397	6916
815.539	6958
815.68	6852
815.821	6738
815.962	6863
816.103	6825
816.244	6703
816.385	6574
816.526	6612
816.666	6483
816.807	6296
816.948	6483
817.089	6486
817.23	6407
817.371	6384
817.512	6342
817.653	6403
817.793	6346
817.934	6372
818.075	6471
818.216	6403
818.356	6403
818.497	6243
818.638	6133
818.778	6125
818.919	6178
819.06	6144
819.2	6380
819.341	6331
819.481	6369
819.622	6498
819.762	6726
819.903	6589
820.043	6570
820.184	6574
820.324	6521
820.465	6692
820.605	6711
820.746	6597
820.886	6464
821.026	6639
821.167	6734
821.307	6833
821.447	6787
821.588	6711
821.728	6593
821.868	6475
822.008	6353
822.149	6418
822.289	6365
822.429	6152
822.569	6091
822.709	6098
822.849	5920
822.99	5882
823.13	5878
823.27	5939
823.41	5745
823.55	5805
823.69	5741
823.83	5733
823.97	5680
824.11	5524
824.25	5570
824.389	5509
824.529	5551
824.669	5539
824.809	5600
824.949	5611
825.089	5653
825.228	5509
825.368	5391
825.508	5303
825.648	5334
825.787	5345
825.927	5379
826.067	5296
826.206	5269
826.346	5345
826.485	5357
826.625	5417
826.765	5539
826.904	5493
827.044	5204
827.183	5181
827.323	5201
827.462	5250
827.601	5181
827.741	5166
827.88	5212
828.02	5140
828.159	5250
828.298	5307
828.437	5277
828.577	5254
828.716	5455
828.855	5299
828.994	5178
829.134	5162
829.273	5201
829.412	5128
829.551	5105
829.69	5170
829.829	5231
829.968	5334
830.107	5288
830.246	5280
830.385	5151
830.524	5121
830.663	5018
830.802	4957
830.941	4911
831.08	4877
831.219	4934
831.357	4961
831.496	5124
831.635	4911
831.774	4835
831.913	4866
832.051	4725
832.19	4736
832.329	4828
832.467	4698
832.606	4649
832.744	4752
832.883	4744
833.022	4656
833.16	4755
833.299	4805
833.437	4824
833.576	4889
833.714	4873
833.852	4809
833.991	4870
834.129	4961
834.267	4919
834.406	4877
834.544	4930
834.682	4991
834.821	4991
834.959	5132
835.097	4987
835.235	5208
835.373	5060
835.511	5075
835.65	5071
835.788	5006
835.926	4839
836.064	4908
836.202	4858
836.34	5136
836.478	5178
836.615	5128
836.753	5212
836.891	5288
837.029	5223
837.167	5193
837.305	5155
837.443	5117
837.58	5090
837.718	5201
837.856	5193
837.993	5117
838.131	5284
838.269	5235
838.406	5109
838.544	5185
838.681	5022
838.819	5033
838.956	4896
839.094	4927
839.231	4972
839.369	5045
839.506	5425
839.643	5261
839.781	5056
839.918	5003
840.055	5105
840.193	5029
840.33	5143
840.467	5094
840.604	5189
840.742	5414
840.879	5109
841.016	5109
841.153	5166
841.29	5406
841.427	5307
841.564	5322
841.701	5372
841.838	5261
841.975	5239
842.112	5299
842.249	5113
842.385	5086
842.522	5334
842.659	5140
842.796	5181
842.933	5170
843.069	5121
843.206	5143
843.343	5303
843.479	5246
843.616	5280
843.752	5056
843.889	4987
844.025	5189
844.162	5014
844.298	5227
844.435	5083
844.571	5018
844.708	5136
844.844	5303
844.98	5315
845.117	5258
845.253	5170
845.389	5056
845.525	5151
845.661	5121
845.798	5079
845.934	5128
846.07	5003
846.206	5208
846.342	5288
846.478	5143
846.614	5003
846.75	4946
846.886	4942
847.022	5117
847.158	5022
847.294	5064
847.429	5105
847.565	5025
847.701	5261
847.837	4873
847.972	4793
848.108	5010
848.244	4904
848.379	4774
848.515	4740
848.65	4668
848.786	4755
848.921	4774
849.057	4892
849.192	4942
849.328	4797
849.463	4828
849.598	4797
849.734	4755
849.869	4721
850.004	4622
850.14	4584
850.275	4584
850.41	4493
850.545	4531
850.68	4672
850.815	4599
850.95	4653
851.085	4820
851.22	4778
851.355	4683
851.49	4645
851.625	4596
851.76	4649
851.895	4542
852.03	4535
852.165	4660
852.299	4706
852.434	4774
852.569	4683
852.703	4786
852.838	4866
852.973	4908
853.107	4896
853.242	4733
853.376	4615
853.511	4561
853.645	4634
853.78	4816
853.914	4725
854.048	4729
854.183	4607
854.317	4675
854.451	4866
854.585	4622
854.72	4618
854.854	4763
854.988	4554
855.122	4698
855.256	4508
855.39	4607
855.524	4740
855.658	4706
855.792	4679
855.926	4736
856.06	4748
856.194	4771
856.327	4664
856.461	4558
856.595	4588
856.729	4603
856.862	4733
856.996	4672
857.13	4736
857.263	4786
857.397	4774
857.53	4634
857.664	4702
857.797	4744
857.931	4790
858.064	4672
858.197	4725
858.331	4675
858.464	4580
858.597	4538
858.731	4580
858.864	4626
858.997	4561
859.13	4660
859.263	4672
859.396	4717
859.529	4592
859.662	4558
859.795	4527
859.928	4592
860.061	4740
860.194	4744
860.327	4603
860.46	4565
860.592	4698
860.725	4694
860.858	4736
860.99	4546
861.123	4500
861.256	4504
861.388	4615
861.521	5364
861.653	4485
861.786	4394
861.918	4459
862.05	4478
862.183	4535
862.315	4596
862.447	4649
862.58	4512
862.712	4394
862.844	4306
862.976	4470
863.108	4428
863.24	4797
863.372	4379
863.504	4379
863.636	4360
863.768	4462
863.9	4455
864.032	4394
864.164	4371
864.296	4451
864.428	4554
864.559	4569
864.691	4519
864.823	4577
864.954	4485
865.086	4546
865.217	4466
865.349	4428
865.48	4485
865.612	4493
865.743	4656
865.875	4481
866.006	4383
866.137	4443
866.269	4485
866.4	4481
866.531	4447
866.662	4417
866.793	4383
866.924	4398
867.055	4508
867.186	4440
867.317	4402
867.448	4329
867.579	4421
867.71	4390
867.841	4352
867.972	4424
868.103	4474
868.233	4440
868.364	4443
868.495	4485
868.625	4649
868.756	4729
868.886	4531
869.017	4611
869.147	4740
869.278	4763
869.408	4637
869.539	4683
869.669	4733
869.799	4649
869.929	4767
870.06	4767
870.19	4961
870.32	4946
870.45	4961
870.58	5029
870.71	5090
870.84	5117
870.97	4942
871.1	4870
871.23	5143
871.36	5170
871.489	4984
871.619	5071
871.749	5090
871.879	5151
872.008	5166
872.138	5045
872.267	5014
872.397	4809
872.526	4767
872.656	4687
872.785	4839
872.915	4911
873.044	5048
873.173	4946
873.303	4961
873.432	4987
873.561	4957
873.69	4870
873.819	4885
873.948	4889
874.077	4786
874.206	4797
874.335	4759
874.464	4930
874.593	5071
874.722	4999
874.851	5094
874.979	5113
875.108	5033
875.237	4889
875.365	4843
875.494	4885
875.623	4999
875.751	4850
875.88	4862
876.008	4965
876.136	5033
876.265	5155
876.393	5299
876.521	5227
876.65	5254
876.778	5136
876.906	5083
877.034	5052
877.162	5052
877.29	4972
877.418	5041
877.546	5037
877.674	5010
877.802	5014
877.93	5006
878.058	4923
878.185	4904
878.313	4938
878.441	4995
878.568	4771
878.696	4889
878.824	4919
878.951	4953
879.079	5159
879.206	5315
879.333	5056
879.461	5006
879.588	5018
879.715	5140
879.842	5174
879.97	4995
880.097	4805
880.224	4736
880.351	4824
880.478	4812
880.605	4725
880.732	4793
880.859	5041
880.986	4927
881.112	4930
881.239	4755
881.366	4691
881.493	4588
881.619	4607
881.746	4626
881.872	4626
881.999	4694
882.125	4698
882.252	4752
882.378	4831
882.505	4991
882.631	4824
882.757	4672
882.883	4744
883.01	4717
883.136	4656
883.262	4611
883.388	4588
883.514	4759
883.64	4908
883.766	4805
883.892	4694
884.018	4706
884.143	4889
884.269	4991
884.395	4637
884.52	4573
884.646	4607
884.772	4577
884.897	4603
885.023	4645
885.148	4786
885.274	4870
885.399	4793
885.524	4698
885.65	4630
885.775	4740
885.9	4710
886.025	4946
886.15	4736
886.275	4706
886.4	4672
886.525	4725
886.65	4664
886.775	4637
886.9	4908
887.025	5006
887.149	4816
887.274	4653
887.399	4584
887.523	4573
887.648	4603
887.773	4561
887.897	4778
888.021	4786
888.146	4630
888.27	4831
888.395	4870
888.519	4812
888.643	4744
888.767	4793
888.891	4679
889.015	4607
889.139	4664
889.263	4607
889.387	4702
889.511	4843
889.635	4797
889.759	4584
889.883	4592
890.006	4729
890.13	4873
890.254	4637
890.377	4694
890.501	4550
890.624	4538
890.748	4607
890.871	4538
890.995	4451
891.118	4379
891.241	4527
891.364	4538
891.488	4618
891.611	4489
891.734	4538
891.857	4607
891.98	4546
892.103	4637
892.226	4535
892.349	4519
892.471	4455
892.594	4569
892.717	4603
892.839	4565
892.962	4546
893.085	4645
893.207	4622
893.33	4417
893.452	4558
893.575	4656
893.697	4569
893.819	4824
893.941	4801
894.064	4740
894.186	4580
894.308	4580
894.43	4744
894.552	4831
894.674	4706
894.796	4489
894.918	4569
895.04	4569
895.161	4717
895.283	4679
895.405	4504
895.526	4637
895.648	4710
895.769	4736
895.891	4694
896.012	4725
896.134	4725
896.255	4675
896.376	4649
896.498	4588
896.619	4672
896.74	4611
896.861	4637
896.982	4961
897.103	5060
897.224	4835
897.345	4706
897.466	4630
897.587	4717
897.708	4843
897.828	4786
897.949	4641
898.07	4592
898.19	4615
898.311	4824
898.431	4653
898.552	4721
898.672	4786
898.792	4793
898.913	4714
899.033	4653
899.153	4478
899.273	4436
899.393	4481
899.513	4508
899.633	4504
899.753	4531
899.873	4489
899.993	4569
900.113	4542
900.232	4573
900.352	4550
900.472	4474
900.591	4405
900.711	4466
900.83	4489
900.95	4622
901.069	4698
901.189	4508
901.308	4383
901.427	4325
901.546	4322
901.665	4447
901.784	4538
901.904	4367
902.023	4329
902.141	4173
902.26	4150
902.379	4329
902.498	4188
902.617	4253
902.735	4383
902.854	4375
902.973	4367
903.091	4227
903.21	4215
903.328	4276
903.446	4230
903.565	4299
903.683	4390
903.801	4284
903.919	4421
904.038	4379
904.156	4325
904.274	4421
904.392	4363
904.51	4409
904.627	4474
904.745	4577
904.863	4653
904.981	4348
905.098	4291
905.216	4356
905.334	4455
905.451	4432
905.569	4360
905.686	4542
905.803	4527
905.921	4436
906.038	4584
906.155	4440
906.272	4390
906.389	4424
906.506	4341
906.623	4398
906.74	4402
906.857	4318
906.974	4344
907.091	4550
907.208	4653
907.324	4596
907.441	4508
907.557	4306
907.674	4356
907.79	4325
907.907	4409
908.023	4432
908.139	4489
908.256	4394
908.372	4462
908.488	4447
908.604	4360
908.72	4360
908.836	4405
908.952	4348
909.068	4413
909.184	4554
909.3	4466
909.415	4531
909.531	4546
909.647	4337
909.762	4375
909.878	4306
909.993	4447
910.108	4447
910.224	4390
910.339	4474
910.454	4386
910.57	4367
910.685	4299
910.8	4660
910.915	4588
911.03	4478
911.145	4329
911.259	4310
911.374	4367
911.489	4310
911.604	4234
911.718	4188
911.833	4166
911.947	4097
912.062	4006
912.176	4188
912.291	4215
912.405	4238
912.519	4432
912.633	4500
912.748	4379
912.862	4291
912.976	4234
913.09	4116
913.204	4166
913.318	4265
913.431	4337
913.545	4371
913.659	4421
913.772	4371
913.886	4234
914	4196
914.113	4375
914.226	4424
914.34	4421
914.453	4211
914.566	4421
914.68	4322
914.793	4363
914.906	4112
915.019	4093
915.132	4105
915.245	4188
915.358	4211
915.47	4230
915.583	4280
915.696	4295
915.809	4421
915.921	4443
916.034	4268
916.146	4242
916.259	4211
916.371	4390
916.483	4329
916.595	4272
916.708	4253
916.82	4299
916.932	4306
917.044	4310
917.156	4344
917.268	4200
917.38	4261
917.491	4280
917.603	4348
917.715	4413
917.826	4405
917.938	4303
918.049	4261
918.161	4402
918.272	4569
918.384	4558
918.495	4451
918.606	4261
918.717	4272
918.828	4352
918.939	4379
919.05	4287
919.161	4329
919.272	4109
919.383	4249
919.494	4451
919.604	4675
919.715	4402
919.826	4344
919.936	4432
920.047	4538
920.157	4428
920.267	4664
920.378	4512
920.488	4497
920.598	4714
920.708	4889
920.818	4790
920.928	4771
921.038	4976
921.148	4930
921.258	4622
921.368	4508
921.477	4493
921.587	4443
921.697	4402
921.806	4565
921.916	4466
922.025	4215
922.134	4303
922.244	4227
922.353	4287
922.462	4173
922.571	4105
922.68	3998
922.789	4002
922.898	4090
923.007	3994
923.116	4112
923.224	4048
923.333	4071
923.442	4021
923.55	3979
923.659	4051
923.767	4078
923.876	3975
923.984	4093
924.092	4021
924.201	4086
924.309	4109
924.417	4139
924.525	4086
924.633	4139
924.741	5071
924.849	3903
924.956	4090
925.064	3987
925.172	3880
925.279	3949
925.387	4078
925.494	4090
925.602	4227
925.709	4223
925.816	4036
925.924	4105
926.031	4238
926.138	4150
926.245	4181
926.352	4063
926.459	4265
926.566	4322
926.673	4131
926.779	4059
926.886	4051
926.993	3975
927.099	4017
927.206	3968
927.312	3926
927.419	3998
927.525	3991
927.631	4124
927.737	3979
927.843	3930
927.95	3816
928.056	4006
928.162	4006
928.267	4071
928.373	4615
928.479	4097
928.585	3865
928.69	3972
928.796	4116
928.901	3956
929.007	3857
929.112	4029
929.218	3968
929.323	3934
929.428	3926
929.533	4143
929.638	3911
929.743	3998
929.848	4017
929.953	3964
930.058	3926
930.163	3755
930.267	3808
930.372	4006
930.477	3766
930.581	4040
930.685	3937
930.79	3842
930.894	3918
930.998	3857
931.103	4021
931.207	3679
931.311	3724
931.415	3667
931.519	3538
931.623	3530
