Data from test_V78500241_2245.txt Node
Date: Fri Mar 25 17:04:36 CST 2022
User: usil
Spectrometer: V785-0024
Trigger mode: 0
Integration Time (sec): 4.000000E-1
Scans to average: 1
Nonlinearity correction enabled: false
Boxcar width: 0
Storing dark spectrum: false
XAxis mode: Wavelengths
Number of Pixels in Spectrum: 1024
>>>>>Begin Spectral Data<<<<<
801.071	8024
801.214	7967
801.356	7875
801.499	7772
801.641	7871
801.783	7852
801.926	7959
802.068	7932
802.211	8005
802.353	8039
802.496	7871
802.638	7875
802.78	7856
802.923	7898
803.065	7864
803.208	7833
803.35	7963
803.492	8096
803.635	8183
803.777	8001
803.919	8130
804.061	8454
804.204	8183
804.346	8024
804.488	7913
804.63	8088
804.773	7974
804.915	8081
805.057	8252
805.199	8164
805.341	8271
805.483	8237
805.626	8271
805.768	8107
805.91	8191
806.052	8206
806.194	8119
806.336	8229
806.478	8077
806.62	8046
806.762	8073
806.904	8275
807.046	8389
807.188	8317
807.33	8332
807.472	8313
807.614	8191
807.756	8096
807.898	7986
808.04	7967
808.182	7864
808.324	7909
808.465	7951
808.607	8024
808.749	8077
808.891	8202
809.033	8313
809.174	8229
809.316	8069
809.458	8039
809.6	8050
809.741	8065
809.883	8111
810.025	8103
810.166	8054
810.308	8012
810.45	8020
810.591	7868
810.733	7757
810.875	7624
811.016	7518
811.158	7521
811.299	7559
811.441	7704
811.582	7674
811.724	7575
811.865	7563
812.007	7620
812.148	7632
812.29	7689
812.431	7814
812.573	7811
812.714	7906
812.855	8077
812.997	8206
813.138	8294
813.279	8187
813.421	8077
813.562	8031
813.703	7826
813.845	7677
813.986	7373
814.127	7236
814.268	7251
814.41	7160
814.551	7175
814.692	7209
814.833	7107
814.974	7129
815.115	7145
815.256	6973
815.397	6909
815.539	6932
815.68	6772
815.821	6776
815.962	6840
816.103	6848
816.244	6703
816.385	6601
816.526	6578
816.666	6498
816.807	6361
816.948	6429
817.089	6509
817.23	6372
817.371	6410
817.512	6410
817.653	6300
817.793	6338
817.934	6403
818.075	6467
818.216	6414
818.356	6429
818.497	6281
818.638	6136
818.778	6159
818.919	6136
819.06	6155
819.2	6388
819.341	6338
819.481	6437
819.622	6536
819.762	6719
819.903	6757
820.043	6593
820.184	6582
820.324	6528
820.465	6730
820.605	6669
820.746	6639
820.886	6559
821.026	6715
821.167	6719
821.307	6772
821.447	6806
821.588	6715
821.728	6555
821.868	6490
822.008	6300
822.149	6331
822.289	6350
822.429	6197
822.569	6102
822.709	6152
822.849	5931
822.99	5916
823.13	5923
823.27	5958
823.41	5760
823.55	5870
823.69	5764
823.83	5756
823.97	5707
824.11	5516
824.25	5524
824.389	5547
824.529	5573
824.669	5551
824.809	5608
824.949	5642
825.089	5596
825.228	5554
825.368	5414
825.508	5406
825.648	5326
825.787	5406
825.927	5376
826.067	5387
826.206	5227
826.346	5334
826.485	5387
826.625	5376
826.765	5585
826.904	5554
827.044	5261
827.183	5231
827.323	5136
827.462	5197
827.601	5212
827.741	5155
827.88	5208
828.02	5090
828.159	5208
828.298	5277
828.437	5357
828.577	5288
828.716	5425
828.855	5269
828.994	5193
829.134	5102
829.273	5178
829.412	5143
829.551	5132
829.69	5174
829.829	5269
829.968	5360
830.107	5227
830.246	5337
830.385	5178
830.524	5113
830.663	5041
830.802	4927
830.941	4862
831.08	4942
831.219	4946
831.357	4972
831.496	5155
831.635	4908
831.774	4866
831.913	4835
832.051	4725
832.19	4774
832.329	4850
832.467	4687
832.606	4637
832.744	4698
832.883	4714
833.022	4706
833.16	4736
833.299	4797
833.437	4843
833.576	4862
833.714	4911
833.852	4930
833.991	4847
834.129	4987
834.267	4980
834.406	4946
834.544	4949
834.682	5003
834.821	4911
834.959	5147
835.097	4995
835.235	5155
835.373	5086
835.511	5105
835.65	5029
835.788	4984
835.926	4892
836.064	4873
836.202	4919
836.34	5178
836.478	5185
836.615	5124
836.753	5201
836.891	5284
837.029	5208
837.167	5132
837.305	5147
837.443	5178
837.58	5102
837.718	5269
837.856	5201
837.993	5151
838.131	5254
838.269	5201
838.406	5220
838.544	5197
838.681	4984
838.819	5025
838.956	4942
839.094	4866
839.231	4980
839.369	5090
839.506	5478
839.643	5246
839.781	5060
839.918	5029
840.055	5098
840.193	5048
840.33	5083
840.467	5174
840.604	5197
840.742	5429
840.879	5094
841.016	5098
841.153	5143
841.29	5345
841.427	5299
841.564	5322
841.701	5376
841.838	5220
841.975	5201
842.112	5250
842.249	5128
842.385	5132
842.522	5315
842.659	5174
842.796	5136
842.933	5197
843.069	5143
843.206	5143
843.343	5280
843.479	5231
843.616	5235
843.752	4999
843.889	4961
844.025	5189
844.162	5022
844.298	5178
844.435	5048
844.571	5029
844.708	5223
844.844	5277
844.98	5337
845.117	5299
845.253	5147
845.389	5117
845.525	5147
845.661	5147
845.798	5056
845.934	5117
846.07	5018
846.206	5193
846.342	5273
846.478	5181
846.614	4995
846.75	4965
846.886	4938
847.022	5117
847.158	4976
847.294	5052
847.429	5090
847.565	5045
847.701	5330
847.837	4877
847.972	4862
848.108	4927
848.244	4908
848.379	4786
848.515	4717
848.65	4710
848.786	4755
848.921	4805
849.057	4885
849.192	4850
849.328	4805
849.463	4881
849.598	4782
849.734	4729
849.869	4702
850.004	4630
850.14	4649
850.275	4607
850.41	4493
850.545	4569
850.68	4622
850.815	4618
850.95	4660
851.085	4858
851.22	4710
851.355	4630
851.49	4637
851.625	4641
851.76	4630
851.895	4565
852.03	4535
852.165	4634
852.299	4729
852.434	4786
852.569	4725
852.703	4748
852.838	4843
852.973	4949
853.107	4908
853.242	4733
853.376	4611
853.511	4592
853.645	4656
853.78	4790
853.914	4664
854.048	4649
854.183	4645
854.317	4687
854.451	4835
854.585	4672
854.72	4664
854.854	4714
854.988	4588
855.122	4664
855.256	4542
855.39	4706
855.524	4771
855.658	4702
855.792	4675
855.926	4752
856.06	4759
856.194	4782
856.327	4656
856.461	4637
856.595	4656
856.729	4630
856.862	4771
856.996	4698
857.13	4740
857.263	4755
857.397	4782
857.53	4622
857.664	4717
857.797	4736
857.931	4774
858.064	4641
858.197	4755
858.331	4626
858.464	4607
858.597	4504
858.731	4607
858.864	4687
858.997	4592
859.13	4611
859.263	4656
859.396	4721
859.529	4577
859.662	4527
859.795	4531
859.928	4641
860.061	4763
860.194	4778
860.327	4660
860.46	4550
860.592	4710
860.725	4675
860.858	4755
860.99	4550
861.123	4558
861.256	4516
861.388	4607
861.521	5280
861.653	4474
861.786	4394
861.918	4459
862.05	4531
862.183	4493
862.315	4603
862.447	4668
862.58	4546
862.712	4402
862.844	4333
862.976	4485
863.108	4451
863.24	4858
863.372	4341
863.504	4440
863.636	4386
863.768	4474
863.9	4417
864.032	4386
864.164	4409
864.296	4459
864.428	4569
864.559	4573
864.691	4512
864.823	4542
864.954	4481
865.086	4493
865.217	4443
865.349	4402
865.48	4470
865.612	4470
865.743	4656
865.875	4470
866.006	4417
866.137	4451
866.269	4474
866.4	4417
866.531	4424
866.662	4451
866.793	4421
866.924	4428
867.055	4474
867.186	4512
867.317	4405
867.448	4394
867.579	4386
867.71	4379
867.841	4356
867.972	4481
868.103	4478
868.233	4421
868.364	4481
868.495	4523
868.625	4675
868.756	4752
868.886	4573
869.017	4630
869.147	4755
869.278	4759
869.408	4660
869.539	4546
869.669	4698
869.799	4641
869.929	4748
870.06	4683
870.19	4923
870.32	4927
870.45	4957
870.58	5022
870.71	5090
870.84	5064
870.97	4949
871.1	4915
871.23	5174
871.36	5090
871.489	5037
871.619	5018
871.749	5033
871.879	5079
872.008	5178
872.138	5071
872.267	4968
872.397	4843
872.526	4801
872.656	4778
872.785	4812
872.915	4923
873.044	5029
873.173	4946
873.303	4915
873.432	4957
873.561	4934
873.69	4866
873.819	4850
873.948	4949
874.077	4831
874.206	4736
874.335	4790
874.464	4896
874.593	5041
874.722	4984
874.851	5098
874.979	5075
875.108	5067
875.237	4908
875.365	4839
875.494	4927
875.623	4987
875.751	4801
875.88	4866
876.008	4965
876.136	5037
876.265	5220
876.393	5337
876.521	5185
876.65	5201
876.778	5170
876.906	5113
877.034	5022
877.162	4995
877.29	4976
877.418	5052
877.546	5022
877.674	5014
877.802	5029
877.93	5029
878.058	4896
878.185	4850
878.313	4919
878.441	4968
878.568	4816
878.696	4873
878.824	4938
878.951	4995
879.079	5155
879.206	5288
879.333	5071
879.461	4995
879.588	4991
879.715	5155
879.842	5273
879.97	4976
880.097	4752
880.224	4717
880.351	4831
880.478	4805
880.605	4828
880.732	4790
880.859	5079
880.986	4889
881.112	4892
881.239	4801
881.366	4637
881.493	4626
881.619	4599
881.746	4599
881.872	4649
881.999	4668
882.125	4668
882.252	4786
882.378	4809
882.505	4976
882.631	4786
882.757	4672
882.883	4725
883.01	4767
883.136	4603
883.262	4573
883.388	4675
883.514	4820
883.64	4805
883.766	4744
883.892	4664
884.018	4706
884.143	4873
884.269	4991
884.395	4698
884.52	4615
884.646	4683
884.772	4599
884.897	4565
885.023	4683
885.148	4740
885.274	4870
885.399	4782
885.524	4717
885.65	4725
885.775	4698
885.9	4694
886.025	4858
886.15	4786
886.275	4714
886.4	4679
886.525	4683
886.65	4721
886.775	4641
886.9	4930
887.025	5003
887.149	4820
887.274	4615
887.399	4580
887.523	4603
887.648	4603
887.773	4577
887.897	4729
888.021	4786
888.146	4660
888.27	4801
888.395	4938
888.519	4843
888.643	4786
888.767	4809
888.891	4672
889.015	4588
889.139	4675
889.263	4588
889.387	4763
889.511	4866
889.635	4790
889.759	4641
889.883	4649
890.006	4736
890.13	4820
890.254	4599
890.377	4656
890.501	4580
890.624	4512
890.748	4641
890.871	4542
890.995	4443
891.118	4344
891.241	4478
891.364	4489
891.488	4656
891.611	4459
891.734	4565
891.857	4660
891.98	4542
892.103	4607
892.226	4645
892.349	4573
892.471	4421
892.594	4573
892.717	4615
892.839	4565
892.962	4584
893.085	4607
893.207	4577
893.33	4508
893.452	4519
893.575	4615
893.697	4577
893.819	4778
893.941	4900
894.064	4778
894.186	4554
894.308	4584
894.43	4714
894.552	4778
894.674	4763
894.796	4538
894.918	4611
895.04	4527
895.161	4733
895.283	4645
895.405	4565
895.526	4603
895.648	4656
895.769	4691
895.891	4744
896.012	4748
896.134	4729
896.255	4672
896.376	4660
896.498	4630
896.619	4668
896.74	4626
896.861	4687
896.982	4919
897.103	5056
897.224	4831
897.345	4744
897.466	4710
897.587	4698
897.708	4847
897.828	4767
897.949	4645
898.07	4626
898.19	4622
898.311	4790
898.431	4649
898.552	4725
898.672	4801
898.792	4748
898.913	4683
899.033	4607
899.153	4538
899.273	4451
899.393	4493
899.513	4497
899.633	4542
899.753	4523
899.873	4516
899.993	4569
900.113	4538
900.232	4618
900.352	4565
900.472	4455
900.591	4451
900.711	4489
900.83	4493
900.95	4618
901.069	4664
901.189	4535
901.308	4348
901.427	4276
901.546	4428
901.665	4440
901.784	4546
901.904	4375
902.023	4306
902.141	4181
902.26	4139
902.379	4310
902.498	4230
902.617	4234
902.735	4371
902.854	4417
902.973	4356
903.091	4230
903.21	4223
903.328	4299
903.446	4291
903.565	4257
903.683	4341
903.801	4306
903.919	4413
904.038	4428
904.156	4280
904.274	4413
904.392	4398
904.51	4436
904.627	4440
904.745	4550
904.863	4611
904.981	4447
905.098	4284
905.216	4390
905.334	4455
905.451	4443
905.569	4462
905.686	4508
905.803	4561
905.921	4409
906.038	4561
906.155	4459
906.272	4333
906.389	4451
906.506	4367
906.623	4344
906.74	4405
906.857	4295
906.974	4356
907.091	4584
907.208	4656
907.324	4554
907.441	4462
907.557	4322
907.674	4333
907.79	4291
907.907	4367
908.023	4470
908.139	4497
908.256	4436
908.372	4489
908.488	4443
908.604	4360
908.72	4310
908.836	4402
908.952	4394
909.068	4363
909.184	4527
909.3	4493
909.415	4599
909.531	4569
909.647	4322
909.762	4363
909.878	4337
909.993	4405
910.108	4398
910.224	4383
910.339	4489
910.454	4405
910.57	4394
910.685	4291
910.8	4622
910.915	4603
911.03	4474
911.145	4352
911.259	4314
911.374	4344
911.489	4280
911.604	4272
911.718	4185
911.833	4211
911.947	4086
912.062	3998
912.176	4211
912.291	4234
912.405	4257
912.519	4493
912.633	4451
912.748	4379
912.862	4310
912.976	4177
913.09	4055
913.204	4143
913.318	4196
913.431	4363
913.545	4390
913.659	4421
913.772	4390
913.886	4215
914	4219
914.113	4363
914.226	4440
914.34	4405
914.453	4215
914.566	4424
914.68	4306
914.793	4341
914.906	4120
915.019	4105
915.132	4086
915.245	4196
915.358	4200
915.47	4223
915.583	4295
915.696	4356
915.809	4367
915.921	4421
916.034	4261
916.146	4268
916.259	4215
916.371	4413
916.483	4329
916.595	4268
916.708	4417
916.82	4314
916.932	4356
917.044	4303
917.156	4352
917.268	4219
917.38	4272
917.491	4284
917.603	4348
917.715	4402
917.826	4424
917.938	4379
918.049	4253
918.161	4417
918.272	4561
918.384	4535
918.495	4485
918.606	4268
918.717	4227
918.828	4333
918.939	4356
919.05	4227
919.161	4306
919.272	4082
919.383	4230
919.494	4455
919.604	4668
919.715	4398
919.826	4360
919.936	4367
920.047	4508
920.157	4531
920.267	4683
920.378	4569
920.488	4466
920.598	4740
920.708	4900
920.818	4778
920.928	4778
921.038	4987
921.148	4889
921.258	4599
921.368	4599
921.477	4531
921.587	4470
921.697	4386
921.806	4535
921.916	4432
922.025	4223
922.134	4223
922.244	4204
922.353	4337
922.462	4192
922.571	4105
922.68	3972
922.789	3964
922.898	4017
923.007	3975
923.116	4120
923.224	4067
923.333	3994
923.442	3960
923.55	3998
923.659	3987
923.767	4086
923.876	3979
923.984	4082
924.092	3964
924.201	4067
924.309	4082
924.417	4101
924.525	4086
924.633	4150
924.741	5056
924.849	3896
924.956	4147
925.064	3934
925.172	3937
925.279	3991
925.387	4029
925.494	4051
925.602	4188
925.709	4166
925.816	4044
925.924	4124
926.031	4215
926.138	4196
926.245	4211
926.352	4086
926.459	4265
926.566	4303
926.673	4150
926.779	4040
926.886	4048
926.993	3972
927.099	3911
927.206	3892
927.312	3945
927.419	4067
927.525	4013
927.631	4029
927.737	3994
927.843	3915
927.95	3857
928.056	3911
928.162	3983
928.267	4093
928.373	4660
928.479	4112
928.585	3876
928.69	4006
928.796	4036
928.901	3964
929.007	3857
929.112	4017
929.218	3998
929.323	3911
929.428	3953
929.533	4093
929.638	3861
929.743	3949
929.848	4090
929.953	3991
930.058	3926
930.163	3808
930.267	3838
930.372	3994
930.477	3808
930.581	4093
930.685	3956
930.79	3804
930.894	3880
930.998	3846
931.103	4036
931.207	3690
931.311	3679
931.415	3682
931.519	3515
931.623	3576
