Data from test_V78500241_285.txt Node
Date: Fri Mar 25 16:50:59 CST 2022
User: usil
Spectrometer: V785-0024
Trigger mode: 0
Integration Time (sec): 4.000000E-1
Scans to average: 1
Nonlinearity correction enabled: false
Boxcar width: 0
Storing dark spectrum: false
XAxis mode: Wavelengths
Number of Pixels in Spectrum: 1024
>>>>>Begin Spectral Data<<<<<
801.071	8088
801.214	8039
801.356	7909
801.499	7845
801.641	7776
801.783	7852
801.926	8012
802.068	7940
802.211	8031
802.353	8035
802.496	7860
802.638	7959
802.78	7955
802.923	7978
803.065	7864
803.208	7909
803.35	7997
803.492	8050
803.635	8058
803.777	8062
803.919	8149
804.061	8412
804.204	8172
804.346	8039
804.488	7978
804.63	8088
804.773	7967
804.915	8043
805.057	8256
805.199	8149
805.341	8237
805.483	8279
805.626	8199
805.768	8027
805.91	8168
806.052	8237
806.194	8039
806.336	8286
806.478	8157
806.62	8115
806.762	8183
806.904	8290
807.046	8522
807.188	8320
807.33	8275
807.472	8240
807.614	8176
807.756	8096
807.898	7997
808.04	7902
808.182	7909
808.324	7883
808.465	7970
808.607	8065
808.749	8126
808.891	8202
809.033	8298
809.174	8229
809.316	7982
809.458	8058
809.6	8027
809.741	8103
809.883	8077
810.025	8077
810.166	8073
810.308	8084
810.45	8027
810.591	7826
810.733	7738
810.875	7696
811.016	7533
811.158	7476
811.299	7567
811.441	7723
811.582	7765
811.724	7571
811.865	7578
812.007	7597
812.148	7616
812.29	7639
812.431	7719
812.573	7849
812.714	7947
812.855	8100
812.997	8195
813.138	8275
813.279	8149
813.421	8081
813.562	7986
813.703	7837
813.845	7757
813.986	7533
814.127	7274
814.268	7259
814.41	7240
814.551	7194
814.692	7228
814.833	7095
814.974	7129
815.115	7122
815.256	6935
815.397	6924
815.539	6962
815.68	6818
815.821	6787
815.962	6837
816.103	6840
816.244	6722
816.385	6620
816.526	6642
816.666	6544
816.807	6384
816.948	6483
817.089	6490
817.23	6464
817.371	6403
817.512	6414
817.653	6422
817.793	6365
817.934	6422
818.075	6460
818.216	6448
818.356	6395
818.497	6201
818.638	6163
818.778	6171
818.919	6110
819.06	6175
819.2	6247
819.341	6304
819.481	6369
819.622	6513
819.762	6738
819.903	6734
820.043	6593
820.184	6589
820.324	6597
820.465	6646
820.605	6696
820.746	6612
820.886	6479
821.026	6684
821.167	6711
821.307	6848
821.447	6738
821.588	6604
821.728	6665
821.868	6498
822.008	6281
822.149	6395
822.289	6334
822.429	6129
822.569	6121
822.709	6133
822.849	5904
822.99	5901
823.13	5999
823.27	5901
823.41	5855
823.55	5771
823.69	5786
823.83	5764
823.97	5695
824.11	5585
824.25	5581
824.389	5547
824.529	5532
824.669	5528
824.809	5615
824.949	5672
825.089	5608
825.228	5528
825.368	5444
825.508	5334
825.648	5417
825.787	5406
825.927	5372
826.067	5349
826.206	5326
826.346	5360
826.485	5387
826.625	5417
826.765	5585
826.904	5433
827.044	5201
827.183	5242
827.323	5170
827.462	5235
827.601	5166
827.741	5147
827.88	5204
828.02	5098
828.159	5242
828.298	5269
828.437	5334
828.577	5296
828.716	5528
828.855	5337
828.994	5170
829.134	5140
829.273	5174
829.412	5159
829.551	5090
829.69	5094
829.829	5246
829.968	5326
830.107	5265
830.246	5235
830.385	5174
830.524	5143
830.663	5022
830.802	4984
830.941	4873
831.08	4896
831.219	4987
831.357	5014
831.496	5174
831.635	4930
831.774	4854
831.913	4835
832.051	4702
832.19	4748
832.329	4831
832.467	4733
832.606	4622
832.744	4729
832.883	4729
833.022	4733
833.16	4816
833.299	4839
833.437	4862
833.576	4828
833.714	4866
833.852	4858
833.991	4847
834.129	4972
834.267	4949
834.406	4923
834.544	5048
834.682	5014
834.821	5022
834.959	5166
835.097	4987
835.235	5189
835.373	5098
835.511	5098
835.65	5048
835.788	5048
835.926	4904
836.064	4915
836.202	4927
836.34	5155
836.478	5227
836.615	5162
836.753	5159
836.891	5307
837.029	5239
837.167	5220
837.305	5155
837.443	5151
837.58	5056
837.718	5258
837.856	5197
837.993	5166
838.131	5330
838.269	5197
838.406	5181
838.544	5216
838.681	5090
838.819	5033
838.956	4881
839.094	4961
839.231	4965
839.369	5105
839.506	5417
839.643	5261
839.781	5003
839.918	5006
840.055	5124
840.193	5071
840.33	5147
840.467	5140
840.604	5269
840.742	5452
840.879	5109
841.016	5071
841.153	5136
841.29	5349
841.427	5345
841.564	5341
841.701	5360
841.838	5235
841.975	5296
842.112	5334
842.249	5109
842.385	5109
842.522	5357
842.659	5204
842.796	5166
842.933	5174
843.069	5159
843.206	5166
843.343	5284
843.479	5231
843.616	5269
843.752	5029
843.889	4976
844.025	5197
844.162	5060
844.298	5223
844.435	5048
844.571	5083
844.708	5189
844.844	5303
844.98	5303
845.117	5341
845.253	5166
845.389	5136
845.525	5143
845.661	5098
845.798	5037
845.934	5178
846.07	5041
846.206	5140
846.342	5258
846.478	5246
846.614	5045
846.75	4961
846.886	4900
847.022	5178
847.158	4999
847.294	5029
847.429	5105
847.565	5060
847.701	5269
847.837	4858
847.972	4793
848.108	4984
848.244	4934
848.379	4816
848.515	4694
848.65	4714
848.786	4710
848.921	4828
849.057	4828
849.192	4904
849.328	4843
849.463	4900
849.598	4816
849.734	4812
849.869	4725
850.004	4653
850.14	4691
850.275	4615
850.41	4504
850.545	4546
850.68	4626
850.815	4634
850.95	4618
851.085	4862
851.22	4721
851.355	4660
851.49	4588
851.625	4599
851.76	4618
851.895	4546
852.03	4519
852.165	4615
852.299	4717
852.434	4774
852.569	4721
852.703	4816
852.838	4858
852.973	4957
853.107	4923
853.242	4744
853.376	4622
853.511	4561
853.645	4618
853.78	4881
853.914	4691
854.048	4683
854.183	4664
854.317	4748
854.451	4831
854.585	4656
854.72	4618
854.854	4767
854.988	4622
855.122	4660
855.256	4542
855.39	4649
855.524	4771
855.658	4759
855.792	4698
855.926	4767
856.06	4759
856.194	4801
856.327	4675
856.461	4592
856.595	4630
856.729	4626
856.862	4771
856.996	4687
857.13	4668
857.263	4771
857.397	4812
857.53	4630
857.664	4782
857.797	4725
857.931	4786
858.064	4729
858.197	4736
858.331	4653
858.464	4596
858.597	4580
858.731	4660
858.864	4603
858.997	4618
859.13	4649
859.263	4660
859.396	4702
859.529	4599
859.662	4542
859.795	4542
859.928	4634
860.061	4752
860.194	4774
860.327	4668
860.46	4573
860.592	4729
860.725	4790
860.858	4702
860.99	4580
861.123	4504
861.256	4558
861.388	4664
861.521	5299
861.653	4489
861.786	4440
861.918	4421
862.05	4519
862.183	4565
862.315	4603
862.447	4687
862.58	4584
862.712	4402
862.844	4325
862.976	4489
863.108	4500
863.24	4831
863.372	4352
863.504	4413
863.636	4417
863.768	4474
863.9	4474
864.032	4344
864.164	4386
864.296	4466
864.428	4569
864.559	4573
864.691	4531
864.823	4519
864.954	4493
865.086	4500
865.217	4466
865.349	4428
865.48	4455
865.612	4470
865.743	4603
865.875	4500
866.006	4421
866.137	4417
866.269	4428
866.4	4386
866.531	4443
866.662	4379
866.793	4394
866.924	4417
867.055	4440
867.186	4428
867.317	4386
867.448	4398
867.579	4386
867.71	4405
867.841	4360
867.972	4459
868.103	4497
868.233	4489
868.364	4451
868.495	4451
868.625	4698
868.756	4763
868.886	4580
869.017	4630
869.147	4740
869.278	4805
869.408	4672
869.539	4672
869.669	4717
869.799	4656
869.929	4752
870.06	4759
870.19	4976
870.32	4934
870.45	4972
870.58	4987
870.71	5117
870.84	5102
870.97	4923
871.1	4904
871.23	5189
871.36	5143
871.489	5086
871.619	5098
871.749	5064
871.879	5159
872.008	5140
872.138	5045
872.267	4984
872.397	4828
872.526	4805
872.656	4744
872.785	4854
872.915	4946
873.044	5041
873.173	4949
873.303	4938
873.432	4927
873.561	4953
873.69	4885
873.819	4915
873.948	4934
874.077	4839
874.206	4831
874.335	4797
874.464	4900
874.593	5090
874.722	4980
874.851	5102
874.979	5037
875.108	5086
875.237	4892
875.365	4877
875.494	4866
875.623	4984
875.751	4870
875.88	4881
876.008	4991
876.136	5067
876.265	5223
876.393	5341
876.521	5292
876.65	5223
876.778	5212
876.906	5083
877.034	4991
877.162	5064
877.29	4972
877.418	5086
877.546	5029
877.674	5064
877.802	5033
877.93	5010
878.058	4972
878.185	4854
878.313	4980
878.441	4972
878.568	4812
878.696	4870
878.824	4953
878.951	5052
879.079	5117
879.206	5288
879.333	5071
879.461	4972
879.588	4991
879.715	5094
879.842	5231
879.97	5006
880.097	4828
880.224	4714
880.351	4774
880.478	4828
880.605	4801
880.732	4778
880.859	5048
880.986	4889
881.112	4881
881.239	4778
881.366	4683
881.493	4618
881.619	4611
881.746	4641
881.872	4653
881.999	4668
882.125	4687
882.252	4778
882.378	4847
882.505	4991
882.631	4820
882.757	4698
882.883	4782
883.01	4752
883.136	4630
883.262	4596
883.388	4618
883.514	4820
883.64	4877
883.766	4736
883.892	4675
884.018	4748
884.143	4892
884.269	5014
884.395	4740
884.52	4626
884.646	4702
884.772	4577
884.897	4577
885.023	4698
885.148	4771
885.274	4862
885.399	4778
885.524	4733
885.65	4691
885.775	4782
885.9	4691
886.025	4847
886.15	4809
886.275	4717
886.4	4660
886.525	4809
886.65	4691
886.775	4660
886.9	4889
887.025	5052
887.149	4801
887.274	4694
887.399	4615
887.523	4573
887.648	4592
887.773	4618
887.897	4774
888.021	4744
888.146	4706
888.27	4858
888.395	4927
888.519	4850
888.643	4854
888.767	4839
888.891	4721
889.015	4618
889.139	4626
889.263	4596
889.387	4752
889.511	4866
889.635	4786
889.759	4622
889.883	4626
890.006	4717
890.13	4850
890.254	4649
890.377	4710
890.501	4523
890.624	4512
890.748	4607
890.871	4561
890.995	4417
891.118	4375
891.241	4554
891.364	4569
891.488	4653
891.611	4542
891.734	4535
891.857	4615
891.98	4538
892.103	4618
892.226	4630
892.349	4523
892.471	4394
892.594	4531
892.717	4596
892.839	4622
892.962	4603
893.085	4664
893.207	4599
893.33	4443
893.452	4523
893.575	4668
893.697	4580
893.819	4778
893.941	4831
894.064	4702
894.186	4569
894.308	4550
894.43	4725
894.552	4854
894.674	4755
894.796	4569
894.918	4580
895.04	4561
895.161	4683
895.283	4660
895.405	4573
895.526	4637
895.648	4683
895.769	4710
895.891	4733
896.012	4752
896.134	4710
896.255	4710
896.376	4714
896.498	4599
896.619	4672
896.74	4660
896.861	4683
896.982	4953
897.103	5071
897.224	4862
897.345	4755
897.466	4679
897.587	4736
897.708	4881
897.828	4778
897.949	4668
898.07	4584
898.19	4679
898.311	4801
898.431	4664
898.552	4778
898.672	4831
898.792	4820
898.913	4755
899.033	4596
899.153	4527
899.273	4424
899.393	4531
899.513	4561
899.633	4535
899.753	4523
899.873	4512
899.993	4588
900.113	4531
900.232	4599
900.352	4554
900.472	4531
900.591	4447
900.711	4535
900.83	4424
900.95	4618
901.069	4653
901.189	4504
901.308	4348
901.427	4325
901.546	4360
901.665	4504
901.784	4527
901.904	4409
902.023	4356
902.141	4139
902.26	4124
902.379	4352
902.498	4215
902.617	4265
902.735	4341
902.854	4413
902.973	4394
903.091	4276
903.21	4242
903.328	4253
903.446	4284
903.565	4234
903.683	4367
903.801	4284
903.919	4394
904.038	4455
904.156	4337
904.274	4459
904.392	4432
904.51	4447
904.627	4481
904.745	4573
904.863	4637
904.981	4409
905.098	4341
905.216	4421
905.334	4436
905.451	4428
905.569	4481
905.686	4558
905.803	4561
905.921	4409
906.038	4546
906.155	4497
906.272	4459
906.389	4474
906.506	4371
906.623	4421
906.74	4443
906.857	4325
906.974	4341
907.091	4546
907.208	4675
907.324	4577
907.441	4500
907.557	4375
907.674	4352
907.79	4322
907.907	4371
908.023	4500
908.139	4485
908.256	4470
908.372	4447
908.488	4455
908.604	4337
908.72	4402
908.836	4344
908.952	4383
909.068	4424
909.184	4622
909.3	4497
909.415	4592
909.531	4554
909.647	4375
909.762	4413
909.878	4318
909.993	4447
910.108	4424
910.224	4409
910.339	4455
910.454	4421
910.57	4360
910.685	4318
910.8	4698
910.915	4649
911.03	4466
911.145	4337
911.259	4322
911.374	4325
911.489	4344
911.604	4265
911.718	4181
911.833	4143
911.947	4055
912.062	3994
912.176	4200
912.291	4227
912.405	4303
912.519	4474
912.633	4497
912.748	4383
912.862	4318
912.976	4234
913.09	4097
913.204	4173
913.318	4276
913.431	4394
913.545	4341
913.659	4470
913.772	4398
913.886	4238
914	4287
914.113	4394
914.226	4451
914.34	4379
914.453	4249
914.566	4409
914.68	4280
914.793	4303
914.906	4169
915.019	4139
915.132	4112
915.245	4166
915.358	4215
915.47	4249
915.583	4234
915.696	4291
915.809	4409
915.921	4386
916.034	4284
916.146	4253
916.259	4219
916.371	4348
916.483	4329
916.595	4215
916.708	4337
916.82	4287
916.932	4333
917.044	4333
917.156	4333
917.268	4268
917.38	4280
917.491	4257
917.603	4341
917.715	4424
917.826	4508
917.938	4371
918.049	4242
918.161	4375
918.272	4542
918.384	4538
918.495	4451
918.606	4310
918.717	4227
918.828	4356
918.939	4413
919.05	4329
919.161	4329
919.272	4147
919.383	4257
919.494	4447
919.604	4641
919.715	4447
919.826	4341
919.936	4360
920.047	4516
920.157	4500
920.267	4683
920.378	4535
920.488	4516
920.598	4660
920.708	4949
920.818	4752
920.928	4778
921.038	4991
921.148	4968
921.258	4645
921.368	4538
921.477	4527
921.587	4466
921.697	4394
921.806	4538
921.916	4474
922.025	4291
922.134	4257
922.244	4249
922.353	4360
922.462	4196
922.571	4128
922.68	4025
922.789	3983
922.898	4025
923.007	3998
923.116	4093
923.224	4124
923.333	4055
923.442	3979
923.55	3956
923.659	4021
923.767	4082
923.876	4032
923.984	4150
924.092	4040
924.201	4086
924.309	4090
924.417	4112
924.525	4097
924.633	4109
924.741	5018
924.849	3922
924.956	4139
925.064	3949
925.172	3945
925.279	3934
925.387	4059
925.494	4086
925.602	4177
925.709	4207
925.816	4051
925.924	4097
926.031	4253
926.138	4196
926.245	4207
926.352	4078
926.459	4257
926.566	4284
926.673	4173
926.779	4071
926.886	4090
926.993	3998
927.099	3979
927.206	3987
927.312	3972
927.419	4071
927.525	4044
927.631	4109
927.737	3987
927.843	3949
927.95	3838
928.056	3987
928.162	4006
928.267	4063
928.373	4687
928.479	4116
928.585	3861
928.69	3991
928.796	4074
928.901	3941
929.007	3857
929.112	4006
929.218	3991
929.323	3915
929.428	3941
929.533	4109
929.638	3888
929.743	3972
929.848	4029
929.953	4017
930.058	3941
930.163	3797
930.267	3827
930.372	3975
930.477	3838
930.581	4093
930.685	3926
930.79	3842
930.894	3884
930.998	3865
931.103	4063
931.207	3717
931.311	3713
931.415	3690
931.519	3519
931.623	3534
