Data from test_V78500241_2853.txt Node
Date: Fri Mar 25 17:08:50 CST 2022
User: usil
Spectrometer: V785-0024
Trigger mode: 0
Integration Time (sec): 4.000000E-1
Scans to average: 1
Nonlinearity correction enabled: false
Boxcar width: 0
Storing dark spectrum: false
XAxis mode: Wavelengths
Number of Pixels in Spectrum: 1024
>>>>>Begin Spectral Data<<<<<
801.071	7993
801.214	8035
801.356	7879
801.499	7868
801.641	7864
801.783	7837
801.926	8027
802.068	7963
802.211	8016
802.353	8039
802.496	7883
802.638	7909
802.78	7925
802.923	7959
803.065	7845
803.208	7849
803.35	7982
803.492	8069
803.635	8138
803.777	7989
803.919	8084
804.061	8518
804.204	8153
804.346	8111
804.488	8016
804.63	8157
804.773	8081
804.915	8161
805.057	8275
805.199	8172
805.341	8237
805.483	8271
805.626	8286
805.768	8115
805.91	8168
806.052	8187
806.194	8058
806.336	8275
806.478	8115
806.62	8039
806.762	8077
806.904	8202
807.046	8450
807.188	8396
807.33	8324
807.472	8423
807.614	8164
807.756	8187
807.898	8005
808.04	7879
808.182	7860
808.324	7875
808.465	7997
808.607	8138
808.749	8157
808.891	8218
809.033	8377
809.174	8244
809.316	8176
809.458	8084
809.6	8008
809.741	8016
809.883	8081
810.025	8100
810.166	8084
810.308	7978
810.45	7997
810.591	7868
810.733	7708
810.875	7693
811.016	7563
811.158	7510
811.299	7567
811.441	7696
811.582	7696
811.724	7616
811.865	7548
812.007	7643
812.148	7548
812.29	7632
812.431	7769
812.573	7887
812.714	7967
812.855	8092
812.997	8202
813.138	8267
813.279	8248
813.421	8168
813.562	8046
813.703	7852
813.845	7826
813.986	7453
814.127	7293
814.268	7244
814.41	7171
814.551	7084
814.692	7168
814.833	7061
814.974	7099
815.115	7061
815.256	7004
815.397	6905
815.539	6905
815.68	6791
815.821	6776
815.962	6863
816.103	6741
816.244	6726
816.385	6658
816.526	6616
816.666	6506
816.807	6338
816.948	6433
817.089	6490
817.23	6467
817.371	6407
817.512	6395
817.653	6353
817.793	6418
817.934	6464
818.075	6471
818.216	6483
818.356	6388
818.497	6308
818.638	6106
818.778	6171
818.919	6194
819.06	6121
819.2	6384
819.341	6311
819.481	6426
819.622	6540
819.762	6791
819.903	6734
820.043	6612
820.184	6631
820.324	6555
820.465	6730
820.605	6700
820.746	6623
820.886	6566
821.026	6646
821.167	6772
821.307	6787
821.447	6783
821.588	6703
821.728	6566
821.868	6483
822.008	6342
822.149	6414
822.289	6426
822.429	6216
822.569	6163
822.709	6114
822.849	5950
822.99	5927
823.13	5950
823.27	6003
823.41	5824
823.55	5832
823.69	5847
823.83	5813
823.97	5714
824.11	5596
824.25	5543
824.389	5615
824.529	5619
824.669	5570
824.809	5695
824.949	5680
825.089	5627
825.228	5585
825.368	5433
825.508	5376
825.648	5398
825.787	5436
825.927	5406
826.067	5364
826.206	5360
826.346	5414
826.485	5414
826.625	5444
826.765	5581
826.904	5535
827.044	5307
827.183	5239
827.323	5170
827.462	5280
827.601	5193
827.741	5212
827.88	5254
828.02	5151
828.159	5299
828.298	5303
828.437	5402
828.577	5334
828.716	5520
828.855	5345
828.994	5235
829.134	5181
829.273	5197
829.412	5181
829.551	5170
829.69	5212
829.829	5265
829.968	5410
830.107	5265
830.246	5337
830.385	5235
830.524	5220
830.663	5151
830.802	4991
830.941	4900
831.08	4942
831.219	5086
831.357	5022
831.496	5246
831.635	4968
831.774	4938
831.913	4854
832.051	4790
832.19	4755
832.329	4866
832.467	4752
832.606	4675
832.744	4759
832.883	4717
833.022	4797
833.16	4828
833.299	4881
833.437	4877
833.576	4896
833.714	4862
833.852	4889
833.991	4904
834.129	5003
834.267	5014
834.406	4987
834.544	4934
834.682	5018
834.821	4995
834.959	5181
835.097	4999
835.235	5143
835.373	5121
835.511	5105
835.65	5086
835.788	5079
835.926	4953
836.064	4938
836.202	4953
836.34	5193
836.478	5220
836.615	5159
836.753	5216
836.891	5334
837.029	5337
837.167	5216
837.305	5193
837.443	5212
837.58	5136
837.718	5254
837.856	5273
837.993	5166
838.131	5258
838.269	5246
838.406	5239
838.544	5155
838.681	5022
838.819	5045
838.956	4942
839.094	4919
839.231	4999
839.369	5067
839.506	5459
839.643	5296
839.781	5121
839.918	5033
840.055	5140
840.193	5113
840.33	5143
840.467	5147
840.604	5231
840.742	5486
840.879	5109
841.016	5128
841.153	5174
841.29	5349
841.427	5368
841.564	5383
841.701	5376
841.838	5357
841.975	5269
842.112	5288
842.249	5208
842.385	5117
842.522	5429
842.659	5189
842.796	5174
842.933	5208
843.069	5181
843.206	5181
843.343	5326
843.479	5288
843.616	5318
843.752	5079
843.889	5025
844.025	5216
844.162	5014
844.298	5246
844.435	5064
844.571	5056
844.708	5265
844.844	5318
844.98	5402
845.117	5330
845.253	5189
845.389	5132
845.525	5201
845.661	5181
845.798	5018
845.934	5181
846.07	5086
846.206	5231
846.342	5322
846.478	5193
846.614	5064
846.75	4991
846.886	5003
847.022	5189
847.158	5029
847.294	5071
847.429	5128
847.565	5071
847.701	5379
847.837	4889
847.972	4843
848.108	4984
848.244	4961
848.379	4812
848.515	4748
848.65	4755
848.786	4767
848.921	4828
849.057	4881
849.192	4957
849.328	4847
849.463	4866
849.598	4782
849.734	4736
849.869	4748
850.004	4717
850.14	4729
850.275	4664
850.41	4573
850.545	4573
850.68	4611
850.815	4675
850.95	4630
851.085	4889
851.22	4774
851.355	4702
851.49	4618
851.625	4630
851.76	4622
851.895	4565
852.03	4538
852.165	4706
852.299	4740
852.434	4752
852.569	4740
852.703	4786
852.838	4889
852.973	4980
853.107	4953
853.242	4790
853.376	4717
853.511	4569
853.645	4622
853.78	4854
853.914	4691
854.048	4740
854.183	4717
854.317	4649
854.451	4858
854.585	4675
854.72	4611
854.854	4820
854.988	4668
855.122	4653
855.256	4538
855.39	4744
855.524	4793
855.658	4797
855.792	4721
855.926	4740
856.06	4744
856.194	4778
856.327	4748
856.461	4622
856.595	4611
856.729	4634
856.862	4744
856.996	4710
857.13	4790
857.263	4793
857.397	4820
857.53	4653
857.664	4710
857.797	4755
857.931	4793
858.064	4698
858.197	4698
858.331	4679
858.464	4626
858.597	4565
858.731	4656
858.864	4660
858.997	4653
859.13	4752
859.263	4698
859.396	4771
859.529	4637
859.662	4592
859.795	4607
859.928	4675
860.061	4752
860.194	4774
860.327	4653
860.46	4611
860.592	4797
860.725	4771
860.858	4752
860.99	4634
861.123	4535
861.256	4558
861.388	4596
861.521	5410
861.653	4516
861.786	4424
861.918	4447
862.05	4516
862.183	4599
862.315	4630
862.447	4729
862.58	4554
862.712	4405
862.844	4318
862.976	4546
863.108	4474
863.24	4835
863.372	4417
863.504	4451
863.636	4405
863.768	4489
863.9	4459
864.032	4367
864.164	4440
864.296	4512
864.428	4577
864.559	4603
864.691	4535
864.823	4535
864.954	4512
865.086	4550
865.217	4512
865.349	4409
865.48	4485
865.612	4493
865.743	4630
865.875	4508
866.006	4485
866.137	4489
866.269	4504
866.4	4451
866.531	4447
866.662	4421
866.793	4443
866.924	4432
867.055	4516
867.186	4489
867.317	4462
867.448	4402
867.579	4394
867.71	4402
867.841	4390
867.972	4516
868.103	4474
868.233	4470
868.364	4466
868.495	4462
868.625	4679
868.756	4805
868.886	4569
869.017	4679
869.147	4824
869.278	4820
869.408	4637
869.539	4637
869.669	4736
869.799	4660
869.929	4755
870.06	4744
870.19	4972
870.32	4915
870.45	4961
870.58	5029
870.71	5109
870.84	5079
870.97	4980
871.1	4927
871.23	5140
871.36	5166
871.489	5098
871.619	5079
871.749	5086
871.879	5155
872.008	5208
872.138	5064
872.267	5006
872.397	4892
872.526	4831
872.656	4801
872.785	4820
872.915	5006
873.044	5052
873.173	4972
873.303	4987
873.432	5033
873.561	5010
873.69	4854
873.819	4862
873.948	4911
874.077	4847
874.206	4824
874.335	4812
874.464	4976
874.593	5048
874.722	5003
874.851	5102
874.979	5094
875.108	5105
875.237	4900
875.365	4843
875.494	4927
875.623	5025
875.751	4866
875.88	4877
876.008	4968
876.136	5048
876.265	5162
876.393	5425
876.521	5277
876.65	5227
876.778	5181
876.906	5121
877.034	4999
877.162	5079
877.29	5064
877.418	5025
877.546	5064
877.674	5025
877.802	5067
877.93	5079
878.058	4923
878.185	4930
878.313	4972
878.441	4976
878.568	4805
878.696	4850
878.824	4934
878.951	4995
879.079	5185
879.206	5307
879.333	5159
879.461	4972
879.588	5014
879.715	5136
879.842	5246
879.97	5052
880.097	4828
880.224	4767
880.351	4801
880.478	4873
880.605	4820
880.732	4809
880.859	5067
880.986	4892
881.112	4946
881.239	4774
881.366	4710
881.493	4626
881.619	4603
881.746	4649
881.872	4653
881.999	4656
882.125	4683
882.252	4812
882.378	4858
882.505	5010
882.631	4843
882.757	4721
882.883	4721
883.01	4721
883.136	4755
883.262	4641
883.388	4664
883.514	4793
883.64	4866
883.766	4828
883.892	4702
884.018	4759
884.143	4934
884.269	5022
884.395	4752
884.52	4637
884.646	4679
884.772	4607
884.897	4584
885.023	4668
885.148	4778
885.274	4866
885.399	4790
885.524	4698
885.65	4698
885.775	4767
885.9	4744
886.025	4870
886.15	4801
886.275	4740
886.4	4645
886.525	4736
886.65	4687
886.775	4694
886.9	4946
887.025	5029
887.149	4812
887.274	4672
887.399	4565
887.523	4561
887.648	4607
887.773	4622
887.897	4793
888.021	4782
888.146	4675
888.27	4782
888.395	4915
888.519	4843
888.643	4873
888.767	4847
888.891	4736
889.015	4607
889.139	4637
889.263	4645
889.387	4736
889.511	4862
889.635	4820
889.759	4675
889.883	4672
890.006	4729
890.13	4824
890.254	4580
890.377	4691
890.501	4561
890.624	4497
890.748	4653
890.871	4527
890.995	4421
891.118	4394
891.241	4538
891.364	4569
891.488	4672
891.611	4535
891.734	4516
891.857	4607
891.98	4558
892.103	4672
892.226	4611
892.349	4523
892.471	4421
892.594	4630
892.717	4588
892.839	4592
892.962	4577
893.085	4653
893.207	4599
893.33	4489
893.452	4516
893.575	4698
893.697	4592
893.819	4870
893.941	4866
894.064	4763
894.186	4611
894.308	4618
894.43	4759
894.552	4877
894.674	4717
894.796	4584
894.918	4565
895.04	4569
895.161	4740
895.283	4668
895.405	4573
895.526	4664
895.648	4687
895.769	4653
895.891	4672
896.012	4736
896.134	4752
896.255	4641
896.376	4649
896.498	4607
896.619	4679
896.74	4588
896.861	4687
896.982	4927
897.103	5064
897.224	4889
897.345	4729
897.466	4645
897.587	4763
897.708	4870
897.828	4740
897.949	4672
898.07	4573
898.19	4618
898.311	4805
898.431	4691
898.552	4748
898.672	4854
898.792	4793
898.913	4767
899.033	4664
899.153	4508
899.273	4474
899.393	4542
899.513	4481
899.633	4474
899.753	4546
899.873	4485
899.993	4573
900.113	4558
900.232	4618
900.352	4512
900.472	4550
900.591	4428
900.711	4497
900.83	4481
900.95	4653
901.069	4725
901.189	4531
901.308	4383
901.427	4352
901.546	4383
901.665	4466
901.784	4523
901.904	4383
902.023	4356
902.141	4192
902.26	4200
902.379	4325
902.498	4261
902.617	4249
902.735	4360
902.854	4421
902.973	4383
903.091	4158
903.21	4261
903.328	4299
903.446	4272
903.565	4246
903.683	4360
903.801	4310
903.919	4402
904.038	4459
904.156	4322
904.274	4413
904.392	4386
904.51	4443
904.627	4451
904.745	4630
904.863	4596
904.981	4428
905.098	4291
905.216	4379
905.334	4459
905.451	4451
905.569	4443
905.686	4535
905.803	4584
905.921	4443
906.038	4588
906.155	4440
906.272	4386
906.389	4447
906.506	4394
906.623	4390
906.74	4424
906.857	4333
906.974	4371
907.091	4561
907.208	4660
907.324	4596
907.441	4531
907.557	4352
907.674	4314
907.79	4383
907.907	4375
908.023	4485
908.139	4481
908.256	4443
908.372	4424
908.488	4455
908.604	4383
908.72	4344
908.836	4402
908.952	4375
909.068	4432
909.184	4645
909.3	4485
909.415	4615
909.531	4561
909.647	4356
909.762	4413
909.878	4325
909.993	4424
910.108	4375
910.224	4394
910.339	4478
910.454	4421
910.57	4379
910.685	4314
910.8	4615
910.915	4577
911.03	4493
911.145	4341
911.259	4367
911.374	4360
911.489	4356
911.604	4253
911.718	4192
911.833	4200
911.947	4124
912.062	4044
912.176	4207
912.291	4249
912.405	4249
912.519	4470
912.633	4493
912.748	4386
912.862	4318
912.976	4207
913.09	4101
913.204	4177
913.318	4276
913.431	4379
913.545	4341
913.659	4409
913.772	4356
913.886	4238
914	4223
914.113	4421
914.226	4481
914.34	4367
914.453	4280
914.566	4485
914.68	4284
914.793	4306
914.906	4139
915.019	4124
915.132	4086
915.245	4181
915.358	4246
915.47	4253
915.583	4268
915.696	4284
915.809	4451
915.921	4409
916.034	4238
916.146	4265
916.259	4234
916.371	4348
916.483	4356
916.595	4253
916.708	4344
916.82	4299
916.932	4318
917.044	4318
917.156	4314
917.268	4246
917.38	4295
917.491	4257
917.603	4333
917.715	4451
917.826	4478
917.938	4344
918.049	4215
918.161	4394
918.272	4523
918.384	4573
918.495	4489
918.606	4310
918.717	4196
918.828	4379
918.939	4363
919.05	4257
919.161	4314
919.272	4169
919.383	4238
919.494	4413
919.604	4584
919.715	4405
919.826	4322
919.936	4390
920.047	4527
920.157	4504
920.267	4729
920.378	4550
920.488	4478
920.598	4698
920.708	4927
920.818	4710
920.928	4763
921.038	4934
921.148	4866
921.258	4569
921.368	4554
921.477	4493
921.587	4500
921.697	4363
921.806	4550
921.916	4432
922.025	4253
922.134	4341
922.244	4246
922.353	4322
922.462	4192
922.571	4120
922.68	4017
922.789	3922
922.898	4029
923.007	3956
923.116	4131
923.224	4097
923.333	4044
923.442	4017
923.55	3968
923.659	4002
923.767	4101
923.876	4055
923.984	4154
924.092	4002
924.201	4082
924.309	4097
924.417	4131
924.525	4021
924.633	4086
924.741	4889
924.849	3926
924.956	4169
925.064	3987
925.172	3880
925.279	3979
925.387	4044
925.494	4067
925.602	4188
925.709	4204
925.816	4051
925.924	4135
926.031	4185
926.138	4173
926.245	4246
926.352	4078
926.459	4253
926.566	4341
926.673	4101
926.779	4090
926.886	4101
926.993	3979
927.099	3975
927.206	3949
927.312	3945
927.419	4010
927.525	4029
927.631	4093
927.737	3941
927.843	3911
927.95	3873
928.056	4002
928.162	4017
928.267	4063
928.373	4577
928.479	4173
928.585	3880
928.69	4021
928.796	4093
928.901	3975
929.007	3861
929.112	4006
929.218	3979
929.323	3953
929.428	3930
929.533	4097
929.638	3911
929.743	3960
929.848	4071
929.953	3983
930.058	3880
930.163	3774
930.267	3861
930.372	3937
930.477	3827
930.581	4124
930.685	3975
930.79	3797
930.894	3880
930.998	3854
931.103	4021
931.207	3713
931.311	3713
931.415	3682
931.519	3534
931.623	3553
