Data from test_V78500241_132.txt Node
Date: Fri Mar 25 16:49:55 CST 2022
User: usil
Spectrometer: V785-0024
Trigger mode: 0
Integration Time (sec): 4.000000E-1
Scans to average: 1
Nonlinearity correction enabled: false
Boxcar width: 0
Storing dark spectrum: false
XAxis mode: Wavelengths
Number of Pixels in Spectrum: 1024
>>>>>Begin Spectral Data<<<<<
801.071	8039
801.214	8062
801.356	7822
801.499	7864
801.641	7803
801.783	7811
801.926	7928
802.068	8046
802.211	7963
802.353	8073
802.496	7894
802.638	7833
802.78	7925
802.923	7909
803.065	7864
803.208	7807
803.35	7947
803.492	7978
803.635	8115
803.777	7997
803.919	8005
804.061	8389
804.204	8084
804.346	7970
804.488	7883
804.63	8100
804.773	7959
804.915	8088
805.057	8229
805.199	8062
805.341	8202
805.483	8244
805.626	8202
805.768	8050
805.91	8161
806.052	8229
806.194	8115
806.336	8237
806.478	8088
806.62	8062
806.762	8115
806.904	8237
807.046	8412
807.188	8290
807.33	8271
807.472	8320
807.614	8195
807.756	8115
807.898	8039
808.04	7936
808.182	7913
808.324	7936
808.465	7883
808.607	8008
808.749	8081
808.891	8202
809.033	8279
809.174	8252
809.316	8062
809.458	8069
809.6	8035
809.741	8020
809.883	8115
810.025	8149
810.166	8115
810.308	8050
810.45	8046
810.591	7978
810.733	7772
810.875	7643
811.016	7521
811.158	7563
811.299	7556
811.441	7757
811.582	7696
811.724	7639
811.865	7575
812.007	7693
812.148	7601
812.29	7662
812.431	7788
812.573	7940
812.714	8039
812.855	8191
812.997	8252
813.138	8374
813.279	8313
813.421	8168
813.562	7989
813.703	7898
813.845	7750
813.986	7445
814.127	7270
814.268	7244
814.41	7270
814.551	7217
814.692	7194
814.833	7152
814.974	7221
815.115	7228
815.256	7019
815.397	6958
815.539	6920
815.68	6943
815.821	6749
815.962	6837
816.103	6814
816.244	6753
816.385	6650
816.526	6646
816.666	6490
816.807	6342
816.948	6536
817.089	6494
817.23	6604
817.371	6422
817.512	6475
817.653	6399
817.793	6403
817.934	6445
818.075	6471
818.216	6437
818.356	6460
818.497	6258
818.638	6140
818.778	6182
818.919	6194
819.06	6186
819.2	6391
819.341	6338
819.481	6388
819.622	6528
819.762	6810
819.903	6791
820.043	6620
820.184	6585
820.324	6620
820.465	6726
820.605	6658
820.746	6688
820.886	6547
821.026	6662
821.167	6753
821.307	6825
821.447	6760
821.588	6620
821.728	6631
821.868	6582
822.008	6403
822.149	6380
822.289	6338
822.429	6175
822.569	6053
822.709	6152
822.849	5916
822.99	5927
823.13	5878
823.27	5916
823.41	5764
823.55	5840
823.69	5828
823.83	5863
823.97	5691
824.11	5596
824.25	5512
824.389	5558
824.529	5615
824.669	5535
824.809	5646
824.949	5668
825.089	5676
825.228	5524
825.368	5406
825.508	5376
825.648	5372
825.787	5383
825.927	5429
826.067	5330
826.206	5254
826.346	5395
826.485	5395
826.625	5452
826.765	5573
826.904	5448
827.044	5265
827.183	5239
827.323	5170
827.462	5277
827.601	5189
827.741	5265
827.88	5265
828.02	5162
828.159	5296
828.298	5357
828.437	5368
828.577	5299
828.716	5532
828.855	5292
828.994	5170
829.134	5193
829.273	5185
829.412	5174
829.551	5151
829.69	5181
829.829	5212
829.968	5395
830.107	5292
830.246	5292
830.385	5208
830.524	5136
830.663	5105
830.802	4991
830.941	4908
831.08	4900
831.219	4980
831.357	5003
831.496	5174
831.635	4984
831.774	4862
831.913	4866
832.051	4740
832.19	4763
832.329	4805
832.467	4710
832.606	4618
832.744	4717
832.883	4736
833.022	4721
833.16	4805
833.299	4820
833.437	4858
833.576	4816
833.714	4839
833.852	4831
833.991	4911
834.129	4984
834.267	4942
834.406	4930
834.544	4923
834.682	4972
834.821	4987
834.959	5166
835.097	4984
835.235	5098
835.373	5067
835.511	5143
835.65	5075
835.788	5006
835.926	4938
836.064	4904
836.202	4957
836.34	5235
836.478	5277
836.615	5208
836.753	5269
836.891	5357
837.029	5292
837.167	5227
837.305	5193
837.443	5159
837.58	5090
837.718	5265
837.856	5185
837.993	5151
838.131	5246
838.269	5201
838.406	5204
838.544	5178
838.681	5064
838.819	5006
838.956	4923
839.094	4915
839.231	5045
839.369	5159
839.506	5509
839.643	5284
839.781	5098
839.918	5056
840.055	5151
840.193	5045
840.33	5083
840.467	5140
840.604	5216
840.742	5471
840.879	5086
841.016	5121
841.153	5151
841.29	5376
841.427	5337
841.564	5334
841.701	5357
841.838	5334
841.975	5292
842.112	5273
842.249	5140
842.385	5117
842.522	5341
842.659	5227
842.796	5166
842.933	5227
843.069	5170
843.206	5166
843.343	5376
843.479	5235
843.616	5254
843.752	5048
843.889	4972
844.025	5246
844.162	5033
844.298	5216
844.435	5121
844.571	5109
844.708	5246
844.844	5311
844.98	5341
845.117	5318
845.253	5143
845.389	5132
845.525	5151
845.661	5090
845.798	5086
845.934	5159
846.07	5060
846.206	5201
846.342	5318
846.478	5189
846.614	5018
846.75	5048
846.886	4938
847.022	5113
847.158	5067
847.294	5086
847.429	5174
847.565	5052
847.701	5360
847.837	4839
847.972	4862
848.108	4946
848.244	4968
848.379	4793
848.515	4744
848.65	4767
848.786	4786
848.921	4835
849.057	4824
849.192	4968
849.328	4870
849.463	4904
849.598	4786
849.734	4740
849.869	4683
850.004	4603
850.14	4694
850.275	4649
850.41	4584
850.545	4538
850.68	4603
850.815	4672
850.95	4649
851.085	4873
851.22	4759
851.355	4656
851.49	4634
851.625	4584
851.76	4599
851.895	4550
852.03	4558
852.165	4618
852.299	4710
852.434	4793
852.569	4755
852.703	4828
852.838	4843
852.973	5033
853.107	4968
853.242	4771
853.376	4653
853.511	4577
853.645	4641
853.78	4816
853.914	4687
854.048	4660
854.183	4656
854.317	4729
854.451	4877
854.585	4683
854.72	4645
854.854	4733
854.988	4645
855.122	4649
855.256	4561
855.39	4691
855.524	4778
855.658	4767
855.792	4752
855.926	4740
856.06	4801
856.194	4771
856.327	4683
856.461	4649
856.595	4664
856.729	4683
856.862	4763
856.996	4660
857.13	4774
857.263	4793
857.397	4847
857.53	4668
857.664	4717
857.797	4759
857.931	4767
858.064	4733
858.197	4740
858.331	4714
858.464	4656
858.597	4497
858.731	4656
858.864	4691
858.997	4580
859.13	4698
859.263	4698
859.396	4675
859.529	4577
859.662	4615
859.795	4558
859.928	4645
860.061	4774
860.194	4786
860.327	4645
860.46	4596
860.592	4736
860.725	4752
860.858	4717
860.99	4626
861.123	4550
861.256	4523
861.388	4630
861.521	5440
861.653	4481
861.786	4443
861.918	4519
862.05	4531
862.183	4542
862.315	4607
862.447	4706
862.58	4577
862.712	4398
862.844	4322
862.976	4421
863.108	4500
863.24	4923
863.372	4333
863.504	4409
863.636	4436
863.768	4516
863.9	4481
864.032	4341
864.164	4417
864.296	4470
864.428	4542
864.559	4573
864.691	4618
864.823	4523
864.954	4504
865.086	4516
865.217	4497
865.349	4436
865.48	4523
865.612	4485
865.743	4649
865.875	4462
866.006	4459
866.137	4523
866.269	4436
866.4	4470
866.531	4424
866.662	4375
866.793	4421
866.924	4500
867.055	4531
867.186	4531
867.317	4432
867.448	4402
867.579	4375
867.71	4363
867.841	4398
867.972	4466
868.103	4462
868.233	4459
868.364	4417
868.495	4504
868.625	4656
868.756	4801
868.886	4531
869.017	4660
869.147	4763
869.278	4763
869.408	4702
869.539	4649
869.669	4763
869.799	4668
869.929	4755
870.06	4778
870.19	4915
870.32	4930
870.45	4976
870.58	5014
870.71	5109
870.84	5022
870.97	4968
871.1	4934
871.23	5155
871.36	5128
871.489	5056
871.619	5071
871.749	5113
871.879	5140
872.008	5235
872.138	5060
872.267	4987
872.397	4843
872.526	4866
872.656	4672
872.785	4847
872.915	4942
873.044	5037
873.173	4927
873.303	4999
873.432	4957
873.561	4957
873.69	4889
873.819	4892
873.948	4930
874.077	4835
874.206	4778
874.335	4790
874.464	4942
874.593	5048
874.722	4930
874.851	5105
874.979	5083
875.108	5071
875.237	4976
875.365	4938
875.494	4904
875.623	4995
875.751	4824
875.88	4911
876.008	5014
876.136	5064
876.265	5185
876.393	5349
876.521	5250
876.65	5246
876.778	5227
876.906	5113
877.034	5029
877.162	5045
877.29	4991
877.418	5090
877.546	5067
877.674	4995
877.802	5083
877.93	5029
878.058	4991
878.185	4885
878.313	4949
878.441	4976
878.568	4850
878.696	4919
878.824	4999
878.951	5052
879.079	5143
879.206	5311
879.333	5094
879.461	5006
879.588	5045
879.715	5159
879.842	5235
879.97	5025
880.097	4828
880.224	4763
880.351	4790
880.478	4831
880.605	4839
880.732	4805
880.859	5117
880.986	4930
881.112	4908
881.239	4801
881.366	4675
881.493	4615
881.619	4645
881.746	4672
881.872	4698
881.999	4653
882.125	4717
882.252	4782
882.378	4801
882.505	4987
882.631	4835
882.757	4721
882.883	4717
883.01	4755
883.136	4687
883.262	4618
883.388	4664
883.514	4816
883.64	4915
883.766	4828
883.892	4675
884.018	4740
884.143	4949
884.269	5033
884.395	4710
884.52	4664
884.646	4656
884.772	4634
884.897	4588
885.023	4706
885.148	4801
885.274	4854
885.399	4850
885.524	4710
885.65	4744
885.775	4748
885.9	4729
886.025	4850
886.15	4790
886.275	4698
886.4	4653
886.525	4782
886.65	4744
886.775	4675
886.9	4900
887.025	5056
887.149	4828
887.274	4656
887.399	4641
887.523	4630
887.648	4573
887.773	4577
887.897	4759
888.021	4752
888.146	4702
888.27	4850
888.395	4896
888.519	4835
888.643	4831
888.767	4801
888.891	4668
889.015	4615
889.139	4626
889.263	4656
889.387	4793
889.511	4900
889.635	4774
889.759	4622
889.883	4607
890.006	4744
890.13	4809
890.254	4675
890.377	4710
890.501	4535
890.624	4538
890.748	4653
890.871	4508
890.995	4432
891.118	4428
891.241	4535
891.364	4542
891.488	4618
891.611	4565
891.734	4577
891.857	4607
891.98	4565
892.103	4664
892.226	4615
892.349	4531
892.471	4383
892.594	4577
892.717	4603
892.839	4573
892.962	4577
893.085	4649
893.207	4580
893.33	4508
893.452	4512
893.575	4656
893.697	4607
893.819	4809
893.941	4805
894.064	4812
894.186	4588
894.308	4535
894.43	4714
894.552	4839
894.674	4736
894.796	4573
894.918	4622
895.04	4588
895.161	4717
895.283	4668
895.405	4599
895.526	4637
895.648	4706
895.769	4679
895.891	4755
896.012	4740
896.134	4767
896.255	4691
896.376	4622
896.498	4626
896.619	4702
896.74	4599
896.861	4672
896.982	4976
897.103	5094
897.224	4828
897.345	4755
897.466	4660
897.587	4725
897.708	4892
897.828	4809
897.949	4710
898.07	4573
898.19	4653
898.311	4858
898.431	4672
898.552	4721
898.672	4843
898.792	4847
898.913	4736
899.033	4641
899.153	4519
899.273	4459
899.393	4493
899.513	4535
899.633	4542
899.753	4542
899.873	4542
899.993	4603
900.113	4573
900.232	4649
900.352	4527
900.472	4489
900.591	4424
900.711	4481
900.83	4462
900.95	4622
901.069	4729
901.189	4580
901.308	4413
901.427	4337
901.546	4386
901.665	4512
901.784	4504
901.904	4417
902.023	4322
902.141	4257
902.26	4219
902.379	4314
902.498	4272
902.617	4234
902.735	4417
902.854	4394
902.973	4375
903.091	4238
903.21	4272
903.328	4299
903.446	4280
903.565	4284
903.683	4405
903.801	4284
903.919	4371
904.038	4436
904.156	4318
904.274	4417
904.392	4459
904.51	4466
904.627	4508
904.745	4565
904.863	4622
904.981	4409
905.098	4310
905.216	4383
905.334	4443
905.451	4436
905.569	4440
905.686	4645
905.803	4588
905.921	4409
906.038	4573
906.155	4443
906.272	4405
906.389	4500
906.506	4314
906.623	4413
906.74	4398
906.857	4333
906.974	4409
907.091	4637
907.208	4687
907.324	4573
907.441	4497
907.557	4371
907.674	4394
907.79	4333
907.907	4390
908.023	4516
908.139	4497
908.256	4428
908.372	4512
908.488	4447
908.604	4394
908.72	4386
908.836	4402
908.952	4424
909.068	4493
909.184	4561
909.3	4478
909.415	4588
909.531	4573
909.647	4383
909.762	4379
909.878	4348
909.993	4516
910.108	4436
910.224	4459
910.339	4508
910.454	4417
910.57	4398
910.685	4333
910.8	4668
910.915	4626
911.03	4500
911.145	4337
911.259	4356
911.374	4390
911.489	4333
911.604	4265
911.718	4169
911.833	4223
911.947	4078
912.062	4048
912.176	4204
912.291	4284
912.405	4261
912.519	4443
912.633	4531
912.748	4390
912.862	4344
912.976	4207
913.09	4147
913.204	4219
913.318	4272
913.431	4375
913.545	4360
913.659	4478
913.772	4341
913.886	4284
914	4276
914.113	4398
914.226	4432
914.34	4417
914.453	4265
914.566	4466
914.68	4363
914.793	4318
914.906	4200
915.019	4124
915.132	4063
915.245	4196
915.358	4215
915.47	4272
915.583	4314
915.696	4322
915.809	4398
915.921	4451
916.034	4272
916.146	4276
916.259	4253
916.371	4440
916.483	4360
916.595	4272
916.708	4287
916.82	4360
916.932	4344
917.044	4310
917.156	4371
917.268	4276
917.38	4295
917.491	4265
917.603	4341
917.715	4405
917.826	4451
917.938	4402
918.049	4306
918.161	4402
918.272	4592
918.384	4538
918.495	4455
918.606	4337
918.717	4219
918.828	4360
918.939	4383
919.05	4299
919.161	4333
919.272	4150
919.383	4268
919.494	4451
919.604	4687
919.715	4459
919.826	4329
919.936	4402
920.047	4542
920.157	4527
920.267	4679
920.378	4565
920.488	4558
920.598	4725
920.708	4908
920.818	4801
920.928	4801
921.038	4999
921.148	4873
921.258	4653
921.368	4588
921.477	4512
921.587	4489
921.697	4413
921.806	4546
921.916	4443
922.025	4306
922.134	4287
922.244	4246
922.353	4341
922.462	4169
922.571	4147
922.68	4006
922.789	3987
922.898	4048
923.007	4010
923.116	4158
923.224	4090
923.333	4086
923.442	4017
923.55	4006
923.659	4032
923.767	4120
923.876	3998
923.984	4150
924.092	4013
924.201	4112
924.309	4116
924.417	4124
924.525	4109
924.633	4120
924.741	4870
924.849	3926
924.956	4158
925.064	3983
925.172	3907
925.279	3968
925.387	4101
925.494	4082
925.602	4200
925.709	4181
925.816	4036
925.924	4135
926.031	4246
926.138	4169
926.245	4204
926.352	4139
926.459	4299
926.566	4314
926.673	4162
926.779	4143
926.886	4074
926.993	3994
927.099	3949
927.206	3937
927.312	3987
927.419	4120
927.525	4067
927.631	4093
927.737	3956
927.843	4013
927.95	3835
928.056	3956
928.162	4010
928.267	4078
928.373	4622
928.479	4143
928.585	3896
928.69	4048
928.796	4116
928.901	3987
929.007	3857
929.112	4074
929.218	4013
929.323	3964
929.428	4021
929.533	4105
929.638	3926
929.743	3994
929.848	4051
929.953	3994
930.058	3956
930.163	3816
930.267	3808
930.372	4013
930.477	3865
930.581	4078
930.685	3941
930.79	3876
930.894	3896
930.998	3896
931.103	4051
931.207	3732
931.311	3709
931.415	3686
931.519	3519
931.623	3584
