Data from test_V78500241_853.txt Node
Date: Fri Mar 25 16:54:56 CST 2022
User: usil
Spectrometer: V785-0024
Trigger mode: 0
Integration Time (sec): 4.000000E-1
Scans to average: 1
Nonlinearity correction enabled: false
Boxcar width: 0
Storing dark spectrum: false
XAxis mode: Wavelengths
Number of Pixels in Spectrum: 1024
>>>>>Begin Spectral Data<<<<<
801.071	8024
801.214	8035
801.356	7822
801.499	7879
801.641	7792
801.783	7799
801.926	7932
802.068	7913
802.211	7944
802.353	8001
802.496	7814
802.638	7830
802.78	7883
802.923	7940
803.065	7849
803.208	7887
803.35	8001
803.492	8081
803.635	8043
803.777	8024
803.919	8081
804.061	8454
804.204	8111
804.346	7986
804.488	7993
804.63	8115
804.773	7989
804.915	8043
805.057	8202
805.199	8195
805.341	8183
805.483	8187
805.626	8164
805.768	8050
805.91	8214
806.052	8195
806.194	8046
806.336	8336
806.478	8111
806.62	8073
806.762	8115
806.904	8214
807.046	8366
807.188	8309
807.33	8317
807.472	8279
807.614	8081
807.756	8183
807.898	7974
808.04	7913
808.182	7879
808.324	7860
808.465	7928
808.607	8005
808.749	8130
808.891	8214
809.033	8271
809.174	8202
809.316	8084
809.458	8027
809.6	7989
809.741	8062
809.883	8027
810.025	8065
810.166	8058
810.308	8046
810.45	8046
810.591	7871
810.733	7757
810.875	7582
811.016	7441
811.158	7510
811.299	7487
811.441	7685
811.582	7731
811.724	7571
811.865	7533
812.007	7567
812.148	7521
812.29	7601
812.431	7715
812.573	7757
812.714	7852
812.855	8069
812.997	8180
813.138	8263
813.279	8100
813.421	8039
813.562	7970
813.703	7837
813.845	7795
813.986	7441
814.127	7316
814.268	7194
814.41	7137
814.551	7080
814.692	7046
814.833	7008
814.974	7046
815.115	7053
815.256	6924
815.397	6905
815.539	6943
815.68	6829
815.821	6795
815.962	6878
816.103	6772
816.244	6650
816.385	6635
816.526	6566
816.666	6513
816.807	6262
816.948	6414
817.089	6494
817.23	6414
817.371	6350
817.512	6414
817.653	6376
817.793	6395
817.934	6422
818.075	6448
818.216	6422
818.356	6437
818.497	6270
818.638	6041
818.778	6076
818.919	6163
819.06	6144
819.2	6304
819.341	6311
819.481	6315
819.622	6551
819.762	6719
819.903	6684
820.043	6635
820.184	6593
820.324	6540
820.465	6650
820.605	6665
820.746	6623
820.886	6456
821.026	6631
821.167	6662
821.307	6772
821.447	6711
821.588	6635
821.728	6555
821.868	6429
822.008	6361
822.149	6304
822.289	6319
822.429	6148
822.569	6087
822.709	6117
822.849	5813
822.99	5927
823.13	5946
823.27	5912
823.41	5775
823.55	5745
823.69	5733
823.83	5805
823.97	5611
824.11	5554
824.25	5520
824.389	5520
824.529	5535
824.669	5535
824.809	5608
824.949	5581
825.089	5608
825.228	5512
825.368	5383
825.508	5315
825.648	5334
825.787	5372
825.927	5406
826.067	5299
826.206	5261
826.346	5414
826.485	5387
826.625	5368
826.765	5535
826.904	5471
827.044	5258
827.183	5185
827.323	5102
827.462	5235
827.601	5185
827.741	5155
827.88	5166
828.02	5090
828.159	5258
828.298	5284
828.437	5315
828.577	5269
828.716	5493
828.855	5250
828.994	5132
829.134	5086
829.273	5212
829.412	5090
829.551	5105
829.69	5132
829.829	5212
829.968	5368
830.107	5227
830.246	5254
830.385	5132
830.524	5105
830.663	5041
830.802	5010
830.941	4866
831.08	4866
831.219	4972
831.357	4995
831.496	5094
831.635	4919
831.774	4847
831.913	4850
832.051	4729
832.19	4778
832.329	4831
832.467	4687
832.606	4645
832.744	4702
832.883	4729
833.022	4702
833.16	4835
833.299	4835
833.437	4805
833.576	4835
833.714	4831
833.852	4866
833.991	4854
834.129	4934
834.267	4892
834.406	4885
834.544	4999
834.682	4972
834.821	4957
834.959	5098
835.097	5025
835.235	5185
835.373	5041
835.511	5071
835.65	5006
835.788	5010
835.926	4892
836.064	4797
836.202	4934
836.34	5155
836.478	5292
836.615	5136
836.753	5178
836.891	5269
837.029	5265
837.167	5121
837.305	5166
837.443	5124
837.58	5079
837.718	5250
837.856	5189
837.993	5060
838.131	5174
838.269	5212
838.406	5147
838.544	5178
838.681	4995
838.819	4965
838.956	4881
839.094	4858
839.231	4980
839.369	5105
839.506	5452
839.643	5265
839.781	5029
839.918	5018
840.055	5075
840.193	5037
840.33	5105
840.467	5162
840.604	5151
840.742	5417
840.879	5033
841.016	5025
841.153	5117
841.29	5383
841.427	5330
841.564	5330
841.701	5360
841.838	5303
841.975	5201
842.112	5273
842.249	5159
842.385	5143
842.522	5322
842.659	5159
842.796	5086
842.933	5174
843.069	5128
843.206	5128
843.343	5288
843.479	5261
843.616	5201
843.752	5022
843.889	4976
844.025	5246
844.162	4980
844.298	5223
844.435	5071
844.571	4999
844.708	5181
844.844	5280
844.98	5322
845.117	5318
845.253	5170
845.389	5060
845.525	5151
845.661	5124
845.798	5045
845.934	5178
846.07	5056
846.206	5159
846.342	5261
846.478	5151
846.614	5018
846.75	4930
846.886	4953
847.022	5136
847.158	5022
847.294	5071
847.429	5075
847.565	5041
847.701	5311
847.837	4812
847.972	4786
848.108	4942
848.244	4953
848.379	4752
848.515	4710
848.65	4721
848.786	4729
848.921	4736
849.057	4816
849.192	4839
849.328	4774
849.463	4858
849.598	4786
849.734	4774
849.869	4649
850.004	4622
850.14	4641
850.275	4580
850.41	4546
850.545	4561
850.68	4592
850.815	4592
850.95	4558
851.085	4790
851.22	4717
851.355	4649
851.49	4603
851.625	4630
851.76	4603
851.895	4550
852.03	4554
852.165	4626
852.299	4752
852.434	4748
852.569	4748
852.703	4782
852.838	4850
852.973	4927
853.107	4915
853.242	4759
853.376	4664
853.511	4497
853.645	4565
853.78	4786
853.914	4691
854.048	4733
854.183	4645
854.317	4653
854.451	4835
854.585	4660
854.72	4588
854.854	4679
854.988	4584
855.122	4630
855.256	4459
855.39	4653
855.524	4774
855.658	4710
855.792	4668
855.926	4736
856.06	4721
856.194	4778
856.327	4656
856.461	4573
856.595	4603
856.729	4584
856.862	4797
856.996	4653
857.13	4763
857.263	4771
857.397	4759
857.53	4630
857.664	4653
857.797	4752
857.931	4740
858.064	4660
858.197	4725
858.331	4668
858.464	4550
858.597	4516
858.731	4611
858.864	4641
858.997	4607
859.13	4603
859.263	4672
859.396	4641
859.529	4519
859.662	4531
859.795	4504
859.928	4649
860.061	4733
860.194	4744
860.327	4573
860.46	4569
860.592	4744
860.725	4725
860.858	4729
860.99	4580
861.123	4519
861.256	4519
861.388	4626
861.521	5277
861.653	4493
861.786	4447
861.918	4474
862.05	4508
862.183	4535
862.315	4622
862.447	4630
862.58	4546
862.712	4402
862.844	4329
862.976	4470
863.108	4405
863.24	4793
863.372	4284
863.504	4386
863.636	4413
863.768	4462
863.9	4394
864.032	4341
864.164	4394
864.296	4462
864.428	4565
864.559	4550
864.691	4565
864.823	4531
864.954	4478
865.086	4466
865.217	4409
865.349	4440
865.48	4436
865.612	4447
865.743	4607
865.875	4478
866.006	4413
866.137	4436
866.269	4405
866.4	4424
866.531	4424
866.662	4371
866.793	4390
866.924	4405
867.055	4459
867.186	4421
867.317	4405
867.448	4329
867.579	4383
867.71	4413
867.841	4379
867.972	4470
868.103	4451
868.233	4428
868.364	4432
868.495	4466
868.625	4618
868.756	4706
868.886	4588
869.017	4611
869.147	4797
869.278	4725
869.408	4603
869.539	4588
869.669	4664
869.799	4630
869.929	4748
870.06	4706
870.19	4942
870.32	4877
870.45	4877
870.58	4957
870.71	5105
870.84	5056
870.97	4911
871.1	4870
871.23	5162
871.36	5052
871.489	5090
871.619	5102
871.749	5060
871.879	5079
872.008	5124
872.138	5033
872.267	4968
872.397	4873
872.526	4824
872.656	4653
872.785	4797
872.915	4953
873.044	5010
873.173	4972
873.303	4972
873.432	4927
873.561	4915
873.69	4843
873.819	4839
873.948	4881
874.077	4824
874.206	4740
874.335	4763
874.464	4881
874.593	5018
874.722	4934
874.851	5075
874.979	5022
875.108	5025
875.237	4972
875.365	4839
875.494	4881
875.623	4946
875.751	4854
875.88	4862
876.008	4949
876.136	5014
876.265	5193
876.393	5299
876.521	5261
876.65	5220
876.778	5162
876.906	5086
877.034	4991
877.162	5037
877.29	4980
877.418	5006
877.546	5018
877.674	5037
877.802	5029
877.93	5018
878.058	4873
878.185	4854
878.313	4930
878.441	4949
878.568	4828
878.696	4881
878.824	4965
878.951	4991
879.079	5132
879.206	5288
879.333	5067
879.461	4984
879.588	5010
879.715	5109
879.842	5185
879.97	4957
880.097	4820
880.224	4755
880.351	4816
880.478	4809
880.605	4748
880.732	4744
880.859	5048
880.986	4919
881.112	4870
881.239	4778
881.366	4660
881.493	4577
881.619	4569
881.746	4611
881.872	4653
881.999	4641
882.125	4668
882.252	4782
882.378	4843
882.505	4953
882.631	4767
882.757	4596
882.883	4744
883.01	4653
883.136	4660
883.262	4573
883.388	4599
883.514	4828
883.64	4889
883.766	4797
883.892	4656
884.018	4717
884.143	4904
884.269	5018
884.395	4656
884.52	4584
884.646	4618
884.772	4584
884.897	4538
885.023	4645
885.148	4835
885.274	4839
885.399	4809
885.524	4725
885.65	4645
885.775	4694
885.9	4725
886.025	4862
886.15	4793
886.275	4733
886.4	4645
886.525	4733
886.65	4660
886.775	4672
886.9	4915
887.025	5018
887.149	4771
887.274	4607
887.399	4531
887.523	4607
887.648	4535
887.773	4531
887.897	4782
888.021	4767
888.146	4653
888.27	4801
888.395	4927
888.519	4782
888.643	4812
888.767	4793
888.891	4630
889.015	4546
889.139	4626
889.263	4618
889.387	4740
889.511	4824
889.635	4740
889.759	4634
889.883	4672
890.006	4664
890.13	4771
890.254	4622
890.377	4725
890.501	4512
890.624	4546
890.748	4573
890.871	4550
890.995	4424
891.118	4383
891.241	4519
891.364	4523
891.488	4668
891.611	4500
891.734	4500
891.857	4580
891.98	4554
892.103	4611
892.226	4565
892.349	4493
892.471	4440
892.594	4504
892.717	4615
892.839	4565
892.962	4577
893.085	4641
893.207	4588
893.33	4455
893.452	4542
893.575	4668
893.697	4561
893.819	4736
893.941	4790
894.064	4767
894.186	4569
894.308	4523
894.43	4710
894.552	4812
894.674	4771
894.796	4500
894.918	4599
895.04	4565
895.161	4683
895.283	4660
895.405	4592
895.526	4630
895.648	4679
895.769	4698
895.891	4706
896.012	4717
896.134	4672
896.255	4683
896.376	4592
896.498	4626
896.619	4630
896.74	4584
896.861	4687
896.982	4915
897.103	5090
897.224	4839
897.345	4717
897.466	4622
897.587	4710
897.708	4850
897.828	4767
897.949	4687
898.07	4573
898.19	4626
898.311	4809
898.431	4664
898.552	4687
898.672	4835
898.792	4812
898.913	4679
899.033	4622
899.153	4497
899.273	4432
899.393	4478
899.513	4497
899.633	4523
899.753	4508
899.873	4519
899.993	4588
900.113	4523
900.232	4550
900.352	4561
900.472	4474
900.591	4432
900.711	4485
900.83	4424
900.95	4607
901.069	4691
901.189	4516
901.308	4299
901.427	4295
901.546	4375
901.665	4440
901.784	4478
901.904	4379
902.023	4344
902.141	4147
902.26	4154
902.379	4268
902.498	4207
902.617	4211
902.735	4341
902.854	4402
902.973	4360
903.091	4188
903.21	4219
903.328	4314
903.446	4272
903.565	4246
903.683	4405
903.801	4219
903.919	4398
904.038	4466
904.156	4310
904.274	4432
904.392	4383
904.51	4402
904.627	4459
904.745	4546
904.863	4618
904.981	4371
905.098	4322
905.216	4394
905.334	4428
905.451	4424
905.569	4485
905.686	4504
905.803	4558
905.921	4424
906.038	4546
906.155	4462
906.272	4398
906.389	4432
906.506	4356
906.623	4363
906.74	4405
906.857	4291
906.974	4398
907.091	4493
907.208	4694
907.324	4607
907.441	4504
907.557	4303
907.674	4348
907.79	4344
907.907	4375
908.023	4455
908.139	4455
908.256	4451
908.372	4489
908.488	4432
908.604	4329
908.72	4268
908.836	4329
908.952	4379
909.068	4447
909.184	4535
909.3	4485
909.415	4577
909.531	4470
909.647	4386
909.762	4356
909.878	4337
909.993	4436
910.108	4428
910.224	4383
910.339	4500
910.454	4386
910.57	4371
910.685	4287
910.8	4668
910.915	4588
911.03	4451
911.145	4352
911.259	4337
911.374	4348
911.489	4310
911.604	4280
911.718	4192
911.833	4173
911.947	4051
912.062	4063
912.176	4162
912.291	4227
912.405	4204
912.519	4436
912.633	4481
912.748	4306
912.862	4280
912.976	4204
913.09	4101
913.204	4227
913.318	4230
913.431	4344
913.545	4356
913.659	4428
913.772	4310
913.886	4234
914	4223
914.113	4337
914.226	4447
914.34	4409
914.453	4227
914.566	4405
914.68	4299
914.793	4352
914.906	4120
915.019	4097
915.132	4025
915.245	4169
915.358	4253
915.47	4246
915.583	4234
915.696	4318
915.809	4379
915.921	4428
916.034	4246
916.146	4265
916.259	4200
916.371	4344
916.483	4367
916.595	4215
916.708	4325
916.82	4295
916.932	4314
917.044	4367
917.156	4314
917.268	4188
917.38	4257
917.491	4238
917.603	4337
917.715	4455
917.826	4386
917.938	4329
918.049	4211
918.161	4375
918.272	4516
918.384	4523
918.495	4455
918.606	4249
918.717	4234
918.828	4367
918.939	4356
919.05	4249
919.161	4325
919.272	4131
919.383	4246
919.494	4394
919.604	4626
919.715	4398
919.826	4424
919.936	4424
920.047	4512
920.157	4504
920.267	4691
920.378	4580
920.488	4466
920.598	4683
920.708	4870
920.818	4767
920.928	4755
921.038	4923
921.148	4896
921.258	4637
921.368	4550
921.477	4485
921.587	4432
921.697	4360
921.806	4516
921.916	4424
922.025	4287
922.134	4265
922.244	4200
922.353	4291
922.462	4143
922.571	4150
922.68	3994
922.789	3953
922.898	4010
923.007	3972
923.116	4105
923.224	4059
923.333	4036
923.442	3953
923.55	3941
923.659	4055
923.767	4071
923.876	3975
923.984	4166
924.092	3972
924.201	4010
924.309	4093
924.417	4101
924.525	4093
924.633	4002
924.741	4873
924.849	3930
924.956	4143
925.064	3960
925.172	3873
925.279	3918
925.387	4055
925.494	4044
925.602	4188
925.709	4204
925.816	4055
925.924	4135
926.031	4181
926.138	4169
926.245	4207
926.352	4109
926.459	4303
926.566	4265
926.673	4173
926.779	4044
926.886	4074
926.993	3994
927.099	3964
927.206	3915
927.312	3956
927.419	4071
927.525	4032
927.631	4105
927.737	3979
927.843	3945
927.95	3857
928.056	3979
928.162	4006
928.267	4025
928.373	4561
928.479	4071
928.585	3869
928.69	4021
928.796	4074
928.901	3972
929.007	3911
929.112	4002
929.218	3994
929.323	3922
929.428	3930
929.533	4067
929.638	3922
929.743	3941
929.848	4090
929.953	3987
930.058	3956
930.163	3728
930.267	3781
930.372	3972
930.477	3823
930.581	4101
930.685	3945
930.79	3770
930.894	3892
930.998	3865
931.103	4063
931.207	3698
931.311	3709
931.415	3690
931.519	3526
931.623	3530
