Data from test_V78500241_50.txt Node
Date: Fri Mar 25 16:49:21 CST 2022
User: usil
Spectrometer: V785-0024
Trigger mode: 0
Integration Time (sec): 4.000000E-1
Scans to average: 1
Nonlinearity correction enabled: false
Boxcar width: 0
Storing dark spectrum: false
XAxis mode: Wavelengths
Number of Pixels in Spectrum: 1024
>>>>>Begin Spectral Data<<<<<
801.071	8107
801.214	8088
801.356	7963
801.499	7913
801.641	7841
801.783	7909
801.926	8027
802.068	8024
802.211	7986
802.353	8027
802.496	7909
802.638	8016
802.78	7967
802.923	8027
803.065	7940
803.208	7856
803.35	7963
803.492	8130
803.635	8221
803.777	8039
803.919	8088
804.061	8480
804.204	8191
804.346	7997
804.488	8058
804.63	8172
804.773	8001
804.915	8046
805.057	8218
805.199	8176
805.341	8168
805.483	8290
805.626	8180
805.768	8126
805.91	8199
806.052	8252
806.194	8134
806.336	8313
806.478	8157
806.62	8126
806.762	8210
806.904	8294
807.046	8400
807.188	8396
807.33	8385
807.472	8415
807.614	8210
807.756	8240
807.898	8115
808.04	7932
808.182	8001
808.324	7989
808.465	7986
808.607	8103
808.749	8142
808.891	8199
809.033	8301
809.174	8229
809.316	8050
809.458	8065
809.6	8008
809.741	8012
809.883	8073
810.025	8039
810.166	8153
810.308	8043
810.45	8016
810.591	7947
810.733	7803
810.875	7700
811.016	7567
811.158	7514
811.299	7734
811.441	7799
811.582	7742
811.724	7586
811.865	7586
812.007	7693
812.148	7670
812.29	7647
812.431	7826
812.573	7856
812.714	8016
812.855	8168
812.997	8286
813.138	8320
813.279	8180
813.421	8142
813.562	7989
813.703	7913
813.845	7807
813.986	7491
814.127	7343
814.268	7240
814.41	7225
814.551	7133
814.692	7289
814.833	7034
814.974	7129
815.115	7168
815.256	6985
815.397	7004
815.539	6905
815.68	6840
815.821	6734
815.962	6909
816.103	6867
816.244	6753
816.385	6688
816.526	6700
816.666	6585
816.807	6338
816.948	6464
817.089	6532
817.23	6433
817.371	6494
817.512	6445
817.653	6380
817.793	6403
817.934	6414
818.075	6490
818.216	6521
818.356	6486
818.497	6311
818.638	6163
818.778	6167
818.919	6197
819.06	6213
819.2	6331
819.341	6403
819.481	6384
819.622	6597
819.762	6802
819.903	6741
820.043	6642
820.184	6570
820.324	6601
820.465	6730
820.605	6696
820.746	6612
820.886	6585
821.026	6760
821.167	6795
821.307	6833
821.447	6749
821.588	6734
821.728	6612
821.868	6570
822.008	6342
822.149	6372
822.289	6422
822.429	6175
822.569	6095
822.709	6152
822.849	5992
822.99	5950
823.13	5973
823.27	5988
823.41	5832
823.55	5775
823.69	5783
823.83	5824
823.97	5760
824.11	5608
824.25	5608
824.389	5600
824.529	5684
824.669	5516
824.809	5634
824.949	5688
825.089	5642
825.228	5608
825.368	5463
825.508	5398
825.648	5372
825.787	5474
825.927	5459
826.067	5353
826.206	5345
826.346	5410
826.485	5455
826.625	5436
826.765	5547
826.904	5509
827.044	5292
827.183	5246
827.323	5132
827.462	5265
827.601	5189
827.741	5280
827.88	5254
828.02	5166
828.159	5265
828.298	5345
828.437	5391
828.577	5337
828.716	5558
828.855	5360
828.994	5246
829.134	5181
829.273	5208
829.412	5155
829.551	5178
829.69	5288
829.829	5277
829.968	5414
830.107	5322
830.246	5318
830.385	5235
830.524	5140
830.663	5067
830.802	5022
830.941	4900
831.08	4927
831.219	5029
831.357	5025
831.496	5231
831.635	4991
831.774	4843
831.913	4812
832.051	4725
832.19	4755
832.329	4892
832.467	4740
832.606	4691
832.744	4740
832.883	4740
833.022	4736
833.16	4816
833.299	4828
833.437	4900
833.576	4881
833.714	4847
833.852	4854
833.991	4919
834.129	5003
834.267	5048
834.406	4953
834.544	5010
834.682	5006
834.821	5003
834.959	5216
835.097	5052
835.235	5189
835.373	5090
835.511	5064
835.65	5071
835.788	5086
835.926	4968
836.064	4896
836.202	4915
836.34	5178
836.478	5246
836.615	5121
836.753	5239
836.891	5280
837.029	5277
837.167	5204
837.305	5208
837.443	5159
837.58	5140
837.718	5254
837.856	5227
837.993	5204
838.131	5269
838.269	5265
838.406	5227
838.544	5185
838.681	5094
838.819	5029
838.956	4972
839.094	4953
839.231	4976
839.369	5132
839.506	5452
839.643	5315
839.781	5109
839.918	5010
840.055	5136
840.193	5109
840.33	5132
840.467	5132
840.604	5235
840.742	5417
840.879	5132
841.016	5086
841.153	5159
841.29	5406
841.427	5341
841.564	5353
841.701	5402
841.838	5364
841.975	5254
842.112	5292
842.249	5201
842.385	5132
842.522	5387
842.659	5204
842.796	5147
842.933	5254
843.069	5189
843.206	5220
843.343	5398
843.479	5296
843.616	5269
843.752	5056
843.889	5064
844.025	5227
844.162	5052
844.298	5166
844.435	5117
844.571	5121
844.708	5155
844.844	5337
844.98	5357
845.117	5277
845.253	5197
845.389	5105
845.525	5181
845.661	5166
845.798	5056
845.934	5113
846.07	5041
846.206	5204
846.342	5280
846.478	5204
846.614	5060
846.75	4991
846.886	4919
847.022	5140
847.158	5064
847.294	5109
847.429	5109
847.565	5094
847.701	5322
847.837	4961
847.972	4839
848.108	4972
848.244	4968
848.379	4790
848.515	4714
848.65	4729
848.786	4755
848.921	4854
849.057	4927
849.192	4923
849.328	4809
849.463	4900
849.598	4843
849.734	4790
849.869	4725
850.004	4668
850.14	4694
850.275	4630
850.41	4611
850.545	4580
850.68	4611
850.815	4653
850.95	4634
851.085	4854
851.22	4748
851.355	4691
851.49	4630
851.625	4672
851.76	4653
851.895	4630
852.03	4554
852.165	4714
852.299	4763
852.434	4793
852.569	4786
852.703	4862
852.838	4847
852.973	4953
853.107	4995
853.242	4774
853.376	4687
853.511	4611
853.645	4672
853.78	4850
853.914	4698
854.048	4736
854.183	4660
854.317	4729
854.451	4858
854.585	4702
854.72	4759
854.854	4790
854.988	4630
855.122	4675
855.256	4565
855.39	4740
855.524	4824
855.658	4793
855.792	4748
855.926	4710
856.06	4790
856.194	4809
856.327	4725
856.461	4637
856.595	4630
856.729	4637
856.862	4778
856.996	4763
857.13	4733
857.263	4793
857.397	4847
857.53	4717
857.664	4736
857.797	4816
857.931	4805
858.064	4714
858.197	4763
858.331	4694
858.464	4607
858.597	4504
858.731	4653
858.864	4736
858.997	4622
859.13	4694
859.263	4755
859.396	4710
859.529	4615
859.662	4561
859.795	4577
859.928	4656
860.061	4778
860.194	4831
860.327	4607
860.46	4599
860.592	4759
860.725	4736
860.858	4733
860.99	4653
861.123	4546
861.256	4584
861.388	4698
861.521	5315
861.653	4478
861.786	4481
861.918	4485
862.05	4588
862.183	4542
862.315	4592
862.447	4706
862.58	4569
862.712	4447
862.844	4379
862.976	4474
863.108	4470
863.24	4904
863.372	4322
863.504	4455
863.636	4413
863.768	4500
863.9	4451
864.032	4436
864.164	4424
864.296	4489
864.428	4577
864.559	4538
864.691	4599
864.823	4538
864.954	4497
865.086	4588
865.217	4493
865.349	4451
865.48	4493
865.612	4489
865.743	4698
865.875	4489
866.006	4405
866.137	4489
866.269	4451
866.4	4462
866.531	4481
866.662	4455
866.793	4424
866.924	4478
867.055	4531
867.186	4478
867.317	4447
867.448	4386
867.579	4398
867.71	4440
867.841	4394
867.972	4500
868.103	4497
868.233	4470
868.364	4466
868.495	4485
868.625	4706
868.756	4831
868.886	4592
869.017	4660
869.147	4839
869.278	4816
869.408	4660
869.539	4675
869.669	4736
869.799	4706
869.929	4786
870.06	4820
870.19	4961
870.32	4972
870.45	4980
870.58	5109
870.71	5162
870.84	5159
870.97	4984
871.1	4968
871.23	5269
871.36	5204
871.489	5045
871.619	5045
871.749	5140
871.879	5201
872.008	5280
872.138	5159
872.267	5022
872.397	4908
872.526	4904
872.656	4812
872.785	4870
872.915	5037
873.044	5174
873.173	5048
873.303	5033
873.432	5064
873.561	5048
873.69	4953
873.819	4904
873.948	4968
874.077	4927
874.206	4831
874.335	4908
874.464	4995
874.593	5105
874.722	5003
874.851	5220
874.979	5155
875.108	5143
875.237	4961
875.365	4968
875.494	4938
875.623	5060
875.751	4885
875.88	4949
876.008	5075
876.136	5128
876.265	5284
876.393	5387
876.521	5299
876.65	5337
876.778	5235
876.906	5136
877.034	5071
877.162	5124
877.29	5052
877.418	5136
877.546	5109
877.674	5083
877.802	5136
877.93	5105
878.058	5014
878.185	4934
878.313	4968
878.441	4976
878.568	4854
878.696	4934
878.824	5075
878.951	5109
879.079	5216
879.206	5341
879.333	5174
879.461	5083
879.588	5056
879.715	5147
879.842	5311
879.97	5075
880.097	4877
880.224	4801
880.351	4870
880.478	4915
880.605	4900
880.732	4839
880.859	5197
880.986	4965
881.112	5006
881.239	4927
881.366	4675
881.493	4683
881.619	4615
881.746	4672
881.872	4729
881.999	4721
882.125	4778
882.252	4850
882.378	4911
882.505	5022
882.631	4889
882.757	4736
882.883	4820
883.01	4759
883.136	4752
883.262	4664
883.388	4679
883.514	4839
883.64	4904
883.766	4889
883.892	4706
884.018	4790
884.143	4949
884.269	5037
884.395	4755
884.52	4729
884.646	4721
884.772	4653
884.897	4588
885.023	4759
885.148	4866
885.274	4915
885.399	4854
885.524	4755
885.65	4729
885.775	4839
885.9	4763
886.025	4873
886.15	4873
886.275	4793
886.4	4694
886.525	4774
886.65	4797
886.775	4714
886.9	5022
887.025	5102
887.149	4873
887.274	4744
887.399	4649
887.523	4664
887.648	4637
887.773	4630
887.897	4843
888.021	4858
888.146	4786
888.27	4919
888.395	4999
888.519	4862
888.643	4877
888.767	4904
888.891	4786
889.015	4668
889.139	4725
889.263	4653
889.387	4805
889.511	4923
889.635	4824
889.759	4702
889.883	4725
890.006	4763
890.13	4961
890.254	4698
890.377	4790
890.501	4645
890.624	4630
890.748	4714
890.871	4573
890.995	4489
891.118	4470
891.241	4615
891.364	4615
891.488	4744
891.611	4558
891.734	4592
891.857	4706
891.98	4592
892.103	4668
892.226	4664
892.349	4561
892.471	4500
892.594	4653
892.717	4694
892.839	4626
892.962	4653
893.085	4748
893.207	4656
893.33	4550
893.452	4561
893.575	4767
893.697	4668
893.819	4854
893.941	4968
894.064	4877
894.186	4649
894.308	4634
894.43	4839
894.552	4908
894.674	4782
894.796	4611
894.918	4660
895.04	4645
895.161	4748
895.283	4710
895.405	4615
895.526	4706
895.648	4786
895.769	4793
895.891	4782
896.012	4797
896.134	4793
896.255	4752
896.376	4714
896.498	4717
896.619	4687
896.74	4679
896.861	4717
896.982	5029
897.103	5121
897.224	4873
897.345	4828
897.466	4721
897.587	4828
897.708	4927
897.828	4850
897.949	4710
898.07	4622
898.19	4679
898.311	4934
898.431	4710
898.552	4824
898.672	4866
898.792	4892
898.913	4870
899.033	4675
899.153	4599
899.273	4478
899.393	4565
899.513	4603
899.633	4599
899.753	4603
899.873	4664
899.993	4653
900.113	4554
900.232	4664
900.352	4634
900.472	4542
900.591	4512
900.711	4580
900.83	4432
900.95	4664
901.069	4721
901.189	4611
901.308	4428
901.427	4386
901.546	4428
901.665	4565
901.784	4607
901.904	4436
902.023	4386
902.141	4230
902.26	4238
902.379	4386
902.498	4348
902.617	4295
902.735	4436
902.854	4421
902.973	4409
903.091	4272
903.21	4268
903.328	4356
903.446	4318
903.565	4348
903.683	4443
903.801	4325
903.919	4455
904.038	4455
904.156	4367
904.274	4470
904.392	4440
904.51	4535
904.627	4527
904.745	4683
904.863	4714
904.981	4489
905.098	4428
905.216	4413
905.334	4497
905.451	4451
905.569	4497
905.686	4622
905.803	4592
905.921	4504
906.038	4607
906.155	4531
906.272	4470
906.389	4550
906.506	4451
906.623	4440
906.74	4455
906.857	4367
906.974	4455
907.091	4645
907.208	4740
907.324	4645
907.441	4493
907.557	4375
907.674	4428
907.79	4436
907.907	4474
908.023	4569
908.139	4550
908.256	4466
908.372	4542
908.488	4531
908.604	4386
908.72	4367
908.836	4451
908.952	4417
909.068	4519
909.184	4626
909.3	4500
909.415	4622
909.531	4542
909.647	4428
909.762	4421
909.878	4386
909.993	4500
910.108	4504
910.224	4493
910.339	4459
910.454	4470
910.57	4432
910.685	4367
910.8	4683
910.915	4656
911.03	4565
911.145	4398
911.259	4443
911.374	4417
911.489	4348
911.604	4344
911.718	4238
911.833	4230
911.947	4112
912.062	4090
912.176	4238
912.291	4333
912.405	4291
912.519	4512
912.633	4573
912.748	4417
912.862	4367
912.976	4295
913.09	4162
913.204	4276
913.318	4306
913.431	4386
913.545	4405
913.659	4523
913.772	4440
913.886	4322
914	4295
914.113	4443
914.226	4497
914.34	4409
914.453	4310
914.566	4478
914.68	4352
914.793	4367
914.906	4200
915.019	4215
915.132	4177
915.245	4234
915.358	4310
915.47	4272
915.583	4341
915.696	4325
915.809	4462
915.921	4550
916.034	4276
916.146	4352
916.259	4303
916.371	4424
916.483	4455
916.595	4303
916.708	4371
916.82	4386
916.932	4398
917.044	4379
917.156	4348
917.268	4303
917.38	4341
917.491	4325
917.603	4390
917.715	4451
917.826	4519
917.938	4360
918.049	4265
918.161	4413
918.272	4565
918.384	4615
918.495	4493
918.606	4386
918.717	4314
918.828	4383
918.939	4447
919.05	4325
919.161	4341
919.272	4200
919.383	4299
919.494	4516
919.604	4668
919.715	4436
919.826	4348
919.936	4428
920.047	4542
920.157	4497
920.267	4790
920.378	4561
920.488	4588
920.598	4786
920.708	4881
920.818	4782
920.928	4782
921.038	5033
921.148	5006
921.258	4710
921.368	4599
921.477	4516
921.587	4493
921.697	4466
921.806	4584
921.916	4478
922.025	4322
922.134	4303
922.244	4291
922.353	4386
922.462	4223
922.571	4169
922.68	4078
922.789	4013
922.898	4116
923.007	4055
923.116	4162
923.224	4109
923.333	4143
923.442	4044
923.55	4040
923.659	4097
923.767	4109
923.876	4036
923.984	4204
924.092	4013
924.201	4109
924.309	4131
924.417	4143
924.525	4116
924.633	4200
924.741	5105
924.849	3949
924.956	4211
925.064	3991
925.172	3953
925.279	4017
925.387	4143
925.494	4067
925.602	4265
925.709	4227
925.816	4097
925.924	4188
926.031	4287
926.138	4219
926.245	4272
926.352	4154
926.459	4291
926.566	4367
926.673	4207
926.779	4173
926.886	4093
926.993	4017
927.099	3979
927.206	4017
927.312	3956
927.419	4139
927.525	4044
927.631	4150
927.737	3998
927.843	4021
927.95	3880
928.056	4013
928.162	4067
928.267	4124
928.373	4733
928.479	4188
928.585	3926
928.69	4067
928.796	4135
928.901	4036
929.007	3892
929.112	4051
929.218	3987
929.323	3987
929.428	4010
929.533	4154
929.638	3953
929.743	4048
929.848	4143
929.953	4086
930.058	3991
930.163	3842
930.267	3869
930.372	4032
930.477	3854
930.581	4131
930.685	3987
930.79	3846
930.894	3968
930.998	3907
931.103	4105
931.207	3766
931.311	3694
931.415	3720
931.519	3561
931.623	3568
