Data from test_V78500241_1481.txt Node
Date: Fri Mar 25 16:59:17 CST 2022
User: usil
Spectrometer: V785-0024
Trigger mode: 0
Integration Time (sec): 4.000000E-1
Scans to average: 1
Nonlinearity correction enabled: false
Boxcar width: 0
Storing dark spectrum: false
XAxis mode: Wavelengths
Number of Pixels in Spectrum: 1024
>>>>>Begin Spectral Data<<<<<
801.071	8035
801.214	8043
801.356	7849
801.499	7799
801.641	7765
801.783	7826
801.926	7925
802.068	7936
802.211	7959
802.353	7993
802.496	7792
802.638	7830
802.78	7909
802.923	7917
803.065	7830
803.208	7860
803.35	7993
803.492	8081
803.635	8199
803.777	8008
803.919	8077
804.061	8415
804.204	8115
804.346	7970
804.488	7970
804.63	8126
804.773	8008
804.915	8107
805.057	8237
805.199	8149
805.341	8275
805.483	8271
805.626	8187
805.768	8115
805.91	8221
806.052	8164
806.194	8107
806.336	8271
806.478	8069
806.62	8039
806.762	8081
806.904	8244
807.046	8423
807.188	8377
807.33	8309
807.472	8298
807.614	8149
807.756	8115
807.898	7963
808.04	7925
808.182	7890
808.324	7852
808.465	7925
808.607	8119
808.749	8088
808.891	8180
809.033	8176
809.174	8191
809.316	8020
809.458	8092
809.6	7967
809.741	8012
809.883	7959
810.025	8142
810.166	8058
810.308	7963
810.45	7913
810.591	7761
810.733	7685
810.875	7647
811.016	7483
811.158	7506
811.299	7563
811.441	7715
811.582	7662
811.724	7613
811.865	7540
812.007	7548
812.148	7563
812.29	7616
812.431	7696
812.573	7879
812.714	7974
812.855	8096
812.997	8157
813.138	8355
813.279	8199
813.421	8088
813.562	7932
813.703	7788
813.845	7765
813.986	7426
814.127	7217
814.268	7266
814.41	7194
814.551	7145
814.692	7187
814.833	7099
814.974	7080
815.115	7076
815.256	6958
815.397	6993
815.539	6954
815.68	6783
815.821	6753
815.962	6818
816.103	6779
816.244	6726
816.385	6650
816.526	6551
816.666	6563
816.807	6323
816.948	6334
817.089	6448
817.23	6445
817.371	6361
817.512	6391
817.653	6418
817.793	6323
817.934	6376
818.075	6452
818.216	6437
818.356	6391
818.497	6247
818.638	6117
818.778	6102
818.919	6216
819.06	6205
819.2	6270
819.341	6323
819.481	6369
819.622	6513
819.762	6734
819.903	6673
820.043	6593
820.184	6601
820.324	6589
820.465	6719
820.605	6707
820.746	6642
820.886	6490
821.026	6646
821.167	6654
821.307	6722
821.447	6692
821.588	6604
821.728	6593
821.868	6486
822.008	6292
822.149	6365
822.289	6331
822.429	6106
822.569	6045
822.709	6091
822.849	5908
822.99	5878
823.13	5893
823.27	5878
823.41	5790
823.55	5786
823.69	5767
823.83	5752
823.97	5611
824.11	5486
824.25	5509
824.389	5554
824.529	5566
824.669	5543
824.809	5642
824.949	5623
825.089	5547
825.228	5581
825.368	5372
825.508	5322
825.648	5360
825.787	5417
825.927	5383
826.067	5303
826.206	5265
826.346	5334
826.485	5406
826.625	5417
826.765	5570
826.904	5474
827.044	5254
827.183	5204
827.323	5136
827.462	5242
827.601	5155
827.741	5227
827.88	5216
828.02	5113
828.159	5307
828.298	5296
828.437	5414
828.577	5303
828.716	5509
828.855	5372
828.994	5174
829.134	5178
829.273	5212
829.412	5143
829.551	5147
829.69	5151
829.829	5216
829.968	5379
830.107	5280
830.246	5311
830.385	5223
830.524	5208
830.663	5102
830.802	4987
830.941	4900
831.08	4908
831.219	5014
831.357	4965
831.496	5223
831.635	4995
831.774	4885
831.913	4923
832.051	4816
832.19	4771
832.329	4862
832.467	4714
832.606	4668
832.744	4763
832.883	4736
833.022	4771
833.16	4812
833.299	4850
833.437	4816
833.576	4881
833.714	4858
833.852	4908
833.991	4938
834.129	4999
834.267	5018
834.406	4949
834.544	4957
834.682	5010
834.821	5033
834.959	5212
835.097	4980
835.235	5170
835.373	5086
835.511	5143
835.65	5086
835.788	5056
835.926	4927
836.064	4908
836.202	4911
836.34	5185
836.478	5288
836.615	5178
836.753	5261
836.891	5326
837.029	5296
837.167	5212
837.305	5216
837.443	5155
837.58	5094
837.718	5265
837.856	5189
837.993	5151
838.131	5250
838.269	5277
838.406	5201
838.544	5242
838.681	5045
838.819	5018
838.956	4900
839.094	4927
839.231	5033
839.369	5109
839.506	5452
839.643	5315
839.781	5071
839.918	5083
840.055	5159
840.193	5113
840.33	5166
840.467	5189
840.604	5208
840.742	5493
840.879	5090
841.016	5086
841.153	5181
841.29	5391
841.427	5368
841.564	5357
841.701	5406
841.838	5318
841.975	5254
842.112	5349
842.249	5178
842.385	5109
842.522	5387
842.659	5197
842.796	5170
842.933	5216
843.069	5155
843.206	5204
843.343	5299
843.479	5235
843.616	5372
843.752	5045
843.889	5048
844.025	5273
844.162	5067
844.298	5189
844.435	5124
844.571	5105
844.708	5212
844.844	5364
844.98	5360
845.117	5326
845.253	5170
845.389	5124
845.525	5216
845.661	5113
845.798	5041
845.934	5162
846.07	5060
846.206	5242
846.342	5353
846.478	5246
846.614	5075
846.75	5048
846.886	4930
847.022	5105
847.158	5052
847.294	5094
847.429	5102
847.565	5064
847.701	5391
847.837	4866
847.972	4835
848.108	4976
848.244	4919
848.379	4767
848.515	4790
848.65	4725
848.786	4733
848.921	4748
849.057	4835
849.192	4892
849.328	4854
849.463	4820
849.598	4805
849.734	4805
849.869	4717
850.004	4649
850.14	4634
850.275	4599
850.41	4599
850.545	4615
850.68	4645
850.815	4660
850.95	4630
851.085	4866
851.22	4771
851.355	4698
851.49	4649
851.625	4668
851.76	4645
851.895	4558
852.03	4538
852.165	4691
852.299	4767
852.434	4797
852.569	4736
852.703	4778
852.838	4873
852.973	4957
853.107	4957
853.242	4759
853.376	4702
853.511	4626
853.645	4622
853.78	4793
853.914	4687
854.048	4702
854.183	4675
854.317	4763
854.451	4866
854.585	4649
854.72	4641
854.854	4744
854.988	4645
855.122	4683
855.256	4546
855.39	4668
855.524	4778
855.658	4706
855.792	4729
855.926	4767
856.06	4835
856.194	4816
856.327	4683
856.461	4664
856.595	4626
856.729	4630
856.862	4771
856.996	4714
857.13	4733
857.263	4786
857.397	4828
857.53	4717
857.664	4721
857.797	4774
857.931	4786
858.064	4675
858.197	4771
858.331	4653
858.464	4645
858.597	4580
858.731	4618
858.864	4653
858.997	4607
859.13	4679
859.263	4710
859.396	4748
859.529	4607
859.662	4580
859.795	4561
859.928	4637
860.061	4805
860.194	4752
860.327	4645
860.46	4558
860.592	4763
860.725	4691
860.858	4763
860.99	4584
861.123	4535
861.256	4508
861.388	4668
861.521	5410
861.653	4451
861.786	4504
861.918	4497
862.05	4546
862.183	4580
862.315	4577
862.447	4649
862.58	4538
862.712	4424
862.844	4325
862.976	4466
863.108	4455
863.24	4767
863.372	4367
863.504	4428
863.636	4459
863.768	4512
863.9	4497
864.032	4394
864.164	4409
864.296	4428
864.428	4577
864.559	4546
864.691	4592
864.823	4512
864.954	4493
865.086	4504
865.217	4421
865.349	4440
865.48	4481
865.612	4493
865.743	4649
865.875	4462
866.006	4462
866.137	4481
866.269	4516
866.4	4443
866.531	4443
866.662	4417
866.793	4459
866.924	4451
867.055	4523
867.186	4447
867.317	4428
867.448	4383
867.579	4405
867.71	4405
867.841	4375
867.972	4455
868.103	4432
868.233	4447
868.364	4462
868.495	4504
868.625	4736
868.756	4771
868.886	4584
869.017	4645
869.147	4774
869.278	4767
869.408	4691
869.539	4679
869.669	4744
869.799	4675
869.929	4812
870.06	4759
870.19	4957
870.32	4934
870.45	4919
870.58	4999
870.71	5121
870.84	5132
870.97	4923
871.1	4938
871.23	5155
871.36	5136
871.489	5090
871.619	5113
871.749	5102
871.879	5109
872.008	5220
872.138	5025
872.267	4984
872.397	4854
872.526	4839
872.656	4694
872.785	4774
872.915	4957
873.044	5033
873.173	4980
873.303	4957
873.432	4946
873.561	4938
873.69	4870
873.819	4873
873.948	4927
874.077	4805
874.206	4809
874.335	4828
874.464	4991
874.593	5071
874.722	4999
874.851	5083
874.979	5117
875.108	5033
875.237	4881
875.365	4889
875.494	4919
875.623	4984
875.751	4843
875.88	4927
876.008	4999
876.136	5029
876.265	5239
876.393	5357
876.521	5254
876.65	5231
876.778	5143
876.906	5124
877.034	5056
877.162	5025
877.29	5037
877.418	5094
877.546	5064
877.674	5037
877.802	5025
877.93	5048
878.058	4923
878.185	4858
878.313	4980
878.441	4980
878.568	4801
878.696	4900
878.824	4949
878.951	5003
879.079	5159
879.206	5284
879.333	5056
879.461	4953
879.588	5048
879.715	5151
879.842	5185
879.97	4976
880.097	4816
880.224	4801
880.351	4812
880.478	4828
880.605	4850
880.732	4797
880.859	5098
880.986	4896
881.112	4934
881.239	4767
881.366	4691
881.493	4615
881.619	4569
881.746	4615
881.872	4668
881.999	4645
882.125	4698
882.252	4809
882.378	4839
882.505	4953
882.631	4858
882.757	4664
882.883	4797
883.01	4740
883.136	4656
883.262	4588
883.388	4618
883.514	4805
883.64	4850
883.766	4755
883.892	4736
884.018	4698
884.143	4896
884.269	5006
884.395	4664
884.52	4603
884.646	4649
884.772	4565
884.897	4550
885.023	4687
885.148	4809
885.274	4923
885.399	4809
885.524	4748
885.65	4706
885.775	4812
885.9	4763
886.025	4877
886.15	4839
886.275	4721
886.4	4656
886.525	4748
886.65	4710
886.775	4675
886.9	4896
887.025	5052
887.149	4850
887.274	4675
887.399	4618
887.523	4618
887.648	4592
887.773	4630
887.897	4782
888.021	4839
888.146	4694
888.27	4866
888.395	4915
888.519	4778
888.643	4820
888.767	4881
888.891	4725
889.015	4622
889.139	4645
889.263	4599
889.387	4790
889.511	4889
889.635	4793
889.759	4691
889.883	4641
890.006	4748
890.13	4858
890.254	4622
890.377	4694
890.501	4611
890.624	4519
890.748	4675
890.871	4542
890.995	4451
891.118	4443
891.241	4542
891.364	4550
891.488	4656
891.611	4516
891.734	4531
891.857	4603
891.98	4580
892.103	4660
892.226	4573
892.349	4542
892.471	4459
892.594	4580
892.717	4596
892.839	4580
892.962	4599
893.085	4687
893.207	4573
893.33	4474
893.452	4531
893.575	4653
893.697	4580
893.819	4828
893.941	4839
894.064	4809
894.186	4584
894.308	4565
894.43	4710
894.552	4828
894.674	4759
894.796	4561
894.918	4596
895.04	4599
895.161	4714
895.283	4660
895.405	4584
895.526	4592
895.648	4691
895.769	4675
895.891	4725
896.012	4721
896.134	4733
896.255	4649
896.376	4668
896.498	4645
896.619	4683
896.74	4580
896.861	4675
896.982	4892
897.103	5052
897.224	4854
897.345	4752
897.466	4683
897.587	4748
897.708	4858
897.828	4790
897.949	4656
898.07	4565
898.19	4668
898.311	4847
898.431	4694
898.552	4694
898.672	4858
898.792	4835
898.913	4721
899.033	4592
899.153	4546
899.273	4459
899.393	4531
899.513	4546
899.633	4516
899.753	4546
899.873	4485
899.993	4603
900.113	4519
900.232	4558
900.352	4561
900.472	4489
900.591	4402
900.711	4497
900.83	4402
900.95	4569
901.069	4634
901.189	4565
901.308	4379
901.427	4329
901.546	4375
901.665	4504
901.784	4516
901.904	4405
902.023	4314
902.141	4181
902.26	4169
902.379	4219
902.498	4253
902.617	4219
902.735	4405
902.854	4363
902.973	4310
903.091	4188
903.21	4211
903.328	4265
903.446	4272
903.565	4238
903.683	4333
903.801	4295
903.919	4413
904.038	4474
904.156	4310
904.274	4440
904.392	4363
904.51	4489
904.627	4470
904.745	4599
904.863	4622
904.981	4413
905.098	4318
905.216	4379
905.334	4424
905.451	4440
905.569	4451
905.686	4580
905.803	4565
905.921	4417
906.038	4504
906.155	4481
906.272	4447
906.389	4440
906.506	4352
906.623	4352
906.74	4413
906.857	4360
906.974	4325
907.091	4550
907.208	4702
907.324	4573
907.441	4500
907.557	4390
907.674	4341
907.79	4341
907.907	4367
908.023	4500
908.139	4470
908.256	4409
908.372	4474
908.488	4481
908.604	4356
908.72	4287
908.836	4379
908.952	4417
909.068	4462
909.184	4569
909.3	4481
909.415	4603
909.531	4527
909.647	4356
909.762	4383
909.878	4390
909.993	4424
910.108	4440
910.224	4451
910.339	4500
910.454	4394
910.57	4360
910.685	4287
910.8	4641
910.915	4592
911.03	4497
911.145	4314
911.259	4363
911.374	4371
911.489	4303
911.604	4272
911.718	4143
911.833	4211
911.947	4109
912.062	4021
912.176	4181
912.291	4284
912.405	4287
912.519	4466
912.633	4504
912.748	4383
912.862	4261
912.976	4215
913.09	4093
913.204	4181
913.318	4257
913.431	4398
913.545	4405
913.659	4413
913.772	4348
913.886	4223
914	4223
914.113	4375
914.226	4451
914.34	4356
914.453	4234
914.566	4417
914.68	4295
914.793	4325
914.906	4204
915.019	4135
915.132	4090
915.245	4181
915.358	4234
915.47	4246
915.583	4272
915.696	4295
915.809	4390
915.921	4485
916.034	4276
916.146	4219
916.259	4223
916.371	4417
916.483	4356
916.595	4299
916.708	4329
916.82	4287
916.932	4318
917.044	4322
917.156	4348
917.268	4215
917.38	4284
917.491	4299
917.603	4360
917.715	4402
917.826	4428
917.938	4325
918.049	4280
918.161	4402
918.272	4508
918.384	4561
918.495	4421
918.606	4284
918.717	4234
918.828	4333
918.939	4390
919.05	4230
919.161	4306
919.272	4109
919.383	4162
919.494	4436
919.604	4675
919.715	4451
919.826	4352
919.936	4379
920.047	4504
920.157	4478
920.267	4683
920.378	4527
920.488	4508
920.598	4755
920.708	4892
920.818	4763
920.928	4748
921.038	4946
921.148	4900
921.258	4664
921.368	4527
921.477	4455
921.587	4428
921.697	4405
921.806	4527
921.916	4432
922.025	4261
922.134	4310
922.244	4246
922.353	4352
922.462	4147
922.571	4139
922.68	3998
922.789	3968
922.898	4032
923.007	3937
923.116	4116
923.224	4044
923.333	4067
923.442	4013
923.55	3956
923.659	4013
923.767	4112
923.876	4051
923.984	4082
924.092	3968
924.201	4097
924.309	4063
924.417	4143
924.525	4051
924.633	4105
924.741	5098
924.849	3918
924.956	4135
925.064	3994
925.172	3888
925.279	3960
925.387	4036
925.494	4082
925.602	4185
925.709	4143
925.816	4048
925.924	4150
926.031	4230
926.138	4181
926.245	4192
926.352	4082
926.459	4265
926.566	4322
926.673	4181
926.779	4048
926.886	4074
926.993	3991
927.099	3975
927.206	3922
927.312	3922
927.419	4074
927.525	4013
927.631	4120
927.737	3979
927.843	3968
927.95	3808
928.056	3945
928.162	4006
928.267	4105
928.373	4577
928.479	4109
928.585	3888
928.69	3964
928.796	4086
928.901	3998
929.007	3846
929.112	4010
929.218	3975
929.323	3934
929.428	3937
929.533	4067
929.638	3896
929.743	3964
929.848	4013
929.953	3991
930.058	3865
930.163	3785
930.267	3842
930.372	4006
930.477	3831
930.581	4048
930.685	3945
930.79	3838
930.894	3876
930.998	3819
931.103	3991
931.207	3667
931.311	3690
931.415	3648
931.519	3549
931.623	3545
