Data from test_V78500241_1836.txt Node
Date: Fri Mar 25 17:01:46 CST 2022
User: usil
Spectrometer: V785-0024
Trigger mode: 0
Integration Time (sec): 4.000000E-1
Scans to average: 1
Nonlinearity correction enabled: false
Boxcar width: 0
Storing dark spectrum: false
XAxis mode: Wavelengths
Number of Pixels in Spectrum: 1024
>>>>>Begin Spectral Data<<<<<
801.071	7970
801.214	8008
801.356	7936
801.499	7868
801.641	7841
801.783	7746
801.926	7997
802.068	7947
802.211	8024
802.353	8005
802.496	7864
802.638	7875
802.78	7963
802.923	7902
803.065	7883
803.208	7849
803.35	8092
803.492	8035
803.635	8153
803.777	7963
803.919	8081
804.061	8476
804.204	8206
804.346	8096
804.488	7978
804.63	8123
804.773	7986
804.915	8039
805.057	8298
805.199	8164
805.341	8153
805.483	8282
805.626	8214
805.768	8058
805.91	8149
806.052	8290
806.194	8077
806.336	8294
806.478	8073
806.62	8092
806.762	8183
806.904	8320
807.046	8492
807.188	8355
807.33	8313
807.472	8343
807.614	8180
807.756	8161
807.898	8024
808.04	7894
808.182	7940
808.324	7875
808.465	7871
808.607	8058
808.749	8130
808.891	8221
809.033	8294
809.174	8221
809.316	8077
809.458	8096
809.6	8024
809.741	8073
809.883	8062
810.025	8062
810.166	8035
810.308	7997
810.45	7997
810.591	7883
810.733	7715
810.875	7670
811.016	7582
811.158	7476
811.299	7499
811.441	7708
811.582	7719
811.724	7620
811.865	7628
812.007	7575
812.148	7597
812.29	7658
812.431	7750
812.573	7849
812.714	7940
812.855	8115
812.997	8180
813.138	8267
813.279	8176
813.421	8123
813.562	7974
813.703	7822
813.845	7658
813.986	7407
814.127	7263
814.268	7221
814.41	7183
814.551	7190
814.692	7194
814.833	7122
814.974	7152
815.115	7126
815.256	6981
815.397	6951
815.539	6905
815.68	6837
815.821	6818
815.962	6878
816.103	6833
816.244	6726
816.385	6589
816.526	6566
816.666	6532
816.807	6281
816.948	6429
817.089	6486
817.23	6429
817.371	6391
817.512	6353
817.653	6342
817.793	6384
817.934	6346
818.075	6471
818.216	6490
818.356	6445
818.497	6224
818.638	6140
818.778	6167
818.919	6167
819.06	6159
819.2	6315
819.341	6346
819.481	6395
819.622	6532
819.762	6776
819.903	6707
820.043	6635
820.184	6547
820.324	6623
820.465	6688
820.605	6700
820.746	6623
820.886	6589
821.026	6642
821.167	6700
821.307	6810
821.447	6791
821.588	6688
821.728	6612
821.868	6528
822.008	6331
822.149	6308
822.289	6334
822.429	6190
822.569	6087
822.709	6121
822.849	5904
822.99	5893
823.13	5874
823.27	5908
823.41	5779
823.55	5794
823.69	5821
823.83	5802
823.97	5665
824.11	5539
824.25	5539
824.389	5619
824.529	5581
824.669	5547
824.809	5646
824.949	5722
825.089	5619
825.228	5547
825.368	5360
825.508	5341
825.648	5303
825.787	5406
825.927	5372
826.067	5318
826.206	5303
826.346	5402
826.485	5463
826.625	5387
826.765	5547
826.904	5452
827.044	5239
827.183	5239
827.323	5105
827.462	5284
827.601	5185
827.741	5212
827.88	5250
828.02	5113
828.159	5261
828.298	5273
828.437	5353
828.577	5242
828.716	5528
828.855	5334
828.994	5151
829.134	5170
829.273	5132
829.412	5132
829.551	5086
829.69	5204
829.829	5242
829.968	5353
830.107	5258
830.246	5269
830.385	5223
830.524	5151
830.663	5048
830.802	4980
830.941	4873
831.08	4835
831.219	5014
831.357	5022
831.496	5166
831.635	4927
831.774	4858
831.913	4877
832.051	4706
832.19	4744
832.329	4809
832.467	4672
832.606	4630
832.744	4725
832.883	4721
833.022	4645
833.16	4740
833.299	4862
833.437	4778
833.576	4839
833.714	4900
833.852	4873
833.991	4911
834.129	4911
834.267	4984
834.406	4873
834.544	4991
834.682	4995
834.821	4976
834.959	5143
835.097	4961
835.235	5170
835.373	5075
835.511	5121
835.65	5045
835.788	5018
835.926	4881
836.064	4885
836.202	4915
836.34	5102
836.478	5261
836.615	5067
836.753	5246
836.891	5284
837.029	5242
837.167	5223
837.305	5178
837.443	5098
837.58	5124
837.718	5246
837.856	5170
837.993	5151
838.131	5242
838.269	5181
838.406	5246
838.544	5216
838.681	5014
838.819	4999
838.956	4911
839.094	4946
839.231	4984
839.369	5105
839.506	5391
839.643	5288
839.781	5045
839.918	4991
840.055	5094
840.193	5071
840.33	5147
840.467	5178
840.604	5220
840.742	5425
840.879	5045
841.016	5105
841.153	5181
841.29	5402
841.427	5345
841.564	5341
841.701	5353
841.838	5277
841.975	5258
842.112	5250
842.249	5102
842.385	5075
842.522	5368
842.659	5212
842.796	5166
842.933	5166
843.069	5178
843.206	5155
843.343	5296
843.479	5208
843.616	5254
843.752	5033
843.889	4968
844.025	5204
844.162	5010
844.298	5162
844.435	5121
844.571	5045
844.708	5227
844.844	5315
844.98	5357
845.117	5296
845.253	5109
845.389	5094
845.525	5128
845.661	5189
845.798	5045
845.934	5143
846.07	4999
846.206	5261
846.342	5277
846.478	5197
846.614	5029
846.75	5006
846.886	4949
847.022	5102
847.158	5048
847.294	5079
847.429	5064
847.565	5060
847.701	5379
847.837	4870
847.972	4820
848.108	4968
848.244	4942
848.379	4812
848.515	4733
848.65	4687
848.786	4767
848.921	4767
849.057	4904
849.192	4885
849.328	4831
849.463	4881
849.598	4809
849.734	4748
849.869	4675
850.004	4622
850.14	4675
850.275	4599
850.41	4504
850.545	4569
850.68	4542
850.815	4637
850.95	4626
851.085	4793
851.22	4767
851.355	4664
851.49	4618
851.625	4637
851.76	4626
851.895	4565
852.03	4546
852.165	4641
852.299	4721
852.434	4736
852.569	4793
852.703	4752
852.838	4809
852.973	4938
853.107	4892
853.242	4698
853.376	4664
853.511	4561
853.645	4664
853.78	4835
853.914	4736
854.048	4714
854.183	4706
854.317	4736
854.451	4828
854.585	4641
854.72	4626
854.854	4736
854.988	4637
855.122	4641
855.256	4561
855.39	4717
855.524	4797
855.658	4736
855.792	4721
855.926	4759
856.06	4763
856.194	4812
856.327	4714
856.461	4569
856.595	4622
856.729	4599
856.862	4763
856.996	4733
857.13	4691
857.263	4759
857.397	4824
857.53	4634
857.664	4771
857.797	4774
857.931	4793
858.064	4660
858.197	4725
858.331	4691
858.464	4573
858.597	4546
858.731	4656
858.864	4603
858.997	4584
859.13	4630
859.263	4653
859.396	4664
859.529	4565
859.662	4565
859.795	4573
859.928	4599
860.061	4736
860.194	4748
860.327	4637
860.46	4565
860.592	4706
860.725	4721
860.858	4660
860.99	4577
861.123	4508
861.256	4497
861.388	4573
861.521	5349
861.653	4497
861.786	4436
861.918	4402
862.05	4558
862.183	4580
862.315	4561
862.447	4656
862.58	4523
862.712	4383
862.844	4310
862.976	4470
863.108	4478
863.24	4911
863.372	4314
863.504	4474
863.636	4409
863.768	4459
863.9	4405
864.032	4337
864.164	4375
864.296	4504
864.428	4535
864.559	4538
864.691	4512
864.823	4538
864.954	4493
865.086	4519
865.217	4421
865.349	4421
865.48	4451
865.612	4474
865.743	4588
865.875	4417
866.006	4432
866.137	4447
866.269	4421
866.4	4417
866.531	4428
866.662	4413
866.793	4394
866.924	4409
867.055	4493
867.186	4478
867.317	4383
867.448	4379
867.579	4371
867.71	4375
867.841	4451
867.972	4405
868.103	4470
868.233	4394
868.364	4436
868.495	4508
868.625	4698
868.756	4752
868.886	4596
869.017	4626
869.147	4729
869.278	4767
869.408	4672
869.539	4622
869.669	4710
869.799	4622
869.929	4694
870.06	4691
870.19	4919
870.32	4927
870.45	4934
870.58	4987
870.71	5113
870.84	5083
870.97	4949
871.1	4915
871.23	5121
871.36	5143
871.489	5064
871.619	5029
871.749	5064
871.879	5143
872.008	5147
872.138	5048
872.267	4946
872.397	4835
872.526	4782
872.656	4706
872.785	4771
872.915	4938
873.044	5079
873.173	4927
873.303	5010
873.432	4984
873.561	4968
873.69	4839
873.819	4870
873.948	4866
874.077	4812
874.206	4759
874.335	4828
874.464	4908
874.593	5056
874.722	4968
874.851	5083
874.979	5033
875.108	5003
875.237	4915
875.365	4904
875.494	4911
875.623	4923
875.751	4797
875.88	4850
876.008	4980
876.136	4987
876.265	5181
876.393	5280
876.521	5197
876.65	5220
876.778	5143
876.906	5102
877.034	5018
877.162	4961
877.29	4957
877.418	5109
877.546	5045
877.674	5025
877.802	5037
877.93	5041
878.058	4938
878.185	4858
878.313	4976
878.441	4927
878.568	4801
878.696	4843
878.824	4953
878.951	4987
879.079	5102
879.206	5235
879.333	5086
879.461	4957
879.588	4976
879.715	5117
879.842	5204
879.97	4965
880.097	4755
880.224	4740
880.351	4797
880.478	4858
880.605	4809
880.732	4801
880.859	5090
880.986	4881
881.112	4870
881.239	4828
881.366	4656
881.493	4603
881.619	4580
881.746	4679
881.872	4687
881.999	4611
882.125	4698
882.252	4816
882.378	4835
882.505	4915
882.631	4824
882.757	4645
882.883	4755
883.01	4744
883.136	4653
883.262	4611
883.388	4653
883.514	4801
883.64	4877
883.766	4740
883.892	4626
884.018	4717
884.143	4877
884.269	5010
884.395	4611
884.52	4615
884.646	4698
884.772	4561
884.897	4622
885.023	4675
885.148	4793
885.274	4858
885.399	4801
885.524	4717
885.65	4687
885.775	4778
885.9	4736
886.025	4847
886.15	4771
886.275	4725
886.4	4637
886.525	4736
886.65	4698
886.775	4733
886.9	4900
887.025	5003
887.149	4786
887.274	4668
887.399	4592
887.523	4603
887.648	4599
887.773	4649
887.897	4721
888.021	4759
888.146	4645
888.27	4854
888.395	4858
888.519	4801
888.643	4831
888.767	4843
888.891	4687
889.015	4634
889.139	4645
889.263	4599
889.387	4744
889.511	4843
889.635	4752
889.759	4615
889.883	4672
890.006	4710
890.13	4828
890.254	4645
890.377	4664
890.501	4558
890.624	4538
890.748	4660
890.871	4535
890.995	4379
891.118	4383
891.241	4512
891.364	4535
891.488	4626
891.611	4497
891.734	4523
891.857	4599
891.98	4596
892.103	4675
892.226	4573
892.349	4504
892.471	4432
892.594	4493
892.717	4588
892.839	4546
892.962	4592
893.085	4656
893.207	4622
893.33	4440
893.452	4519
893.575	4668
893.697	4546
893.819	4767
893.941	4828
894.064	4759
894.186	4618
894.308	4577
894.43	4736
894.552	4786
894.674	4767
894.796	4565
894.918	4558
895.04	4588
895.161	4710
895.283	4653
895.405	4577
895.526	4592
895.648	4645
895.769	4672
895.891	4698
896.012	4740
896.134	4706
896.255	4618
896.376	4622
896.498	4599
896.619	4660
896.74	4615
896.861	4691
896.982	4965
897.103	5071
897.224	4835
897.345	4744
897.466	4656
897.587	4672
897.708	4873
897.828	4767
897.949	4630
898.07	4573
898.19	4637
898.311	4786
898.431	4664
898.552	4717
898.672	4771
898.792	4763
898.913	4714
899.033	4622
899.153	4516
899.273	4386
899.393	4440
899.513	4500
899.633	4497
899.753	4546
899.873	4500
899.993	4554
900.113	4573
900.232	4588
900.352	4561
900.472	4470
900.591	4447
900.711	4455
900.83	4462
900.95	4542
901.069	4687
901.189	4527
901.308	4325
901.427	4322
901.546	4405
901.665	4497
901.784	4500
901.904	4383
902.023	4299
902.141	4242
902.26	4177
902.379	4314
902.498	4272
902.617	4200
902.735	4348
902.854	4383
902.973	4310
903.091	4188
903.21	4242
903.328	4276
903.446	4230
903.565	4272
903.683	4375
903.801	4265
903.919	4405
904.038	4424
904.156	4284
904.274	4432
904.392	4447
904.51	4413
904.627	4474
904.745	4558
904.863	4580
904.981	4379
905.098	4344
905.216	4341
905.334	4428
905.451	4413
905.569	4440
905.686	4577
905.803	4573
905.921	4383
906.038	4531
906.155	4497
906.272	4402
906.389	4466
906.506	4341
906.623	4367
906.74	4375
906.857	4265
906.974	4386
907.091	4542
907.208	4706
907.324	4580
907.441	4516
907.557	4329
907.674	4325
907.79	4360
907.907	4413
908.023	4500
908.139	4481
908.256	4409
908.372	4481
908.488	4455
908.604	4356
908.72	4276
908.836	4325
908.952	4352
909.068	4409
909.184	4573
909.3	4504
909.415	4554
909.531	4500
909.647	4337
909.762	4367
909.878	4344
909.993	4481
910.108	4424
910.224	4417
910.339	4413
910.454	4386
910.57	4379
910.685	4276
910.8	4702
910.915	4599
911.03	4481
911.145	4268
911.259	4337
911.374	4363
911.489	4322
911.604	4268
911.718	4192
911.833	4158
911.947	4074
912.062	4040
912.176	4246
912.291	4246
912.405	4257
912.519	4451
912.633	4500
912.748	4367
912.862	4325
912.976	4249
913.09	4116
913.204	4185
913.318	4261
913.431	4405
913.545	4367
913.659	4451
913.772	4337
913.886	4249
914	4219
914.113	4379
914.226	4398
914.34	4383
914.453	4238
914.566	4440
914.68	4272
914.793	4310
914.906	4154
915.019	4162
915.132	4055
915.245	4166
915.358	4188
915.47	4223
915.583	4234
915.696	4310
915.809	4383
915.921	4424
916.034	4257
916.146	4238
916.259	4253
916.371	4379
916.483	4314
916.595	4268
916.708	4291
916.82	4314
916.932	4318
917.044	4299
917.156	4344
917.268	4242
917.38	4276
917.491	4253
917.603	4318
917.715	4428
917.826	4436
917.938	4360
918.049	4215
918.161	4417
918.272	4588
918.384	4546
918.495	4428
918.606	4303
918.717	4261
918.828	4280
918.939	4394
919.05	4211
919.161	4348
919.272	4158
919.383	4227
919.494	4451
919.604	4637
919.715	4432
919.826	4333
919.936	4348
920.047	4550
920.157	4485
920.267	4698
920.378	4584
920.488	4519
920.598	4702
920.708	4892
920.818	4763
920.928	4767
921.038	4930
921.148	4995
921.258	4596
921.368	4531
921.477	4489
921.587	4497
921.697	4363
921.806	4588
921.916	4375
922.025	4280
922.134	4257
922.244	4219
922.353	4325
922.462	4162
922.571	4120
922.68	4013
922.789	3949
922.898	4036
923.007	3991
923.116	4116
923.224	4051
923.333	4071
923.442	3975
923.55	3953
923.659	4032
923.767	4063
923.876	3994
923.984	4063
924.092	3968
924.201	4097
924.309	4067
924.417	4147
924.525	4013
924.633	4105
924.741	5090
924.849	3915
924.956	4128
925.064	3949
925.172	3888
925.279	3968
925.387	4063
925.494	4025
925.602	4188
925.709	4204
925.816	3991
925.924	4158
926.031	4177
926.138	4173
926.245	4192
926.352	4143
926.459	4230
926.566	4318
926.673	4150
926.779	4078
926.886	4055
926.993	3960
927.099	3979
927.206	3960
927.312	3926
927.419	4051
927.525	4055
927.631	4097
927.737	3968
927.843	3918
927.95	3869
928.056	3937
928.162	3968
928.267	4059
928.373	4596
928.479	4131
928.585	3903
928.69	4036
928.796	4082
928.901	3956
929.007	3838
929.112	4002
929.218	3991
929.323	3941
929.428	3926
929.533	4055
929.638	3888
929.743	3994
929.848	4036
929.953	3994
930.058	3899
930.163	3800
930.267	3831
930.372	3994
930.477	3789
930.581	4044
930.685	3945
930.79	3857
930.894	3896
930.998	3850
931.103	3991
931.207	3667
931.311	3679
931.415	3663
931.519	3515
931.623	3523
