Data from test_V78500241_2299.txt Node
Date: Fri Mar 25 17:04:59 CST 2022
User: usil
Spectrometer: V785-0024
Trigger mode: 0
Integration Time (sec): 4.000000E-1
Scans to average: 1
Nonlinearity correction enabled: false
Boxcar width: 0
Storing dark spectrum: false
XAxis mode: Wavelengths
Number of Pixels in Spectrum: 1024
>>>>>Begin Spectral Data<<<<<
801.071	8024
801.214	8008
801.356	7890
801.499	7852
801.641	7750
801.783	7803
801.926	8001
802.068	7898
802.211	7909
802.353	7955
802.496	7849
802.638	7868
802.78	7959
802.923	7947
803.065	7818
803.208	7871
803.35	7997
803.492	8088
803.635	8130
803.777	8020
803.919	8081
804.061	8427
804.204	8218
804.346	8043
804.488	7978
804.63	8123
804.773	8043
804.915	8123
805.057	8279
805.199	8202
805.341	8202
805.483	8263
805.626	8183
805.768	8092
805.91	8180
806.052	8271
806.194	8126
806.336	8286
806.478	8081
806.62	8111
806.762	8119
806.904	8248
807.046	8412
807.188	8362
807.33	8298
807.472	8339
807.614	8168
807.756	8164
807.898	7986
808.04	7860
808.182	7845
808.324	7936
808.465	7852
808.607	8031
808.749	8088
808.891	8240
809.033	8294
809.174	8195
809.316	8084
809.458	8088
809.6	8016
809.741	8005
809.883	8073
810.025	8111
810.166	8088
810.308	8065
810.45	7989
810.591	7894
810.733	7734
810.875	7674
811.016	7506
811.158	7419
811.299	7590
811.441	7712
811.582	7693
811.724	7586
811.865	7590
812.007	7578
812.148	7575
812.29	7647
812.431	7734
812.573	7856
812.714	8031
812.855	8149
812.997	8233
813.138	8320
813.279	8206
813.421	8050
813.562	7947
813.703	7883
813.845	7731
813.986	7419
814.127	7244
814.268	7221
814.41	7160
814.551	7175
814.692	7266
814.833	7133
814.974	7076
815.115	7137
815.256	7034
815.397	6939
815.539	6977
815.68	6776
815.821	6734
815.962	6859
816.103	6795
816.244	6719
816.385	6612
816.526	6642
816.666	6525
816.807	6277
816.948	6452
817.089	6460
817.23	6464
817.371	6418
817.512	6391
817.653	6456
817.793	6391
817.934	6467
818.075	6399
818.216	6414
818.356	6441
818.497	6277
818.638	6178
818.778	6152
818.919	6159
819.06	6178
819.2	6281
819.341	6334
819.481	6429
819.622	6589
819.762	6745
819.903	6703
820.043	6597
820.184	6540
820.324	6616
820.465	6692
820.605	6612
820.746	6662
820.886	6525
821.026	6642
821.167	6700
821.307	6821
821.447	6787
821.588	6612
821.728	6601
821.868	6490
822.008	6319
822.149	6372
822.289	6437
822.429	6133
822.569	6053
822.709	6178
822.849	5912
822.99	5878
823.13	5946
823.27	5912
823.41	5802
823.55	5840
823.69	5813
823.83	5714
823.97	5680
824.11	5577
824.25	5573
824.389	5570
824.529	5611
824.669	5516
824.809	5592
824.949	5646
825.089	5573
825.228	5566
825.368	5391
825.508	5345
825.648	5334
825.787	5398
825.927	5353
826.067	5280
826.206	5265
826.346	5349
826.485	5421
826.625	5436
826.765	5558
826.904	5524
827.044	5269
827.183	5181
827.323	5155
827.462	5261
827.601	5174
827.741	5201
827.88	5231
828.02	5071
828.159	5223
828.298	5303
828.437	5349
828.577	5261
828.716	5417
828.855	5334
828.994	5151
829.134	5181
829.273	5166
829.412	5109
829.551	5102
829.69	5197
829.829	5235
829.968	5387
830.107	5258
830.246	5258
830.385	5140
830.524	5193
830.663	5033
830.802	4930
830.941	4892
831.08	4870
831.219	4995
831.357	4919
831.496	5181
831.635	4927
831.774	4858
831.913	4908
832.051	4729
832.19	4710
832.329	4831
832.467	4675
832.606	4656
832.744	4710
832.883	4714
833.022	4729
833.16	4752
833.299	4824
833.437	4786
833.576	4843
833.714	4835
833.852	4847
833.991	4858
834.129	4938
834.267	4949
834.406	4908
834.544	4953
834.682	4930
834.821	4968
834.959	5151
835.097	4972
835.235	5159
835.373	5014
835.511	5140
835.65	5048
835.788	4987
835.926	4850
836.064	4866
836.202	4934
836.34	5189
836.478	5258
836.615	5048
836.753	5223
836.891	5277
837.029	5273
837.167	5216
837.305	5147
837.443	5212
837.58	5098
837.718	5197
837.856	5193
837.993	5159
838.131	5185
838.269	5208
838.406	5204
838.544	5178
838.681	5052
838.819	5006
838.956	4862
839.094	4892
839.231	4999
839.369	5060
839.506	5421
839.643	5246
839.781	5071
839.918	5079
840.055	5124
840.193	5083
840.33	5090
840.467	5151
840.604	5185
840.742	5440
840.879	5041
841.016	5117
841.153	5105
841.29	5395
841.427	5315
841.564	5318
841.701	5372
841.838	5280
841.975	5227
842.112	5220
842.249	5143
842.385	5128
842.522	5345
842.659	5140
842.796	5121
842.933	5162
843.069	5151
843.206	5151
843.343	5288
843.479	5223
843.616	5265
843.752	5022
843.889	4980
844.025	5220
844.162	5029
844.298	5193
844.435	5048
844.571	5056
844.708	5201
844.844	5299
844.98	5326
845.117	5299
845.253	5140
845.389	5098
845.525	5136
845.661	5174
845.798	4995
845.934	5113
846.07	5052
846.206	5220
846.342	5296
846.478	5189
846.614	5029
846.75	4957
846.886	4934
847.022	5147
847.158	5029
847.294	5025
847.429	5075
847.565	5090
847.701	5303
847.837	4847
847.972	4786
848.108	5003
848.244	4908
848.379	4748
848.515	4752
848.65	4736
848.786	4744
848.921	4771
849.057	4862
849.192	4900
849.328	4862
849.463	4812
849.598	4812
849.734	4771
849.869	4668
850.004	4630
850.14	4660
850.275	4634
850.41	4538
850.545	4538
850.68	4649
850.815	4649
850.95	4622
851.085	4835
851.22	4790
851.355	4649
851.49	4622
851.625	4660
851.76	4653
851.895	4577
852.03	4542
852.165	4717
852.299	4691
852.434	4824
852.569	4763
852.703	4801
852.838	4850
852.973	4927
853.107	4957
853.242	4744
853.376	4637
853.511	4569
853.645	4634
853.78	4843
853.914	4660
854.048	4698
854.183	4584
854.317	4733
854.451	4900
854.585	4706
854.72	4672
854.854	4736
854.988	4603
855.122	4615
855.256	4550
855.39	4706
855.524	4793
855.658	4725
855.792	4706
855.926	4702
856.06	4744
856.194	4828
856.327	4714
856.461	4603
856.595	4569
856.729	4634
856.862	4774
856.996	4687
857.13	4729
857.263	4698
857.397	4774
857.53	4664
857.664	4706
857.797	4755
857.931	4793
858.064	4706
858.197	4725
858.331	4656
858.464	4622
858.597	4561
858.731	4611
858.864	4645
858.997	4542
859.13	4634
859.263	4698
859.396	4698
859.529	4584
859.662	4577
859.795	4500
859.928	4618
860.061	4721
860.194	4752
860.327	4653
860.46	4584
860.592	4721
860.725	4736
860.858	4679
860.99	4596
861.123	4523
861.256	4519
861.388	4607
861.521	5242
861.653	4451
861.786	4428
861.918	4421
862.05	4535
862.183	4519
862.315	4660
862.447	4660
862.58	4531
862.712	4390
862.844	4314
862.976	4440
863.108	4447
863.24	4885
863.372	4344
863.504	4402
863.636	4394
863.768	4459
863.9	4451
864.032	4402
864.164	4421
864.296	4466
864.428	4519
864.559	4508
864.691	4478
864.823	4538
864.954	4485
865.086	4569
865.217	4443
865.349	4447
865.48	4424
865.612	4481
865.743	4599
865.875	4470
866.006	4428
866.137	4379
866.269	4500
866.4	4394
866.531	4413
866.662	4363
866.793	4421
866.924	4386
867.055	4455
867.186	4436
867.317	4428
867.448	4413
867.579	4383
867.71	4379
867.841	4417
867.972	4432
868.103	4459
868.233	4462
868.364	4451
868.495	4500
868.625	4702
868.756	4755
868.886	4535
869.017	4599
869.147	4759
869.278	4786
869.408	4694
869.539	4603
869.669	4694
869.799	4679
869.929	4778
870.06	4721
870.19	4934
870.32	4919
870.45	4915
870.58	5060
870.71	5121
870.84	5056
870.97	4949
871.1	4870
871.23	5105
871.36	5136
871.489	5003
871.619	5041
871.749	5083
871.879	5117
872.008	5178
872.138	5018
872.267	4972
872.397	4831
872.526	4801
872.656	4710
872.785	4744
872.915	4980
873.044	5033
873.173	4946
873.303	4991
873.432	4965
873.561	4972
873.69	4835
873.819	4847
873.948	4892
874.077	4858
874.206	4786
874.335	4790
874.464	4976
874.593	5025
874.722	5014
874.851	5071
874.979	5041
875.108	5037
875.237	4908
875.365	4885
875.494	4930
875.623	4987
875.751	4828
875.88	4900
876.008	4949
876.136	5014
876.265	5216
876.393	5334
876.521	5239
876.65	5216
876.778	5174
876.906	5071
877.034	5018
877.162	5045
877.29	5029
877.418	5045
877.546	5060
877.674	5067
877.802	5071
877.93	5029
878.058	4889
878.185	4877
878.313	4946
878.441	4957
878.568	4889
878.696	4919
878.824	5018
878.951	4987
879.079	5086
879.206	5273
879.333	5098
879.461	5003
879.588	4968
879.715	5105
879.842	5220
879.97	5003
880.097	4774
880.224	4702
880.351	4824
880.478	4824
880.605	4786
880.732	4793
880.859	5067
880.986	4885
881.112	4927
881.239	4816
881.366	4679
881.493	4569
881.619	4618
881.746	4588
881.872	4641
881.999	4626
882.125	4656
882.252	4797
882.378	4786
882.505	4923
882.631	4812
882.757	4672
882.883	4748
883.01	4710
883.136	4637
883.262	4584
883.388	4618
883.514	4805
883.64	4847
883.766	4771
883.892	4672
884.018	4691
884.143	4904
884.269	5029
884.395	4634
884.52	4558
884.646	4649
884.772	4546
884.897	4554
885.023	4714
885.148	4805
885.274	4847
885.399	4763
885.524	4664
885.65	4668
885.775	4755
885.9	4637
886.025	4847
886.15	4801
886.275	4664
886.4	4691
886.525	4714
886.65	4668
886.775	4721
886.9	4889
887.025	5052
887.149	4835
887.274	4637
887.399	4558
887.523	4626
887.648	4561
887.773	4577
887.897	4748
888.021	4778
888.146	4630
888.27	4790
888.395	4885
888.519	4793
888.643	4793
888.767	4847
888.891	4694
889.015	4626
889.139	4622
889.263	4542
889.387	4771
889.511	4870
889.635	4782
889.759	4664
889.883	4653
890.006	4672
890.13	4873
890.254	4588
890.377	4664
890.501	4561
890.624	4474
890.748	4622
890.871	4493
890.995	4417
891.118	4390
891.241	4451
891.364	4512
891.488	4607
891.611	4481
891.734	4516
891.857	4611
891.98	4500
892.103	4645
892.226	4618
892.349	4554
892.471	4440
892.594	4569
892.717	4592
892.839	4546
892.962	4573
893.085	4634
893.207	4607
893.33	4474
893.452	4500
893.575	4653
893.697	4538
893.819	4805
893.941	4740
894.064	4786
894.186	4580
894.308	4542
894.43	4710
894.552	4839
894.674	4694
894.796	4634
894.918	4596
895.04	4561
895.161	4679
895.283	4660
895.405	4615
895.526	4630
895.648	4721
895.769	4653
895.891	4759
896.012	4683
896.134	4679
896.255	4630
896.376	4637
896.498	4561
896.619	4710
896.74	4588
896.861	4664
896.982	4862
897.103	5094
897.224	4828
897.345	4771
897.466	4653
897.587	4698
897.708	4835
897.828	4812
897.949	4656
898.07	4611
898.19	4656
898.311	4828
898.431	4656
898.552	4763
898.672	4790
898.792	4805
898.913	4710
899.033	4645
899.153	4474
899.273	4405
899.393	4508
899.513	4474
899.633	4500
899.753	4516
899.873	4527
899.993	4580
900.113	4504
900.232	4592
900.352	4523
900.472	4443
900.591	4386
900.711	4493
900.83	4436
900.95	4607
901.069	4683
901.189	4558
901.308	4360
901.427	4333
901.546	4363
901.665	4451
901.784	4538
901.904	4333
902.023	4329
902.141	4234
902.26	4150
902.379	4310
902.498	4268
902.617	4261
902.735	4417
902.854	4390
902.973	4344
903.091	4227
903.21	4257
903.328	4303
903.446	4246
903.565	4276
903.683	4348
903.801	4287
903.919	4379
904.038	4413
904.156	4295
904.274	4402
904.392	4383
904.51	4436
904.627	4432
904.745	4538
904.863	4615
904.981	4432
905.098	4299
905.216	4344
905.334	4413
905.451	4405
905.569	4474
905.686	4516
905.803	4535
905.921	4402
906.038	4542
906.155	4474
906.272	4409
906.389	4428
906.506	4367
906.623	4390
906.74	4390
906.857	4287
906.974	4363
907.091	4546
907.208	4664
907.324	4554
907.441	4481
907.557	4383
907.674	4363
907.79	4325
907.907	4325
908.023	4451
908.139	4493
908.256	4424
908.372	4440
908.488	4481
908.604	4344
908.72	4352
908.836	4348
908.952	4318
909.068	4413
909.184	4546
909.3	4489
909.415	4584
909.531	4538
909.647	4333
909.762	4352
909.878	4386
909.993	4409
910.108	4413
910.224	4421
910.339	4474
910.454	4413
910.57	4310
910.685	4352
910.8	4607
910.915	4592
911.03	4474
911.145	4299
911.259	4363
911.374	4344
911.489	4310
911.604	4268
911.718	4124
911.833	4227
911.947	4067
912.062	4040
912.176	4207
912.291	4295
912.405	4272
912.519	4459
912.633	4493
912.748	4348
912.862	4268
912.976	4215
913.09	4036
913.204	4158
913.318	4166
913.431	4394
913.545	4344
913.659	4447
913.772	4348
913.886	4234
914	4230
914.113	4390
914.226	4485
914.34	4356
914.453	4238
914.566	4421
914.68	4299
914.793	4318
914.906	4154
915.019	4158
915.132	4093
915.245	4177
915.358	4246
915.47	4242
915.583	4253
915.696	4318
915.809	4424
915.921	4436
916.034	4291
916.146	4246
916.259	4200
916.371	4363
916.483	4329
916.595	4287
916.708	4333
916.82	4348
916.932	4325
917.044	4325
917.156	4363
917.268	4223
917.38	4287
917.491	4272
917.603	4291
917.715	4443
917.826	4455
917.938	4299
918.049	4230
918.161	4386
918.272	4474
918.384	4478
918.495	4478
918.606	4303
918.717	4291
918.828	4310
918.939	4348
919.05	4253
919.161	4329
919.272	4131
919.383	4234
919.494	4462
919.604	4615
919.715	4451
919.826	4344
919.936	4417
920.047	4512
920.157	4497
920.267	4725
920.378	4558
920.488	4508
920.598	4717
920.708	4919
920.818	4721
920.928	4786
921.038	4930
921.148	4862
921.258	4630
921.368	4542
921.477	4455
921.587	4432
921.697	4341
921.806	4561
921.916	4409
922.025	4284
922.134	4227
922.244	4238
922.353	4344
922.462	4181
922.571	4139
922.68	3972
922.789	3949
922.898	4010
923.007	3983
923.116	4090
923.224	4032
923.333	4063
923.442	4040
923.55	3994
923.659	4051
923.767	4078
923.876	3983
923.984	4101
924.092	3949
924.201	4067
924.309	4147
924.417	4131
924.525	4078
924.633	4071
924.741	5048
924.849	3911
924.956	4116
925.064	3964
925.172	3896
925.279	3945
925.387	4040
925.494	4048
925.602	4204
925.709	4143
925.816	4051
925.924	4143
926.031	4261
926.138	4124
926.245	4215
926.352	4059
926.459	4230
926.566	4318
926.673	4169
926.779	4078
926.886	4105
926.993	3987
927.099	3949
927.206	3964
927.312	3964
927.419	4044
927.525	4032
927.631	4112
927.737	3964
927.843	3941
927.95	3819
928.056	3960
928.162	4021
928.267	4051
928.373	4653
928.479	4131
928.585	3911
928.69	4032
928.796	4051
928.901	3956
929.007	3842
929.112	4002
929.218	3934
929.323	3949
929.428	3941
929.533	4131
929.638	3907
929.743	3949
929.848	4040
929.953	4029
930.058	3926
930.163	3743
930.267	3797
930.372	3975
930.477	3789
930.581	4086
930.685	3953
930.79	3812
930.894	3869
930.998	3873
931.103	4040
931.207	3747
931.311	3724
931.415	3660
931.519	3511
931.623	3572
