Data from test_V78500241_169.txt Node
Date: Fri Mar 25 16:50:10 CST 2022
User: usil
Spectrometer: V785-0024
Trigger mode: 0
Integration Time (sec): 4.000000E-1
Scans to average: 1
Nonlinearity correction enabled: false
Boxcar width: 0
Storing dark spectrum: false
XAxis mode: Wavelengths
Number of Pixels in Spectrum: 1024
>>>>>Begin Spectral Data<<<<<
801.071	7997
801.214	7974
801.356	7887
801.499	7860
801.641	7841
801.783	7826
801.926	7936
802.068	7921
802.211	8001
802.353	7982
802.496	7826
802.638	7875
802.78	7864
802.923	7894
803.065	7856
803.208	7868
803.35	8001
803.492	7967
803.635	8096
803.777	7928
803.919	8119
804.061	8328
804.204	8027
804.346	7940
804.488	7967
804.63	8027
804.773	7936
804.915	8016
805.057	8275
805.199	8073
805.341	8164
805.483	8221
805.626	8161
805.768	7963
805.91	8123
806.052	8176
806.194	8054
806.336	8168
806.478	8111
806.62	8043
806.762	8073
806.904	8142
807.046	8374
807.188	8309
807.33	8263
807.472	8317
807.614	8180
807.756	8043
807.898	7967
808.04	7849
808.182	7928
808.324	7864
808.465	7871
808.607	8069
808.749	8081
808.891	8259
809.033	8374
809.174	8202
809.316	8054
809.458	8050
809.6	7997
809.741	8039
809.883	8111
810.025	8092
810.166	8084
810.308	7997
810.45	8050
810.591	7928
810.733	7788
810.875	7727
811.016	7537
811.158	7567
811.299	7689
811.441	7761
811.582	7799
811.724	7609
811.865	7556
812.007	7674
812.148	7643
812.29	7666
812.431	7807
812.573	7940
812.714	8054
812.855	8248
812.997	8275
813.138	8358
813.279	8237
813.421	8119
813.562	8092
813.703	7909
813.845	7792
813.986	7426
814.127	7419
814.268	7289
814.41	7194
814.551	7209
814.692	7289
814.833	7179
814.974	7114
815.115	7129
815.256	7038
815.397	7008
815.539	7015
815.68	6863
815.821	6810
815.962	6859
816.103	6821
816.244	6795
816.385	6662
816.526	6696
816.666	6570
816.807	6384
816.948	6490
817.089	6517
817.23	6509
817.371	6506
817.512	6361
817.653	6391
817.793	6372
817.934	6475
818.075	6517
818.216	6460
818.356	6399
818.497	6258
818.638	6110
818.778	6136
818.919	6064
819.06	6186
819.2	6353
819.341	6357
819.481	6452
819.622	6608
819.762	6776
819.903	6696
820.043	6612
820.184	6681
820.324	6631
820.465	6711
820.605	6696
820.746	6642
820.886	6585
821.026	6711
821.167	6818
821.307	6760
821.447	6810
821.588	6779
821.728	6589
821.868	6513
822.008	6388
822.149	6426
822.289	6391
822.429	6194
822.569	6110
822.709	6121
822.849	5939
822.99	5931
823.13	5961
823.27	5973
823.41	5805
823.55	5824
823.69	5783
823.83	5809
823.97	5733
824.11	5554
824.25	5558
824.389	5596
824.529	5619
824.669	5535
824.809	5649
824.949	5729
825.089	5688
825.228	5501
825.368	5421
825.508	5414
825.648	5330
825.787	5391
825.927	5391
826.067	5349
826.206	5330
826.346	5429
826.485	5414
826.625	5433
826.765	5581
826.904	5528
827.044	5273
827.183	5246
827.323	5166
827.462	5239
827.601	5204
827.741	5227
827.88	5265
828.02	5155
828.159	5296
828.298	5341
828.437	5376
828.577	5334
828.716	5524
828.855	5440
828.994	5239
829.134	5166
829.273	5193
829.412	5201
829.551	5178
829.69	5216
829.829	5303
829.968	5436
830.107	5303
830.246	5292
830.385	5166
830.524	5174
830.663	5113
830.802	5010
830.941	4896
831.08	4881
831.219	4991
831.357	4987
831.496	5246
831.635	4930
831.774	4862
831.913	4896
832.051	4725
832.19	4763
832.329	4892
832.467	4740
832.606	4698
832.744	4733
832.883	4725
833.022	4706
833.16	4839
833.299	4828
833.437	4873
833.576	4858
833.714	4850
833.852	4904
833.991	4919
834.129	5025
834.267	5006
834.406	4961
834.544	4984
834.682	5010
834.821	4949
834.959	5189
835.097	5048
835.235	5181
835.373	5155
835.511	5132
835.65	5048
835.788	5060
835.926	4980
836.064	4930
836.202	4930
836.34	5151
836.478	5315
836.615	5136
836.753	5273
836.891	5341
837.029	5315
837.167	5242
837.305	5185
837.443	5197
837.58	5143
837.718	5326
837.856	5208
837.993	5193
838.131	5269
838.269	5288
838.406	5220
838.544	5178
838.681	5029
838.819	5014
838.956	4953
839.094	4942
839.231	5010
839.369	5132
839.506	5436
839.643	5349
839.781	5136
839.918	5075
840.055	5132
840.193	5109
840.33	5102
840.467	5201
840.604	5193
840.742	5463
840.879	5162
841.016	5181
841.153	5170
841.29	5414
841.427	5360
841.564	5360
841.701	5368
841.838	5318
841.975	5280
842.112	5326
842.249	5193
842.385	5159
842.522	5417
842.659	5235
842.796	5201
842.933	5204
843.069	5254
843.206	5181
843.343	5303
843.479	5303
843.616	5330
843.752	5045
843.889	5018
844.025	5231
844.162	5048
844.298	5239
844.435	5113
844.571	5121
844.708	5265
844.844	5334
844.98	5353
845.117	5318
845.253	5178
845.389	5113
845.525	5166
845.661	5189
845.798	5121
845.934	5147
846.07	5083
846.206	5280
846.342	5269
846.478	5204
846.614	5041
846.75	4976
846.886	5022
847.022	5178
847.158	5071
847.294	5124
847.429	5143
847.565	5143
847.701	5322
847.837	4870
847.972	4896
848.108	5022
848.244	5010
848.379	4801
848.515	4752
848.65	4774
848.786	4786
848.921	4801
849.057	4930
849.192	4938
849.328	4885
849.463	4881
849.598	4866
849.734	4801
849.869	4759
850.004	4679
850.14	4653
850.275	4618
850.41	4531
850.545	4618
850.68	4645
850.815	4641
850.95	4698
851.085	4885
851.22	4778
851.355	4649
851.49	4668
851.625	4668
851.76	4691
851.895	4615
852.03	4531
852.165	4641
852.299	4733
852.434	4809
852.569	4736
852.703	4862
852.838	4870
852.973	4934
853.107	4957
853.242	4759
853.376	4702
853.511	4603
853.645	4630
853.78	4835
853.914	4717
854.048	4691
854.183	4687
854.317	4721
854.451	4942
854.585	4679
854.72	4672
854.854	4828
854.988	4634
855.122	4634
855.256	4554
855.39	4683
855.524	4767
855.658	4771
855.792	4710
855.926	4736
856.06	4809
856.194	4866
856.327	4691
856.461	4675
856.595	4634
856.729	4679
856.862	4774
856.996	4725
857.13	4698
857.263	4801
857.397	4850
857.53	4698
857.664	4721
857.797	4805
857.931	4790
858.064	4729
858.197	4790
858.331	4721
858.464	4634
858.597	4546
858.731	4656
858.864	4641
858.997	4637
859.13	4675
859.263	4698
859.396	4721
859.529	4683
859.662	4592
859.795	4580
859.928	4653
860.061	4797
860.194	4797
860.327	4664
860.46	4592
860.592	4687
860.725	4771
860.858	4744
860.99	4592
861.123	4531
861.256	4538
861.388	4668
861.521	5429
861.653	4500
861.786	4489
861.918	4497
862.05	4542
862.183	4554
862.315	4656
862.447	4706
862.58	4615
862.712	4432
862.844	4394
862.976	4527
863.108	4493
863.24	4919
863.372	4383
863.504	4497
863.636	4455
863.768	4447
863.9	4478
864.032	4417
864.164	4398
864.296	4500
864.428	4577
864.559	4599
864.691	4580
864.823	4565
864.954	4550
865.086	4554
865.217	4489
865.349	4459
865.48	4516
865.612	4512
865.743	4622
865.875	4478
866.006	4432
866.137	4489
866.269	4485
866.4	4447
866.531	4493
866.662	4451
866.793	4470
866.924	4462
867.055	4519
867.186	4470
867.317	4470
867.448	4390
867.579	4432
867.71	4466
867.841	4398
867.972	4459
868.103	4523
868.233	4485
868.364	4459
868.495	4512
868.625	4645
868.756	4763
868.886	4599
869.017	4649
869.147	4828
869.278	4812
869.408	4664
869.539	4626
869.669	4763
869.799	4664
869.929	4805
870.06	4755
870.19	4991
870.32	4854
870.45	4949
870.58	5041
870.71	5117
870.84	5181
870.97	4984
871.1	4923
871.23	5140
871.36	5159
871.489	5045
871.619	5140
871.749	5121
871.879	5185
872.008	5170
872.138	5105
872.267	4991
872.397	4892
872.526	4824
872.656	4771
872.785	4778
872.915	4991
873.044	5010
873.173	4953
873.303	4946
873.432	4968
873.561	4961
873.69	4873
873.819	4854
873.948	4889
874.077	4793
874.206	4782
874.335	4854
874.464	4923
874.593	5056
874.722	5003
874.851	5132
874.979	5048
875.108	5025
875.237	4965
875.365	4889
875.494	4908
875.623	4949
875.751	4790
875.88	4961
876.008	5003
876.136	5048
876.265	5189
876.393	5379
876.521	5242
876.65	5250
876.778	5204
876.906	5098
877.034	5045
877.162	5098
877.29	5010
877.418	5079
877.546	5052
877.674	5064
877.802	5045
877.93	5060
878.058	4957
878.185	4900
878.313	4968
878.441	5003
878.568	4870
878.696	4908
878.824	4987
878.951	5064
879.079	5151
879.206	5296
879.333	5140
879.461	5064
879.588	5060
879.715	5204
879.842	5258
879.97	5056
880.097	4881
880.224	4790
880.351	4870
880.478	4930
880.605	4862
880.732	4870
880.859	5185
880.986	4991
881.112	4976
881.239	4843
881.366	4786
881.493	4660
881.619	4599
881.746	4710
881.872	4691
881.999	4744
882.125	4729
882.252	4858
882.378	4847
882.505	5052
882.631	4877
882.757	4744
882.883	4797
883.01	4816
883.136	4774
883.262	4649
883.388	4656
883.514	4843
883.64	4915
883.766	4854
883.892	4744
884.018	4786
884.143	4965
884.269	5075
884.395	4733
884.52	4675
884.646	4679
884.772	4626
884.897	4603
885.023	4668
885.148	4858
885.274	4911
885.399	4835
885.524	4786
885.65	4717
885.775	4774
885.9	4763
886.025	4930
886.15	4847
886.275	4778
886.4	4698
886.525	4793
886.65	4725
886.775	4694
886.9	4946
887.025	5102
887.149	4835
887.274	4729
887.399	4618
887.523	4630
887.648	4618
887.773	4645
887.897	4797
888.021	4831
888.146	4786
888.27	4820
888.395	4889
888.519	4866
888.643	4847
888.767	4877
888.891	4729
889.015	4672
889.139	4736
889.263	4675
889.387	4767
889.511	4896
889.635	4850
889.759	4733
889.883	4664
890.006	4782
890.13	4923
890.254	4687
890.377	4733
890.501	4599
890.624	4584
890.748	4626
890.871	4565
890.995	4493
891.118	4474
891.241	4535
891.364	4588
891.488	4710
891.611	4550
891.734	4641
891.857	4645
891.98	4618
892.103	4729
892.226	4611
892.349	4577
892.471	4519
892.594	4599
892.717	4626
892.839	4653
892.962	4675
893.085	4736
893.207	4683
893.33	4493
893.452	4546
893.575	4717
893.697	4607
893.819	4847
893.941	4927
894.064	4759
894.186	4664
894.308	4596
894.43	4759
894.552	4870
894.674	4793
894.796	4592
894.918	4664
895.04	4618
895.161	4683
895.283	4702
895.405	4618
895.526	4679
895.648	4748
895.769	4733
895.891	4778
896.012	4782
896.134	4744
896.255	4710
896.376	4702
896.498	4679
896.619	4714
896.74	4660
896.861	4687
896.982	4995
897.103	5151
897.224	4908
897.345	4831
897.466	4763
897.587	4744
897.708	4900
897.828	4904
897.949	4736
898.07	4683
898.19	4660
898.311	4866
898.431	4740
898.552	4778
898.672	4892
898.792	4835
898.913	4793
899.033	4668
899.153	4561
899.273	4489
899.393	4531
899.513	4554
899.633	4546
899.753	4630
899.873	4561
899.993	4577
900.113	4565
900.232	4645
900.352	4599
900.472	4519
900.591	4459
900.711	4577
900.83	4466
900.95	4664
901.069	4679
901.189	4531
901.308	4363
901.427	4352
901.546	4409
901.665	4519
901.784	4554
901.904	4440
902.023	4333
902.141	4173
902.26	4253
902.379	4371
902.498	4299
902.617	4272
902.735	4451
902.854	4436
902.973	4447
903.091	4261
903.21	4303
903.328	4333
903.446	4322
903.565	4299
903.683	4417
903.801	4318
903.919	4443
904.038	4493
904.156	4337
904.274	4519
904.392	4424
904.51	4481
904.627	4508
904.745	4615
904.863	4710
904.981	4440
905.098	4341
905.216	4398
905.334	4481
905.451	4466
905.569	4485
905.686	4596
905.803	4641
905.921	4485
906.038	4558
906.155	4493
906.272	4478
906.389	4535
906.506	4375
906.623	4424
906.74	4424
906.857	4348
906.974	4443
907.091	4615
907.208	4653
907.324	4618
907.441	4542
907.557	4383
907.674	4421
907.79	4421
907.907	4470
908.023	4596
908.139	4493
908.256	4462
908.372	4497
908.488	4466
908.604	4402
908.72	4394
908.836	4443
908.952	4443
909.068	4470
909.184	4603
909.3	4489
909.415	4603
909.531	4615
909.647	4371
909.762	4413
909.878	4428
909.993	4428
910.108	4451
910.224	4443
910.339	4596
910.454	4485
910.57	4440
910.685	4329
910.8	4626
910.915	4653
911.03	4500
911.145	4360
911.259	4352
911.374	4455
911.489	4333
911.604	4379
911.718	4215
911.833	4246
911.947	4120
912.062	4040
912.176	4246
912.291	4291
912.405	4272
912.519	4516
912.633	4508
912.748	4436
912.862	4306
912.976	4227
913.09	4185
913.204	4215
913.318	4246
913.431	4417
913.545	4371
913.659	4470
913.772	4421
913.886	4303
914	4261
914.113	4383
914.226	4485
914.34	4447
914.453	4287
914.566	4478
914.68	4333
914.793	4402
914.906	4207
915.019	4227
915.132	4124
915.245	4207
915.358	4238
915.47	4257
915.583	4268
915.696	4333
915.809	4443
915.921	4443
916.034	4280
916.146	4272
916.259	4230
916.371	4390
916.483	4405
916.595	4299
916.708	4348
916.82	4363
916.932	4375
917.044	4322
917.156	4360
917.268	4268
917.38	4344
917.491	4280
917.603	4394
917.715	4489
917.826	4436
917.938	4402
918.049	4287
918.161	4413
918.272	4588
918.384	4588
918.495	4451
918.606	4287
918.717	4280
918.828	4375
918.939	4424
919.05	4329
919.161	4344
919.272	4135
919.383	4303
919.494	4474
919.604	4672
919.715	4462
919.826	4383
919.936	4432
920.047	4561
920.157	4580
920.267	4774
920.378	4584
920.488	4554
920.598	4744
920.708	4896
920.818	4847
920.928	4824
921.038	4965
921.148	5033
921.258	4641
921.368	4558
921.477	4592
921.587	4535
921.697	4421
921.806	4615
921.916	4459
922.025	4299
922.134	4284
922.244	4242
922.353	4344
922.462	4230
922.571	4211
922.68	4090
922.789	4078
922.898	4086
923.007	4017
923.116	4135
923.224	4059
923.333	4101
923.442	4025
923.55	4067
923.659	4036
923.767	4150
923.876	4048
923.984	4158
924.092	3964
924.201	4124
924.309	4116
924.417	4150
924.525	4090
924.633	4116
924.741	4911
924.849	3987
924.956	4143
925.064	4010
925.172	3918
925.279	3968
925.387	4093
925.494	4082
925.602	4261
925.709	4234
925.816	4090
925.924	4162
926.031	4230
926.138	4154
926.245	4238
926.352	4162
926.459	4223
926.566	4310
926.673	4188
926.779	4105
926.886	4124
926.993	3991
927.099	4013
927.206	3960
927.312	3949
927.419	4074
927.525	4021
927.631	4131
927.737	3960
927.843	3987
927.95	3869
928.056	4002
928.162	4032
928.267	4074
928.373	4809
928.479	4131
928.585	3922
928.69	4017
928.796	4078
928.901	4010
929.007	3899
929.112	4025
929.218	3994
929.323	3998
929.428	4006
929.533	4192
929.638	3930
929.743	3922
929.848	4101
929.953	4063
930.058	3972
930.163	3816
930.267	3857
930.372	4006
930.477	3816
930.581	4139
930.685	3987
930.79	3846
930.894	3937
930.998	3907
931.103	4071
931.207	3751
931.311	3713
931.415	3705
931.519	3538
931.623	3603
