Data from test_V78500241_873.txt Node
Date: Fri Mar 25 16:55:04 CST 2022
User: usil
Spectrometer: V785-0024
Trigger mode: 0
Integration Time (sec): 4.000000E-1
Scans to average: 1
Nonlinearity correction enabled: false
Boxcar width: 0
Storing dark spectrum: false
XAxis mode: Wavelengths
Number of Pixels in Spectrum: 1024
>>>>>Begin Spectral Data<<<<<
801.071	8005
801.214	7997
801.356	7879
801.499	7852
801.641	7856
801.783	7830
801.926	7890
802.068	7974
802.211	7890
802.353	7982
802.496	7833
802.638	7940
802.78	7936
802.923	7925
803.065	7875
803.208	7932
803.35	7989
803.492	8157
803.635	8240
803.777	8073
803.919	8180
804.061	8404
804.204	8149
804.346	8046
804.488	7928
804.63	8092
804.773	7989
804.915	8054
805.057	8256
805.199	8161
805.341	8161
805.483	8279
805.626	8199
805.768	8084
805.91	8202
806.052	8183
806.194	8103
806.336	8263
806.478	8088
806.62	8005
806.762	8187
806.904	8259
807.046	8419
807.188	8355
807.33	8309
807.472	8374
807.614	8123
807.756	8107
807.898	7986
808.04	7928
808.182	7982
808.324	7902
808.465	7894
808.607	7974
808.749	8088
808.891	8206
809.033	8275
809.174	8225
809.316	8050
809.458	8069
809.6	7986
809.741	8012
809.883	8031
810.025	8111
810.166	8031
810.308	8077
810.45	8100
810.591	7807
810.733	7670
810.875	7723
811.016	7487
811.158	7434
811.299	7575
811.441	7696
811.582	7742
811.724	7559
811.865	7575
812.007	7616
812.148	7605
812.29	7666
812.431	7765
812.573	7822
812.714	7970
812.855	8164
812.997	8157
813.138	8263
813.279	8248
813.421	8126
813.562	7993
813.703	7894
813.845	7788
813.986	7495
814.127	7297
814.268	7251
814.41	7206
814.551	7152
814.692	7141
814.833	7042
814.974	7084
815.115	7095
815.256	6951
815.397	6970
815.539	7015
815.68	6825
815.821	6764
815.962	6886
816.103	6779
816.244	6772
816.385	6639
816.526	6677
816.666	6517
816.807	6289
816.948	6414
817.089	6448
817.23	6456
817.371	6327
817.512	6422
817.653	6369
817.793	6369
817.934	6426
818.075	6426
818.216	6433
818.356	6418
818.497	6197
818.638	6053
818.778	6171
818.919	6155
819.06	6163
819.2	6292
819.341	6357
819.481	6308
819.622	6532
819.762	6707
819.903	6639
820.043	6593
820.184	6528
820.324	6570
820.465	6673
820.605	6654
820.746	6677
820.886	6551
821.026	6677
821.167	6738
821.307	6814
821.447	6787
821.588	6669
821.728	6574
821.868	6536
822.008	6353
822.149	6369
822.289	6353
822.429	6152
822.569	6106
822.709	6106
822.849	5946
822.99	5866
823.13	5923
823.27	5923
823.41	5779
823.55	5729
823.69	5771
823.83	5783
823.97	5642
824.11	5547
824.25	5493
824.389	5547
824.529	5630
824.669	5516
824.809	5630
824.949	5737
825.089	5653
825.228	5535
825.368	5421
825.508	5345
825.648	5337
825.787	5357
825.927	5360
826.067	5318
826.206	5223
826.346	5406
826.485	5414
826.625	5391
826.765	5524
826.904	5501
827.044	5254
827.183	5208
827.323	5159
827.462	5216
827.601	5136
827.741	5151
827.88	5246
828.02	5132
828.159	5242
828.298	5322
828.437	5364
828.577	5265
828.716	5486
828.855	5376
828.994	5174
829.134	5204
829.273	5178
829.412	5121
829.551	5155
829.69	5151
829.829	5254
829.968	5364
830.107	5204
830.246	5296
830.385	5204
830.524	5132
830.663	5060
830.802	4968
830.941	4919
831.08	4854
831.219	4934
831.357	4908
831.496	5201
831.635	4930
831.774	4812
831.913	4843
832.051	4733
832.19	4725
832.329	4831
832.467	4714
832.606	4653
832.744	4729
832.883	4729
833.022	4740
833.16	4755
833.299	4782
833.437	4763
833.576	4820
833.714	4870
833.852	4900
833.991	4854
834.129	4968
834.267	4946
834.406	4885
834.544	4995
834.682	4953
834.821	4961
834.959	5143
835.097	4991
835.235	5155
835.373	5086
835.511	5113
835.65	5045
835.788	4987
835.926	4896
836.064	4862
836.202	4915
836.34	5174
836.478	5239
836.615	5102
836.753	5250
836.891	5330
837.029	5250
837.167	5185
837.305	5162
837.443	5143
837.58	5071
837.718	5246
837.856	5162
837.993	5121
838.131	5250
838.269	5181
838.406	5193
838.544	5151
838.681	5025
838.819	4972
838.956	4870
839.094	4919
839.231	4965
839.369	5090
839.506	5395
839.643	5273
839.781	5025
839.918	4923
840.055	5090
840.193	5113
840.33	5071
840.467	5124
840.604	5128
840.742	5444
840.879	5067
841.016	5045
841.153	5124
841.29	5349
841.427	5368
841.564	5299
841.701	5364
841.838	5292
841.975	5231
842.112	5311
842.249	5132
842.385	5105
842.522	5315
842.659	5159
842.796	5151
842.933	5185
843.069	5136
843.206	5174
843.343	5334
843.479	5216
843.616	5208
843.752	5048
843.889	5010
844.025	5181
844.162	5025
844.298	5185
844.435	5132
844.571	5064
844.708	5197
844.844	5315
844.98	5296
845.117	5280
845.253	5132
845.389	5128
845.525	5159
845.661	5174
845.798	5033
845.934	5159
846.07	5018
846.206	5147
846.342	5231
846.478	5178
846.614	5048
846.75	4923
846.886	4911
847.022	5124
847.158	5029
847.294	5018
847.429	5105
847.565	5052
847.701	5315
847.837	4873
847.972	4885
848.108	4942
848.244	4877
848.379	4748
848.515	4694
848.65	4714
848.786	4714
848.921	4755
849.057	4850
849.192	4892
849.328	4843
849.463	4782
849.598	4793
849.734	4706
849.869	4668
850.004	4641
850.14	4668
850.275	4569
850.41	4542
850.545	4558
850.68	4599
850.815	4630
850.95	4607
851.085	4835
851.22	4733
851.355	4653
851.49	4607
851.625	4573
851.76	4626
851.895	4527
852.03	4538
852.165	4653
852.299	4710
852.434	4759
852.569	4740
852.703	4828
852.838	4828
852.973	4934
853.107	4919
853.242	4721
853.376	4634
853.511	4550
853.645	4618
853.78	4771
853.914	4687
854.048	4672
854.183	4634
854.317	4687
854.451	4809
854.585	4694
854.72	4649
854.854	4748
854.988	4607
855.122	4626
855.256	4516
855.39	4630
855.524	4793
855.658	4710
855.792	4679
855.926	4702
856.06	4687
856.194	4797
856.327	4717
856.461	4630
856.595	4649
856.729	4641
856.862	4717
856.996	4649
857.13	4702
857.263	4733
857.397	4778
857.53	4630
857.664	4736
857.797	4740
857.931	4790
858.064	4702
858.197	4714
858.331	4679
858.464	4679
858.597	4485
858.731	4599
858.864	4637
858.997	4508
859.13	4634
859.263	4668
859.396	4675
859.529	4607
859.662	4561
859.795	4577
859.928	4592
860.061	4755
860.194	4774
860.327	4603
860.46	4603
860.592	4755
860.725	4721
860.858	4748
860.99	4542
861.123	4478
861.256	4542
861.388	4626
861.521	5246
861.653	4440
861.786	4478
861.918	4459
862.05	4485
862.183	4599
862.315	4645
862.447	4679
862.58	4531
862.712	4341
862.844	4306
862.976	4436
863.108	4417
863.24	4790
863.372	4280
863.504	4413
863.636	4360
863.768	4459
863.9	4394
864.032	4367
864.164	4398
864.296	4447
864.428	4546
864.559	4535
864.691	4519
864.823	4523
864.954	4489
865.086	4508
865.217	4447
865.349	4386
865.48	4424
865.612	4508
865.743	4588
865.875	4451
866.006	4462
866.137	4455
866.269	4447
866.4	4436
866.531	4440
866.662	4386
866.793	4394
866.924	4436
867.055	4489
867.186	4462
867.317	4398
867.448	4333
867.579	4383
867.71	4363
867.841	4322
867.972	4451
868.103	4451
868.233	4447
868.364	4413
868.495	4421
868.625	4645
868.756	4672
868.886	4588
869.017	4645
869.147	4744
869.278	4771
869.408	4641
869.539	4626
869.669	4721
869.799	4630
869.929	4782
870.06	4736
870.19	4930
870.32	4835
870.45	4953
870.58	4972
870.71	5029
870.84	5018
870.97	4938
871.1	4904
871.23	5132
871.36	5121
871.489	5014
871.619	5033
871.749	5056
871.879	5117
872.008	5140
872.138	5037
872.267	4961
872.397	4824
872.526	4820
872.656	4687
872.785	4774
872.915	4946
873.044	5025
873.173	4961
873.303	4995
873.432	4972
873.561	4927
873.69	4885
873.819	4828
873.948	4927
874.077	4755
874.206	4706
874.335	4793
874.464	4889
874.593	5064
874.722	4953
874.851	5075
874.979	5041
875.108	5025
875.237	4904
875.365	4850
875.494	4839
875.623	4946
875.751	4850
875.88	4854
876.008	4999
876.136	5018
876.265	5174
876.393	5261
876.521	5204
876.65	5239
876.778	5204
876.906	5067
877.034	5025
877.162	5029
877.29	5022
877.418	5079
877.546	5029
877.674	4984
877.802	5006
877.93	5010
878.058	4980
878.185	4877
878.313	4934
878.441	4949
878.568	4778
878.696	4850
878.824	4896
878.951	4976
879.079	5098
879.206	5239
879.333	5159
879.461	5006
879.588	4976
879.715	5090
879.842	5193
879.97	4999
880.097	4809
880.224	4714
880.351	4843
880.478	4850
880.605	4790
880.732	4778
880.859	5018
880.986	4870
881.112	4870
881.239	4771
881.366	4641
881.493	4611
881.619	4611
881.746	4672
881.872	4626
881.999	4660
882.125	4660
882.252	4759
882.378	4793
882.505	4946
882.631	4790
882.757	4599
882.883	4710
883.01	4748
883.136	4714
883.262	4599
883.388	4599
883.514	4733
883.64	4908
883.766	4831
883.892	4672
884.018	4706
884.143	4870
884.269	4991
884.395	4649
884.52	4630
884.646	4634
884.772	4588
884.897	4577
885.023	4641
885.148	4752
885.274	4873
885.399	4809
885.524	4660
885.65	4698
885.775	4691
885.9	4721
886.025	4843
886.15	4752
886.275	4679
886.4	4721
886.525	4694
886.65	4679
886.775	4679
886.9	4919
887.025	4991
887.149	4759
887.274	4649
887.399	4550
887.523	4588
887.648	4561
887.773	4599
887.897	4744
888.021	4771
888.146	4637
888.27	4778
888.395	4927
888.519	4771
888.643	4809
888.767	4820
888.891	4664
889.015	4603
889.139	4580
889.263	4607
889.387	4752
889.511	4862
889.635	4805
889.759	4630
889.883	4603
890.006	4672
890.13	4816
890.254	4615
890.377	4691
890.501	4516
890.624	4569
890.748	4611
890.871	4493
890.995	4428
891.118	4413
891.241	4531
891.364	4519
891.488	4626
891.611	4462
891.734	4573
891.857	4588
891.98	4607
892.103	4641
892.226	4531
892.349	4554
892.471	4360
892.594	4618
892.717	4538
892.839	4531
892.962	4599
893.085	4653
893.207	4577
893.33	4462
893.452	4535
893.575	4637
893.697	4573
893.819	4774
893.941	4755
894.064	4778
894.186	4542
894.308	4550
894.43	4710
894.552	4767
894.674	4755
894.796	4535
894.918	4588
895.04	4554
895.161	4729
895.283	4649
895.405	4580
895.526	4626
895.648	4698
895.769	4645
895.891	4698
896.012	4771
896.134	4717
896.255	4645
896.376	4626
896.498	4573
896.619	4645
896.74	4584
896.861	4649
896.982	4885
897.103	5045
897.224	4816
897.345	4771
897.466	4634
897.587	4755
897.708	4847
897.828	4771
897.949	4641
898.07	4542
898.19	4683
898.311	4820
898.431	4645
898.552	4668
898.672	4824
898.792	4782
898.913	4733
899.033	4634
899.153	4489
899.273	4428
899.393	4493
899.513	4497
899.633	4470
899.753	4569
899.873	4500
899.993	4558
900.113	4447
900.232	4599
900.352	4527
900.472	4516
900.591	4405
900.711	4474
900.83	4428
900.95	4569
901.069	4706
901.189	4531
901.308	4360
901.427	4322
901.546	4371
901.665	4455
901.784	4516
901.904	4386
902.023	4287
902.141	4185
902.26	4162
902.379	4344
902.498	4223
902.617	4169
902.735	4329
902.854	4405
902.973	4337
903.091	4196
903.21	4234
903.328	4253
903.446	4268
903.565	4242
903.683	4360
903.801	4284
903.919	4421
904.038	4413
904.156	4295
904.274	4409
904.392	4375
904.51	4432
904.627	4470
904.745	4584
904.863	4645
904.981	4352
905.098	4299
905.216	4337
905.334	4413
905.451	4443
905.569	4440
905.686	4546
905.803	4588
905.921	4386
906.038	4516
906.155	4485
906.272	4402
906.389	4421
906.506	4287
906.623	4386
906.74	4386
906.857	4333
906.974	4363
907.091	4550
907.208	4656
907.324	4618
907.441	4447
907.557	4265
907.674	4341
907.79	4318
907.907	4356
908.023	4497
908.139	4485
908.256	4424
908.372	4462
908.488	4405
908.604	4352
908.72	4371
908.836	4363
908.952	4394
909.068	4424
909.184	4588
909.3	4409
909.415	4569
909.531	4538
909.647	4371
909.762	4383
909.878	4303
909.993	4409
910.108	4421
910.224	4402
910.339	4455
910.454	4386
910.57	4398
910.685	4325
910.8	4660
910.915	4569
911.03	4493
911.145	4322
911.259	4329
911.374	4375
911.489	4314
911.604	4272
911.718	4143
911.833	4185
911.947	4097
912.062	4029
912.176	4196
912.291	4261
912.405	4196
912.519	4443
912.633	4523
912.748	4333
912.862	4322
912.976	4204
913.09	4063
913.204	4131
913.318	4276
913.431	4375
913.545	4325
913.659	4371
913.772	4348
913.886	4291
914	4192
914.113	4341
914.226	4424
914.34	4390
914.453	4200
914.566	4394
914.68	4291
914.793	4325
914.906	4147
915.019	4128
915.132	4082
915.245	4204
915.358	4207
915.47	4200
915.583	4310
915.696	4280
915.809	4375
915.921	4413
916.034	4265
916.146	4253
916.259	4207
916.371	4352
916.483	4333
916.595	4272
916.708	4352
916.82	4303
916.932	4299
917.044	4360
917.156	4337
917.268	4272
917.38	4253
917.491	4265
917.603	4322
917.715	4386
917.826	4451
917.938	4337
918.049	4211
918.161	4352
918.272	4535
918.384	4546
918.495	4443
918.606	4287
918.717	4223
918.828	4333
918.939	4371
919.05	4215
919.161	4325
919.272	4162
919.383	4227
919.494	4428
919.604	4634
919.715	4394
919.826	4314
919.936	4440
920.047	4500
920.157	4508
920.267	4694
920.378	4527
920.488	4527
920.598	4748
920.708	4858
920.818	4733
920.928	4759
921.038	4938
921.148	4946
921.258	4584
921.368	4519
921.477	4523
921.587	4459
921.697	4383
921.806	4523
921.916	4390
922.025	4284
922.134	4249
922.244	4227
922.353	4352
922.462	4242
922.571	4154
922.68	3983
922.789	3991
922.898	4036
923.007	3968
923.116	4074
923.224	4044
923.333	4059
923.442	3960
923.55	3991
923.659	4025
923.767	4071
923.876	3991
923.984	4128
924.092	4013
924.201	4048
924.309	4090
924.417	4101
924.525	4051
924.633	4048
924.741	4892
924.849	3915
924.956	4105
925.064	3945
925.172	3884
925.279	3937
925.387	4025
925.494	4059
925.602	4192
925.709	4147
925.816	4040
925.924	4124
926.031	4211
926.138	4196
926.245	4242
926.352	4097
926.459	4238
926.566	4329
926.673	4162
926.779	4051
926.886	4086
926.993	3960
927.099	3907
927.206	3922
927.312	3907
927.419	4036
927.525	4055
927.631	4063
927.737	3987
927.843	3945
927.95	3827
928.056	3911
928.162	3941
928.267	4021
928.373	4550
928.479	4063
928.585	3846
928.69	3994
928.796	4105
928.901	3972
929.007	3831
929.112	4025
929.218	3945
929.323	3899
929.428	3934
929.533	4093
929.638	3861
929.743	3922
929.848	4017
929.953	3975
930.058	3918
930.163	3766
930.267	3827
930.372	3949
930.477	3797
930.581	4086
930.685	3956
930.79	3800
930.894	3922
930.998	3827
931.103	3994
931.207	3732
931.311	3701
931.415	3663
931.519	3545
931.623	3542
