Data from test_V78500241_1590.txt Node
Date: Fri Mar 25 17:00:03 CST 2022
User: usil
Spectrometer: V785-0024
Trigger mode: 0
Integration Time (sec): 4.000000E-1
Scans to average: 1
Nonlinearity correction enabled: false
Boxcar width: 0
Storing dark spectrum: false
XAxis mode: Wavelengths
Number of Pixels in Spectrum: 1024
>>>>>Begin Spectral Data<<<<<
801.071	7951
801.214	8027
801.356	7875
801.499	7871
801.641	7818
801.783	7799
801.926	7978
802.068	7932
802.211	7947
802.353	7974
802.496	7830
802.638	7887
802.78	7856
802.923	7974
803.065	7906
803.208	7856
803.35	7955
803.492	8088
803.635	8103
803.777	8001
803.919	8081
804.061	8511
804.204	8138
804.346	8020
804.488	7936
804.63	8111
804.773	7993
804.915	8096
805.057	8218
805.199	8164
805.341	8123
805.483	8229
805.626	8248
805.768	8046
805.91	8153
806.052	8195
806.194	8100
806.336	8317
806.478	8058
806.62	7986
806.762	8126
806.904	8248
807.046	8404
807.188	8267
807.33	8317
807.472	8355
807.614	8134
807.756	8077
807.898	7986
808.04	7913
808.182	7936
808.324	7883
808.465	7936
808.607	8046
808.749	8008
808.891	8172
809.033	8256
809.174	8183
809.316	8103
809.458	8103
809.6	7951
809.741	7959
809.883	8115
810.025	8111
810.166	8058
810.308	8001
810.45	8012
810.591	7875
810.733	7715
810.875	7651
811.016	7472
811.158	7480
811.299	7601
811.441	7674
811.582	7712
811.724	7533
811.865	7533
812.007	7525
812.148	7590
812.29	7567
812.431	7738
812.573	7868
812.714	7928
812.855	8031
812.997	8149
813.138	8290
813.279	8183
813.421	8088
813.562	7978
813.703	7795
813.845	7742
813.986	7438
814.127	7183
814.268	7209
814.41	7183
814.551	7129
814.692	7209
814.833	7038
814.974	7091
815.115	7149
815.256	7031
815.397	6886
815.539	6924
815.68	6768
815.821	6795
815.962	6772
816.103	6848
816.244	6650
816.385	6623
816.526	6642
816.666	6483
816.807	6304
816.948	6384
817.089	6437
817.23	6350
817.371	6369
817.512	6445
817.653	6346
817.793	6365
817.934	6338
818.075	6494
818.216	6399
818.356	6384
818.497	6243
818.638	6121
818.778	6136
818.919	6144
819.06	6098
819.2	6300
819.341	6239
819.481	6353
819.622	6517
819.762	6741
819.903	6703
820.043	6589
820.184	6559
820.324	6635
820.465	6673
820.605	6692
820.746	6627
820.886	6464
821.026	6639
821.167	6688
821.307	6802
821.447	6753
821.588	6673
821.728	6574
821.868	6521
822.008	6331
822.149	6346
822.289	6365
822.429	6133
822.569	6133
822.709	6133
822.849	5897
822.99	5908
823.13	5931
823.27	5897
823.41	5779
823.55	5798
823.69	5783
823.83	5741
823.97	5661
824.11	5551
824.25	5547
824.389	5604
824.529	5577
824.669	5554
824.809	5592
824.949	5623
825.089	5592
825.228	5543
825.368	5376
825.508	5330
825.648	5349
825.787	5330
825.927	5368
826.067	5326
826.206	5269
826.346	5334
826.485	5364
826.625	5360
826.765	5520
826.904	5486
827.044	5261
827.183	5178
827.323	5109
827.462	5231
827.601	5113
827.741	5128
827.88	5181
828.02	5117
828.159	5227
828.298	5311
828.437	5345
828.577	5277
828.716	5429
828.855	5292
828.994	5162
829.134	5166
829.273	5193
829.412	5075
829.551	5132
829.69	5140
829.829	5193
829.968	5376
830.107	5265
830.246	5288
830.385	5136
830.524	5124
830.663	5079
830.802	4949
830.941	4854
831.08	4870
831.219	4968
831.357	4961
831.496	5140
831.635	4900
831.774	4816
831.913	4801
832.051	4729
832.19	4767
832.329	4870
832.467	4702
832.606	4683
832.744	4698
832.883	4717
833.022	4767
833.16	4774
833.299	4824
833.437	4816
833.576	4854
833.714	4809
833.852	4858
833.991	4877
834.129	4930
834.267	4877
834.406	4885
834.544	4984
834.682	4972
834.821	4991
834.959	5174
835.097	4972
835.235	5121
835.373	5109
835.511	5067
835.65	5006
835.788	5045
835.926	4892
836.064	4828
836.202	4930
836.34	5159
836.478	5220
836.615	5128
836.753	5193
836.891	5277
837.029	5201
837.167	5162
837.305	5140
837.443	5124
837.58	5071
837.718	5223
837.856	5204
837.993	5124
838.131	5189
838.269	5258
838.406	5178
838.544	5117
838.681	5033
838.819	4984
838.956	4816
839.094	4873
839.231	4911
839.369	5029
839.506	5417
839.643	5292
839.781	5022
839.918	5029
840.055	5098
840.193	5102
840.33	5060
840.467	5132
840.604	5201
840.742	5433
840.879	5098
841.016	5075
841.153	5143
841.29	5322
841.427	5288
841.564	5299
841.701	5322
841.838	5265
841.975	5216
842.112	5258
842.249	5132
842.385	5109
842.522	5357
842.659	5162
842.796	5128
842.933	5204
843.069	5124
843.206	5151
843.343	5357
843.479	5193
843.616	5296
843.752	5075
843.889	4957
844.025	5216
844.162	4995
844.298	5216
844.435	5064
844.571	5052
844.708	5143
844.844	5235
844.98	5349
845.117	5239
845.253	5155
845.389	5025
845.525	5136
845.661	5132
845.798	5006
845.934	5105
846.07	5048
846.206	5147
846.342	5223
846.478	5159
846.614	5037
846.75	4938
846.886	4889
847.022	5113
847.158	5037
847.294	5033
847.429	5086
847.565	5014
847.701	5322
847.837	4892
847.972	4824
848.108	4923
848.244	4896
848.379	4759
848.515	4767
848.65	4714
848.786	4710
848.921	4763
849.057	4839
849.192	4873
849.328	4755
849.463	4782
849.598	4759
849.734	4763
849.869	4649
850.004	4554
850.14	4672
850.275	4592
850.41	4542
850.545	4550
850.68	4584
850.815	4603
850.95	4607
851.085	4797
851.22	4698
851.355	4641
851.49	4565
851.625	4607
851.76	4611
851.895	4519
852.03	4535
852.165	4672
852.299	4725
852.434	4778
852.569	4763
852.703	4710
852.838	4839
852.973	4934
853.107	4904
853.242	4710
853.376	4641
853.511	4580
853.645	4618
853.78	4793
853.914	4668
854.048	4641
854.183	4645
854.317	4691
854.451	4820
854.585	4649
854.72	4592
854.854	4744
854.988	4596
855.122	4637
855.256	4519
855.39	4653
855.524	4786
855.658	4721
855.792	4687
855.926	4725
856.06	4752
856.194	4809
856.327	4717
856.461	4546
856.595	4618
856.729	4580
856.862	4786
856.996	4698
857.13	4710
857.263	4675
857.397	4774
857.53	4588
857.664	4733
857.797	4710
857.931	4755
858.064	4641
858.197	4694
858.331	4645
858.464	4596
858.597	4516
858.731	4580
858.864	4622
858.997	4558
859.13	4679
859.263	4668
859.396	4714
859.529	4538
859.662	4580
859.795	4508
859.928	4660
860.061	4706
860.194	4717
860.327	4588
860.46	4497
860.592	4687
860.725	4706
860.858	4736
860.99	4542
861.123	4493
861.256	4497
861.388	4603
861.521	5181
861.653	4489
861.786	4451
861.918	4481
862.05	4497
862.183	4546
862.315	4599
862.447	4641
862.58	4550
862.712	4383
862.844	4284
862.976	4459
863.108	4409
863.24	4759
863.372	4287
863.504	4421
863.636	4379
863.768	4500
863.9	4383
864.032	4379
864.164	4398
864.296	4478
864.428	4493
864.559	4546
864.691	4527
864.823	4493
864.954	4447
865.086	4474
865.217	4440
865.349	4443
865.48	4440
865.612	4493
865.743	4561
865.875	4428
866.006	4394
866.137	4409
866.269	4390
866.4	4409
866.531	4390
866.662	4428
866.793	4402
866.924	4417
867.055	4462
867.186	4459
867.317	4447
867.448	4363
867.579	4379
867.71	4348
867.841	4329
867.972	4417
868.103	4447
868.233	4428
868.364	4432
868.495	4485
868.625	4603
868.756	4733
868.886	4561
869.017	4573
869.147	4721
869.278	4744
869.408	4630
869.539	4618
869.669	4717
869.799	4660
869.929	4740
870.06	4714
870.19	4881
870.32	4953
870.45	4908
870.58	4999
870.71	5086
870.84	5056
870.97	4961
871.1	4938
871.23	5075
871.36	5128
871.489	4961
871.619	5060
871.749	5010
871.879	5098
872.008	5208
872.138	5052
872.267	5003
872.397	4847
872.526	4820
872.656	4752
872.785	4793
872.915	4946
873.044	5006
873.173	4919
873.303	4892
873.432	4949
873.561	4938
873.69	4900
873.819	4847
873.948	4927
874.077	4839
874.206	4759
874.335	4843
874.464	4911
874.593	5045
874.722	5003
874.851	5086
874.979	5105
875.108	5075
875.237	4934
875.365	4908
875.494	4877
875.623	5010
875.751	4835
875.88	4908
876.008	4984
876.136	5056
876.265	5223
876.393	5330
876.521	5258
876.65	5261
876.778	5185
876.906	5132
877.034	5048
877.162	5041
877.29	5022
877.418	5090
877.546	5071
877.674	5045
877.802	5045
877.93	5102
878.058	4946
878.185	4870
878.313	4999
878.441	4930
878.568	4866
878.696	4911
878.824	5010
878.951	5045
879.079	5174
879.206	5326
879.333	5121
879.461	5003
879.588	5025
879.715	5136
879.842	5296
879.97	5018
880.097	4812
880.224	4759
880.351	4839
880.478	4862
880.605	4877
880.732	4858
880.859	5098
880.986	4961
881.112	4934
881.239	4847
881.366	4721
881.493	4675
881.619	4622
881.746	4717
881.872	4664
881.999	4736
882.125	4733
882.252	4778
882.378	4866
882.505	5029
882.631	4858
882.757	4744
882.883	4771
883.01	4763
883.136	4656
883.262	4607
883.388	4615
883.514	4866
883.64	4923
883.766	4858
883.892	4687
884.018	4774
884.143	4953
884.269	5048
884.395	4679
884.52	4626
884.646	4641
884.772	4634
884.897	4592
885.023	4672
885.148	4805
885.274	4847
885.399	4843
885.524	4763
885.65	4733
885.775	4767
885.9	4736
886.025	4938
886.15	4782
886.275	4759
886.4	4675
886.525	4752
886.65	4672
886.775	4733
886.9	4934
887.025	5010
887.149	4847
887.274	4706
887.399	4622
887.523	4588
887.648	4596
887.773	4611
887.897	4816
888.021	4824
888.146	4706
888.27	4801
888.395	4949
888.519	4793
888.643	4858
888.767	4797
888.891	4702
889.015	4599
889.139	4694
889.263	4596
889.387	4778
889.511	4927
889.635	4831
889.759	4683
889.883	4637
890.006	4740
890.13	4866
890.254	4675
890.377	4710
890.501	4550
890.624	4569
890.748	4679
890.871	4554
890.995	4489
891.118	4421
891.241	4561
891.364	4622
891.488	4645
891.611	4607
891.734	4535
891.857	4618
891.98	4622
892.103	4656
892.226	4649
892.349	4550
892.471	4428
892.594	4596
892.717	4615
892.839	4584
892.962	4618
893.085	4668
893.207	4588
893.33	4538
893.452	4550
893.575	4706
893.697	4622
893.819	4801
893.941	4881
894.064	4744
894.186	4615
894.308	4615
894.43	4782
894.552	4831
894.674	4771
894.796	4558
894.918	4637
895.04	4573
895.161	4755
895.283	4679
895.405	4618
895.526	4664
895.648	4729
895.769	4694
895.891	4744
896.012	4774
896.134	4774
896.255	4672
896.376	4656
896.498	4618
896.619	4717
896.74	4634
896.861	4675
896.982	4942
897.103	5117
897.224	4870
897.345	4774
897.466	4721
897.587	4748
897.708	4896
897.828	4771
897.949	4672
898.07	4599
898.19	4653
898.311	4850
898.431	4752
898.552	4740
898.672	4805
898.792	4801
898.913	4748
899.033	4675
899.153	4554
899.273	4493
899.393	4508
899.513	4531
899.633	4580
899.753	4577
899.873	4516
899.993	4637
900.113	4554
900.232	4641
900.352	4561
900.472	4497
900.591	4436
900.711	4531
900.83	4428
900.95	4641
901.069	4763
901.189	4588
901.308	4398
901.427	4367
901.546	4405
901.665	4493
901.784	4527
901.904	4455
902.023	4333
902.141	4234
902.26	4204
902.379	4318
902.498	4295
902.617	4265
902.735	4386
902.854	4417
902.973	4386
903.091	4265
903.21	4257
903.328	4356
903.446	4242
903.565	4287
903.683	4402
903.801	4268
903.919	4413
904.038	4485
904.156	4367
904.274	4474
904.392	4474
904.51	4455
904.627	4478
904.745	4599
904.863	4656
904.981	4440
905.098	4341
905.216	4352
905.334	4470
905.451	4508
905.569	4493
905.686	4603
905.803	4599
905.921	4459
906.038	4577
906.155	4527
906.272	4421
906.389	4451
906.506	4375
906.623	4462
906.74	4455
906.857	4314
906.974	4394
907.091	4592
907.208	4714
907.324	4615
907.441	4554
907.557	4402
907.674	4405
907.79	4379
907.907	4478
908.023	4535
908.139	4493
908.256	4466
908.372	4493
908.488	4493
908.604	4383
908.72	4348
908.836	4398
908.952	4398
909.068	4413
909.184	4603
909.3	4535
909.415	4615
909.531	4546
909.647	4367
909.762	4386
909.878	4402
909.993	4443
910.108	4424
910.224	4417
910.339	4523
910.454	4413
910.57	4367
910.685	4344
910.8	4698
910.915	4546
911.03	4504
911.145	4363
911.259	4360
911.374	4417
911.489	4329
911.604	4284
911.718	4158
911.833	4261
911.947	4131
912.062	4025
912.176	4230
912.291	4200
912.405	4261
912.519	4493
912.633	4535
912.748	4390
912.862	4371
912.976	4215
913.09	4093
913.204	4188
913.318	4314
913.431	4379
913.545	4375
913.659	4459
913.772	4360
913.886	4276
914	4299
914.113	4390
914.226	4470
914.34	4462
914.453	4287
914.566	4455
914.68	4314
914.793	4352
914.906	4169
915.019	4154
915.132	4074
915.245	4177
915.358	4242
915.47	4242
915.583	4291
915.696	4306
915.809	4417
915.921	4432
916.034	4306
916.146	4257
916.259	4238
916.371	4421
916.483	4329
916.595	4310
916.708	4386
916.82	4337
916.932	4371
917.044	4348
917.156	4322
917.268	4265
917.38	4337
917.491	4291
917.603	4390
917.715	4481
917.826	4485
917.938	4371
918.049	4200
918.161	4390
918.272	4516
918.384	4558
918.495	4447
918.606	4344
918.717	4215
918.828	4352
918.939	4409
919.05	4295
919.161	4314
919.272	4207
919.383	4249
919.494	4478
919.604	4717
919.715	4481
919.826	4310
919.936	4440
920.047	4542
920.157	4542
920.267	4691
920.378	4592
920.488	4535
920.598	4691
920.708	4866
920.818	4771
920.928	4752
921.038	4919
921.148	4938
921.258	4653
921.368	4573
921.477	4485
921.587	4519
921.697	4417
921.806	4569
921.916	4440
922.025	4280
922.134	4253
922.244	4253
922.353	4363
922.462	4219
922.571	4143
922.68	4021
922.789	4010
922.898	4112
923.007	4010
923.116	4116
923.224	4109
923.333	4112
923.442	4017
923.55	3975
923.659	4044
923.767	4105
923.876	4006
923.984	4120
924.092	4013
924.201	4074
924.309	4135
924.417	4139
924.525	4086
924.633	4112
924.741	4934
924.849	3934
924.956	4162
925.064	3994
925.172	3949
925.279	4040
925.387	4086
925.494	4071
925.602	4253
925.709	4253
925.816	4006
925.924	4139
926.031	4249
926.138	4200
926.245	4253
926.352	4055
926.459	4230
926.566	4341
926.673	4181
926.779	4143
926.886	4086
926.993	4002
927.099	3979
927.206	3937
927.312	3922
927.419	4093
927.525	4051
927.631	4120
927.737	3972
927.843	3953
927.95	3838
928.056	3987
928.162	3994
928.267	4063
928.373	4577
928.479	4078
928.585	3873
928.69	4082
928.796	4097
928.901	4051
929.007	3823
929.112	3998
929.218	3987
929.323	3964
929.428	3972
929.533	4071
929.638	3903
929.743	3972
929.848	4036
929.953	4010
930.058	3964
930.163	3793
930.267	3857
930.372	3998
930.477	3812
930.581	4150
930.685	3972
930.79	3842
930.894	3915
930.998	3846
931.103	4021
931.207	3747
931.311	3694
931.415	3644
931.519	3500
931.623	3591
