Data from test_V78500241_1499.txt Node
Date: Fri Mar 25 16:59:25 CST 2022
User: usil
Spectrometer: V785-0024
Trigger mode: 0
Integration Time (sec): 4.000000E-1
Scans to average: 1
Nonlinearity correction enabled: false
Boxcar width: 0
Storing dark spectrum: false
XAxis mode: Wavelengths
Number of Pixels in Spectrum: 1024
>>>>>Begin Spectral Data<<<<<
801.071	8020
801.214	7947
801.356	7856
801.499	7860
801.641	7750
801.783	7780
801.926	7917
802.068	7913
802.211	7951
802.353	8031
802.496	7784
802.638	7849
802.78	7883
802.923	7955
803.065	7879
803.208	7803
803.35	7921
803.492	8081
803.635	8138
803.777	8046
803.919	8107
804.061	8343
804.204	8202
804.346	8065
804.488	7993
804.63	8081
804.773	8050
804.915	8138
805.057	8225
805.199	8168
805.341	8153
805.483	8233
805.626	8206
805.768	8046
805.91	8199
806.052	8259
806.194	8069
806.336	8240
806.478	8092
806.62	8100
806.762	8092
806.904	8339
807.046	8423
807.188	8393
807.33	8366
807.472	8275
807.614	8142
807.756	8138
807.898	7963
808.04	7932
808.182	7936
808.324	7833
808.465	7944
808.607	8115
808.749	8073
808.891	8149
809.033	8294
809.174	8229
809.316	8024
809.458	8092
809.6	8012
809.741	8027
809.883	8024
810.025	8088
810.166	8069
810.308	8016
810.45	8005
810.591	7818
810.733	7731
810.875	7613
811.016	7559
811.158	7510
811.299	7510
811.441	7677
811.582	7662
811.724	7571
811.865	7502
812.007	7571
812.148	7578
812.29	7655
812.431	7761
812.573	7845
812.714	7951
812.855	8119
812.997	8134
813.138	8298
813.279	8229
813.421	8103
813.562	7982
813.703	7814
813.845	7715
813.986	7445
814.127	7209
814.268	7278
814.41	7183
814.551	7202
814.692	7206
814.833	7088
814.974	7072
815.115	7118
815.256	6947
815.397	6966
815.539	6947
815.68	6833
815.821	6745
815.962	6810
816.103	6806
816.244	6715
816.385	6654
816.526	6574
816.666	6471
816.807	6311
816.948	6452
817.089	6448
817.23	6407
817.371	6369
817.512	6403
817.653	6407
817.793	6308
817.934	6410
818.075	6448
818.216	6456
818.356	6388
818.497	6247
818.638	6110
818.778	6125
818.919	6136
819.06	6144
819.2	6285
819.341	6266
819.481	6346
819.622	6456
819.762	6673
819.903	6692
820.043	6589
820.184	6563
820.324	6585
820.465	6692
820.605	6684
820.746	6635
820.886	6528
821.026	6612
821.167	6658
821.307	6688
821.447	6764
821.588	6654
821.728	6593
821.868	6509
822.008	6292
822.149	6384
822.289	6311
822.429	6129
822.569	6121
822.709	6129
822.849	5882
822.99	5840
823.13	5961
823.27	5923
823.41	5760
823.55	5764
823.69	5760
823.83	5748
823.97	5596
824.11	5528
824.25	5509
824.389	5615
824.529	5581
824.669	5573
824.809	5665
824.949	5653
825.089	5611
825.228	5554
825.368	5383
825.508	5318
825.648	5330
825.787	5353
825.927	5360
826.067	5250
826.206	5258
826.346	5379
826.485	5349
826.625	5376
826.765	5490
826.904	5471
827.044	5261
827.183	5174
827.323	5105
827.462	5258
827.601	5147
827.741	5174
827.88	5246
828.02	5147
828.159	5208
828.298	5311
828.437	5406
828.577	5258
828.716	5532
828.855	5341
828.994	5159
829.134	5162
829.273	5208
829.412	5109
829.551	5128
829.69	5185
829.829	5231
829.968	5379
830.107	5258
830.246	5296
830.385	5151
830.524	5102
830.663	5075
830.802	4930
830.941	4892
831.08	4881
831.219	4991
831.357	4953
831.496	5128
831.635	4934
831.774	4873
831.913	4767
832.051	4714
832.19	4714
832.329	4870
832.467	4687
832.606	4645
832.744	4721
832.883	4679
833.022	4725
833.16	4790
833.299	4790
833.437	4831
833.576	4847
833.714	4824
833.852	4862
833.991	4873
834.129	4961
834.267	4938
834.406	4904
834.544	4965
834.682	4976
834.821	4968
834.959	5147
835.097	4961
835.235	5166
835.373	5052
835.511	5121
835.65	5010
835.788	5018
835.926	4923
836.064	4858
836.202	4957
836.34	5136
836.478	5189
836.615	5079
836.753	5208
836.891	5231
837.029	5220
837.167	5178
837.305	5189
837.443	5105
837.58	5098
837.718	5227
837.856	5181
837.993	5105
838.131	5216
838.269	5212
838.406	5201
838.544	5136
838.681	5041
838.819	4995
838.956	4873
839.094	4930
839.231	4961
839.369	5067
839.506	5452
839.643	5296
839.781	5041
839.918	4968
840.055	5090
840.193	5045
840.33	5102
840.467	5117
840.604	5162
840.742	5440
840.879	5075
841.016	5086
841.153	5181
841.29	5337
841.427	5296
841.564	5326
841.701	5322
841.838	5296
841.975	5204
842.112	5280
842.249	5121
842.385	5090
842.522	5307
842.659	5132
842.796	5124
842.933	5197
843.069	5136
843.206	5162
843.343	5292
843.479	5239
843.616	5220
843.752	5045
843.889	5003
844.025	5181
844.162	5003
844.298	5174
844.435	5113
844.571	5041
844.708	5136
844.844	5254
844.98	5330
845.117	5280
845.253	5121
845.389	5018
845.525	5143
845.661	5121
845.798	5041
845.934	5124
846.07	5022
846.206	5181
846.342	5322
846.478	5197
846.614	4984
846.75	4995
846.886	4946
847.022	5151
847.158	5010
847.294	5075
847.429	5071
847.565	4991
847.701	5197
847.837	4843
847.972	4812
848.108	4923
848.244	4930
848.379	4790
848.515	4755
848.65	4736
848.786	4710
848.921	4767
849.057	4862
849.192	4877
849.328	4824
849.463	4843
849.598	4771
849.734	4729
849.869	4706
850.004	4641
850.14	4641
850.275	4622
850.41	4519
850.545	4512
850.68	4615
850.815	4626
850.95	4607
851.085	4835
851.22	4748
851.355	4649
851.49	4596
851.625	4580
851.76	4702
851.895	4584
852.03	4565
852.165	4641
852.299	4679
852.434	4763
852.569	4717
852.703	4797
852.838	4866
852.973	4892
853.107	4900
853.242	4752
853.376	4611
853.511	4577
853.645	4603
853.78	4752
853.914	4687
854.048	4634
854.183	4641
854.317	4721
854.451	4835
854.585	4694
854.72	4664
854.854	4717
854.988	4630
855.122	4618
855.256	4558
855.39	4611
855.524	4748
855.658	4687
855.792	4656
855.926	4736
856.06	4710
856.194	4790
856.327	4706
856.461	4626
856.595	4645
856.729	4645
856.862	4740
856.996	4691
857.13	4702
857.263	4714
857.397	4820
857.53	4622
857.664	4698
857.797	4740
857.931	4744
858.064	4736
858.197	4740
858.331	4603
858.464	4599
858.597	4527
858.731	4618
858.864	4637
858.997	4569
859.13	4626
859.263	4641
859.396	4733
859.529	4588
859.662	4550
859.795	4542
859.928	4615
860.061	4740
860.194	4752
860.327	4611
860.46	4580
860.592	4725
860.725	4702
860.858	4694
860.99	4565
861.123	4489
861.256	4527
861.388	4615
861.521	5322
861.653	4462
861.786	4405
861.918	4485
862.05	4508
862.183	4550
862.315	4626
862.447	4634
862.58	4561
862.712	4421
862.844	4325
862.976	4470
863.108	4424
863.24	4771
863.372	4333
863.504	4398
863.636	4386
863.768	4459
863.9	4432
864.032	4371
864.164	4436
864.296	4455
864.428	4523
864.559	4519
864.691	4542
864.823	4542
864.954	4485
865.086	4466
865.217	4470
865.349	4390
865.48	4447
865.612	4455
865.743	4577
865.875	4455
866.006	4474
866.137	4459
866.269	4459
866.4	4398
866.531	4432
866.662	4409
866.793	4375
866.924	4402
867.055	4523
867.186	4478
867.317	4409
867.448	4367
867.579	4360
867.71	4329
867.841	4398
867.972	4443
868.103	4424
868.233	4443
868.364	4428
868.495	4504
868.625	4653
868.756	4714
868.886	4603
869.017	4630
869.147	4786
869.278	4694
869.408	4653
869.539	4622
869.669	4725
869.799	4637
869.929	4736
870.06	4721
870.19	4915
870.32	4892
870.45	4927
870.58	5037
870.71	5105
870.84	5105
870.97	4904
871.1	4923
871.23	5174
871.36	5143
871.489	4984
871.619	5037
871.749	5060
871.879	5128
872.008	5166
872.138	5045
872.267	4938
872.397	4843
872.526	4782
872.656	4694
872.785	4816
872.915	4930
873.044	5037
873.173	4896
873.303	4976
873.432	4972
873.561	4961
873.69	4881
873.819	4835
873.948	4915
874.077	4812
874.206	4774
874.335	4786
874.464	4915
874.593	5075
874.722	4972
874.851	5105
874.979	5022
875.108	5014
875.237	4938
875.365	4866
875.494	4862
875.623	4953
875.751	4824
875.88	4854
876.008	4949
876.136	5022
876.265	5159
876.393	5303
876.521	5235
876.65	5220
876.778	5113
876.906	5105
877.034	5041
877.162	4976
877.29	4923
877.418	4991
877.546	4995
877.674	5037
877.802	5014
877.93	4946
878.058	4953
878.185	4881
878.313	4968
878.441	4999
878.568	4759
878.696	4889
878.824	4999
878.951	4991
879.079	5075
879.206	5303
879.333	5124
879.461	4961
879.588	5006
879.715	5075
879.842	5193
879.97	4991
880.097	4782
880.224	4790
880.351	4816
880.478	4801
880.605	4786
880.732	4740
880.859	5102
880.986	4915
881.112	4930
881.239	4748
881.366	4649
881.493	4588
881.619	4630
881.746	4626
881.872	4626
881.999	4649
882.125	4645
882.252	4767
882.378	4797
882.505	4934
882.631	4793
882.757	4634
882.883	4729
883.01	4733
883.136	4721
883.262	4558
883.388	4641
883.514	4790
883.64	4850
883.766	4740
883.892	4679
884.018	4748
884.143	4870
884.269	4976
884.395	4656
884.52	4649
884.646	4611
884.772	4577
884.897	4577
885.023	4607
885.148	4782
885.274	4858
885.399	4797
885.524	4721
885.65	4668
885.775	4744
885.9	4714
886.025	4885
886.15	4778
886.275	4698
886.4	4641
886.525	4714
886.65	4725
886.775	4664
886.9	4930
887.025	5029
887.149	4801
887.274	4634
887.399	4580
887.523	4554
887.648	4531
887.773	4573
887.897	4771
888.021	4771
888.146	4706
888.27	4786
888.395	4858
888.519	4782
888.643	4793
888.767	4828
888.891	4630
889.015	4580
889.139	4687
889.263	4611
889.387	4755
889.511	4915
889.635	4786
889.759	4656
889.883	4672
890.006	4687
890.13	4828
890.254	4622
890.377	4698
890.501	4519
890.624	4550
890.748	4622
890.871	4493
890.995	4451
891.118	4360
891.241	4542
891.364	4535
891.488	4626
891.611	4527
891.734	4550
891.857	4603
891.98	4516
892.103	4634
892.226	4535
892.349	4577
892.471	4466
892.594	4550
892.717	4523
892.839	4577
892.962	4611
893.085	4660
893.207	4569
893.33	4447
893.452	4512
893.575	4672
893.697	4550
893.819	4805
893.941	4812
894.064	4740
894.186	4580
894.308	4618
894.43	4755
894.552	4847
894.674	4744
894.796	4569
894.918	4592
895.04	4523
895.161	4691
895.283	4672
895.405	4592
895.526	4592
895.648	4683
895.769	4660
895.891	4714
896.012	4767
896.134	4748
896.255	4702
896.376	4607
896.498	4569
896.619	4717
896.74	4611
896.861	4679
896.982	4911
897.103	5102
897.224	4793
897.345	4740
897.466	4687
897.587	4698
897.708	4839
897.828	4774
897.949	4672
898.07	4569
898.19	4634
898.311	4816
898.431	4649
898.552	4733
898.672	4801
898.792	4717
898.913	4714
899.033	4634
899.153	4500
899.273	4398
899.393	4519
899.513	4531
899.633	4527
899.753	4489
899.873	4516
899.993	4554
900.113	4538
900.232	4580
900.352	4542
900.472	4455
900.591	4424
900.711	4481
900.83	4500
900.95	4645
901.069	4675
901.189	4580
901.308	4322
901.427	4329
901.546	4363
901.665	4485
901.784	4500
901.904	4371
902.023	4325
902.141	4200
902.26	4120
902.379	4276
902.498	4242
902.617	4188
902.735	4352
902.854	4405
902.973	4367
903.091	4207
903.21	4238
903.328	4257
903.446	4272
903.565	4265
903.683	4390
903.801	4253
903.919	4386
904.038	4432
904.156	4325
904.274	4466
904.392	4367
904.51	4421
904.627	4485
904.745	4538
904.863	4603
904.981	4367
905.098	4344
905.216	4371
905.334	4405
905.451	4413
905.569	4390
905.686	4550
905.803	4542
905.921	4405
906.038	4519
906.155	4451
906.272	4409
906.389	4462
906.506	4337
906.623	4383
906.74	4333
906.857	4318
906.974	4325
907.091	4565
907.208	4653
907.324	4546
907.441	4474
907.557	4341
907.674	4333
907.79	4299
907.907	4360
908.023	4451
908.139	4478
908.256	4436
908.372	4459
908.488	4459
908.604	4303
908.72	4341
908.836	4398
908.952	4356
909.068	4428
909.184	4558
909.3	4474
909.415	4561
909.531	4523
909.647	4363
909.762	4322
909.878	4367
909.993	4390
910.108	4348
910.224	4402
910.339	4462
910.454	4417
910.57	4367
910.685	4318
910.8	4664
910.915	4527
911.03	4523
911.145	4348
911.259	4306
911.374	4386
911.489	4303
911.604	4310
911.718	4124
911.833	4204
911.947	4067
912.062	4006
912.176	4177
912.291	4253
912.405	4268
912.519	4405
912.633	4519
912.748	4367
912.862	4344
912.976	4253
913.09	4071
913.204	4211
913.318	4238
913.431	4379
913.545	4367
913.659	4424
913.772	4413
913.886	4291
914	4166
914.113	4371
914.226	4363
914.34	4386
914.453	4230
914.566	4409
914.68	4322
914.793	4333
914.906	4143
915.019	4128
915.132	4067
915.245	4166
915.358	4230
915.47	4242
915.583	4227
915.696	4257
915.809	4402
915.921	4421
916.034	4268
916.146	4257
916.259	4238
916.371	4409
916.483	4314
916.595	4230
916.708	4344
916.82	4287
916.932	4325
917.044	4329
917.156	4344
917.268	4227
917.38	4284
917.491	4257
917.603	4341
917.715	4451
917.826	4432
917.938	4325
918.049	4265
918.161	4405
918.272	4538
918.384	4508
918.495	4421
918.606	4257
918.717	4238
918.828	4333
918.939	4367
919.05	4223
919.161	4284
919.272	4116
919.383	4234
919.494	4455
919.604	4618
919.715	4424
919.826	4306
919.936	4459
920.047	4481
920.157	4451
920.267	4691
920.378	4478
920.488	4550
920.598	4706
920.708	4900
920.818	4710
920.928	4752
921.038	4942
921.148	4877
921.258	4599
921.368	4561
921.477	4489
921.587	4451
921.697	4383
921.806	4519
921.916	4417
922.025	4223
922.134	4242
922.244	4211
922.353	4329
922.462	4131
922.571	4154
922.68	3998
922.789	3975
922.898	4032
923.007	3956
923.116	4093
923.224	4010
923.333	4048
923.442	4002
923.55	3956
923.659	4051
923.767	4040
923.876	3983
923.984	4105
924.092	3960
924.201	4082
924.309	4093
924.417	4078
924.525	4078
924.633	4097
924.741	4870
924.849	3899
924.956	4147
925.064	3953
925.172	3873
925.279	3945
925.387	4067
925.494	3991
925.602	4219
925.709	4143
925.816	4006
925.924	4131
926.031	4200
926.138	4169
926.245	4204
926.352	4112
926.459	4207
926.566	4299
926.673	4131
926.779	4093
926.886	4109
926.993	3983
927.099	3930
927.206	3937
927.312	3979
927.419	4063
927.525	3953
927.631	4071
927.737	3926
927.843	3915
927.95	3861
928.056	3941
928.162	3930
928.267	4067
928.373	4577
928.479	4101
928.585	3892
928.69	4006
928.796	4086
928.901	3941
929.007	3850
929.112	4029
929.218	3975
929.323	3964
929.428	3896
929.533	4090
929.638	3899
929.743	3968
929.848	4013
929.953	3964
930.058	3972
930.163	3812
930.267	3827
930.372	3964
930.477	3797
930.581	4074
930.685	3937
930.79	3827
930.894	3865
930.998	3869
931.103	3983
931.207	3713
931.311	3690
931.415	3663
931.519	3511
931.623	3580
