Data from test_V78500241_22.txt Node
Date: Fri Mar 25 16:49:09 CST 2022
User: usil
Spectrometer: V785-0024
Trigger mode: 0
Integration Time (sec): 4.000000E-1
Scans to average: 1
Nonlinearity correction enabled: false
Boxcar width: 0
Storing dark spectrum: false
XAxis mode: Wavelengths
Number of Pixels in Spectrum: 1024
>>>>>Begin Spectral Data<<<<<
801.071	8081
801.214	8123
801.356	8043
801.499	7944
801.641	7879
801.783	7898
801.926	8065
802.068	8001
802.211	8027
802.353	8138
802.496	7974
802.638	7989
802.78	7974
802.923	8005
803.065	7868
803.208	7902
803.35	8008
803.492	8157
803.635	8142
803.777	8050
803.919	8176
804.061	8438
804.204	8107
804.346	8103
804.488	8008
804.63	8134
804.773	8065
804.915	8096
805.057	8286
805.199	8161
805.341	8237
805.483	8336
805.626	8244
805.768	8252
805.91	8225
806.052	8225
806.194	8119
806.336	8259
806.478	8191
806.62	8111
806.762	8153
806.904	8248
807.046	8457
807.188	8442
807.33	8332
807.472	8328
807.614	8172
807.756	8115
807.898	8008
808.04	7902
808.182	7978
808.324	7974
808.465	7959
808.607	8103
808.749	8134
808.891	8176
809.033	8282
809.174	8183
809.316	8054
809.458	8058
809.6	7982
809.741	8058
809.883	8008
810.025	8081
810.166	8107
810.308	8111
810.45	8046
810.591	7936
810.733	7776
810.875	7712
811.016	7605
811.158	7521
811.299	7677
811.441	7780
811.582	7814
811.724	7624
811.865	7590
812.007	7605
812.148	7628
812.29	7696
812.431	7765
812.573	7936
812.714	8020
812.855	8096
812.997	8244
813.138	8317
813.279	8221
813.421	8180
813.562	8065
813.703	7925
813.845	7833
813.986	7537
814.127	7263
814.268	7266
814.41	7236
814.551	7175
814.692	7251
814.833	7095
814.974	7194
815.115	7133
815.256	6958
815.397	6962
815.539	6958
815.68	6875
815.821	6768
815.962	6928
816.103	6901
816.244	6818
816.385	6650
816.526	6635
816.666	6525
816.807	6388
816.948	6456
817.089	6460
817.23	6494
817.371	6429
817.512	6441
817.653	6498
817.793	6399
817.934	6448
818.075	6429
818.216	6467
818.356	6452
818.497	6315
818.638	6144
818.778	6175
818.919	6190
819.06	6182
819.2	6407
819.341	6285
819.481	6445
819.622	6620
819.762	6734
819.903	6741
820.043	6669
820.184	6673
820.324	6582
820.465	6734
820.605	6753
820.746	6772
820.886	6623
821.026	6700
821.167	6779
821.307	6779
821.447	6779
821.588	6776
821.728	6631
821.868	6566
822.008	6361
822.149	6395
822.289	6388
822.429	6209
822.569	6102
822.709	6136
822.849	6034
822.99	5950
823.13	5984
823.27	5977
823.41	5863
823.55	5832
823.69	5844
823.83	5870
823.97	5726
824.11	5604
824.25	5604
824.389	5619
824.529	5718
824.669	5619
824.809	5630
824.949	5756
825.089	5680
825.228	5608
825.368	5497
825.508	5421
825.648	5478
825.787	5471
825.927	5490
826.067	5376
826.206	5364
826.346	5471
826.485	5467
826.625	5497
826.765	5581
826.904	5577
827.044	5372
827.183	5322
827.323	5143
827.462	5357
827.601	5288
827.741	5277
827.88	5303
828.02	5193
828.159	5292
828.298	5391
828.437	5516
828.577	5417
828.716	5589
828.855	5387
828.994	5246
829.134	5227
829.273	5254
829.412	5231
829.551	5201
829.69	5273
829.829	5303
829.968	5444
830.107	5410
830.246	5368
830.385	5250
830.524	5242
830.663	5140
830.802	5060
830.941	4987
831.08	4942
831.219	5075
831.357	5056
831.496	5231
831.635	4991
831.774	4957
831.913	4896
832.051	4778
832.19	4847
832.329	4934
832.467	4721
832.606	4717
832.744	4820
832.883	4847
833.022	4755
833.16	4892
833.299	4919
833.437	4961
833.576	4911
833.714	4953
833.852	4927
833.991	4965
834.129	5003
834.267	5022
834.406	4980
834.544	5102
834.682	5105
834.821	5045
834.959	5273
835.097	5029
835.235	5220
835.373	5147
835.511	5166
835.65	5132
835.788	5132
835.926	4957
836.064	4896
836.202	4965
836.34	5227
836.478	5334
836.615	5174
836.753	5288
836.891	5341
837.029	5326
837.167	5254
837.305	5258
837.443	5201
837.58	5162
837.718	5322
837.856	5250
837.993	5265
838.131	5277
838.269	5239
838.406	5311
838.544	5265
838.681	5117
838.819	5109
838.956	5029
839.094	4987
839.231	5075
839.369	5178
839.506	5471
839.643	5303
839.781	5136
839.918	5064
840.055	5189
840.193	5155
840.33	5239
840.467	5261
840.604	5239
840.742	5493
840.879	5197
841.016	5170
841.153	5208
841.29	5459
841.427	5398
841.564	5406
841.701	5452
841.838	5345
841.975	5315
842.112	5349
842.249	5170
842.385	5193
842.522	5406
842.659	5246
842.796	5258
842.933	5261
843.069	5227
843.206	5216
843.343	5402
843.479	5349
843.616	5334
843.752	5151
843.889	5086
844.025	5326
844.162	5124
844.298	5273
844.435	5105
844.571	5147
844.708	5299
844.844	5387
844.98	5414
845.117	5307
845.253	5178
845.389	5166
845.525	5250
845.661	5231
845.798	5121
845.934	5239
846.07	5174
846.206	5265
846.342	5330
846.478	5204
846.614	5143
846.75	5041
846.886	5014
847.022	5201
847.158	5109
847.294	5151
847.429	5143
847.565	5132
847.701	5402
847.837	4927
847.972	4858
848.108	5056
848.244	4972
848.379	4843
848.515	4809
848.65	4782
848.786	4809
848.921	4824
849.057	4961
849.192	4953
849.328	4923
849.463	4915
849.598	4866
849.734	4812
849.869	4820
850.004	4672
850.14	4790
850.275	4691
850.41	4596
850.545	4637
850.68	4660
850.815	4702
850.95	4706
851.085	4953
851.22	4835
851.355	4687
851.49	4702
851.625	4672
851.76	4714
851.895	4611
852.03	4611
852.165	4755
852.299	4805
852.434	4892
852.569	4831
852.703	4831
852.838	4961
852.973	4987
853.107	4987
853.242	4843
853.376	4767
853.511	4630
853.645	4675
853.78	4881
853.914	4809
854.048	4763
854.183	4706
854.317	4831
854.451	4934
854.585	4752
854.72	4733
854.854	4793
854.988	4645
855.122	4744
855.256	4558
855.39	4714
855.524	4870
855.658	4835
855.792	4752
855.926	4759
856.06	4866
856.194	4919
856.327	4755
856.461	4672
856.595	4668
856.729	4733
856.862	4809
856.996	4729
857.13	4809
857.263	4831
857.397	4870
857.53	4740
857.664	4767
857.797	4866
857.931	4816
858.064	4755
858.197	4793
858.331	4771
858.464	4717
858.597	4580
858.731	4687
858.864	4729
858.997	4672
859.13	4744
859.263	4717
859.396	4740
859.529	4637
859.662	4615
859.795	4577
859.928	4702
860.061	4862
860.194	4828
860.327	4660
860.46	4698
860.592	4805
860.725	4786
860.858	4797
860.99	4645
861.123	4607
861.256	4660
861.388	4672
861.521	5535
861.653	4546
861.786	4546
861.918	4466
862.05	4554
862.183	4603
862.315	4668
862.447	4702
862.58	4599
862.712	4470
862.844	4402
862.976	4542
863.108	4531
863.24	4949
863.372	4417
863.504	4459
863.636	4440
863.768	4592
863.9	4504
864.032	4405
864.164	4481
864.296	4641
864.428	4607
864.559	4653
864.691	4615
864.823	4637
864.954	4558
865.086	4550
865.217	4542
865.349	4485
865.48	4542
865.612	4565
865.743	4714
865.875	4558
866.006	4527
866.137	4584
866.269	4527
866.4	4523
866.531	4462
866.662	4459
866.793	4443
866.924	4466
867.055	4577
867.186	4519
867.317	4478
867.448	4466
867.579	4436
867.71	4440
867.841	4455
867.972	4558
868.103	4558
868.233	4531
868.364	4523
868.495	4558
868.625	4740
868.756	4805
868.886	4645
869.017	4698
869.147	4828
869.278	4820
869.408	4793
869.539	4759
869.669	4831
869.799	4672
869.929	4778
870.06	4854
870.19	5064
870.32	4991
870.45	4976
870.58	5147
870.71	5121
870.84	5162
870.97	5010
871.1	4976
871.23	5242
871.36	5246
871.489	5105
871.619	5132
871.749	5181
871.879	5197
872.008	5284
872.138	5086
872.267	5029
872.397	4961
872.526	4892
872.656	4805
872.785	4877
872.915	4999
873.044	5090
873.173	4965
873.303	5075
873.432	5045
873.561	4987
873.69	4953
873.819	4938
873.948	4946
874.077	4873
874.206	4835
874.335	4828
874.464	5048
874.593	5121
874.722	5033
874.851	5136
874.979	5102
875.108	5124
875.237	4976
875.365	4968
875.494	4961
875.623	5071
875.751	4919
875.88	4976
876.008	5037
876.136	5094
876.265	5239
876.393	5391
876.521	5349
876.65	5292
876.778	5197
876.906	5140
877.034	5086
877.162	5121
877.29	5056
877.418	5075
877.546	5086
877.674	5159
877.802	5079
877.93	5048
878.058	5018
878.185	4927
878.313	4995
878.441	5052
878.568	4877
878.696	4915
878.824	5037
878.951	5075
879.079	5170
879.206	5307
879.333	5181
879.461	5090
879.588	5048
879.715	5159
879.842	5307
879.97	5071
880.097	4847
880.224	4786
880.351	4835
880.478	4839
880.605	4870
880.732	4831
880.859	5189
880.986	4987
881.112	5010
881.239	4881
881.366	4763
881.493	4637
881.619	4672
881.746	4691
881.872	4675
881.999	4694
882.125	4763
882.252	4839
882.378	4919
882.505	5022
882.631	4889
882.757	4763
882.883	4782
883.01	4805
883.136	4706
883.262	4660
883.388	4668
883.514	4877
883.64	4923
883.766	4866
883.892	4702
884.018	4809
884.143	4911
884.269	5048
884.395	4774
884.52	4744
884.646	4675
884.772	4656
884.897	4584
885.023	4759
885.148	4816
885.274	4919
885.399	4904
885.524	4824
885.65	4755
885.775	4866
885.9	4805
886.025	4919
886.15	4877
886.275	4816
886.4	4698
886.525	4767
886.65	4740
886.775	4755
886.9	4957
887.025	5083
887.149	4816
887.274	4717
887.399	4683
887.523	4702
887.648	4588
887.773	4653
887.897	4786
888.021	4866
888.146	4771
888.27	4900
888.395	4957
888.519	4896
888.643	4885
888.767	4904
888.891	4714
889.015	4721
889.139	4706
889.263	4630
889.387	4793
889.511	4930
889.635	4892
889.759	4717
889.883	4694
890.006	4801
890.13	4843
890.254	4660
890.377	4774
890.501	4584
890.624	4577
890.748	4706
890.871	4611
890.995	4504
891.118	4481
891.241	4607
891.364	4592
891.488	4691
891.611	4580
891.734	4607
891.857	4683
891.98	4626
892.103	4736
892.226	4618
892.349	4603
892.471	4436
892.594	4611
892.717	4645
892.839	4653
892.962	4672
893.085	4733
893.207	4637
893.33	4523
893.452	4550
893.575	4736
893.697	4660
893.819	4854
893.941	4881
894.064	4786
894.186	4622
894.308	4664
894.43	4767
894.552	4896
894.674	4820
894.796	4637
894.918	4641
895.04	4637
895.161	4740
895.283	4675
895.405	4637
895.526	4675
895.648	4778
895.769	4717
895.891	4801
896.012	4801
896.134	4782
896.255	4729
896.376	4664
896.498	4694
896.619	4702
896.74	4679
896.861	4763
896.982	5006
897.103	5143
897.224	4870
897.345	4793
897.466	4748
897.587	4831
897.708	4896
897.828	4839
897.949	4755
898.07	4607
898.19	4702
898.311	4885
898.431	4755
898.552	4748
898.672	4877
898.792	4835
898.913	4797
899.033	4683
899.153	4569
899.273	4493
899.393	4516
899.513	4580
899.633	4588
899.753	4611
899.873	4607
899.993	4691
900.113	4584
900.232	4637
900.352	4592
900.472	4542
900.591	4455
900.711	4561
900.83	4512
900.95	4645
901.069	4755
901.189	4588
901.308	4405
901.427	4394
901.546	4417
901.665	4535
901.784	4519
901.904	4447
902.023	4386
902.141	4276
902.26	4219
902.379	4409
902.498	4284
902.617	4272
902.735	4436
902.854	4474
902.973	4432
903.091	4261
903.21	4287
903.328	4337
903.446	4360
903.565	4291
903.683	4386
903.801	4295
903.919	4421
904.038	4523
904.156	4348
904.274	4500
904.392	4440
904.51	4489
904.627	4519
904.745	4580
904.863	4679
904.981	4428
905.098	4352
905.216	4405
905.334	4497
905.451	4451
905.569	4519
905.686	4626
905.803	4603
905.921	4519
906.038	4592
906.155	4584
906.272	4500
906.389	4512
906.506	4447
906.623	4417
906.74	4485
906.857	4360
906.974	4440
907.091	4618
907.208	4729
907.324	4637
907.441	4508
907.557	4424
907.674	4428
907.79	4360
907.907	4432
908.023	4531
908.139	4546
908.256	4489
908.372	4569
908.488	4474
908.604	4383
908.72	4379
908.836	4409
908.952	4413
909.068	4470
909.184	4607
909.3	4561
909.415	4630
909.531	4596
909.647	4375
909.762	4443
909.878	4390
909.993	4470
910.108	4485
910.224	4478
910.339	4531
910.454	4440
910.57	4417
910.685	4371
910.8	4675
910.915	4645
911.03	4497
911.145	4432
911.259	4371
911.374	4398
911.489	4329
911.604	4409
911.718	4234
911.833	4219
911.947	4154
912.062	4029
912.176	4253
912.291	4276
912.405	4268
912.519	4523
912.633	4523
912.748	4383
912.862	4318
912.976	4268
913.09	4169
913.204	4238
913.318	4310
913.431	4436
913.545	4417
913.659	4459
913.772	4432
913.886	4352
914	4276
914.113	4413
914.226	4447
914.34	4455
914.453	4295
914.566	4462
914.68	4360
914.793	4405
914.906	4227
915.019	4169
915.132	4158
915.245	4223
915.358	4249
915.47	4333
915.583	4356
915.696	4333
915.809	4405
915.921	4428
916.034	4280
916.146	4261
916.259	4276
916.371	4432
916.483	4409
916.595	4325
916.708	4360
916.82	4405
916.932	4402
917.044	4394
917.156	4398
917.268	4257
917.38	4299
917.491	4314
917.603	4344
917.715	4489
917.826	4432
917.938	4428
918.049	4367
918.161	4447
918.272	4569
918.384	4558
918.495	4485
918.606	4371
918.717	4303
918.828	4360
918.939	4413
919.05	4322
919.161	4344
919.272	4173
919.383	4268
919.494	4455
919.604	4675
919.715	4455
919.826	4402
919.936	4421
920.047	4546
920.157	4558
920.267	4759
920.378	4596
920.488	4580
920.598	4774
920.708	4957
920.818	4793
920.928	4748
921.038	5033
921.148	4961
921.258	4717
921.368	4630
921.477	4550
921.587	4481
921.697	4402
921.806	4573
921.916	4447
922.025	4325
922.134	4318
922.244	4246
922.353	4344
922.462	4188
922.571	4154
922.68	4051
922.789	4017
922.898	4082
923.007	3987
923.116	4162
923.224	4101
923.333	4177
923.442	4074
923.55	4051
923.659	4059
923.767	4139
923.876	4055
923.984	4158
924.092	4025
924.201	4120
924.309	4097
924.417	4154
924.525	4131
924.633	4128
924.741	5079
924.849	3964
924.956	4185
925.064	4006
925.172	3934
925.279	3956
925.387	4074
925.494	4067
925.602	4253
925.709	4207
925.816	4090
925.924	4154
926.031	4253
926.138	4185
926.245	4219
926.352	4116
926.459	4249
926.566	4371
926.673	4215
926.779	4116
926.886	4131
926.993	4025
927.099	3998
927.206	4032
927.312	3983
927.419	4086
927.525	4105
927.631	4116
927.737	4013
927.843	3941
927.95	3918
928.056	3983
928.162	4036
928.267	4124
928.373	4752
928.479	4147
928.585	3911
928.69	4086
928.796	4124
928.901	4044
929.007	3884
929.112	4025
929.218	4017
929.323	4017
929.428	3991
929.533	4158
929.638	3991
929.743	3979
929.848	4112
929.953	4006
930.058	3994
930.163	3789
930.267	3888
930.372	4048
930.477	3846
930.581	4143
930.685	3991
930.79	3842
930.894	3922
930.998	3903
931.103	4025
931.207	3766
931.311	3743
931.415	3732
931.519	3568
931.623	3530
