Data from test_V78500241_1465.txt Node
Date: Fri Mar 25 16:59:11 CST 2022
User: usil
Spectrometer: V785-0024
Trigger mode: 0
Integration Time (sec): 4.000000E-1
Scans to average: 1
Nonlinearity correction enabled: false
Boxcar width: 0
Storing dark spectrum: false
XAxis mode: Wavelengths
Number of Pixels in Spectrum: 1024
>>>>>Begin Spectral Data<<<<<
801.071	8035
801.214	7974
801.356	7928
801.499	7875
801.641	7712
801.783	7784
801.926	7970
802.068	7932
802.211	7959
802.353	7997
802.496	7788
802.638	7795
802.78	7932
802.923	7894
803.065	7925
803.208	7822
803.35	8001
803.492	8126
803.635	8107
803.777	7951
803.919	8142
804.061	8484
804.204	8149
804.346	8081
804.488	7940
804.63	8103
804.773	8058
804.915	8077
805.057	8343
805.199	8199
805.341	8191
805.483	8275
805.626	8111
805.768	8054
805.91	8195
806.052	8233
806.194	8103
806.336	8355
806.478	8050
806.62	8024
806.762	8096
806.904	8271
807.046	8438
807.188	8328
807.33	8332
807.472	8286
807.614	8111
807.756	8172
807.898	7970
808.04	7856
808.182	7856
808.324	7837
808.465	7932
808.607	8119
808.749	8153
808.891	8142
809.033	8290
809.174	8202
809.316	8024
809.458	8020
809.6	7974
809.741	8005
809.883	7986
810.025	8054
810.166	8027
810.308	8039
810.45	7959
810.591	7852
810.733	7795
810.875	7590
811.016	7552
811.158	7457
811.299	7643
811.441	7689
811.582	7723
811.724	7605
811.865	7506
812.007	7597
812.148	7571
812.29	7620
812.431	7807
812.573	7887
812.714	7982
812.855	8111
812.997	8145
813.138	8240
813.279	8233
813.421	8043
813.562	7997
813.703	7868
813.845	7674
813.986	7403
814.127	7266
814.268	7217
814.41	7213
814.551	7122
814.692	7202
814.833	7061
814.974	7076
815.115	7141
815.256	6943
815.397	6905
815.539	7008
815.68	6871
815.821	6722
815.962	6871
816.103	6791
816.244	6734
816.385	6669
816.526	6578
816.666	6460
816.807	6273
816.948	6433
817.089	6407
817.23	6388
817.371	6369
817.512	6433
817.653	6388
817.793	6338
817.934	6410
818.075	6369
818.216	6361
818.356	6365
818.497	6235
818.638	6106
818.778	6106
818.919	6159
819.06	6144
819.2	6331
819.341	6296
819.481	6338
819.622	6486
819.762	6787
819.903	6650
820.043	6570
820.184	6563
820.324	6620
820.465	6703
820.605	6719
820.746	6654
820.886	6521
821.026	6616
821.167	6669
821.307	6798
821.447	6764
821.588	6692
821.728	6582
821.868	6441
822.008	6346
822.149	6384
822.289	6327
822.429	6182
822.569	6102
822.709	6049
822.849	5927
822.99	5832
823.13	5878
823.27	5901
823.41	5741
823.55	5805
823.69	5767
823.83	5775
823.97	5661
824.11	5497
824.25	5486
824.389	5512
824.529	5581
824.669	5520
824.809	5676
824.949	5649
825.089	5638
825.228	5566
825.368	5452
825.508	5326
825.648	5402
825.787	5395
825.927	5334
826.067	5311
826.206	5307
826.346	5395
826.485	5444
826.625	5414
826.765	5596
826.904	5471
827.044	5231
827.183	5246
827.323	5181
827.462	5288
827.601	5235
827.741	5216
827.88	5242
828.02	5181
828.159	5261
828.298	5326
828.437	5406
828.577	5322
828.716	5554
828.855	5334
828.994	5189
829.134	5098
829.273	5223
829.412	5174
829.551	5174
829.69	5189
829.829	5277
829.968	5406
830.107	5284
830.246	5288
830.385	5189
830.524	5193
830.663	5086
830.802	5025
830.941	4915
831.08	4896
831.219	5022
831.357	5033
831.496	5159
831.635	4987
831.774	4911
831.913	4862
832.051	4759
832.19	4763
832.329	4870
832.467	4725
832.606	4683
832.744	4736
832.883	4812
833.022	4755
833.16	4793
833.299	4828
833.437	4858
833.576	4824
833.714	4889
833.852	4908
833.991	4938
834.129	5014
834.267	4961
834.406	4930
834.544	5037
834.682	5006
834.821	4980
834.959	5143
835.097	4987
835.235	5140
835.373	5121
835.511	5117
835.65	5071
835.788	5090
835.926	4942
836.064	4915
836.202	4927
836.34	5216
836.478	5258
836.615	5197
836.753	5250
836.891	5303
837.029	5280
837.167	5216
837.305	5212
837.443	5178
837.58	5109
837.718	5288
837.856	5189
837.993	5220
838.131	5261
838.269	5250
838.406	5292
838.544	5208
838.681	5102
838.819	5045
838.956	4881
839.094	4949
839.231	4991
839.369	5113
839.506	5417
839.643	5307
839.781	5098
839.918	5022
840.055	5071
840.193	5102
840.33	5140
840.467	5185
840.604	5216
840.742	5486
840.879	5098
841.016	5109
841.153	5227
841.29	5395
841.427	5318
841.564	5383
841.701	5421
841.838	5299
841.975	5265
842.112	5326
842.249	5178
842.385	5117
842.522	5345
842.659	5166
842.796	5197
842.933	5216
843.069	5185
843.206	5166
843.343	5315
843.479	5284
843.616	5303
843.752	5098
843.889	5029
844.025	5235
844.162	5025
844.298	5193
844.435	5132
844.571	5079
844.708	5216
844.844	5254
844.98	5372
845.117	5239
845.253	5201
845.389	5121
845.525	5189
845.661	5102
845.798	5071
845.934	5189
846.07	5052
846.206	5220
846.342	5307
846.478	5193
846.614	5041
846.75	4972
846.886	4934
847.022	5166
847.158	5048
847.294	5105
847.429	5121
847.565	5067
847.701	5311
847.837	4881
847.972	4870
848.108	4999
848.244	4949
848.379	4824
848.515	4790
848.65	4733
848.786	4733
848.921	4805
849.057	4930
849.192	4889
849.328	4896
849.463	4930
849.598	4820
849.734	4778
849.869	4733
850.004	4626
850.14	4656
850.275	4630
850.41	4569
850.545	4580
850.68	4588
850.815	4603
850.95	4694
851.085	4831
851.22	4790
851.355	4691
851.49	4630
851.625	4656
851.76	4637
851.895	4561
852.03	4599
852.165	4736
852.299	4755
852.434	4809
852.569	4759
852.703	4790
852.838	4877
852.973	4927
853.107	4923
853.242	4763
853.376	4672
853.511	4577
853.645	4649
853.78	4854
853.914	4702
854.048	4691
854.183	4618
854.317	4755
854.451	4828
854.585	4698
854.72	4649
854.854	4816
854.988	4630
855.122	4645
855.256	4538
855.39	4706
855.524	4771
855.658	4725
855.792	4736
855.926	4752
856.06	4790
856.194	4790
856.327	4717
856.461	4660
856.595	4603
856.729	4618
856.862	4801
856.996	4710
857.13	4744
857.263	4740
857.397	4782
857.53	4660
857.664	4759
857.797	4809
857.931	4809
858.064	4683
858.197	4744
858.331	4691
858.464	4634
858.597	4561
858.731	4645
858.864	4664
858.997	4584
859.13	4706
859.263	4710
859.396	4702
859.529	4641
859.662	4607
859.795	4538
859.928	4672
860.061	4809
860.194	4752
860.327	4611
860.46	4569
860.592	4729
860.725	4782
860.858	4687
860.99	4618
861.123	4573
861.256	4546
861.388	4588
861.521	5459
861.653	4516
861.786	4451
861.918	4478
862.05	4542
862.183	4573
862.315	4634
862.447	4691
862.58	4615
862.712	4436
862.844	4322
862.976	4474
863.108	4500
863.24	4774
863.372	4352
863.504	4440
863.636	4405
863.768	4493
863.9	4497
864.032	4371
864.164	4409
864.296	4474
864.428	4584
864.559	4542
864.691	4538
864.823	4519
864.954	4523
865.086	4516
865.217	4485
865.349	4417
865.48	4443
865.612	4466
865.743	4618
865.875	4489
866.006	4440
866.137	4504
866.269	4462
866.4	4466
866.531	4451
866.662	4398
866.793	4462
866.924	4447
867.055	4516
867.186	4497
867.317	4428
867.448	4436
867.579	4409
867.71	4447
867.841	4409
867.972	4508
868.103	4485
868.233	4470
868.364	4455
868.495	4519
868.625	4694
868.756	4805
868.886	4550
869.017	4611
869.147	4774
869.278	4771
869.408	4656
869.539	4615
869.669	4729
869.799	4668
869.929	4797
870.06	4744
870.19	4934
870.32	4938
870.45	4927
870.58	5006
870.71	5124
870.84	5083
870.97	4938
871.1	4900
871.23	5143
871.36	5128
871.489	4980
871.619	5102
871.749	5121
871.879	5143
872.008	5178
872.138	5075
872.267	5003
872.397	4835
872.526	4797
872.656	4729
872.785	4820
872.915	4991
873.044	5045
873.173	4949
873.303	4942
873.432	4965
873.561	4976
873.69	4885
873.819	4911
873.948	4911
874.077	4793
874.206	4774
874.335	4862
874.464	4946
874.593	5079
874.722	4972
874.851	5121
874.979	5105
875.108	5064
875.237	4938
875.365	4885
875.494	4896
875.623	5010
875.751	4858
875.88	4900
876.008	5003
876.136	5022
876.265	5227
876.393	5345
876.521	5178
876.65	5288
876.778	5193
876.906	5109
877.034	5045
877.162	4987
877.29	4949
877.418	5075
877.546	5029
877.674	5083
877.802	5052
877.93	5064
878.058	4942
878.185	4873
878.313	4980
878.441	4942
878.568	4847
878.696	4889
878.824	4991
878.951	4980
879.079	5140
879.206	5277
879.333	5128
879.461	4957
879.588	4987
879.715	5071
879.842	5265
879.97	5041
880.097	4839
880.224	4729
880.351	4812
880.478	4862
880.605	4759
880.732	4809
880.859	5067
880.986	4896
881.112	4904
881.239	4767
881.366	4694
881.493	4630
881.619	4626
881.746	4668
881.872	4672
881.999	4622
882.125	4717
882.252	4755
882.378	4831
882.505	4946
882.631	4812
882.757	4687
882.883	4717
883.01	4736
883.136	4691
883.262	4596
883.388	4626
883.514	4805
883.64	4877
883.766	4793
883.892	4683
884.018	4771
884.143	4900
884.269	4995
884.395	4714
884.52	4645
884.646	4672
884.772	4618
884.897	4603
885.023	4672
885.148	4786
885.274	4881
885.399	4870
885.524	4752
885.65	4641
885.775	4771
885.9	4740
886.025	4839
886.15	4809
886.275	4755
886.4	4664
886.525	4767
886.65	4710
886.775	4710
886.9	4866
887.025	5037
887.149	4816
887.274	4660
887.399	4558
887.523	4592
887.648	4660
887.773	4637
887.897	4797
888.021	4828
888.146	4679
888.27	4843
888.395	4873
888.519	4839
888.643	4824
888.767	4820
888.891	4698
889.015	4626
889.139	4691
889.263	4607
889.387	4774
889.511	4805
889.635	4820
889.759	4626
889.883	4687
890.006	4744
890.13	4870
890.254	4584
890.377	4733
890.501	4573
890.624	4523
890.748	4622
890.871	4550
890.995	4421
891.118	4386
891.241	4512
891.364	4592
891.488	4645
891.611	4519
891.734	4588
891.857	4618
891.98	4592
892.103	4649
892.226	4592
892.349	4538
892.471	4424
892.594	4550
892.717	4626
892.839	4546
892.962	4626
893.085	4656
893.207	4573
893.33	4447
893.452	4554
893.575	4656
893.697	4622
893.819	4812
893.941	4824
894.064	4759
894.186	4626
894.308	4580
894.43	4736
894.552	4812
894.674	4736
894.796	4554
894.918	4596
895.04	4634
895.161	4694
895.283	4675
895.405	4558
895.526	4622
895.648	4679
895.769	4710
895.891	4694
896.012	4733
896.134	4710
896.255	4710
896.376	4706
896.498	4618
896.619	4706
896.74	4596
896.861	4683
896.982	4908
897.103	5094
897.224	4759
897.345	4793
897.466	4683
897.587	4767
897.708	4847
897.828	4816
897.949	4721
898.07	4561
898.19	4672
898.311	4801
898.431	4706
898.552	4752
898.672	4797
898.792	4786
898.913	4748
899.033	4645
899.153	4512
899.273	4436
899.393	4474
899.513	4554
899.633	4504
899.753	4558
899.873	4531
899.993	4653
900.113	4535
900.232	4615
900.352	4637
900.472	4497
900.591	4428
900.711	4500
900.83	4459
900.95	4611
901.069	4702
901.189	4535
901.308	4379
901.427	4314
901.546	4383
901.665	4493
901.784	4538
901.904	4413
902.023	4333
902.141	4192
902.26	4223
902.379	4299
902.498	4268
902.617	4238
902.735	4417
902.854	4386
902.973	4344
903.091	4238
903.21	4219
903.328	4329
903.446	4272
903.565	4261
903.683	4318
903.801	4295
903.919	4405
904.038	4428
904.156	4303
904.274	4436
904.392	4405
904.51	4402
904.627	4478
904.745	4561
904.863	4645
904.981	4409
905.098	4249
905.216	4417
905.334	4394
905.451	4424
905.569	4421
905.686	4573
905.803	4546
905.921	4417
906.038	4531
906.155	4481
906.272	4363
906.389	4493
906.506	4413
906.623	4398
906.74	4413
906.857	4333
906.974	4356
907.091	4504
907.208	4672
907.324	4622
907.441	4527
907.557	4333
907.674	4341
907.79	4363
907.907	4413
908.023	4523
908.139	4493
908.256	4436
908.372	4443
908.488	4447
908.604	4371
908.72	4310
908.836	4363
908.952	4363
909.068	4440
909.184	4542
909.3	4489
909.415	4565
909.531	4542
909.647	4352
909.762	4356
909.878	4348
909.993	4455
910.108	4417
910.224	4390
910.339	4481
910.454	4443
910.57	4413
910.685	4314
910.8	4615
910.915	4588
911.03	4538
911.145	4276
911.259	4337
911.374	4367
911.489	4299
911.604	4284
911.718	4188
911.833	4276
911.947	4093
912.062	4040
912.176	4188
912.291	4291
912.405	4280
912.519	4455
912.633	4508
912.748	4360
912.862	4249
912.976	4200
913.09	4116
913.204	4230
913.318	4261
913.431	4390
913.545	4383
913.659	4432
913.772	4344
913.886	4261
914	4211
914.113	4451
914.226	4443
914.34	4417
914.453	4204
914.566	4421
914.68	4280
914.793	4322
914.906	4147
915.019	4135
915.132	4116
915.245	4185
915.358	4219
915.47	4227
915.583	4230
915.696	4291
915.809	4417
915.921	4436
916.034	4272
916.146	4249
916.259	4249
916.371	4360
916.483	4337
916.595	4257
916.708	4344
916.82	4287
916.932	4318
917.044	4333
917.156	4318
917.268	4238
917.38	4249
917.491	4284
917.603	4333
917.715	4417
917.826	4440
917.938	4360
918.049	4185
918.161	4402
918.272	4558
918.384	4516
918.495	4436
918.606	4333
918.717	4211
918.828	4337
918.939	4405
919.05	4249
919.161	4356
919.272	4131
919.383	4227
919.494	4440
919.604	4634
919.715	4405
919.826	4367
919.936	4402
920.047	4523
920.157	4455
920.267	4714
920.378	4523
920.488	4489
920.598	4763
920.708	4889
920.818	4748
920.928	4755
921.038	4942
921.148	4957
921.258	4630
921.368	4561
921.477	4538
921.587	4443
921.697	4394
921.806	4558
921.916	4451
922.025	4284
922.134	4284
922.244	4227
922.353	4348
922.462	4181
922.571	4135
922.68	3972
922.789	3975
922.898	4032
923.007	4059
923.116	4097
923.224	4063
923.333	4063
923.442	4025
923.55	4010
923.659	4048
923.767	4139
923.876	3975
923.984	4139
924.092	4017
924.201	4048
924.309	4074
924.417	4116
924.525	4036
924.633	4101
924.741	5075
924.849	3934
924.956	4101
925.064	3934
925.172	3907
925.279	3960
925.387	4078
925.494	4055
925.602	4219
925.709	4204
925.816	4036
925.924	4139
926.031	4211
926.138	4147
926.245	4196
926.352	4101
926.459	4238
926.566	4314
926.673	4128
926.779	4063
926.886	4074
926.993	4013
927.099	3934
927.206	3930
927.312	3896
927.419	4063
927.525	4051
927.631	4055
927.737	3945
927.843	3949
927.95	3861
928.056	3972
928.162	3972
928.267	4071
928.373	4603
928.479	4166
928.585	3869
928.69	4040
928.796	4059
928.901	3949
929.007	3789
929.112	4010
929.218	3945
929.323	3960
929.428	3930
929.533	4097
929.638	3888
929.743	3998
929.848	4067
929.953	4032
930.058	3968
930.163	3797
930.267	3835
930.372	3975
930.477	3804
930.581	4086
930.685	3945
930.79	3808
930.894	3915
930.998	3861
931.103	4051
931.207	3724
931.311	3675
931.415	3679
931.519	3534
931.623	3526
