Data from test_V78500241_1955.txt Node
Date: Fri Mar 25 17:02:35 CST 2022
User: usil
Spectrometer: V785-0024
Trigger mode: 0
Integration Time (sec): 4.000000E-1
Scans to average: 1
Nonlinearity correction enabled: false
Boxcar width: 0
Storing dark spectrum: false
XAxis mode: Wavelengths
Number of Pixels in Spectrum: 1024
>>>>>Begin Spectral Data<<<<<
801.071	7986
801.214	7963
801.356	7921
801.499	7803
801.641	7799
801.783	7826
801.926	7951
802.068	7967
802.211	7967
802.353	8008
802.496	7902
802.638	7780
802.78	7864
802.923	7944
803.065	7845
803.208	7860
803.35	7955
803.492	8149
803.635	8145
803.777	7989
803.919	8096
804.061	8484
804.204	8145
804.346	8084
804.488	7940
804.63	8111
804.773	7963
804.915	8088
805.057	8313
805.199	8199
805.341	8195
805.483	8244
805.626	8202
805.768	8126
805.91	8183
806.052	8195
806.194	8153
806.336	8271
806.478	8115
806.62	8065
806.762	8149
806.904	8290
807.046	8492
807.188	8389
807.33	8355
807.472	8317
807.614	8153
807.756	8172
807.898	7986
808.04	7906
808.182	7906
808.324	7936
808.465	7909
808.607	8084
808.749	8126
808.891	8229
809.033	8358
809.174	8187
809.316	8077
809.458	8142
809.6	7955
809.741	8020
809.883	8031
810.025	8100
810.166	8035
810.308	7959
810.45	7982
810.591	7864
810.733	7753
810.875	7670
811.016	7510
811.158	7495
811.299	7529
811.441	7693
811.582	7715
811.724	7567
811.865	7514
812.007	7636
812.148	7670
812.29	7628
812.431	7780
812.573	7879
812.714	7932
812.855	8103
812.997	8271
813.138	8252
813.279	8149
813.421	8103
813.562	7921
813.703	7856
813.845	7731
813.986	7464
814.127	7206
814.268	7278
814.41	7194
814.551	7137
814.692	7179
814.833	7103
814.974	7168
815.115	7149
815.256	6943
815.397	6958
815.539	6924
815.68	6863
815.821	6821
815.962	6878
816.103	6814
816.244	6684
816.385	6646
816.526	6604
816.666	6494
816.807	6388
816.948	6479
817.089	6433
817.23	6429
817.371	6384
817.512	6319
817.653	6365
817.793	6388
817.934	6422
818.075	6429
818.216	6479
818.356	6445
818.497	6266
818.638	6152
818.778	6091
818.919	6155
819.06	6163
819.2	6346
819.341	6292
819.481	6350
819.622	6521
819.762	6795
819.903	6745
820.043	6551
820.184	6612
820.324	6578
820.465	6776
820.605	6673
820.746	6654
820.886	6532
821.026	6692
821.167	6639
821.307	6772
821.447	6833
821.588	6692
821.728	6597
821.868	6517
822.008	6289
822.149	6361
822.289	6414
822.429	6182
822.569	6106
822.709	6121
822.849	5939
822.99	5904
823.13	5984
823.27	5920
823.41	5840
823.55	5805
823.69	5786
823.83	5764
823.97	5661
824.11	5539
824.25	5490
824.389	5554
824.529	5581
824.669	5566
824.809	5627
824.949	5668
825.089	5665
825.228	5554
825.368	5398
825.508	5353
825.648	5330
825.787	5372
825.927	5379
826.067	5280
826.206	5330
826.346	5387
826.485	5444
826.625	5436
826.765	5558
826.904	5490
827.044	5326
827.183	5212
827.323	5124
827.462	5223
827.601	5212
827.741	5174
827.88	5246
828.02	5048
828.159	5174
828.298	5303
828.437	5387
828.577	5273
828.716	5524
828.855	5345
828.994	5231
829.134	5147
829.273	5201
829.412	5109
829.551	5143
829.69	5162
829.829	5296
829.968	5357
830.107	5250
830.246	5307
830.385	5170
830.524	5136
830.663	5048
830.802	5014
830.941	4927
831.08	4866
831.219	4987
831.357	4968
831.496	5155
831.635	4942
831.774	4877
831.913	4870
832.051	4706
832.19	4786
832.329	4881
832.467	4710
832.606	4641
832.744	4736
832.883	4698
833.022	4710
833.16	4763
833.299	4797
833.437	4877
833.576	4778
833.714	4896
833.852	4862
833.991	4908
834.129	4946
834.267	4957
834.406	4904
834.544	5003
834.682	4961
834.821	4987
834.959	5166
835.097	5003
835.235	5159
835.373	5048
835.511	5147
835.65	5060
835.788	5010
835.926	4938
836.064	4873
836.202	4968
836.34	5208
836.478	5204
836.615	5143
836.753	5193
836.891	5334
837.029	5235
837.167	5155
837.305	5159
837.443	5170
837.58	5105
837.718	5204
837.856	5155
837.993	5083
838.131	5189
838.269	5212
838.406	5216
838.544	5174
838.681	5117
838.819	5056
838.956	4877
839.094	4915
839.231	4980
839.369	5105
839.506	5452
839.643	5212
839.781	5105
839.918	5029
840.055	5117
840.193	5086
840.33	5117
840.467	5147
840.604	5212
840.742	5459
840.879	5105
841.016	5102
841.153	5140
841.29	5383
841.427	5349
841.564	5330
841.701	5353
841.838	5318
841.975	5231
842.112	5235
842.249	5109
842.385	5136
842.522	5311
842.659	5147
842.796	5136
842.933	5159
843.069	5140
843.206	5185
843.343	5296
843.479	5250
843.616	5254
843.752	5045
843.889	4991
844.025	5246
844.162	4957
844.298	5242
844.435	5056
844.571	5045
844.708	5216
844.844	5322
844.98	5326
845.117	5311
845.253	5079
845.389	5048
845.525	5155
845.661	5124
845.798	5048
845.934	5162
846.07	5056
846.206	5162
846.342	5303
846.478	5208
846.614	5018
846.75	4957
846.886	4904
847.022	5143
847.158	4976
847.294	5098
847.429	5159
847.565	5067
847.701	5322
847.837	4866
847.972	4801
848.108	4942
848.244	4949
848.379	4740
848.515	4744
848.65	4710
848.786	4706
848.921	4752
849.057	4904
849.192	4881
849.328	4812
849.463	4835
849.598	4816
849.734	4748
849.869	4717
850.004	4603
850.14	4630
850.275	4618
850.41	4504
850.545	4588
850.68	4592
850.815	4630
850.95	4577
851.085	4831
851.22	4767
851.355	4664
851.49	4645
851.625	4687
851.76	4656
851.895	4554
852.03	4588
852.165	4649
852.299	4763
852.434	4740
852.569	4755
852.703	4805
852.838	4870
852.973	4961
853.107	4908
853.242	4752
853.376	4641
853.511	4527
853.645	4626
853.78	4786
853.914	4675
854.048	4687
854.183	4634
854.317	4694
854.451	4896
854.585	4710
854.72	4656
854.854	4755
854.988	4596
855.122	4618
855.256	4500
855.39	4698
855.524	4740
855.658	4710
855.792	4710
855.926	4740
856.06	4793
856.194	4805
856.327	4694
856.461	4588
856.595	4626
856.729	4637
856.862	4755
856.996	4672
857.13	4736
857.263	4793
857.397	4763
857.53	4668
857.664	4702
857.797	4748
857.931	4782
858.064	4698
858.197	4725
858.331	4592
858.464	4626
858.597	4538
858.731	4607
858.864	4660
858.997	4561
859.13	4675
859.263	4664
859.396	4721
859.529	4603
859.662	4550
859.795	4538
859.928	4641
860.061	4733
860.194	4736
860.327	4546
860.46	4546
860.592	4683
860.725	4687
860.858	4744
860.99	4538
861.123	4558
861.256	4508
861.388	4565
861.521	5288
861.653	4538
861.786	4451
861.918	4443
862.05	4512
862.183	4516
862.315	4558
862.447	4683
862.58	4622
862.712	4394
862.844	4337
862.976	4481
863.108	4447
863.24	4820
863.372	4341
863.504	4409
863.636	4409
863.768	4470
863.9	4455
864.032	4386
864.164	4386
864.296	4436
864.428	4550
864.559	4550
864.691	4516
864.823	4516
864.954	4523
865.086	4466
865.217	4481
865.349	4443
865.48	4527
865.612	4485
865.743	4641
865.875	4516
866.006	4432
866.137	4462
866.269	4455
866.4	4424
866.531	4451
866.662	4440
866.793	4428
866.924	4402
867.055	4512
867.186	4413
867.317	4428
867.448	4371
867.579	4367
867.71	4417
867.841	4360
867.972	4508
868.103	4428
868.233	4504
868.364	4470
868.495	4424
868.625	4607
868.756	4729
868.886	4538
869.017	4672
869.147	4782
869.278	4793
869.408	4679
869.539	4634
869.669	4706
869.799	4656
869.929	4755
870.06	4740
870.19	4999
870.32	4892
870.45	4911
870.58	4991
870.71	5109
870.84	5117
870.97	4953
871.1	4949
871.23	5128
871.36	5147
871.489	5056
871.619	5075
871.749	5113
871.879	5113
872.008	5124
872.138	5052
872.267	4965
872.397	4843
872.526	4790
872.656	4702
872.785	4809
872.915	4927
873.044	4991
873.173	4961
873.303	4938
873.432	4987
873.561	4961
873.69	4904
873.819	4858
873.948	4835
874.077	4831
874.206	4725
874.335	4793
874.464	4949
874.593	5060
874.722	4904
874.851	5060
874.979	5064
875.108	5045
875.237	4923
875.365	4900
875.494	4870
875.623	4953
875.751	4858
875.88	4896
876.008	4919
876.136	5029
876.265	5208
876.393	5311
876.521	5231
876.65	5204
876.778	5128
876.906	5022
877.034	5037
877.162	5033
877.29	4980
877.418	5033
877.546	5029
877.674	5079
877.802	5029
877.93	4991
878.058	4953
878.185	4919
878.313	4999
878.441	4908
878.568	4793
878.696	4847
878.824	4953
878.951	5041
879.079	5124
879.206	5307
879.333	5067
879.461	4995
879.588	5033
879.715	5121
879.842	5242
879.97	4987
880.097	4736
880.224	4721
880.351	4820
880.478	4847
880.605	4805
880.732	4759
880.859	5090
880.986	4847
881.112	4896
881.239	4774
881.366	4656
881.493	4611
881.619	4592
881.746	4603
881.872	4656
881.999	4668
882.125	4706
882.252	4778
882.378	4790
882.505	4987
882.631	4786
882.757	4672
882.883	4706
883.01	4759
883.136	4596
883.262	4607
883.388	4588
883.514	4824
883.64	4831
883.766	4729
883.892	4675
884.018	4714
884.143	4866
884.269	5010
884.395	4637
884.52	4641
884.646	4656
884.772	4603
884.897	4607
885.023	4656
885.148	4767
885.274	4847
885.399	4797
885.524	4752
885.65	4675
885.775	4675
885.9	4687
886.025	4839
886.15	4771
886.275	4717
886.4	4660
886.525	4721
886.65	4698
886.775	4725
886.9	4885
887.025	5048
887.149	4790
887.274	4626
887.399	4569
887.523	4603
887.648	4512
887.773	4607
887.897	4752
888.021	4774
888.146	4675
888.27	4824
888.395	4900
888.519	4824
888.643	4850
888.767	4824
888.891	4706
889.015	4603
889.139	4626
889.263	4577
889.387	4755
889.511	4858
889.635	4763
889.759	4618
889.883	4672
890.006	4706
890.13	4839
890.254	4584
890.377	4668
890.501	4535
890.624	4519
890.748	4577
890.871	4470
890.995	4432
891.118	4383
891.241	4516
891.364	4531
891.488	4656
891.611	4516
891.734	4542
891.857	4622
891.98	4580
892.103	4577
892.226	4538
892.349	4558
892.471	4402
892.594	4527
892.717	4599
892.839	4569
892.962	4615
893.085	4668
893.207	4584
893.33	4470
893.452	4542
893.575	4733
893.697	4603
893.819	4786
893.941	4812
894.064	4759
894.186	4538
894.308	4584
894.43	4744
894.552	4797
894.674	4763
894.796	4588
894.918	4546
895.04	4599
895.161	4694
895.283	4626
895.405	4554
895.526	4580
895.648	4645
895.769	4668
895.891	4729
896.012	4710
896.134	4710
896.255	4626
896.376	4675
896.498	4607
896.619	4694
896.74	4573
896.861	4607
896.982	4949
897.103	5071
897.224	4824
897.345	4702
897.466	4626
897.587	4706
897.708	4793
897.828	4809
897.949	4687
898.07	4558
898.19	4664
898.311	4847
898.431	4649
898.552	4714
898.672	4843
898.792	4816
898.913	4717
899.033	4660
899.153	4504
899.273	4409
899.393	4459
899.513	4538
899.633	4500
899.753	4546
899.873	4527
899.993	4573
900.113	4527
900.232	4603
900.352	4542
900.472	4523
900.591	4443
900.711	4481
900.83	4459
900.95	4637
901.069	4672
901.189	4527
901.308	4405
901.427	4352
901.546	4405
901.665	4489
901.784	4466
901.904	4348
902.023	4318
902.141	4230
902.26	4162
902.379	4318
902.498	4242
902.617	4219
902.735	4367
902.854	4398
902.973	4371
903.091	4196
903.21	4249
903.328	4295
903.446	4287
903.565	4287
903.683	4333
903.801	4291
903.919	4375
904.038	4432
904.156	4348
904.274	4485
904.392	4398
904.51	4405
904.627	4462
904.745	4558
904.863	4649
904.981	4443
905.098	4322
905.216	4341
905.334	4421
905.451	4432
905.569	4451
905.686	4626
905.803	4538
905.921	4402
906.038	4527
906.155	4462
906.272	4405
906.389	4459
906.506	4363
906.623	4367
906.74	4363
906.857	4253
906.974	4394
907.091	4550
907.208	4649
907.324	4592
907.441	4527
907.557	4367
907.674	4337
907.79	4284
907.907	4390
908.023	4504
908.139	4493
908.256	4459
908.372	4440
908.488	4440
908.604	4344
908.72	4325
908.836	4443
908.952	4322
909.068	4379
909.184	4546
909.3	4466
909.415	4565
909.531	4569
909.647	4367
909.762	4402
909.878	4333
909.993	4417
910.108	4436
910.224	4409
910.339	4405
910.454	4440
910.57	4394
910.685	4276
910.8	4637
910.915	4580
911.03	4489
911.145	4295
911.259	4333
911.374	4360
911.489	4280
911.604	4265
911.718	4181
911.833	4196
911.947	4074
912.062	4002
912.176	4219
912.291	4253
912.405	4261
912.519	4481
912.633	4432
912.748	4363
912.862	4234
912.976	4204
913.09	4116
913.204	4154
913.318	4280
913.431	4352
913.545	4375
913.659	4409
913.772	4360
913.886	4234
914	4192
914.113	4394
914.226	4424
914.34	4363
914.453	4196
914.566	4386
914.68	4322
914.793	4329
914.906	4147
915.019	4074
915.132	4112
915.245	4207
915.358	4181
915.47	4192
915.583	4268
915.696	4303
915.809	4432
915.921	4417
916.034	4249
916.146	4291
916.259	4215
916.371	4383
916.483	4363
916.595	4295
916.708	4299
916.82	4325
916.932	4295
917.044	4299
917.156	4268
917.268	4219
917.38	4276
917.491	4272
917.603	4318
917.715	4394
917.826	4413
917.938	4394
918.049	4284
918.161	4409
918.272	4577
918.384	4527
918.495	4451
918.606	4314
918.717	4257
918.828	4367
918.939	4390
919.05	4234
919.161	4303
919.272	4120
919.383	4261
919.494	4440
919.604	4641
919.715	4455
919.826	4344
919.936	4375
920.047	4546
920.157	4455
920.267	4717
920.378	4546
920.488	4497
920.598	4721
920.708	4896
920.818	4759
920.928	4755
921.038	4946
921.148	4866
921.258	4626
921.368	4558
921.477	4493
921.587	4512
921.697	4386
921.806	4512
921.916	4417
922.025	4261
922.134	4284
922.244	4230
922.353	4398
922.462	4162
922.571	4101
922.68	4010
922.789	3922
922.898	4017
923.007	4051
923.116	4086
923.224	4093
923.333	4040
923.442	3930
923.55	3937
923.659	4032
923.767	4116
923.876	3941
923.984	4120
924.092	4002
924.201	4082
924.309	4040
924.417	4101
924.525	4048
924.633	4135
924.741	5075
924.849	3911
924.956	4143
925.064	4006
925.172	3899
925.279	3968
925.387	4063
925.494	4067
925.602	4192
925.709	4169
925.816	4029
925.924	4177
926.031	4223
926.138	4181
926.245	4215
926.352	4059
926.459	4246
926.566	4303
926.673	4162
926.779	4086
926.886	4093
926.993	3983
927.099	3941
927.206	3926
927.312	3937
927.419	4044
927.525	4036
927.631	4097
927.737	3975
927.843	3945
927.95	3846
928.056	3907
928.162	3956
928.267	4090
928.373	4596
928.479	4097
928.585	3850
928.69	3979
928.796	4059
928.901	4002
929.007	3857
929.112	4021
929.218	3953
929.323	3956
929.428	3964
929.533	4169
929.638	3949
929.743	3972
929.848	4036
929.953	3979
930.058	3907
930.163	3774
930.267	3861
930.372	3964
930.477	3808
930.581	4109
930.685	3960
930.79	3831
930.894	3888
930.998	3880
931.103	4032
931.207	3713
931.311	3637
931.415	3648
931.519	3526
931.623	3584
