Data from test_V78500241_2609.txt Node
Date: Fri Mar 25 17:07:08 CST 2022
User: usil
Spectrometer: V785-0024
Trigger mode: 0
Integration Time (sec): 4.000000E-1
Scans to average: 1
Nonlinearity correction enabled: false
Boxcar width: 0
Storing dark spectrum: false
XAxis mode: Wavelengths
Number of Pixels in Spectrum: 1024
>>>>>Begin Spectral Data<<<<<
801.071	8054
801.214	8050
801.356	7909
801.499	7830
801.641	7837
801.783	7807
801.926	7982
802.068	7951
802.211	7978
802.353	8058
802.496	7868
802.638	7890
802.78	7940
802.923	7982
803.065	7944
803.208	7951
803.35	8005
803.492	8161
803.635	8180
803.777	8065
803.919	8138
804.061	8465
804.204	8161
804.346	8119
804.488	7997
804.63	8153
804.773	8012
804.915	8119
805.057	8320
805.199	8218
805.341	8275
805.483	8339
805.626	8317
805.768	8168
805.91	8229
806.052	8199
806.194	8172
806.336	8275
806.478	8164
806.62	8123
806.762	8267
806.904	8309
807.046	8526
807.188	8431
807.33	8263
807.472	8415
807.614	8157
807.756	8164
807.898	8084
808.04	7963
808.182	7871
808.324	7947
808.465	7944
808.607	8157
808.749	8119
808.891	8221
809.033	8385
809.174	8221
809.316	8145
809.458	8134
809.6	8077
809.741	8073
809.883	8084
810.025	8157
810.166	8065
810.308	8088
810.45	7978
810.591	7917
810.733	7784
810.875	7712
811.016	7590
811.158	7525
811.299	7613
811.441	7803
811.582	7772
811.724	7643
811.865	7620
812.007	7674
812.148	7636
812.29	7647
812.431	7769
812.573	7875
812.714	7997
812.855	8168
812.997	8256
813.138	8328
813.279	8195
813.421	8123
813.562	8012
813.703	7940
813.845	7822
813.986	7556
814.127	7285
814.268	7289
814.41	7282
814.551	7225
814.692	7331
814.833	7145
814.974	7145
815.115	7114
815.256	7004
815.397	7057
815.539	6985
815.68	6859
815.821	6821
815.962	6875
816.103	6878
816.244	6745
816.385	6631
816.526	6696
816.666	6578
816.807	6311
816.948	6475
817.089	6486
817.23	6483
817.371	6471
817.512	6414
817.653	6437
817.793	6342
817.934	6494
818.075	6467
818.216	6540
818.356	6418
818.497	6315
818.638	6175
818.778	6159
818.919	6175
819.06	6251
819.2	6376
819.341	6350
819.481	6467
819.622	6582
819.762	6787
819.903	6787
820.043	6623
820.184	6616
820.324	6608
820.465	6753
820.605	6745
820.746	6734
820.886	6585
821.026	6707
821.167	6779
821.307	6840
821.447	6779
821.588	6700
821.728	6601
821.868	6574
822.008	6357
822.149	6376
822.289	6391
822.429	6178
822.569	6152
822.709	6190
822.849	5908
822.99	5954
823.13	5961
823.27	5965
823.41	5813
823.55	5824
823.69	5832
823.83	5813
823.97	5661
824.11	5596
824.25	5535
824.389	5570
824.529	5642
824.669	5554
824.809	5634
824.949	5665
825.089	5680
825.228	5592
825.368	5436
825.508	5379
825.648	5360
825.787	5436
825.927	5425
826.067	5326
826.206	5360
826.346	5444
826.485	5429
826.625	5402
826.765	5630
826.904	5474
827.044	5277
827.183	5269
827.323	5155
827.462	5284
827.601	5185
827.741	5235
827.88	5212
828.02	5113
828.159	5280
828.298	5326
828.437	5440
828.577	5326
828.716	5570
828.855	5318
828.994	5105
829.134	5197
829.273	5193
829.412	5201
829.551	5151
829.69	5204
829.829	5273
829.968	5436
830.107	5326
830.246	5337
830.385	5231
830.524	5216
830.663	5075
830.802	5033
830.941	4923
831.08	4908
831.219	5025
831.357	4999
831.496	5155
831.635	4900
831.774	4870
831.913	4877
832.051	4786
832.19	4831
832.329	4870
832.467	4691
832.606	4664
832.744	4767
832.883	4767
833.022	4672
833.16	4839
833.299	4831
833.437	4927
833.576	4908
833.714	4923
833.852	4930
833.991	4965
834.129	4968
834.267	4934
834.406	4911
834.544	5014
834.682	5014
834.821	4999
834.959	5181
835.097	5003
835.235	5193
835.373	5117
835.511	5124
835.65	5102
835.788	4980
835.926	4927
836.064	4908
836.202	5006
836.34	5143
836.478	5280
836.615	5124
836.753	5189
836.891	5376
837.029	5261
837.167	5178
837.305	5117
837.443	5181
837.58	5094
837.718	5288
837.856	5220
837.993	5239
838.131	5258
838.269	5235
838.406	5231
838.544	5235
838.681	5079
838.819	5067
838.956	4911
839.094	4904
839.231	5033
839.369	5060
839.506	5467
839.643	5311
839.781	5094
839.918	5037
840.055	5098
840.193	5128
840.33	5143
840.467	5128
840.604	5181
840.742	5482
840.879	5075
841.016	5121
841.153	5181
841.29	5379
841.427	5368
841.564	5311
841.701	5410
841.838	5273
841.975	5258
842.112	5296
842.249	5189
842.385	5159
842.522	5326
842.659	5227
842.796	5174
842.933	5204
843.069	5155
843.206	5181
843.343	5288
843.479	5265
843.616	5311
843.752	4991
843.889	5064
844.025	5216
844.162	5083
844.298	5174
844.435	5128
844.571	5075
844.708	5193
844.844	5322
844.98	5341
845.117	5284
845.253	5143
845.389	5102
845.525	5185
845.661	5159
845.798	5098
845.934	5181
846.07	5060
846.206	5250
846.342	5273
846.478	5220
846.614	5109
846.75	4980
846.886	4908
847.022	5132
847.158	5022
847.294	5121
847.429	5151
847.565	5067
847.701	5353
847.837	4873
847.972	4828
848.108	4984
848.244	4923
848.379	4816
848.515	4782
848.65	4736
848.786	4782
848.921	4824
849.057	4870
849.192	4957
849.328	4835
849.463	4797
849.598	4809
849.734	4797
849.869	4763
850.004	4679
850.14	4672
850.275	4607
850.41	4542
850.545	4611
850.68	4615
850.815	4660
850.95	4668
851.085	4854
851.22	4778
851.355	4725
851.49	4637
851.625	4706
851.76	4675
851.895	4637
852.03	4565
852.165	4698
852.299	4725
852.434	4797
852.569	4744
852.703	4824
852.838	4843
852.973	4976
853.107	4938
853.242	4782
853.376	4698
853.511	4561
853.645	4656
853.78	4797
853.914	4653
854.048	4687
854.183	4634
854.317	4706
854.451	4881
854.585	4668
854.72	4672
854.854	4774
854.988	4603
855.122	4630
855.256	4558
855.39	4660
855.524	4824
855.658	4714
855.792	4714
855.926	4679
856.06	4763
856.194	4831
856.327	4660
856.461	4630
856.595	4664
856.729	4664
856.862	4755
856.996	4691
857.13	4687
857.263	4801
857.397	4831
857.53	4618
857.664	4717
857.797	4797
857.931	4809
858.064	4698
858.197	4797
858.331	4702
858.464	4649
858.597	4516
858.731	4637
858.864	4675
858.997	4630
859.13	4691
859.263	4706
859.396	4706
859.529	4592
859.662	4580
859.795	4531
859.928	4607
860.061	4725
860.194	4736
860.327	4645
860.46	4592
860.592	4729
860.725	4729
860.858	4717
860.99	4672
861.123	4577
861.256	4550
861.388	4622
861.521	5448
861.653	4485
861.786	4474
861.918	4451
862.05	4531
862.183	4561
862.315	4584
862.447	4683
862.58	4603
862.712	4405
862.844	4383
862.976	4474
863.108	4440
863.24	4759
863.372	4356
863.504	4424
863.636	4485
863.768	4504
863.9	4440
864.032	4341
864.164	4402
864.296	4500
864.428	4573
864.559	4546
864.691	4538
864.823	4538
864.954	4478
865.086	4516
865.217	4497
865.349	4447
865.48	4478
865.612	4478
865.743	4664
865.875	4447
866.006	4443
866.137	4485
866.269	4440
866.4	4481
866.531	4421
866.662	4398
866.793	4421
866.924	4455
867.055	4554
867.186	4497
867.317	4497
867.448	4363
867.579	4443
867.71	4428
867.841	4375
867.972	4443
868.103	4405
868.233	4436
868.364	4459
868.495	4485
868.625	4611
868.756	4736
868.886	4588
869.017	4675
869.147	4748
869.278	4778
869.408	4675
869.539	4653
869.669	4664
869.799	4668
869.929	4752
870.06	4755
870.19	4953
870.32	4972
870.45	4854
870.58	5033
870.71	5090
870.84	5109
870.97	4965
871.1	4896
871.23	5143
871.36	5117
871.489	5006
871.619	5147
871.749	5117
871.879	5162
872.008	5162
872.138	5056
872.267	4949
872.397	4911
872.526	4828
872.656	4736
872.785	4847
872.915	4984
873.044	5029
873.173	4972
873.303	4923
873.432	4923
873.561	4930
873.69	4942
873.819	4908
873.948	4911
874.077	4850
874.206	4763
874.335	4828
874.464	4961
874.593	5018
874.722	4915
874.851	5075
874.979	5067
875.108	5048
875.237	4896
875.365	4889
875.494	4896
875.623	5048
875.751	4778
875.88	4881
876.008	5014
876.136	5052
876.265	5254
876.393	5341
876.521	5242
876.65	5223
876.778	5223
876.906	5056
877.034	5037
877.162	5041
877.29	5060
877.418	5098
877.546	5006
877.674	5052
877.802	5067
877.93	5010
878.058	4911
878.185	4885
878.313	5014
878.441	4980
878.568	4858
878.696	4820
878.824	4980
878.951	5037
879.079	5151
879.206	5318
879.333	5155
879.461	4991
879.588	5010
879.715	5181
879.842	5193
879.97	4984
880.097	4835
880.224	4752
880.351	4843
880.478	4870
880.605	4850
880.732	4786
880.859	5102
880.986	4904
881.112	4873
881.239	4736
881.366	4668
881.493	4607
881.619	4577
881.746	4702
881.872	4694
881.999	4668
882.125	4653
882.252	4805
882.378	4816
882.505	4942
882.631	4866
882.757	4710
882.883	4729
883.01	4679
883.136	4714
883.262	4611
883.388	4603
883.514	4790
883.64	4919
883.766	4820
883.892	4694
884.018	4721
884.143	4923
884.269	4995
884.395	4679
884.52	4702
884.646	4653
884.772	4569
884.897	4561
885.023	4687
885.148	4774
885.274	4923
885.399	4801
885.524	4721
885.65	4733
885.775	4801
885.9	4729
886.025	4911
886.15	4797
886.275	4740
886.4	4660
886.525	4733
886.65	4733
886.775	4706
886.9	4858
887.025	5045
887.149	4782
887.274	4615
887.399	4603
887.523	4565
887.648	4538
887.773	4596
887.897	4721
888.021	4763
888.146	4717
888.27	4816
888.395	4881
888.519	4805
888.643	4801
888.767	4843
888.891	4653
889.015	4611
889.139	4653
889.263	4615
889.387	4790
889.511	4889
889.635	4786
889.759	4641
889.883	4607
890.006	4744
890.13	4828
890.254	4653
890.377	4668
890.501	4588
890.624	4500
890.748	4588
890.871	4485
890.995	4440
891.118	4405
891.241	4504
891.364	4535
891.488	4626
891.611	4500
891.734	4554
891.857	4592
891.98	4546
892.103	4698
892.226	4546
892.349	4542
892.471	4417
892.594	4580
892.717	4603
892.839	4603
892.962	4599
893.085	4622
893.207	4596
893.33	4462
893.452	4489
893.575	4675
893.697	4573
893.819	4824
893.941	4828
894.064	4774
894.186	4550
894.308	4580
894.43	4733
894.552	4816
894.674	4748
894.796	4561
894.918	4584
895.04	4558
895.161	4744
895.283	4672
895.405	4584
895.526	4622
895.648	4714
895.769	4637
895.891	4702
896.012	4752
896.134	4740
896.255	4672
896.376	4656
896.498	4653
896.619	4641
896.74	4630
896.861	4637
896.982	4908
897.103	5071
897.224	4839
897.345	4767
897.466	4679
897.587	4717
897.708	4862
897.828	4812
897.949	4710
898.07	4603
898.19	4626
898.311	4831
898.431	4626
898.552	4710
898.672	4831
898.792	4797
898.913	4786
899.033	4653
899.153	4508
899.273	4443
899.393	4500
899.513	4542
899.633	4561
899.753	4516
899.873	4497
899.993	4531
900.113	4535
900.232	4634
900.352	4527
900.472	4592
900.591	4409
900.711	4470
900.83	4451
900.95	4641
901.069	4721
901.189	4538
901.308	4356
901.427	4291
901.546	4398
901.665	4474
901.784	4478
901.904	4428
902.023	4291
902.141	4169
902.26	4200
902.379	4318
902.498	4249
902.617	4173
902.735	4341
902.854	4421
902.973	4383
903.091	4204
903.21	4207
903.328	4295
903.446	4329
903.565	4287
903.683	4314
903.801	4268
903.919	4356
904.038	4466
904.156	4284
904.274	4432
904.392	4386
904.51	4478
904.627	4478
904.745	4573
904.863	4637
904.981	4402
905.098	4272
905.216	4367
905.334	4436
905.451	4443
905.569	4451
905.686	4554
905.803	4546
905.921	4360
906.038	4546
906.155	4485
906.272	4432
906.389	4436
906.506	4322
906.623	4379
906.74	4394
906.857	4352
906.974	4402
907.091	4588
907.208	4649
907.324	4599
907.441	4516
907.557	4367
907.674	4341
907.79	4306
907.907	4360
908.023	4485
908.139	4523
908.256	4402
908.372	4451
908.488	4478
908.604	4394
908.72	4329
908.836	4379
908.952	4375
909.068	4356
909.184	4558
909.3	4478
909.415	4580
909.531	4592
909.647	4322
909.762	4379
909.878	4314
909.993	4447
910.108	4447
910.224	4447
910.339	4504
910.454	4405
910.57	4348
910.685	4287
910.8	4653
910.915	4618
911.03	4443
911.145	4352
911.259	4337
911.374	4402
911.489	4318
911.604	4276
911.718	4166
911.833	4204
911.947	4101
912.062	4048
912.176	4215
912.291	4284
912.405	4234
912.519	4432
912.633	4516
912.748	4341
912.862	4265
912.976	4200
913.09	4116
913.204	4154
913.318	4227
913.431	4371
913.545	4333
913.659	4443
913.772	4367
913.886	4268
914	4234
914.113	4333
914.226	4417
914.34	4424
914.453	4280
914.566	4428
914.68	4299
914.793	4306
914.906	4181
915.019	4139
915.132	4040
915.245	4162
915.358	4188
915.47	4207
915.583	4223
915.696	4322
915.809	4428
915.921	4451
916.034	4272
916.146	4291
916.259	4253
916.371	4413
916.483	4375
916.595	4261
916.708	4375
916.82	4371
916.932	4421
917.044	4352
917.156	4367
917.268	4188
917.38	4295
917.491	4280
917.603	4352
917.715	4436
917.826	4447
917.938	4333
918.049	4257
918.161	4383
918.272	4577
918.384	4546
918.495	4493
918.606	4337
918.717	4215
918.828	4333
918.939	4318
919.05	4268
919.161	4329
919.272	4124
919.383	4215
919.494	4436
919.604	4622
919.715	4405
919.826	4379
919.936	4455
920.047	4538
920.157	4523
920.267	4714
920.378	4531
920.488	4481
920.598	4691
920.708	4881
920.818	4778
920.928	4774
921.038	4946
921.148	4946
921.258	4611
921.368	4550
921.477	4459
921.587	4428
921.697	4383
921.806	4577
921.916	4428
922.025	4306
922.134	4295
922.244	4177
922.353	4310
922.462	4185
922.571	4139
922.68	4040
922.789	3983
922.898	4059
923.007	4010
923.116	4105
923.224	4078
923.333	4063
923.442	3956
923.55	4017
923.659	4021
923.767	4097
923.876	3998
923.984	4105
924.092	4013
924.201	4063
924.309	4105
924.417	4067
924.525	4021
924.633	4116
924.741	5006
924.849	3930
924.956	4154
925.064	3953
925.172	3880
925.279	3960
925.387	4067
925.494	4071
925.602	4215
925.709	4169
925.816	4105
925.924	4162
926.031	4261
926.138	4181
926.245	4192
926.352	4067
926.459	4272
926.566	4310
926.673	4143
926.779	4067
926.886	4036
926.993	3964
927.099	3987
927.206	3918
927.312	3945
927.419	4048
927.525	4090
927.631	4097
927.737	3930
927.843	3964
927.95	3831
928.056	3979
928.162	4010
928.267	4040
928.373	4577
928.479	4128
928.585	3857
928.69	4036
928.796	4063
928.901	3926
929.007	3816
929.112	3975
929.218	3987
929.323	3964
929.428	3941
929.533	4086
929.638	3907
929.743	3937
929.848	4021
929.953	3979
930.058	3956
930.163	3781
930.267	3823
930.372	3964
930.477	3861
930.581	4071
930.685	3949
930.79	3812
930.894	3899
930.998	3835
931.103	3983
931.207	3667
931.311	3698
931.415	3682
931.519	3549
931.623	3526
