Data from test_V78500241_188.txt Node
Date: Fri Mar 25 16:50:18 CST 2022
User: usil
Spectrometer: V785-0024
Trigger mode: 0
Integration Time (sec): 4.000000E-1
Scans to average: 1
Nonlinearity correction enabled: false
Boxcar width: 0
Storing dark spectrum: false
XAxis mode: Wavelengths
Number of Pixels in Spectrum: 1024
>>>>>Begin Spectral Data<<<<<
801.071	8031
801.214	8024
801.356	7852
801.499	7841
801.641	7845
801.783	7868
801.926	7970
802.068	8016
802.211	7963
802.353	8008
802.496	7875
802.638	7940
802.78	7902
802.923	7947
803.065	7879
803.208	7906
803.35	7970
803.492	8077
803.635	8119
803.777	8027
803.919	8054
804.061	8450
804.204	8096
804.346	8123
804.488	7978
804.63	8088
804.773	7978
804.915	8107
805.057	8229
805.199	8134
805.341	8286
805.483	8237
805.626	8157
805.768	8130
805.91	8149
806.052	8142
806.194	8077
806.336	8225
806.478	8138
806.62	8065
806.762	8172
806.904	8225
807.046	8427
807.188	8328
807.33	8339
807.472	8298
807.614	8244
807.756	8111
807.898	8043
808.04	7917
808.182	7932
808.324	7944
808.465	7967
808.607	8035
808.749	8126
808.891	8237
809.033	8336
809.174	8290
809.316	8157
809.458	8088
809.6	8020
809.741	7978
809.883	8077
810.025	8149
810.166	8054
810.308	8084
810.45	8054
810.591	7940
810.733	7849
810.875	7772
811.016	7597
811.158	7548
811.299	7662
811.441	7738
811.582	7761
811.724	7616
811.865	7601
812.007	7609
812.148	7655
812.29	7708
812.431	7845
812.573	7982
812.714	8077
812.855	8183
812.997	8259
813.138	8358
813.279	8252
813.421	8111
813.562	7982
813.703	7898
813.845	7875
813.986	7502
814.127	7297
814.268	7285
814.41	7301
814.551	7164
814.692	7217
814.833	7152
814.974	7118
815.115	7190
815.256	7000
815.397	6981
815.539	6958
815.68	6928
815.821	6848
815.962	6932
816.103	6798
816.244	6821
816.385	6654
816.526	6673
816.666	6525
816.807	6391
816.948	6506
817.089	6429
817.23	6494
817.371	6403
817.512	6384
817.653	6407
817.793	6395
817.934	6418
818.075	6528
818.216	6483
818.356	6384
818.497	6224
818.638	6129
818.778	6129
818.919	6186
819.06	6167
819.2	6334
819.341	6308
819.481	6410
819.622	6582
819.762	6806
819.903	6760
820.043	6650
820.184	6585
820.324	6585
820.465	6722
820.605	6692
820.746	6669
820.886	6532
821.026	6738
821.167	6719
821.307	6757
821.447	6814
821.588	6654
821.728	6604
821.868	6604
822.008	6372
822.149	6388
822.289	6399
822.429	6182
822.569	6171
822.709	6129
822.849	5927
822.99	5980
823.13	5969
823.27	5935
823.41	5824
823.55	5882
823.69	5821
823.83	5809
823.97	5703
824.11	5551
824.25	5547
824.389	5627
824.529	5600
824.669	5592
824.809	5745
824.949	5661
825.089	5600
825.228	5653
825.368	5448
825.508	5406
825.648	5337
825.787	5444
825.927	5353
826.067	5326
826.206	5315
826.346	5429
826.485	5421
826.625	5436
826.765	5611
826.904	5490
827.044	5269
827.183	5265
827.323	5174
827.462	5307
827.601	5216
827.741	5242
827.88	5288
828.02	5201
828.159	5326
828.298	5337
828.437	5383
828.577	5326
828.716	5539
828.855	5349
828.994	5197
829.134	5231
829.273	5231
829.412	5193
829.551	5193
829.69	5189
829.829	5261
829.968	5421
830.107	5330
830.246	5269
830.385	5166
830.524	5155
830.663	5136
830.802	4987
830.941	4900
831.08	4938
831.219	5048
831.357	4965
831.496	5193
831.635	4949
831.774	4862
831.913	4889
832.051	4763
832.19	4801
832.329	4873
832.467	4733
832.606	4714
832.744	4767
832.883	4748
833.022	4786
833.16	4820
833.299	4896
833.437	4908
833.576	4828
833.714	4866
833.852	4976
833.991	4984
834.129	5010
834.267	4976
834.406	4965
834.544	5010
834.682	4995
834.821	4987
834.959	5239
835.097	5052
835.235	5189
835.373	5147
835.511	5121
835.65	5067
835.788	5041
835.926	4965
836.064	4957
836.202	4938
836.34	5242
836.478	5250
836.615	5166
836.753	5242
836.891	5353
837.029	5292
837.167	5201
837.305	5174
837.443	5147
837.58	5136
837.718	5280
837.856	5208
837.993	5159
838.131	5258
838.269	5197
838.406	5250
838.544	5204
838.681	5045
838.819	5003
838.956	4953
839.094	4976
839.231	5018
839.369	5105
839.506	5444
839.643	5349
839.781	5121
839.918	5022
840.055	5159
840.193	5109
840.33	5132
840.467	5204
840.604	5204
840.742	5444
840.879	5124
841.016	5094
841.153	5151
841.29	5372
841.427	5341
841.564	5379
841.701	5372
841.838	5311
841.975	5284
842.112	5258
842.249	5128
842.385	5140
842.522	5337
842.659	5235
842.796	5174
842.933	5185
843.069	5216
843.206	5216
843.343	5315
843.479	5288
843.616	5334
843.752	5022
843.889	5083
844.025	5250
844.162	5060
844.298	5239
844.435	5143
844.571	5098
844.708	5273
844.844	5326
844.98	5379
845.117	5315
845.253	5181
845.389	5136
845.525	5189
845.661	5208
845.798	5102
845.934	5113
846.07	5052
846.206	5223
846.342	5288
846.478	5189
846.614	5075
846.75	4991
846.886	4946
847.022	5147
847.158	5018
847.294	5117
847.429	5174
847.565	5071
847.701	5372
847.837	4938
847.972	4843
848.108	5029
848.244	4953
848.379	4793
848.515	4786
848.65	4774
848.786	4736
848.921	4759
849.057	4862
849.192	4885
849.328	4885
849.463	4831
849.598	4820
849.734	4759
849.869	4710
850.004	4660
850.14	4691
850.275	4664
850.41	4554
850.545	4607
850.68	4599
850.815	4596
850.95	4660
851.085	4862
851.22	4801
851.355	4664
851.49	4660
851.625	4611
851.76	4649
851.895	4618
852.03	4577
852.165	4653
852.299	4771
852.434	4778
852.569	4706
852.703	4782
852.838	4927
852.973	4953
853.107	4927
853.242	4793
853.376	4683
853.511	4577
853.645	4694
853.78	4847
853.914	4721
854.048	4698
854.183	4702
854.317	4672
854.451	4927
854.585	4733
854.72	4656
854.854	4797
854.988	4630
855.122	4706
855.256	4580
855.39	4645
855.524	4812
855.658	4721
855.792	4698
855.926	4752
856.06	4793
856.194	4866
856.327	4702
856.461	4592
856.595	4607
856.729	4672
856.862	4759
856.996	4714
857.13	4767
857.263	4733
857.397	4847
857.53	4683
857.664	4759
857.797	4786
857.931	4809
858.064	4744
858.197	4759
858.331	4679
858.464	4653
858.597	4565
858.731	4679
858.864	4710
858.997	4656
859.13	4691
859.263	4672
859.396	4721
859.529	4622
859.662	4588
859.795	4580
859.928	4675
860.061	4767
860.194	4782
860.327	4653
860.46	4615
860.592	4755
860.725	4748
860.858	4748
860.99	4634
861.123	4535
861.256	4554
861.388	4660
861.521	5391
861.653	4519
861.786	4497
861.918	4504
862.05	4565
862.183	4569
862.315	4656
862.447	4698
862.58	4603
862.712	4481
862.844	4379
862.976	4485
863.108	4497
863.24	4877
863.372	4386
863.504	4443
863.636	4459
863.768	4531
863.9	4516
864.032	4390
864.164	4398
864.296	4508
864.428	4565
864.559	4580
864.691	4497
864.823	4561
864.954	4500
865.086	4550
865.217	4504
865.349	4440
865.48	4466
865.612	4512
865.743	4668
865.875	4508
866.006	4424
866.137	4455
866.269	4451
866.4	4481
866.531	4417
866.662	4402
866.793	4436
866.924	4436
867.055	4470
867.186	4424
867.317	4436
867.448	4367
867.579	4371
867.71	4428
867.841	4390
867.972	4504
868.103	4462
868.233	4466
868.364	4478
868.495	4550
868.625	4698
868.756	4752
868.886	4637
869.017	4683
869.147	4824
869.278	4797
869.408	4622
869.539	4683
869.669	4759
869.799	4634
869.929	4771
870.06	4687
870.19	4965
870.32	4915
870.45	4927
870.58	5022
870.71	5071
870.84	5155
870.97	4995
871.1	4923
871.23	5208
871.36	5174
871.489	5056
871.619	5113
871.749	5117
871.879	5113
872.008	5216
872.138	5109
872.267	4980
872.397	4828
872.526	4839
872.656	4744
872.785	4843
872.915	4987
873.044	5052
873.173	4965
873.303	4980
873.432	4972
873.561	5018
873.69	4889
873.819	4915
873.948	4900
874.077	4870
874.206	4748
874.335	4805
874.464	4991
874.593	5052
874.722	5014
874.851	5124
874.979	5064
875.108	5056
875.237	4965
875.365	4870
875.494	4930
875.623	4995
875.751	4892
875.88	4911
876.008	5041
876.136	5022
876.265	5239
876.393	5349
876.521	5292
876.65	5242
876.778	5197
876.906	5113
877.034	5022
877.162	5071
877.29	5029
877.418	5064
877.546	5067
877.674	5064
877.802	5067
877.93	5067
878.058	4965
878.185	4938
878.313	4976
878.441	4934
878.568	4805
878.696	4877
878.824	4995
878.951	5041
879.079	5185
879.206	5307
879.333	5113
879.461	4995
879.588	5052
879.715	5132
879.842	5201
879.97	5029
880.097	4778
880.224	4763
880.351	4820
880.478	4839
880.605	4790
880.732	4824
880.859	5105
880.986	4904
881.112	4911
881.239	4767
881.366	4706
881.493	4599
881.619	4611
881.746	4653
881.872	4702
881.999	4660
882.125	4702
882.252	4835
882.378	4854
882.505	5022
882.631	4812
882.757	4683
882.883	4767
883.01	4778
883.136	4679
883.262	4588
883.388	4634
883.514	4854
883.64	4919
883.766	4793
883.892	4698
884.018	4797
884.143	4896
884.269	5037
884.395	4683
884.52	4611
884.646	4622
884.772	4611
884.897	4592
885.023	4675
885.148	4801
885.274	4900
885.399	4809
885.524	4721
885.65	4736
885.775	4767
885.9	4736
886.025	4881
886.15	4801
886.275	4744
886.4	4626
886.525	4710
886.65	4668
886.775	4729
886.9	4942
887.025	5098
887.149	4816
887.274	4679
887.399	4584
887.523	4603
887.648	4580
887.773	4618
887.897	4790
888.021	4820
888.146	4744
888.27	4812
888.395	4889
888.519	4862
888.643	4847
888.767	4831
888.891	4698
889.015	4626
889.139	4694
889.263	4596
889.387	4774
889.511	4881
889.635	4839
889.759	4660
889.883	4672
890.006	4752
890.13	4889
890.254	4622
890.377	4702
890.501	4569
890.624	4561
890.748	4607
890.871	4546
890.995	4481
891.118	4421
891.241	4527
891.364	4569
891.488	4645
891.611	4512
891.734	4546
891.857	4584
891.98	4603
892.103	4725
892.226	4611
892.349	4546
892.471	4440
892.594	4565
892.717	4592
892.839	4584
892.962	4630
893.085	4706
893.207	4641
893.33	4485
893.452	4508
893.575	4645
893.697	4607
893.819	4820
893.941	4771
894.064	4797
894.186	4584
894.308	4611
894.43	4736
894.552	4820
894.674	4755
894.796	4577
894.918	4603
895.04	4584
895.161	4679
895.283	4660
895.405	4603
895.526	4634
895.648	4687
895.769	4672
895.891	4687
896.012	4691
896.134	4744
896.255	4714
896.376	4706
896.498	4630
896.619	4679
896.74	4630
896.861	4660
896.982	4911
897.103	5079
897.224	4809
897.345	4740
897.466	4687
897.587	4774
897.708	4858
897.828	4763
897.949	4698
898.07	4603
898.19	4664
898.311	4866
898.431	4679
898.552	4816
898.672	4812
898.792	4744
898.913	4771
899.033	4630
899.153	4554
899.273	4440
899.393	4516
899.513	4546
899.633	4538
899.753	4542
899.873	4538
899.993	4664
900.113	4569
900.232	4630
900.352	4546
900.472	4489
900.591	4421
900.711	4497
900.83	4470
900.95	4653
901.069	4710
901.189	4542
901.308	4417
901.427	4360
901.546	4402
901.665	4516
901.784	4497
901.904	4375
902.023	4363
902.141	4196
902.26	4200
902.379	4284
902.498	4272
902.617	4261
902.735	4398
902.854	4371
902.973	4379
903.091	4215
903.21	4257
903.328	4333
903.446	4291
903.565	4253
903.683	4352
903.801	4287
903.919	4462
904.038	4478
904.156	4284
904.274	4451
904.392	4394
904.51	4428
904.627	4481
904.745	4607
904.863	4675
904.981	4402
905.098	4295
905.216	4352
905.334	4459
905.451	4432
905.569	4417
905.686	4561
905.803	4569
905.921	4390
906.038	4584
906.155	4474
906.272	4413
906.389	4394
906.506	4394
906.623	4394
906.74	4390
906.857	4371
906.974	4383
907.091	4531
907.208	4725
907.324	4618
907.441	4493
907.557	4333
907.674	4295
907.79	4280
907.907	4402
908.023	4500
908.139	4512
908.256	4485
908.372	4497
908.488	4474
908.604	4398
908.72	4371
908.836	4402
908.952	4386
909.068	4451
909.184	4596
909.3	4512
909.415	4611
909.531	4565
909.647	4405
909.762	4386
909.878	4363
909.993	4485
910.108	4447
910.224	4409
910.339	4451
910.454	4417
910.57	4363
910.685	4299
910.8	4702
910.915	4607
911.03	4527
911.145	4386
911.259	4341
911.374	4379
911.489	4291
911.604	4314
911.718	4124
911.833	4215
911.947	4105
912.062	4017
912.176	4265
912.291	4246
912.405	4276
912.519	4459
912.633	4558
912.748	4390
912.862	4303
912.976	4192
913.09	4093
913.204	4169
913.318	4287
913.431	4371
913.545	4383
913.659	4428
913.772	4352
913.886	4272
914	4230
914.113	4371
914.226	4421
914.34	4424
914.453	4223
914.566	4440
914.68	4314
914.793	4322
914.906	4135
915.019	4143
915.132	4078
915.245	4158
915.358	4204
915.47	4242
915.583	4295
915.696	4337
915.809	4394
915.921	4462
916.034	4268
916.146	4303
916.259	4242
916.371	4371
916.483	4367
916.595	4303
916.708	4367
916.82	4287
916.932	4348
917.044	4371
917.156	4314
917.268	4272
917.38	4318
917.491	4276
917.603	4363
917.715	4470
917.826	4447
917.938	4325
918.049	4295
918.161	4398
918.272	4554
918.384	4531
918.495	4493
918.606	4322
918.717	4200
918.828	4348
918.939	4363
919.05	4261
919.161	4287
919.272	4120
919.383	4280
919.494	4424
919.604	4630
919.715	4432
919.826	4352
919.936	4428
920.047	4558
920.157	4500
920.267	4714
920.378	4538
920.488	4519
920.598	4714
920.708	4915
920.818	4767
920.928	4801
921.038	4930
921.148	4927
921.258	4649
921.368	4577
921.477	4489
921.587	4478
921.697	4394
921.806	4550
921.916	4447
922.025	4329
922.134	4253
922.244	4234
922.353	4375
922.462	4207
922.571	4154
922.68	4067
922.789	3972
922.898	4048
923.007	4006
923.116	4112
923.224	4101
923.333	4086
923.442	3994
923.55	3991
923.659	4051
923.767	4097
923.876	3983
923.984	4112
924.092	4010
924.201	4101
924.309	4093
924.417	4120
924.525	4067
924.633	4131
924.741	4911
924.849	3953
924.956	4166
925.064	3934
925.172	3949
925.279	4021
925.387	4029
925.494	4097
925.602	4200
925.709	4230
925.816	4071
925.924	4105
926.031	4207
926.138	4169
926.245	4196
926.352	4135
926.459	4272
926.566	4268
926.673	4173
926.779	4090
926.886	4036
926.993	4002
927.099	3968
927.206	3926
927.312	3960
927.419	4090
927.525	4006
927.631	4086
927.737	3968
927.843	3960
927.95	3884
928.056	3968
928.162	3991
928.267	4101
928.373	4717
928.479	4097
928.585	3915
928.69	4055
928.796	4051
928.901	3994
929.007	3835
929.112	4017
929.218	3994
929.323	3979
929.428	3953
929.533	4112
929.638	3911
929.743	3960
929.848	4067
929.953	4044
930.058	3941
930.163	3812
930.267	3846
930.372	3983
930.477	3846
930.581	4128
930.685	3975
930.79	3823
930.894	3903
930.998	3915
931.103	4048
931.207	3713
931.311	3663
931.415	3686
931.519	3526
931.623	3587
