Data from test_V78500241_1607.txt Node
Date: Fri Mar 25 17:00:10 CST 2022
User: usil
Spectrometer: V785-0024
Trigger mode: 0
Integration Time (sec): 4.000000E-1
Scans to average: 1
Nonlinearity correction enabled: false
Boxcar width: 0
Storing dark spectrum: false
XAxis mode: Wavelengths
Number of Pixels in Spectrum: 1024
>>>>>Begin Spectral Data<<<<<
801.071	8027
801.214	7940
801.356	7860
801.499	7792
801.641	7776
801.783	7799
801.926	7909
802.068	7974
802.211	7959
802.353	7944
802.496	7822
802.638	7826
802.78	7898
802.923	7959
803.065	7852
803.208	7837
803.35	7997
803.492	8050
803.635	8153
803.777	7936
803.919	8138
804.061	8446
804.204	8100
804.346	8050
804.488	7974
804.63	8180
804.773	7997
804.915	8123
805.057	8324
805.199	8115
805.341	8199
805.483	8244
805.626	8176
805.768	8088
805.91	8183
806.052	8199
806.194	8096
806.336	8374
806.478	8100
806.62	8107
806.762	8119
806.904	8358
807.046	8480
807.188	8381
807.33	8332
807.472	8328
807.614	8092
807.756	8172
807.898	8027
808.04	7871
808.182	7913
808.324	7864
808.465	7925
808.607	8050
808.749	8058
808.891	8195
809.033	8271
809.174	8206
809.316	8096
809.458	8088
809.6	8008
809.741	8054
809.883	8016
810.025	8153
810.166	8035
810.308	7986
810.45	7970
810.591	7841
810.733	7772
810.875	7605
811.016	7510
811.158	7419
811.299	7533
811.441	7708
811.582	7708
811.724	7567
811.865	7525
812.007	7548
812.148	7582
812.29	7662
812.431	7788
812.573	7898
812.714	7978
812.855	8081
812.997	8191
813.138	8305
813.279	8191
813.421	8107
813.562	7928
813.703	7814
813.845	7693
813.986	7403
814.127	7270
814.268	7236
814.41	7160
814.551	7152
814.692	7228
814.833	7072
814.974	7103
815.115	7122
815.256	6924
815.397	6916
815.539	6928
815.68	6844
815.821	6779
815.962	6837
816.103	6875
816.244	6726
816.385	6692
816.526	6635
816.666	6475
816.807	6308
816.948	6426
817.089	6486
817.23	6418
817.371	6376
817.512	6323
817.653	6350
817.793	6346
817.934	6388
818.075	6433
818.216	6475
818.356	6426
818.497	6167
818.638	6072
818.778	6144
818.919	6133
819.06	6186
819.2	6331
819.341	6327
819.481	6346
819.622	6483
819.762	6734
819.903	6741
820.043	6589
820.184	6551
820.324	6574
820.465	6722
820.605	6665
820.746	6692
820.886	6498
821.026	6635
821.167	6677
821.307	6757
821.447	6700
821.588	6639
821.728	6570
821.868	6456
822.008	6289
822.149	6357
822.289	6281
822.429	6129
822.569	6064
822.709	6114
822.849	5916
822.99	5920
823.13	5904
823.27	5946
823.41	5786
823.55	5832
823.69	5790
823.83	5665
823.97	5623
824.11	5562
824.25	5532
824.389	5558
824.529	5547
824.669	5512
824.809	5649
824.949	5672
825.089	5570
825.228	5532
825.368	5425
825.508	5326
825.648	5406
825.787	5357
825.927	5376
826.067	5284
826.206	5296
826.346	5364
826.485	5383
826.625	5391
826.765	5547
826.904	5478
827.044	5242
827.183	5185
827.323	5132
827.462	5235
827.601	5143
827.741	5189
827.88	5189
828.02	5151
828.159	5246
828.298	5311
828.437	5353
828.577	5254
828.716	5478
828.855	5326
828.994	5117
829.134	5181
829.273	5185
829.412	5124
829.551	5155
829.69	5178
829.829	5235
829.968	5387
830.107	5254
830.246	5273
830.385	5261
830.524	5128
830.663	5064
830.802	4984
830.941	4866
831.08	4904
831.219	4953
831.357	4938
831.496	5113
831.635	4968
831.774	4820
831.913	4877
832.051	4664
832.19	4733
832.329	4835
832.467	4694
832.606	4660
832.744	4710
832.883	4672
833.022	4698
833.16	4797
833.299	4801
833.437	4790
833.576	4774
833.714	4843
833.852	4892
833.991	4850
834.129	4972
834.267	4968
834.406	4908
834.544	4991
834.682	4999
834.821	4965
834.959	5155
835.097	4942
835.235	5117
835.373	5102
835.511	5079
835.65	5018
835.788	4984
835.926	4904
836.064	4873
836.202	4900
836.34	5140
836.478	5250
836.615	5128
836.753	5181
836.891	5288
837.029	5216
837.167	5166
837.305	5132
837.443	5102
837.58	5064
837.718	5269
837.856	5197
837.993	5159
838.131	5254
838.269	5204
838.406	5235
838.544	5140
838.681	5083
838.819	4991
838.956	4923
839.094	4900
839.231	4961
839.369	5086
839.506	5402
839.643	5269
839.781	5098
839.918	5029
840.055	5117
840.193	5056
840.33	5064
840.467	5136
840.604	5166
840.742	5448
840.879	5083
841.016	5048
841.153	5170
841.29	5379
841.427	5379
841.564	5250
841.701	5334
841.838	5292
841.975	5181
842.112	5254
842.249	5155
842.385	5143
842.522	5337
842.659	5128
842.796	5128
842.933	5204
843.069	5056
843.206	5220
843.343	5334
843.479	5269
843.616	5315
843.752	5064
843.889	5018
844.025	5235
844.162	5060
844.298	5201
844.435	5067
844.571	5056
844.708	5185
844.844	5318
844.98	5307
845.117	5299
845.253	5136
845.389	5113
845.525	5124
845.661	5140
845.798	5003
845.934	5132
846.07	4999
846.206	5140
846.342	5261
846.478	5098
846.614	5025
846.75	4965
846.886	4934
847.022	5132
847.158	4999
847.294	5045
847.429	5045
847.565	5045
847.701	5265
847.837	4908
847.972	4812
848.108	4919
848.244	4934
848.379	4763
848.515	4748
848.65	4729
848.786	4706
848.921	4782
849.057	4881
849.192	4892
849.328	4767
849.463	4816
849.598	4740
849.734	4736
849.869	4645
850.004	4656
850.14	4656
850.275	4596
850.41	4512
850.545	4561
850.68	4569
850.815	4634
850.95	4588
851.085	4835
851.22	4725
851.355	4637
851.49	4641
851.625	4637
851.76	4660
851.895	4542
852.03	4527
852.165	4641
852.299	4748
852.434	4816
852.569	4763
852.703	4816
852.838	4801
852.973	4908
853.107	4911
853.242	4733
853.376	4618
853.511	4554
853.645	4611
853.78	4801
853.914	4637
854.048	4622
854.183	4634
854.317	4641
854.451	4809
854.585	4694
854.72	4626
854.854	4755
854.988	4577
855.122	4599
855.256	4485
855.39	4649
855.524	4752
855.658	4752
855.792	4626
855.926	4729
856.06	4740
856.194	4828
856.327	4645
856.461	4637
856.595	4592
856.729	4603
856.862	4809
856.996	4714
857.13	4675
857.263	4717
857.397	4790
857.53	4611
857.664	4698
857.797	4774
857.931	4774
858.064	4694
858.197	4767
858.331	4672
858.464	4634
858.597	4538
858.731	4573
858.864	4611
858.997	4569
859.13	4656
859.263	4668
859.396	4630
859.529	4558
859.662	4573
859.795	4535
859.928	4596
860.061	4744
860.194	4805
860.327	4596
860.46	4565
860.592	4698
860.725	4729
860.858	4668
860.99	4531
861.123	4535
861.256	4500
861.388	4637
861.521	5124
861.653	4478
861.786	4413
861.918	4447
862.05	4481
862.183	4569
862.315	4584
862.447	4634
862.58	4478
862.712	4379
862.844	4318
862.976	4493
863.108	4462
863.24	4740
863.372	4284
863.504	4481
863.636	4398
863.768	4462
863.9	4421
864.032	4356
864.164	4375
864.296	4443
864.428	4569
864.559	4588
864.691	4497
864.823	4493
864.954	4504
865.086	4474
865.217	4428
865.349	4421
865.48	4447
865.612	4462
865.743	4618
865.875	4417
866.006	4417
866.137	4443
866.269	4440
866.4	4436
866.531	4413
866.662	4360
866.793	4379
866.924	4436
867.055	4519
867.186	4424
867.317	4398
867.448	4371
867.579	4371
867.71	4421
867.841	4333
867.972	4451
868.103	4455
868.233	4478
868.364	4398
868.495	4474
868.625	4668
868.756	4740
868.886	4565
869.017	4577
869.147	4774
869.278	4752
869.408	4634
869.539	4596
869.669	4729
869.799	4649
869.929	4733
870.06	4778
870.19	4965
870.32	4885
870.45	4877
870.58	4995
870.71	5094
870.84	5083
870.97	4942
871.1	4946
871.23	5143
871.36	5090
871.489	5048
871.619	5071
871.749	5090
871.879	5102
872.008	5147
872.138	5067
872.267	4987
872.397	4847
872.526	4824
872.656	4729
872.785	4809
872.915	4976
873.044	5003
873.173	4904
873.303	4965
873.432	4942
873.561	4942
873.69	4847
873.819	4885
873.948	4927
874.077	4831
874.206	4748
874.335	4790
874.464	4911
874.593	5083
874.722	4938
874.851	5067
874.979	5052
875.108	5018
875.237	4919
875.365	4877
875.494	4877
875.623	4976
875.751	4820
875.88	4915
876.008	4896
876.136	5022
876.265	5235
876.393	5307
876.521	5227
876.65	5216
876.778	5124
876.906	5029
877.034	5025
877.162	5037
877.29	4972
877.418	5029
877.546	5045
877.674	5090
877.802	5022
877.93	4991
878.058	4949
878.185	4843
878.313	4961
878.441	4946
878.568	4801
878.696	4904
878.824	4938
878.951	5018
879.079	5109
879.206	5273
879.333	5086
879.461	4991
879.588	5041
879.715	5079
879.842	5223
879.97	5010
880.097	4763
880.224	4721
880.351	4805
880.478	4870
880.605	4793
880.732	4786
880.859	5105
880.986	4866
881.112	4889
881.239	4733
881.366	4615
881.493	4592
881.619	4664
881.746	4649
881.872	4687
881.999	4660
882.125	4729
882.252	4736
882.378	4831
882.505	4972
882.631	4782
882.757	4691
882.883	4733
883.01	4740
883.136	4675
883.262	4588
883.388	4554
883.514	4854
883.64	4892
883.766	4866
883.892	4668
884.018	4714
884.143	4881
884.269	4976
884.395	4675
884.52	4611
884.646	4637
884.772	4554
884.897	4500
885.023	4641
885.148	4790
885.274	4873
885.399	4793
885.524	4717
885.65	4687
885.775	4733
885.9	4694
886.025	4820
886.15	4748
886.275	4702
886.4	4599
886.525	4702
886.65	4660
886.775	4683
886.9	4908
887.025	5075
887.149	4782
887.274	4637
887.399	4573
887.523	4580
887.648	4531
887.773	4596
887.897	4786
888.021	4790
888.146	4615
888.27	4805
888.395	4881
888.519	4831
888.643	4816
888.767	4809
888.891	4630
889.015	4637
889.139	4626
889.263	4599
889.387	4744
889.511	4839
889.635	4793
889.759	4615
889.883	4634
890.006	4786
890.13	4843
890.254	4679
890.377	4664
890.501	4542
890.624	4485
890.748	4656
890.871	4516
890.995	4424
891.118	4367
891.241	4497
891.364	4561
891.488	4668
891.611	4523
891.734	4535
891.857	4618
891.98	4577
892.103	4622
892.226	4611
892.349	4519
892.471	4459
892.594	4527
892.717	4584
892.839	4519
892.962	4577
893.085	4687
893.207	4599
893.33	4497
893.452	4580
893.575	4649
893.697	4577
893.819	4774
893.941	4835
894.064	4763
894.186	4561
894.308	4519
894.43	4717
894.552	4786
894.674	4736
894.796	4573
894.918	4554
895.04	4538
895.161	4694
895.283	4683
895.405	4542
895.526	4573
895.648	4698
895.769	4683
895.891	4755
896.012	4736
896.134	4748
896.255	4618
896.376	4577
896.498	4618
896.619	4687
896.74	4603
896.861	4656
896.982	4900
897.103	5067
897.224	4828
897.345	4694
897.466	4672
897.587	4767
897.708	4839
897.828	4809
897.949	4645
898.07	4561
898.19	4626
898.311	4870
898.431	4706
898.552	4721
898.672	4778
898.792	4812
898.913	4736
899.033	4634
899.153	4538
899.273	4481
899.393	4512
899.513	4527
899.633	4508
899.753	4542
899.873	4497
899.993	4573
900.113	4527
900.232	4558
900.352	4500
900.472	4493
900.591	4432
900.711	4493
900.83	4417
900.95	4618
901.069	4645
901.189	4542
901.308	4356
901.427	4318
901.546	4405
901.665	4485
901.784	4512
901.904	4402
902.023	4314
902.141	4227
902.26	4169
902.379	4318
902.498	4249
902.617	4249
902.735	4356
902.854	4398
902.973	4341
903.091	4169
903.21	4188
903.328	4303
903.446	4280
903.565	4249
903.683	4318
903.801	4268
903.919	4360
904.038	4424
904.156	4306
904.274	4459
904.392	4383
904.51	4394
904.627	4451
904.745	4561
904.863	4599
904.981	4375
905.098	4314
905.216	4318
905.334	4413
905.451	4405
905.569	4455
905.686	4569
905.803	4538
905.921	4413
906.038	4516
906.155	4421
906.272	4390
906.389	4428
906.506	4341
906.623	4394
906.74	4383
906.857	4314
906.974	4363
907.091	4542
907.208	4698
907.324	4542
907.441	4443
907.557	4341
907.674	4337
907.79	4325
907.907	4421
908.023	4497
908.139	4462
908.256	4405
908.372	4504
908.488	4455
908.604	4341
908.72	4325
908.836	4341
908.952	4383
909.068	4436
909.184	4558
909.3	4512
909.415	4512
909.531	4550
909.647	4318
909.762	4356
909.878	4291
909.993	4436
910.108	4443
910.224	4394
910.339	4466
910.454	4371
910.57	4375
910.685	4291
910.8	4645
910.915	4542
911.03	4462
911.145	4360
911.259	4318
911.374	4367
911.489	4287
911.604	4303
911.718	4196
911.833	4257
911.947	4090
912.062	4029
912.176	4219
912.291	4242
912.405	4287
912.519	4447
912.633	4504
912.748	4352
912.862	4348
912.976	4147
913.09	4147
913.204	4166
913.318	4265
913.431	4333
913.545	4360
913.659	4470
913.772	4318
913.886	4207
914	4219
914.113	4394
914.226	4451
914.34	4371
914.453	4185
914.566	4390
914.68	4280
914.793	4276
914.906	4188
915.019	4071
915.132	4112
915.245	4166
915.358	4200
915.47	4227
915.583	4276
915.696	4242
915.809	4417
915.921	4402
916.034	4284
916.146	4261
916.259	4196
916.371	4371
916.483	4314
916.595	4253
916.708	4284
916.82	4348
916.932	4299
917.044	4329
917.156	4341
917.268	4211
917.38	4295
917.491	4306
917.603	4344
917.715	4375
917.826	4405
917.938	4379
918.049	4295
918.161	4363
918.272	4538
918.384	4500
918.495	4417
918.606	4230
918.717	4230
918.828	4337
918.939	4325
919.05	4257
919.161	4333
919.272	4101
919.383	4253
919.494	4432
919.604	4618
919.715	4421
919.826	4356
919.936	4417
920.047	4577
920.157	4512
920.267	4664
920.378	4558
920.488	4519
920.598	4702
920.708	4881
920.818	4729
920.928	4778
921.038	4938
921.148	4915
921.258	4622
921.368	4592
921.477	4493
921.587	4405
921.697	4341
921.806	4512
921.916	4432
922.025	4291
922.134	4219
922.244	4200
922.353	4356
922.462	4185
922.571	4105
922.68	4002
922.789	3979
922.898	4059
923.007	3994
923.116	4040
923.224	4093
923.333	4086
923.442	3983
923.55	3983
923.659	3987
923.767	4105
923.876	4002
923.984	4147
924.092	3941
924.201	4078
924.309	4032
924.417	4105
924.525	4090
924.633	4097
924.741	4850
924.849	3922
924.956	4105
925.064	3945
925.172	3892
925.279	3956
925.387	4090
925.494	4029
925.602	4200
925.709	4215
925.816	4071
925.924	4112
926.031	4227
926.138	4158
926.245	4185
926.352	4051
926.459	4238
926.566	4325
926.673	4204
926.779	4109
926.886	4048
926.993	3979
927.099	3953
927.206	3937
927.312	3956
927.419	4097
927.525	4063
927.631	4097
927.737	3953
927.843	4002
927.95	3873
928.056	3953
928.162	3991
928.267	3983
928.373	4546
928.479	4090
928.585	3899
928.69	4055
928.796	4040
928.901	3998
929.007	3873
929.112	3983
929.218	3968
929.323	3937
929.428	3987
929.533	4124
929.638	3892
929.743	4002
929.848	4051
929.953	4032
930.058	3953
930.163	3747
930.267	3835
930.372	3964
930.477	3823
930.581	4112
930.685	3972
930.79	3823
930.894	3865
930.998	3846
931.103	4025
931.207	3720
931.311	3709
931.415	3648
931.519	3526
931.623	3557
