Data from test_V78500241_2376.txt Node
Date: Fri Mar 25 17:05:31 CST 2022
User: usil
Spectrometer: V785-0024
Trigger mode: 0
Integration Time (sec): 4.000000E-1
Scans to average: 1
Nonlinearity correction enabled: false
Boxcar width: 0
Storing dark spectrum: false
XAxis mode: Wavelengths
Number of Pixels in Spectrum: 1024
>>>>>Begin Spectral Data<<<<<
801.071	8054
801.214	7989
801.356	7898
801.499	7879
801.641	7799
801.783	7765
801.926	7947
802.068	7970
802.211	7989
802.353	8050
802.496	7852
802.638	7887
802.78	7913
802.923	7932
803.065	7852
803.208	7898
803.35	7898
803.492	8065
803.635	8168
803.777	8035
803.919	8126
804.061	8461
804.204	8187
804.346	8103
804.488	8008
804.63	8073
804.773	8001
804.915	8123
805.057	8324
805.199	8195
805.341	8199
805.483	8210
805.626	8206
805.768	8157
805.91	8183
806.052	8221
806.194	8046
806.336	8328
806.478	8176
806.62	8046
806.762	8142
806.904	8240
807.046	8488
807.188	8332
807.33	8332
807.472	8279
807.614	8199
807.756	8123
807.898	8001
808.04	7947
808.182	7959
808.324	7868
808.465	7890
808.607	8088
808.749	8115
808.891	8221
809.033	8275
809.174	8164
809.316	8092
809.458	8123
809.6	8001
809.741	8020
809.883	7997
810.025	8134
810.166	8031
810.308	8035
810.45	8050
810.591	7871
810.733	7799
810.875	7738
811.016	7506
811.158	7480
811.299	7567
811.441	7647
811.582	7666
811.724	7567
811.865	7556
812.007	7575
812.148	7662
812.29	7601
812.431	7708
812.573	7959
812.714	7982
812.855	8092
812.997	8221
813.138	8252
813.279	8149
813.421	8092
813.562	8024
813.703	7814
813.845	7708
813.986	7483
814.127	7247
814.268	7217
814.41	7183
814.551	7129
814.692	7198
814.833	7103
814.974	7145
815.115	7088
815.256	6996
815.397	6909
815.539	6924
815.68	6825
815.821	6772
815.962	6829
816.103	6791
816.244	6703
816.385	6620
816.526	6601
816.666	6544
816.807	6285
816.948	6426
817.089	6490
817.23	6433
817.371	6357
817.512	6407
817.653	6395
817.793	6342
817.934	6346
818.075	6464
818.216	6464
818.356	6448
818.497	6224
818.638	6159
818.778	6098
818.919	6186
819.06	6159
819.2	6315
819.341	6361
819.481	6407
819.622	6540
819.762	6764
819.903	6684
820.043	6673
820.184	6570
820.324	6597
820.465	6741
820.605	6684
820.746	6711
820.886	6566
821.026	6627
821.167	6722
821.307	6810
821.447	6802
821.588	6620
821.728	6608
821.868	6479
822.008	6357
822.149	6407
822.289	6426
822.429	6175
822.569	6125
822.709	6194
822.849	5973
822.99	5939
823.13	5969
823.27	5973
823.41	5874
823.55	5855
823.69	5798
823.83	5786
823.97	5672
824.11	5562
824.25	5577
824.389	5630
824.529	5630
824.669	5585
824.809	5710
824.949	5741
825.089	5714
825.228	5596
825.368	5410
825.508	5406
825.648	5368
825.787	5360
825.927	5395
826.067	5334
826.206	5349
826.346	5448
826.485	5414
826.625	5440
826.765	5638
826.904	5573
827.044	5311
827.183	5208
827.323	5174
827.462	5315
827.601	5246
827.741	5273
827.88	5220
828.02	5147
828.159	5277
828.298	5337
828.437	5448
828.577	5337
828.716	5539
828.855	5341
828.994	5223
829.134	5162
829.273	5227
829.412	5174
829.551	5132
829.69	5220
829.829	5273
829.968	5436
830.107	5341
830.246	5326
830.385	5193
830.524	5117
830.663	5090
830.802	5052
830.941	4961
831.08	4889
831.219	5090
831.357	4953
831.496	5204
831.635	5006
831.774	4885
831.913	4911
832.051	4744
832.19	4801
832.329	4843
832.467	4725
832.606	4653
832.744	4744
832.883	4835
833.022	4755
833.16	4816
833.299	4873
833.437	4824
833.576	4862
833.714	4881
833.852	4896
833.991	4919
834.129	4957
834.267	4949
834.406	4980
834.544	5006
834.682	4995
834.821	5067
834.959	5189
835.097	5025
835.235	5132
835.373	5140
835.511	5140
835.65	5086
835.788	5041
835.926	4904
836.064	4889
836.202	4927
836.34	5235
836.478	5265
836.615	5174
836.753	5261
836.891	5379
837.029	5269
837.167	5261
837.305	5269
837.443	5216
837.58	5067
837.718	5288
837.856	5258
837.993	5174
838.131	5258
838.269	5254
838.406	5223
838.544	5254
838.681	5094
838.819	5014
838.956	4908
839.094	4949
839.231	5010
839.369	5102
839.506	5455
839.643	5296
839.781	5136
839.918	5052
840.055	5102
840.193	5136
840.33	5124
840.467	5140
840.604	5201
840.742	5505
840.879	5155
841.016	5075
841.153	5155
841.29	5360
841.427	5452
841.564	5357
841.701	5398
841.838	5303
841.975	5265
842.112	5261
842.249	5155
842.385	5124
842.522	5349
842.659	5254
842.796	5128
842.933	5189
843.069	5223
843.206	5193
843.343	5296
843.479	5235
843.616	5303
843.752	5052
843.889	5083
844.025	5265
844.162	5121
844.298	5246
844.435	5037
844.571	5124
844.708	5246
844.844	5326
844.98	5357
845.117	5296
845.253	5193
845.389	5121
845.525	5227
845.661	5143
845.798	5102
845.934	5132
846.07	5090
846.206	5231
846.342	5322
846.478	5185
846.614	5064
846.75	4984
846.886	5029
847.022	5208
847.158	5003
847.294	5113
847.429	5098
847.565	5132
847.701	5322
847.837	4896
847.972	4831
848.108	4999
848.244	4934
848.379	4801
848.515	4793
848.65	4736
848.786	4771
848.921	4782
849.057	4862
849.192	4999
849.328	4854
849.463	4824
849.598	4805
849.734	4759
849.869	4687
850.004	4668
850.14	4698
850.275	4611
850.41	4565
850.545	4607
850.68	4611
850.815	4694
850.95	4649
851.085	4866
851.22	4710
851.355	4694
851.49	4615
851.625	4656
851.76	4618
851.895	4626
852.03	4538
852.165	4660
852.299	4736
852.434	4801
852.569	4790
852.703	4858
852.838	4847
852.973	4953
853.107	4961
853.242	4790
853.376	4675
853.511	4592
853.645	4656
853.78	4828
853.914	4694
854.048	4702
854.183	4668
854.317	4717
854.451	4839
854.585	4702
854.72	4603
854.854	4820
854.988	4607
855.122	4653
855.256	4599
855.39	4717
855.524	4778
855.658	4778
855.792	4736
855.926	4744
856.06	4782
856.194	4828
856.327	4744
856.461	4615
856.595	4611
856.729	4664
856.862	4778
856.996	4694
857.13	4721
857.263	4782
857.397	4847
857.53	4615
857.664	4786
857.797	4771
857.931	4820
858.064	4714
858.197	4771
858.331	4702
858.464	4618
858.597	4569
858.731	4622
858.864	4694
858.997	4637
859.13	4691
859.263	4694
859.396	4736
859.529	4603
859.662	4573
859.795	4569
859.928	4672
860.061	4774
860.194	4782
860.327	4626
860.46	4634
860.592	4679
860.725	4736
860.858	4744
860.99	4588
861.123	4580
861.256	4500
861.388	4664
861.521	5322
861.653	4474
861.786	4485
861.918	4489
862.05	4542
862.183	4577
862.315	4622
862.447	4649
862.58	4558
862.712	4375
862.844	4325
862.976	4481
863.108	4455
863.24	4797
863.372	4367
863.504	4447
863.636	4436
863.768	4481
863.9	4459
864.032	4386
864.164	4428
864.296	4519
864.428	4599
864.559	4569
864.691	4561
864.823	4512
864.954	4523
865.086	4546
865.217	4470
865.349	4394
865.48	4474
865.612	4516
865.743	4668
865.875	4451
866.006	4478
866.137	4459
866.269	4432
866.4	4508
866.531	4432
866.662	4386
866.793	4398
866.924	4413
867.055	4504
867.186	4481
867.317	4421
867.448	4379
867.579	4371
867.71	4417
867.841	4447
867.972	4500
868.103	4512
868.233	4455
868.364	4405
868.495	4500
868.625	4744
868.756	4816
868.886	4588
869.017	4656
869.147	4793
869.278	4782
869.408	4653
869.539	4698
869.669	4740
869.799	4694
869.929	4752
870.06	4809
870.19	4976
870.32	4938
870.45	4987
870.58	5029
870.71	5121
870.84	5090
870.97	5010
871.1	4942
871.23	5132
871.36	5166
871.489	5022
871.619	5102
871.749	5094
871.879	5124
872.008	5132
872.138	5090
872.267	5014
872.397	4927
872.526	4873
872.656	4759
872.785	4824
872.915	4980
873.044	5022
873.173	4919
873.303	5022
873.432	4987
873.561	5003
873.69	4919
873.819	4870
873.948	4881
874.077	4843
874.206	4847
874.335	4866
874.464	4949
874.593	5086
874.722	4991
874.851	5109
874.979	5003
875.108	5041
875.237	4919
875.365	4881
875.494	4915
875.623	4934
875.751	4866
875.88	4900
876.008	4995
876.136	5086
876.265	5239
876.393	5349
876.521	5288
876.65	5277
876.778	5143
876.906	5086
877.034	5098
877.162	5083
877.29	5029
877.418	5079
877.546	5025
877.674	5064
877.802	5010
877.93	5029
878.058	4980
878.185	4908
878.313	5022
878.441	4961
878.568	4801
878.696	4957
878.824	4965
878.951	4999
879.079	5155
879.206	5288
879.333	5121
879.461	5003
879.588	5006
879.715	5151
879.842	5250
879.97	5056
880.097	4820
880.224	4733
880.351	4858
880.478	4831
880.605	4850
880.732	4786
880.859	5075
880.986	4965
881.112	4911
881.239	4790
881.366	4710
881.493	4603
881.619	4634
881.746	4637
881.872	4683
881.999	4702
882.125	4733
882.252	4828
882.378	4812
882.505	4957
882.631	4767
882.757	4740
882.883	4710
883.01	4755
883.136	4660
883.262	4649
883.388	4656
883.514	4831
883.64	4873
883.766	4778
883.892	4634
884.018	4683
884.143	4889
884.269	5010
884.395	4679
884.52	4618
884.646	4706
884.772	4637
884.897	4546
885.023	4668
885.148	4805
885.274	4889
885.399	4828
885.524	4744
885.65	4714
885.775	4755
885.9	4721
886.025	4892
886.15	4793
886.275	4687
886.4	4637
886.525	4721
886.65	4698
886.775	4744
886.9	4900
887.025	5025
887.149	4797
887.274	4683
887.399	4607
887.523	4611
887.648	4558
887.773	4615
887.897	4812
888.021	4771
888.146	4714
888.27	4835
888.395	4934
888.519	4870
888.643	4778
888.767	4881
888.891	4668
889.015	4653
889.139	4683
889.263	4615
889.387	4759
889.511	4862
889.635	4805
889.759	4675
889.883	4653
890.006	4729
890.13	4885
890.254	4599
890.377	4679
890.501	4546
890.624	4538
890.748	4637
890.871	4542
890.995	4443
891.118	4405
891.241	4485
891.364	4554
891.488	4694
891.611	4535
891.734	4512
891.857	4645
891.98	4569
892.103	4607
892.226	4641
892.349	4554
892.471	4459
892.594	4558
892.717	4592
892.839	4626
892.962	4615
893.085	4675
893.207	4630
893.33	4470
893.452	4508
893.575	4618
893.697	4588
893.819	4828
893.941	4843
894.064	4793
894.186	4573
894.308	4561
894.43	4721
894.552	4816
894.674	4767
894.796	4558
894.918	4577
895.04	4554
895.161	4740
895.283	4675
895.405	4577
895.526	4626
895.648	4687
895.769	4687
895.891	4729
896.012	4763
896.134	4736
896.255	4664
896.376	4656
896.498	4577
896.619	4702
896.74	4641
896.861	4656
896.982	4923
897.103	5117
897.224	4850
897.345	4740
897.466	4687
897.587	4714
897.708	4904
897.828	4767
897.949	4660
898.07	4561
898.19	4668
898.311	4847
898.431	4664
898.552	4748
898.672	4828
898.792	4858
898.913	4748
899.033	4584
899.153	4512
899.273	4447
899.393	4504
899.513	4508
899.633	4497
899.753	4497
899.873	4542
899.993	4618
900.113	4580
900.232	4603
900.352	4542
900.472	4504
900.591	4402
900.711	4500
900.83	4478
900.95	4611
901.069	4626
901.189	4550
901.308	4390
901.427	4325
901.546	4405
901.665	4474
901.784	4550
901.904	4447
902.023	4306
902.141	4192
902.26	4207
902.379	4287
902.498	4238
902.617	4257
902.735	4356
902.854	4398
902.973	4348
903.091	4211
903.21	4219
903.328	4295
903.446	4257
903.565	4280
903.683	4424
903.801	4272
903.919	4386
904.038	4474
904.156	4310
904.274	4489
904.392	4367
904.51	4447
904.627	4443
904.745	4596
904.863	4603
904.981	4409
905.098	4318
905.216	4352
905.334	4481
905.451	4398
905.569	4424
905.686	4516
905.803	4542
905.921	4386
906.038	4596
906.155	4470
906.272	4398
906.389	4466
906.506	4325
906.623	4329
906.74	4432
906.857	4299
906.974	4394
907.091	4588
907.208	4683
907.324	4523
907.441	4538
907.557	4379
907.674	4333
907.79	4329
907.907	4390
908.023	4481
908.139	4478
908.256	4436
908.372	4459
908.488	4474
908.604	4348
908.72	4310
908.836	4367
908.952	4379
909.068	4432
909.184	4554
909.3	4440
909.415	4535
909.531	4519
909.647	4356
909.762	4386
909.878	4348
909.993	4432
910.108	4440
910.224	4360
910.339	4516
910.454	4375
910.57	4390
910.685	4325
910.8	4626
910.915	4561
911.03	4504
911.145	4360
911.259	4344
911.374	4390
911.489	4303
911.604	4257
911.718	4196
911.833	4230
911.947	4086
912.062	4021
912.176	4230
912.291	4238
912.405	4238
912.519	4519
912.633	4542
912.748	4432
912.862	4325
912.976	4246
913.09	4090
913.204	4169
913.318	4253
913.431	4405
913.545	4322
913.659	4424
913.772	4371
913.886	4272
914	4223
914.113	4344
914.226	4474
914.34	4383
914.453	4265
914.566	4402
914.68	4310
914.793	4318
914.906	4143
915.019	4128
915.132	4097
915.245	4188
915.358	4242
915.47	4234
915.583	4268
915.696	4310
915.809	4443
915.921	4428
916.034	4265
916.146	4242
916.259	4230
916.371	4405
916.483	4344
916.595	4272
916.708	4272
916.82	4276
916.932	4306
917.044	4352
917.156	4295
917.268	4230
917.38	4268
917.491	4280
917.603	4299
917.715	4428
917.826	4443
917.938	4325
918.049	4257
918.161	4383
918.272	4538
918.384	4519
918.495	4455
918.606	4272
918.717	4215
918.828	4322
918.939	4341
919.05	4238
919.161	4325
919.272	4154
919.383	4207
919.494	4428
919.604	4622
919.715	4405
919.826	4371
919.936	4405
920.047	4519
920.157	4508
920.267	4679
920.378	4538
920.488	4485
920.598	4733
920.708	4877
920.818	4721
920.928	4755
921.038	4972
921.148	4896
921.258	4656
921.368	4569
921.477	4428
921.587	4485
921.697	4390
921.806	4535
921.916	4436
922.025	4299
922.134	4299
922.244	4211
922.353	4333
922.462	4211
922.571	4143
922.68	3983
922.789	3937
922.898	4067
923.007	3975
923.116	4105
923.224	4051
923.333	4097
923.442	4013
923.55	3983
923.659	4040
923.767	4093
923.876	4017
923.984	4128
924.092	3998
924.201	4059
924.309	4063
924.417	4120
924.525	4032
924.633	4086
924.741	5045
924.849	3888
924.956	4109
925.064	3949
925.172	3899
925.279	3953
925.387	4086
925.494	4025
925.602	4223
925.709	4162
925.816	4021
925.924	4177
926.031	4204
926.138	4177
926.245	4192
926.352	4082
926.459	4253
926.566	4329
926.673	4158
926.779	4078
926.886	4116
926.993	3949
927.099	3915
927.206	3915
927.312	3922
927.419	4086
927.525	4063
927.631	4063
927.737	3975
927.843	3945
927.95	3865
928.056	3941
928.162	3998
928.267	4048
928.373	4615
928.479	4162
928.585	3880
928.69	4029
928.796	4013
928.901	3994
929.007	3835
929.112	3991
929.218	3953
929.323	3945
929.428	3888
929.533	4150
929.638	3926
929.743	3922
929.848	4097
929.953	4025
930.058	3937
930.163	3808
930.267	3838
930.372	3983
930.477	3774
930.581	4109
930.685	3899
930.79	3831
930.894	3869
930.998	3835
931.103	4093
931.207	3717
931.311	3701
931.415	3644
931.519	3496
931.623	3496
