Data from test_V78500241_1269.txt Node
Date: Fri Mar 25 16:57:49 CST 2022
User: usil
Spectrometer: V785-0024
Trigger mode: 0
Integration Time (sec): 4.000000E-1
Scans to average: 1
Nonlinearity correction enabled: false
Boxcar width: 0
Storing dark spectrum: false
XAxis mode: Wavelengths
Number of Pixels in Spectrum: 1024
>>>>>Begin Spectral Data<<<<<
801.071	8016
801.214	8024
801.356	7898
801.499	7814
801.641	7746
801.783	7826
801.926	8001
802.068	7909
802.211	8027
802.353	7982
802.496	7868
802.638	7898
802.78	7898
802.923	7890
803.065	7940
803.208	8001
803.35	7925
803.492	8058
803.635	8161
803.777	8043
803.919	8126
804.061	8518
804.204	8145
804.346	8058
804.488	7921
804.63	8149
804.773	8073
804.915	8077
805.057	8343
805.199	8191
805.341	8279
805.483	8279
805.626	8263
805.768	8107
805.91	8218
806.052	8244
806.194	8107
806.336	8233
806.478	8031
806.62	7978
806.762	8168
806.904	8286
807.046	8446
807.188	8324
807.33	8244
807.472	8332
807.614	8176
807.756	8187
807.898	8119
808.04	7913
808.182	7928
808.324	7951
808.465	7928
808.607	8027
808.749	8100
808.891	8210
809.033	8336
809.174	8240
809.316	8126
809.458	8039
809.6	8008
809.741	8001
809.883	8005
810.025	8115
810.166	8062
810.308	8115
810.45	8054
810.591	7883
810.733	7753
810.875	7666
811.016	7540
811.158	7529
811.299	7559
811.441	7693
811.582	7723
811.724	7613
811.865	7548
812.007	7639
812.148	7559
812.29	7639
812.431	7788
812.573	7875
812.714	8008
812.855	8035
812.997	8229
813.138	8317
813.279	8263
813.421	8081
813.562	8005
813.703	7932
813.845	7731
813.986	7400
814.127	7266
814.268	7187
814.41	7225
814.551	7137
814.692	7152
814.833	7145
814.974	7099
815.115	7114
815.256	6989
815.397	6909
815.539	6947
815.68	6840
815.821	6894
815.962	6863
816.103	6821
816.244	6738
816.385	6631
816.526	6639
816.666	6502
816.807	6270
816.948	6418
817.089	6464
817.23	6426
817.371	6399
817.512	6350
817.653	6361
817.793	6315
817.934	6410
818.075	6414
818.216	6407
818.356	6384
818.497	6224
818.638	6110
818.778	6091
818.919	6155
819.06	6121
819.2	6327
819.341	6300
819.481	6342
819.622	6566
819.762	6738
819.903	6703
820.043	6551
820.184	6612
820.324	6631
820.465	6692
820.605	6707
820.746	6654
820.886	6517
821.026	6642
821.167	6688
821.307	6757
821.447	6696
821.588	6627
821.728	6494
821.868	6528
822.008	6304
822.149	6338
822.289	6376
822.429	6186
822.569	6057
822.709	6098
822.849	5961
822.99	5950
823.13	5874
823.27	5882
823.41	5817
823.55	5779
823.69	5767
823.83	5794
823.97	5653
824.11	5528
824.25	5493
824.389	5528
824.529	5581
824.669	5474
824.809	5653
824.949	5653
825.089	5604
825.228	5551
825.368	5376
825.508	5337
825.648	5330
825.787	5341
825.927	5353
826.067	5341
826.206	5280
826.346	5398
826.485	5383
826.625	5414
826.765	5573
826.904	5436
827.044	5277
827.183	5185
827.323	5121
827.462	5265
827.601	5140
827.741	5155
827.88	5250
828.02	5147
828.159	5204
828.298	5284
828.437	5364
828.577	5273
828.716	5520
828.855	5326
828.994	5204
829.134	5170
829.273	5185
829.412	5174
829.551	5166
829.69	5147
829.829	5242
829.968	5372
830.107	5322
830.246	5231
830.385	5189
830.524	5151
830.663	5128
830.802	4942
830.941	4892
831.08	4870
831.219	4980
831.357	4972
831.496	5124
831.635	4904
831.774	4854
831.913	4847
832.051	4702
832.19	4755
832.329	4828
832.467	4714
832.606	4622
832.744	4725
832.883	4710
833.022	4710
833.16	4790
833.299	4790
833.437	4850
833.576	4793
833.714	4839
833.852	4885
833.991	4877
834.129	4892
834.267	4972
834.406	4892
834.544	4942
834.682	4930
834.821	4946
834.959	5136
835.097	4968
835.235	5170
835.373	5052
835.511	5128
835.65	5056
835.788	5048
835.926	4889
836.064	4896
836.202	4930
836.34	5178
836.478	5197
836.615	5094
836.753	5162
836.891	5258
837.029	5246
837.167	5174
837.305	5128
837.443	5109
837.58	5105
837.718	5246
837.856	5197
837.993	5136
838.131	5174
838.269	5246
838.406	5223
838.544	5140
838.681	5048
838.819	5014
838.956	4885
839.094	4900
839.231	4946
839.369	5094
839.506	5391
839.643	5212
839.781	5090
839.918	5079
840.055	5071
840.193	5105
840.33	5071
840.467	5151
840.604	5216
840.742	5417
840.879	5136
841.016	5121
841.153	5189
841.29	5376
841.427	5280
841.564	5292
841.701	5318
841.838	5254
841.975	5269
842.112	5296
842.249	5159
842.385	5132
842.522	5303
842.659	5212
842.796	5136
842.933	5197
843.069	5105
843.206	5174
843.343	5311
843.479	5227
843.616	5242
843.752	4995
843.889	5006
844.025	5178
844.162	5029
844.298	5223
844.435	5113
844.571	5060
844.708	5178
844.844	5292
844.98	5299
845.117	5277
845.253	5197
845.389	5124
845.525	5174
845.661	5132
845.798	5075
845.934	5132
846.07	5010
846.206	5143
846.342	5269
846.478	5181
846.614	5048
846.75	5003
846.886	4911
847.022	5143
847.158	4991
847.294	5060
847.429	5132
847.565	5025
847.701	5349
847.837	4831
847.972	4812
848.108	4957
848.244	4927
848.379	4816
848.515	4759
848.65	4687
848.786	4744
848.921	4824
849.057	4900
849.192	4877
849.328	4816
849.463	4835
849.598	4801
849.734	4740
849.869	4672
850.004	4656
850.14	4634
850.275	4634
850.41	4531
850.545	4550
850.68	4584
850.815	4630
850.95	4603
851.085	4850
851.22	4755
851.355	4733
851.49	4672
851.625	4672
851.76	4603
851.895	4554
852.03	4519
852.165	4618
852.299	4706
852.434	4809
852.569	4744
852.703	4774
852.838	4748
852.973	4892
853.107	4866
853.242	4752
853.376	4649
853.511	4565
853.645	4618
853.78	4816
853.914	4664
854.048	4698
854.183	4637
854.317	4668
854.451	4801
854.585	4656
854.72	4618
854.854	4733
854.988	4599
855.122	4592
855.256	4519
855.39	4637
855.524	4748
855.658	4691
855.792	4706
855.926	4683
856.06	4755
856.194	4790
856.327	4675
856.461	4584
856.595	4626
856.729	4592
856.862	4733
856.996	4672
857.13	4694
857.263	4736
857.397	4782
857.53	4630
857.664	4710
857.797	4778
857.931	4767
858.064	4634
858.197	4740
858.331	4660
858.464	4615
858.597	4512
858.731	4618
858.864	4592
858.997	4634
859.13	4634
859.263	4694
859.396	4694
859.529	4603
859.662	4592
859.795	4523
859.928	4615
860.061	4740
860.194	4771
860.327	4618
860.46	4584
860.592	4649
860.725	4725
860.858	4714
860.99	4611
861.123	4512
861.256	4485
861.388	4550
861.521	5280
861.653	4508
861.786	4428
861.918	4455
862.05	4485
862.183	4561
862.315	4569
862.447	4618
862.58	4516
862.712	4424
862.844	4310
862.976	4440
863.108	4455
863.24	4816
863.372	4325
863.504	4459
863.636	4356
863.768	4504
863.9	4424
864.032	4383
864.164	4383
864.296	4451
864.428	4535
864.559	4535
864.691	4519
864.823	4466
864.954	4462
865.086	4546
865.217	4451
865.349	4405
865.48	4424
865.612	4478
865.743	4588
865.875	4443
866.006	4421
866.137	4447
866.269	4451
866.4	4424
866.531	4428
866.662	4436
866.793	4356
866.924	4386
867.055	4519
867.186	4443
867.317	4394
867.448	4398
867.579	4379
867.71	4363
867.841	4379
867.972	4417
868.103	4421
868.233	4390
868.364	4451
868.495	4459
868.625	4656
868.756	4736
868.886	4607
869.017	4599
869.147	4733
869.278	4759
869.408	4660
869.539	4615
869.669	4733
869.799	4649
869.929	4790
870.06	4717
870.19	4946
870.32	4938
870.45	4938
870.58	5014
870.71	5041
870.84	5128
870.97	4904
871.1	4915
871.23	5155
871.36	5140
871.489	5064
871.619	5022
871.749	5079
871.879	5113
872.008	5132
872.138	5033
872.267	5003
872.397	4862
872.526	4767
872.656	4691
872.785	4790
872.915	4961
873.044	5018
873.173	4911
873.303	4908
873.432	4972
873.561	4953
873.69	4824
873.819	4866
873.948	4923
874.077	4809
874.206	4733
874.335	4801
874.464	4923
874.593	5010
874.722	4942
874.851	5098
874.979	5048
875.108	4995
875.237	4965
875.365	4892
875.494	4889
875.623	4953
875.751	4793
875.88	4919
876.008	4991
876.136	5006
876.265	5159
876.393	5318
876.521	5208
876.65	5208
876.778	5185
876.906	5075
877.034	5022
877.162	4980
877.29	4980
877.418	5029
877.546	5045
877.674	4980
877.802	5025
877.93	5018
878.058	4877
878.185	4862
878.313	4904
878.441	4911
878.568	4744
878.696	4892
878.824	4976
878.951	5010
879.079	5128
879.206	5307
879.333	5060
879.461	4968
879.588	5029
879.715	5113
879.842	5242
879.97	4995
880.097	4824
880.224	4736
880.351	4759
880.478	4873
880.605	4782
880.732	4752
880.859	5067
880.986	4900
881.112	4858
881.239	4793
881.366	4615
881.493	4603
881.619	4573
881.746	4660
881.872	4615
881.999	4698
882.125	4656
882.252	4733
882.378	4820
882.505	4949
882.631	4812
882.757	4675
882.883	4683
883.01	4721
883.136	4660
883.262	4580
883.388	4599
883.514	4748
883.64	4835
883.766	4786
883.892	4691
884.018	4748
884.143	4881
884.269	5029
884.395	4675
884.52	4599
884.646	4626
884.772	4588
884.897	4599
885.023	4649
885.148	4763
885.274	4816
885.399	4797
885.524	4710
885.65	4691
885.775	4733
885.9	4660
886.025	4843
886.15	4771
886.275	4687
886.4	4691
886.525	4725
886.65	4683
886.775	4687
886.9	4900
887.025	5018
887.149	4797
887.274	4634
887.399	4596
887.523	4611
887.648	4577
887.773	4558
887.897	4763
888.021	4831
888.146	4656
888.27	4809
888.395	4877
888.519	4809
888.643	4805
888.767	4812
888.891	4694
889.015	4611
889.139	4691
889.263	4622
889.387	4759
889.511	4843
889.635	4801
889.759	4615
889.883	4626
890.006	4767
890.13	4843
890.254	4611
890.377	4675
890.501	4558
890.624	4546
890.748	4672
890.871	4481
890.995	4409
891.118	4367
891.241	4531
891.364	4550
891.488	4645
891.611	4500
891.734	4493
891.857	4653
891.98	4554
892.103	4637
892.226	4573
892.349	4508
892.471	4375
892.594	4500
892.717	4607
892.839	4573
892.962	4558
893.085	4592
893.207	4584
893.33	4443
893.452	4508
893.575	4668
893.697	4550
893.819	4816
893.941	4847
894.064	4740
894.186	4546
894.308	4561
894.43	4748
894.552	4801
894.674	4752
894.796	4523
894.918	4565
895.04	4558
895.161	4660
895.283	4656
895.405	4584
895.526	4622
895.648	4694
895.769	4649
895.891	4714
896.012	4736
896.134	4679
896.255	4653
896.376	4641
896.498	4603
896.619	4691
896.74	4607
896.861	4607
896.982	4934
897.103	5018
897.224	4839
897.345	4763
897.466	4675
897.587	4740
897.708	4831
897.828	4736
897.949	4626
898.07	4516
898.19	4626
898.311	4801
898.431	4660
898.552	4725
898.672	4797
898.792	4824
898.913	4675
899.033	4649
899.153	4535
899.273	4413
899.393	4497
899.513	4531
899.633	4561
899.753	4500
899.873	4512
899.993	4584
900.113	4489
900.232	4584
900.352	4512
900.472	4481
900.591	4413
900.711	4462
900.83	4466
900.95	4603
901.069	4660
901.189	4535
901.308	4333
901.427	4352
901.546	4348
901.665	4462
901.784	4474
901.904	4413
902.023	4337
902.141	4181
902.26	4143
902.379	4299
902.498	4246
902.617	4253
902.735	4356
902.854	4440
902.973	4383
903.091	4150
903.21	4173
903.328	4299
903.446	4306
903.565	4238
903.683	4363
903.801	4276
903.919	4386
904.038	4451
904.156	4329
904.274	4451
904.392	4383
904.51	4417
904.627	4459
904.745	4538
904.863	4622
904.981	4421
905.098	4306
905.216	4390
905.334	4443
905.451	4443
905.569	4432
905.686	4546
905.803	4577
905.921	4455
906.038	4527
906.155	4470
906.272	4337
906.389	4497
906.506	4344
906.623	4363
906.74	4356
906.857	4333
906.974	4341
907.091	4561
907.208	4714
907.324	4561
907.441	4481
907.557	4363
907.674	4360
907.79	4314
907.907	4371
908.023	4474
908.139	4466
908.256	4394
908.372	4519
908.488	4424
908.604	4348
908.72	4341
908.836	4367
908.952	4333
909.068	4394
909.184	4500
909.3	4485
909.415	4546
909.531	4504
909.647	4360
909.762	4424
909.878	4341
909.993	4440
910.108	4402
910.224	4428
910.339	4428
910.454	4432
910.57	4360
910.685	4287
910.8	4630
910.915	4573
911.03	4481
911.145	4341
911.259	4341
911.374	4306
911.489	4272
911.604	4268
911.718	4177
911.833	4185
911.947	4093
912.062	4006
912.176	4230
912.291	4211
912.405	4207
912.519	4432
912.633	4447
912.748	4371
912.862	4299
912.976	4204
913.09	4120
913.204	4196
913.318	4242
913.431	4348
913.545	4386
913.659	4417
913.772	4379
913.886	4253
914	4211
914.113	4371
914.226	4428
914.34	4386
914.453	4223
914.566	4417
914.68	4287
914.793	4295
914.906	4162
915.019	4128
915.132	4090
915.245	4101
915.358	4192
915.47	4200
915.583	4219
915.696	4333
915.809	4417
915.921	4402
916.034	4246
916.146	4276
916.259	4257
916.371	4394
916.483	4360
916.595	4284
916.708	4344
916.82	4303
916.932	4284
917.044	4322
917.156	4333
917.268	4200
917.38	4299
917.491	4265
917.603	4386
917.715	4455
917.826	4440
917.938	4325
918.049	4268
918.161	4386
918.272	4527
918.384	4481
918.495	4402
918.606	4242
918.717	4261
918.828	4367
918.939	4379
919.05	4249
919.161	4314
919.272	4101
919.383	4204
919.494	4428
919.604	4573
919.715	4421
919.826	4360
919.936	4390
920.047	4535
920.157	4500
920.267	4675
920.378	4516
920.488	4485
920.598	4702
920.708	4904
920.818	4740
920.928	4717
921.038	4908
921.148	4915
921.258	4664
921.368	4554
921.477	4504
921.587	4424
921.697	4341
921.806	4527
921.916	4443
922.025	4276
922.134	4337
922.244	4261
922.353	4344
922.462	4143
922.571	4124
922.68	3998
922.789	3941
922.898	3991
923.007	3987
923.116	4124
923.224	4090
923.333	4048
923.442	4029
923.55	3979
923.659	4040
923.767	4048
923.876	4017
923.984	4112
924.092	4010
924.201	4029
924.309	4078
924.417	4093
924.525	4040
924.633	4067
924.741	4995
924.849	3915
924.956	4105
925.064	3975
925.172	3861
925.279	3964
925.387	4048
925.494	4067
925.602	4219
925.709	4215
925.816	4067
925.924	4135
926.031	4200
926.138	4139
926.245	4219
926.352	4097
926.459	4242
926.566	4348
926.673	4162
926.779	4074
926.886	4040
926.993	3983
927.099	3956
927.206	3975
927.312	3956
927.419	4067
927.525	4017
927.631	4082
927.737	3998
927.843	3896
927.95	3880
928.056	4002
928.162	3987
928.267	4067
928.373	4683
928.479	4116
928.585	3850
928.69	4029
928.796	4105
928.901	3949
929.007	3831
929.112	4063
929.218	3945
929.323	3964
929.428	3945
929.533	4135
929.638	3907
929.743	3930
929.848	4040
929.953	3983
930.058	3918
930.163	3743
930.267	3835
930.372	3994
930.477	3816
930.581	4044
930.685	3934
930.79	3781
930.894	3899
930.998	3850
931.103	4021
931.207	3690
931.311	3671
931.415	3686
931.519	3473
931.623	3500
