Data from test_V78500241_372.txt Node
Date: Fri Mar 25 16:51:35 CST 2022
User: usil
Spectrometer: V785-0024
Trigger mode: 0
Integration Time (sec): 4.000000E-1
Scans to average: 1
Nonlinearity correction enabled: false
Boxcar width: 0
Storing dark spectrum: false
XAxis mode: Wavelengths
Number of Pixels in Spectrum: 1024
>>>>>Begin Spectral Data<<<<<
801.071	8195
801.214	8100
801.356	7963
801.499	7925
801.641	7875
801.783	7837
801.926	8012
802.068	7944
802.211	8035
802.353	8039
802.496	7928
802.638	7959
802.78	7997
802.923	7955
803.065	7921
803.208	7932
803.35	8012
803.492	8157
803.635	8138
803.777	8012
803.919	8111
804.061	8457
804.204	8240
804.346	8100
804.488	8027
804.63	8172
804.773	8058
804.915	8191
805.057	8377
805.199	8225
805.341	8305
805.483	8305
805.626	8358
805.768	8069
805.91	8187
806.052	8343
806.194	8221
806.336	8374
806.478	8206
806.62	8202
806.762	8172
806.904	8362
807.046	8522
807.188	8431
807.33	8404
807.472	8355
807.614	8183
807.756	8153
807.898	8119
808.04	7909
808.182	7970
808.324	7959
808.465	8008
808.607	8115
808.749	8183
808.891	8328
809.033	8389
809.174	8187
809.316	8054
809.458	8134
809.6	8043
809.741	8054
809.883	8145
810.025	8050
810.166	8138
810.308	8103
810.45	8024
810.591	7936
810.733	7795
810.875	7780
811.016	7563
811.158	7578
811.299	7761
811.441	7860
811.582	7750
811.724	7693
811.865	7636
812.007	7685
812.148	7689
812.29	7670
812.431	7849
812.573	7970
812.714	8069
812.855	8199
812.997	8271
813.138	8366
813.279	8263
813.421	8176
813.562	8050
813.703	7970
813.845	7811
813.986	7518
814.127	7422
814.268	7236
814.41	7308
814.551	7217
814.692	7305
814.833	7088
814.974	7133
815.115	7152
815.256	7053
815.397	6943
815.539	7042
815.68	6867
815.821	6848
815.962	6863
816.103	6890
816.244	6772
816.385	6741
816.526	6722
816.666	6517
816.807	6380
816.948	6509
817.089	6509
817.23	6475
817.371	6399
817.512	6448
817.653	6426
817.793	6467
817.934	6479
818.075	6536
818.216	6448
818.356	6460
818.497	6292
818.638	6182
818.778	6251
818.919	6251
819.06	6178
819.2	6346
819.341	6323
819.481	6369
819.622	6616
819.762	6776
819.903	6726
820.043	6662
820.184	6601
820.324	6616
820.465	6730
820.605	6677
820.746	6650
820.886	6475
821.026	6711
821.167	6768
821.307	6844
821.447	6821
821.588	6703
821.728	6597
821.868	6551
822.008	6331
822.149	6365
822.289	6418
822.429	6190
822.569	6125
822.709	6175
822.849	5942
822.99	5973
823.13	5954
823.27	5996
823.41	5893
823.55	5832
823.69	5828
823.83	5805
823.97	5676
824.11	5596
824.25	5573
824.389	5570
824.529	5634
824.669	5554
824.809	5710
824.949	5642
825.089	5657
825.228	5573
825.368	5474
825.508	5421
825.648	5345
825.787	5402
825.927	5387
826.067	5376
826.206	5414
826.346	5429
826.485	5440
826.625	5455
826.765	5562
826.904	5573
827.044	5284
827.183	5239
827.323	5132
827.462	5330
827.601	5261
827.741	5242
827.88	5254
828.02	5193
828.159	5288
828.298	5307
828.437	5372
828.577	5292
828.716	5490
828.855	5318
828.994	5212
829.134	5212
829.273	5216
829.412	5197
829.551	5121
829.69	5185
829.829	5235
829.968	5395
830.107	5307
830.246	5258
830.385	5242
830.524	5189
830.663	5151
830.802	4995
830.941	4889
831.08	4923
831.219	5052
831.357	5041
831.496	5269
831.635	4957
831.774	4892
831.913	4881
832.051	4771
832.19	4786
832.329	4877
832.467	4733
832.606	4664
832.744	4759
832.883	4763
833.022	4786
833.16	4797
833.299	4870
833.437	4885
833.576	4892
833.714	4896
833.852	4896
833.991	4927
834.129	4949
834.267	4961
834.406	4946
834.544	5018
834.682	5022
834.821	4946
834.959	5204
835.097	5037
835.235	5204
835.373	5162
835.511	5083
835.65	5029
835.788	5124
835.926	4968
836.064	4927
836.202	4980
836.34	5235
836.478	5258
836.615	5121
836.753	5208
836.891	5330
837.029	5334
837.167	5216
837.305	5212
837.443	5151
837.58	5140
837.718	5277
837.856	5254
837.993	5235
838.131	5280
838.269	5235
838.406	5261
838.544	5212
838.681	5083
838.819	5083
838.956	4927
839.094	4957
839.231	5029
839.369	5075
839.506	5444
839.643	5277
839.781	5071
839.918	5075
840.055	5128
840.193	5136
840.33	5143
840.467	5223
840.604	5189
840.742	5467
840.879	5140
841.016	5151
841.153	5121
841.29	5406
841.427	5402
841.564	5360
841.701	5379
841.838	5311
841.975	5246
842.112	5273
842.249	5124
842.385	5105
842.522	5368
842.659	5197
842.796	5170
842.933	5269
843.069	5231
843.206	5201
843.343	5311
843.479	5273
843.616	5280
843.752	5037
843.889	5075
844.025	5254
844.162	5022
844.298	5197
844.435	5117
844.571	5045
844.708	5277
844.844	5360
844.98	5368
845.117	5345
845.253	5189
845.389	5109
845.525	5197
845.661	5189
845.798	5060
845.934	5159
846.07	5090
846.206	5239
846.342	5345
846.478	5197
846.614	5010
846.75	4999
846.886	4991
847.022	5162
847.158	5045
847.294	5102
847.429	5155
847.565	5109
847.701	5391
847.837	4900
847.972	4831
848.108	5041
848.244	4976
848.379	4812
848.515	4755
848.65	4755
848.786	4801
848.921	4790
849.057	4854
849.192	4942
849.328	4847
849.463	4866
849.598	4812
849.734	4774
849.869	4744
850.004	4641
850.14	4763
850.275	4622
850.41	4546
850.545	4615
850.68	4611
850.815	4641
850.95	4656
851.085	4847
851.22	4782
851.355	4694
851.49	4641
851.625	4653
851.76	4675
851.895	4645
852.03	4554
852.165	4664
852.299	4755
852.434	4828
852.569	4801
852.703	4797
852.838	4919
852.973	4995
853.107	4919
853.242	4778
853.376	4744
853.511	4607
853.645	4645
853.78	4782
853.914	4687
854.048	4729
854.183	4691
854.317	4694
854.451	4843
854.585	4691
854.72	4615
854.854	4801
854.988	4607
855.122	4645
855.256	4542
855.39	4729
855.524	4820
855.658	4721
855.792	4717
855.926	4839
856.06	4736
856.194	4824
856.327	4706
856.461	4596
856.595	4668
856.729	4618
856.862	4790
856.996	4771
857.13	4755
857.263	4771
857.397	4820
857.53	4675
857.664	4717
857.797	4767
857.931	4816
858.064	4733
858.197	4801
858.331	4653
858.464	4637
858.597	4554
858.731	4653
858.864	4672
858.997	4630
859.13	4641
859.263	4668
859.396	4672
859.529	4645
859.662	4535
859.795	4569
859.928	4607
860.061	4763
860.194	4847
860.327	4675
860.46	4584
860.592	4706
860.725	4706
860.858	4721
860.99	4599
861.123	4561
861.256	4584
861.388	4637
861.521	5391
861.653	4523
861.786	4497
861.918	4478
862.05	4519
862.183	4531
862.315	4622
862.447	4683
862.58	4611
862.712	4474
862.844	4341
862.976	4508
863.108	4474
863.24	4816
863.372	4352
863.504	4428
863.636	4451
863.768	4497
863.9	4417
864.032	4436
864.164	4405
864.296	4497
864.428	4577
864.559	4611
864.691	4542
864.823	4535
864.954	4512
865.086	4508
865.217	4546
865.349	4424
865.48	4432
865.612	4470
865.743	4641
865.875	4508
866.006	4462
866.137	4516
866.269	4451
866.4	4504
866.531	4466
866.662	4436
866.793	4443
866.924	4466
867.055	4508
867.186	4478
867.317	4436
867.448	4402
867.579	4402
867.71	4405
867.841	4390
867.972	4451
868.103	4489
868.233	4451
868.364	4504
868.495	4535
868.625	4694
868.756	4790
868.886	4599
869.017	4653
869.147	4793
869.278	4759
869.408	4672
869.539	4706
869.669	4721
869.799	4664
869.929	4755
870.06	4759
870.19	4999
870.32	4942
870.45	4896
870.58	5029
870.71	5166
870.84	5128
870.97	4995
871.1	4908
871.23	5178
871.36	5155
871.489	5056
871.619	5075
871.749	5143
871.879	5121
872.008	5170
872.138	5010
872.267	5033
872.397	4866
872.526	4801
872.656	4771
872.785	4820
872.915	4976
873.044	5083
873.173	5010
873.303	5018
873.432	4968
873.561	4972
873.69	4911
873.819	4881
873.948	4942
874.077	4835
874.206	4755
874.335	4774
874.464	4976
874.593	5086
874.722	4911
874.851	5128
874.979	5037
875.108	5060
875.237	4908
875.365	4938
875.494	4858
875.623	4987
875.751	4850
875.88	4927
876.008	4946
876.136	5045
876.265	5220
876.393	5357
876.521	5220
876.65	5277
876.778	5181
876.906	5124
877.034	5029
877.162	5105
877.29	5060
877.418	5052
877.546	5052
877.674	5045
877.802	5048
877.93	5041
878.058	4987
878.185	4889
878.313	4987
878.441	4957
878.568	4763
878.696	4866
878.824	4972
878.951	5033
879.079	5105
879.206	5330
879.333	5162
879.461	4968
879.588	5037
879.715	5151
879.842	5197
879.97	5037
880.097	4812
880.224	4805
880.351	4790
880.478	4877
880.605	4786
880.732	4809
880.859	5102
880.986	4896
881.112	4923
881.239	4782
881.366	4679
881.493	4660
881.619	4618
881.746	4637
881.872	4698
881.999	4683
882.125	4733
882.252	4862
882.378	4782
882.505	4953
882.631	4831
882.757	4710
882.883	4748
883.01	4752
883.136	4691
883.262	4592
883.388	4611
883.514	4812
883.64	4828
883.766	4797
883.892	4691
884.018	4744
884.143	4900
884.269	5018
884.395	4664
884.52	4603
884.646	4626
884.772	4615
884.897	4561
885.023	4679
885.148	4824
885.274	4850
885.399	4843
885.524	4714
885.65	4630
885.775	4755
885.9	4733
886.025	4870
886.15	4790
886.275	4721
886.4	4649
886.525	4736
886.65	4729
886.775	4714
886.9	4927
887.025	5037
887.149	4824
887.274	4675
887.399	4653
887.523	4615
887.648	4626
887.773	4634
887.897	4805
888.021	4839
888.146	4679
888.27	4843
888.395	4919
888.519	4767
888.643	4828
888.767	4809
888.891	4679
889.015	4641
889.139	4641
889.263	4637
889.387	4790
889.511	4858
889.635	4763
889.759	4668
889.883	4656
890.006	4729
890.13	4892
890.254	4679
890.377	4675
890.501	4588
890.624	4519
890.748	4615
890.871	4523
890.995	4443
891.118	4398
891.241	4535
891.364	4569
891.488	4592
891.611	4527
891.734	4512
891.857	4596
891.98	4565
892.103	4645
892.226	4611
892.349	4485
892.471	4443
892.594	4561
892.717	4672
892.839	4550
892.962	4592
893.085	4687
893.207	4584
893.33	4466
893.452	4527
893.575	4675
893.697	4634
893.819	4839
893.941	4831
894.064	4786
894.186	4531
894.308	4550
894.43	4755
894.552	4850
894.674	4729
894.796	4565
894.918	4592
895.04	4573
895.161	4706
895.283	4660
895.405	4607
895.526	4615
895.648	4694
895.769	4710
895.891	4755
896.012	4744
896.134	4786
896.255	4679
896.376	4649
896.498	4580
896.619	4729
896.74	4611
896.861	4653
896.982	4904
897.103	5102
897.224	4820
897.345	4721
897.466	4687
897.587	4759
897.708	4839
897.828	4748
897.949	4736
898.07	4588
898.19	4603
898.311	4847
898.431	4664
898.552	4755
898.672	4816
898.792	4809
898.913	4786
899.033	4672
899.153	4527
899.273	4424
899.393	4508
899.513	4523
899.633	4550
899.753	4550
899.873	4504
899.993	4603
900.113	4519
900.232	4584
900.352	4519
900.472	4462
900.591	4379
900.711	4508
900.83	4405
900.95	4641
901.069	4729
901.189	4577
901.308	4344
901.427	4337
901.546	4375
901.665	4466
901.784	4527
901.904	4398
902.023	4329
902.141	4227
902.26	4158
902.379	4310
902.498	4268
902.617	4211
902.735	4394
902.854	4440
902.973	4390
903.091	4230
903.21	4177
903.328	4318
903.446	4261
903.565	4249
903.683	4360
903.801	4310
903.919	4421
904.038	4470
904.156	4314
904.274	4440
904.392	4394
904.51	4478
904.627	4500
904.745	4542
904.863	4626
904.981	4398
905.098	4284
905.216	4383
905.334	4481
905.451	4436
905.569	4470
905.686	4573
905.803	4550
905.921	4466
906.038	4512
906.155	4489
906.272	4455
906.389	4489
906.506	4375
906.623	4402
906.74	4356
906.857	4322
906.974	4386
907.091	4538
907.208	4736
907.324	4573
907.441	4459
907.557	4348
907.674	4344
907.79	4325
907.907	4421
908.023	4432
908.139	4497
908.256	4447
908.372	4508
908.488	4451
908.604	4360
908.72	4348
908.836	4405
908.952	4436
909.068	4436
909.184	4565
909.3	4470
909.415	4607
909.531	4558
909.647	4360
909.762	4417
909.878	4306
909.993	4371
910.108	4440
910.224	4447
910.339	4470
910.454	4375
910.57	4383
910.685	4363
910.8	4641
910.915	4622
911.03	4519
911.145	4356
911.259	4322
911.374	4386
911.489	4284
911.604	4276
911.718	4196
911.833	4249
911.947	4078
912.062	4040
912.176	4204
912.291	4306
912.405	4223
912.519	4447
912.633	4500
912.748	4375
912.862	4344
912.976	4234
913.09	4109
913.204	4185
913.318	4268
913.431	4348
913.545	4360
913.659	4394
913.772	4348
913.886	4265
914	4223
914.113	4417
914.226	4455
914.34	4424
914.453	4265
914.566	4428
914.68	4276
914.793	4322
914.906	4181
915.019	4150
915.132	4086
915.245	4173
915.358	4230
915.47	4227
915.583	4299
915.696	4318
915.809	4398
915.921	4455
916.034	4314
916.146	4246
916.259	4181
916.371	4390
916.483	4341
916.595	4253
916.708	4379
916.82	4344
916.932	4344
917.044	4337
917.156	4310
917.268	4246
917.38	4272
917.491	4265
917.603	4360
917.715	4413
917.826	4409
917.938	4356
918.049	4261
918.161	4405
918.272	4596
918.384	4546
918.495	4436
918.606	4291
918.717	4280
918.828	4314
918.939	4394
919.05	4257
919.161	4329
919.272	4101
919.383	4268
919.494	4470
919.604	4588
919.715	4417
919.826	4371
919.936	4352
920.047	4558
920.157	4538
920.267	4664
920.378	4558
920.488	4504
920.598	4717
920.708	4889
920.818	4736
920.928	4759
921.038	5033
921.148	4908
921.258	4618
921.368	4599
921.477	4481
921.587	4493
921.697	4379
921.806	4573
921.916	4440
922.025	4299
922.134	4280
922.244	4234
922.353	4314
922.462	4177
922.571	4139
922.68	3998
922.789	3975
922.898	4021
923.007	4017
923.116	4078
923.224	4071
923.333	4074
923.442	3972
923.55	3994
923.659	4048
923.767	4101
923.876	3991
923.984	4116
924.092	3991
924.201	4051
924.309	4105
924.417	4128
924.525	4082
924.633	4078
924.741	4858
924.849	3903
924.956	4177
925.064	3968
925.172	3899
925.279	3876
925.387	4082
925.494	4040
925.602	4200
925.709	4196
925.816	4059
925.924	4150
926.031	4196
926.138	4177
926.245	4242
926.352	4090
926.459	4253
926.566	4363
926.673	4166
926.779	4086
926.886	4074
926.993	3983
927.099	3979
927.206	3968
927.312	3949
927.419	4048
927.525	4055
927.631	4074
927.737	3964
927.843	3937
927.95	3873
928.056	3915
928.162	4013
928.267	4032
928.373	4706
928.479	4112
928.585	3831
928.69	4055
928.796	4074
928.901	3991
929.007	3842
929.112	4063
929.218	3979
929.323	3972
929.428	3968
929.533	4074
929.638	3956
929.743	3922
929.848	4048
929.953	4036
930.058	3941
930.163	3770
930.267	3857
930.372	4010
930.477	3774
930.581	4090
930.685	3953
930.79	3835
930.894	3926
930.998	3876
931.103	4093
931.207	3713
931.311	3720
931.415	3690
931.519	3530
931.623	3538
