Data from test_V78500241_106.txt Node
Date: Fri Mar 25 16:49:44 CST 2022
User: usil
Spectrometer: V785-0024
Trigger mode: 0
Integration Time (sec): 4.000000E-1
Scans to average: 1
Nonlinearity correction enabled: false
Boxcar width: 0
Storing dark spectrum: false
XAxis mode: Wavelengths
Number of Pixels in Spectrum: 1024
>>>>>Begin Spectral Data<<<<<
801.071	8062
801.214	8054
801.356	7909
801.499	7845
801.641	7883
801.783	7864
801.926	8073
802.068	7928
802.211	7967
802.353	8043
802.496	7944
802.638	7959
802.78	7959
802.923	7913
803.065	7898
803.208	7864
803.35	7967
803.492	8069
803.635	8126
803.777	7978
803.919	8096
804.061	8320
804.204	8142
804.346	7997
804.488	7917
804.63	8096
804.773	8001
804.915	8130
805.057	8233
805.199	8138
805.341	8214
805.483	8187
805.626	8145
805.768	8115
805.91	8187
806.052	8225
806.194	8111
806.336	8237
806.478	8172
806.62	8153
806.762	8183
806.904	8313
807.046	8423
807.188	8298
807.33	8320
807.472	8328
807.614	8206
807.756	8153
807.898	8046
808.04	7986
808.182	7871
808.324	7864
808.465	7932
808.607	8054
808.749	8005
808.891	8282
809.033	8298
809.174	8142
809.316	8031
809.458	8081
809.6	7997
809.741	8031
809.883	8065
810.025	8126
810.166	8084
810.308	8119
810.45	8039
810.591	7898
810.733	7670
810.875	7658
811.016	7636
811.158	7521
811.299	7578
811.441	7765
811.582	7750
811.724	7639
811.865	7628
812.007	7662
812.148	7639
812.29	7677
812.431	7826
812.573	7913
812.714	8039
812.855	8218
812.997	8275
813.138	8396
813.279	8267
813.421	8202
813.562	8054
813.703	7906
813.845	7738
813.986	7487
814.127	7308
814.268	7324
814.41	7221
814.551	7228
814.692	7221
814.833	7164
814.974	7133
815.115	7133
815.256	7057
815.397	6954
815.539	7012
815.68	6859
815.821	6779
815.962	6848
816.103	6848
816.244	6703
816.385	6669
816.526	6662
816.666	6547
816.807	6414
816.948	6448
817.089	6498
817.23	6448
817.371	6456
817.512	6395
817.653	6422
817.793	6372
817.934	6479
818.075	6410
818.216	6456
818.356	6414
818.497	6266
818.638	6152
818.778	6186
818.919	6213
819.06	6190
819.2	6308
819.341	6353
819.481	6437
819.622	6623
819.762	6829
819.903	6741
820.043	6608
820.184	6566
820.324	6616
820.465	6741
820.605	6692
820.746	6635
820.886	6513
821.026	6703
821.167	6703
821.307	6814
821.447	6833
821.588	6665
821.728	6574
821.868	6536
822.008	6311
822.149	6422
822.289	6380
822.429	6163
822.569	6083
822.709	6152
822.849	5939
822.99	5954
823.13	5931
823.27	5946
823.41	5817
823.55	5844
823.69	5794
823.83	5802
823.97	5695
824.11	5543
824.25	5554
824.389	5554
824.529	5653
824.669	5535
824.809	5657
824.949	5657
825.089	5646
825.228	5547
825.368	5372
825.508	5315
825.648	5349
825.787	5368
825.927	5315
826.067	5315
826.206	5353
826.346	5429
826.485	5383
826.625	5452
826.765	5535
826.904	5532
827.044	5250
827.183	5178
827.323	5140
827.462	5258
827.601	5208
827.741	5231
827.88	5246
828.02	5174
828.159	5223
828.298	5341
828.437	5398
828.577	5307
828.716	5505
828.855	5345
828.994	5189
829.134	5143
829.273	5189
829.412	5151
829.551	5121
829.69	5193
829.829	5277
829.968	5379
830.107	5269
830.246	5269
830.385	5227
830.524	5166
830.663	5109
830.802	5003
830.941	4930
831.08	4904
831.219	5041
831.357	4995
831.496	5181
831.635	4919
831.774	4923
831.913	4858
832.051	4763
832.19	4767
832.329	4870
832.467	4694
832.606	4641
832.744	4763
832.883	4717
833.022	4733
833.16	4790
833.299	4839
833.437	4812
833.576	4877
833.714	4862
833.852	4896
833.991	4847
834.129	4976
834.267	4984
834.406	4919
834.544	4972
834.682	4957
834.821	5003
834.959	5201
835.097	5033
835.235	5197
835.373	5128
835.511	5079
835.65	5102
835.788	5048
835.926	4991
836.064	4881
836.202	4927
836.34	5201
836.478	5254
836.615	5151
836.753	5261
836.891	5299
837.029	5288
837.167	5204
837.305	5170
837.443	5178
837.58	5071
837.718	5246
837.856	5212
837.993	5155
838.131	5258
838.269	5216
838.406	5201
838.544	5216
838.681	5083
838.819	5029
838.956	4896
839.094	4900
839.231	4949
839.369	5041
839.506	5414
839.643	5277
839.781	5113
839.918	5010
840.055	5151
840.193	5109
840.33	5075
840.467	5151
840.604	5166
840.742	5505
840.879	5083
841.016	5083
841.153	5166
841.29	5395
841.427	5341
841.564	5330
841.701	5406
841.838	5269
841.975	5261
842.112	5261
842.249	5204
842.385	5132
842.522	5330
842.659	5193
842.796	5162
842.933	5223
843.069	5216
843.206	5105
843.343	5307
843.479	5220
843.616	5296
843.752	5052
843.889	4968
844.025	5216
844.162	5025
844.298	5197
844.435	5067
844.571	5083
844.708	5181
844.844	5322
844.98	5330
845.117	5303
845.253	5174
845.389	5109
845.525	5197
845.661	5124
845.798	5071
845.934	5136
846.07	5010
846.206	5151
846.342	5288
846.478	5132
846.614	5041
846.75	4968
846.886	4953
847.022	5155
847.158	5048
847.294	5117
847.429	5170
847.565	5075
847.701	5326
847.837	4881
847.972	4870
848.108	4980
848.244	4999
848.379	4797
848.515	4740
848.65	4725
848.786	4793
848.921	4763
849.057	4847
849.192	4904
849.328	4873
849.463	4850
849.598	4820
849.734	4801
849.869	4729
850.004	4607
850.14	4664
850.275	4626
850.41	4546
850.545	4577
850.68	4641
850.815	4664
850.95	4664
851.085	4858
851.22	4759
851.355	4694
851.49	4675
851.625	4675
851.76	4660
851.895	4603
852.03	4561
852.165	4687
852.299	4694
852.434	4801
852.569	4793
852.703	4816
852.838	4896
852.973	4927
853.107	4904
853.242	4706
853.376	4687
853.511	4603
853.645	4611
853.78	4816
853.914	4717
854.048	4698
854.183	4698
854.317	4729
854.451	4820
854.585	4675
854.72	4698
854.854	4759
854.988	4596
855.122	4687
855.256	4500
855.39	4714
855.524	4850
855.658	4748
855.792	4687
855.926	4721
856.06	4774
856.194	4820
856.327	4679
856.461	4664
856.595	4714
856.729	4622
856.862	4801
856.996	4653
857.13	4725
857.263	4752
857.397	4801
857.53	4634
857.664	4679
857.797	4774
857.931	4748
858.064	4698
858.197	4744
858.331	4687
858.464	4622
858.597	4596
858.731	4702
858.864	4645
858.997	4645
859.13	4645
859.263	4630
859.396	4729
859.529	4618
859.662	4588
859.795	4561
859.928	4675
860.061	4752
860.194	4767
860.327	4599
860.46	4573
860.592	4736
860.725	4729
860.858	4710
860.99	4615
861.123	4546
861.256	4535
861.388	4656
861.521	5261
861.653	4478
861.786	4428
861.918	4504
862.05	4531
862.183	4512
862.315	4641
862.447	4721
862.58	4561
862.712	4424
862.844	4379
862.976	4470
863.108	4497
863.24	4904
863.372	4363
863.504	4375
863.636	4402
863.768	4519
863.9	4459
864.032	4405
864.164	4390
864.296	4489
864.428	4561
864.559	4554
864.691	4573
864.823	4550
864.954	4493
865.086	4542
865.217	4462
865.349	4440
865.48	4459
865.612	4493
865.743	4653
865.875	4474
866.006	4436
866.137	4455
866.269	4459
866.4	4459
866.531	4470
866.662	4459
866.793	4451
866.924	4409
867.055	4523
867.186	4462
867.317	4466
867.448	4386
867.579	4432
867.71	4432
867.841	4409
867.972	4447
868.103	4462
868.233	4481
868.364	4474
868.495	4546
868.625	4656
868.756	4812
868.886	4558
869.017	4664
869.147	4763
869.278	4778
869.408	4698
869.539	4691
869.669	4752
869.799	4645
869.929	4778
870.06	4771
870.19	4980
870.32	4892
870.45	4946
870.58	5014
870.71	5083
870.84	5136
870.97	4946
871.1	4923
871.23	5204
871.36	5143
871.489	5052
871.619	5048
871.749	5102
871.879	5113
872.008	5166
872.138	5132
872.267	4965
872.397	4862
872.526	4847
872.656	4729
872.785	4801
872.915	4965
873.044	5094
873.173	4919
873.303	4991
873.432	5014
873.561	4957
873.69	4862
873.819	4866
873.948	4923
874.077	4831
874.206	4782
874.335	4759
874.464	4938
874.593	5071
874.722	5006
874.851	5098
874.979	5117
875.108	5079
875.237	4961
875.365	4946
875.494	4949
875.623	5052
875.751	4843
875.88	4923
876.008	4953
876.136	5006
876.265	5189
876.393	5326
876.521	5315
876.65	5246
876.778	5254
876.906	5109
877.034	5064
877.162	5098
877.29	4953
877.418	5048
877.546	4999
877.674	5052
877.802	5025
877.93	5006
878.058	4965
878.185	4835
878.313	4984
878.441	4991
878.568	4805
878.696	4889
878.824	4968
878.951	5033
879.079	5166
879.206	5345
879.333	5086
879.461	4987
879.588	5022
879.715	5086
879.842	5261
879.97	5037
880.097	4820
880.224	4725
880.351	4790
880.478	4873
880.605	4831
880.732	4843
880.859	5121
880.986	4953
881.112	4942
881.239	4793
881.366	4721
881.493	4607
881.619	4615
881.746	4630
881.872	4630
881.999	4706
882.125	4675
882.252	4778
882.378	4850
882.505	4999
882.631	4870
882.757	4656
882.883	4759
883.01	4763
883.136	4664
883.262	4626
883.388	4664
883.514	4839
883.64	4866
883.766	4835
883.892	4691
884.018	4683
884.143	4892
884.269	5014
884.395	4637
884.52	4653
884.646	4672
884.772	4596
884.897	4580
885.023	4683
885.148	4824
885.274	4885
885.399	4797
885.524	4668
885.65	4694
885.775	4755
885.9	4725
886.025	4816
886.15	4843
886.275	4767
886.4	4664
886.525	4748
886.65	4679
886.775	4733
886.9	4911
887.025	5052
887.149	4843
887.274	4687
887.399	4607
887.523	4634
887.648	4626
887.773	4611
887.897	4801
888.021	4809
888.146	4714
888.27	4797
888.395	4889
888.519	4763
888.643	4816
888.767	4854
888.891	4710
889.015	4645
889.139	4664
889.263	4653
889.387	4797
889.511	4809
889.635	4828
889.759	4683
889.883	4653
890.006	4790
890.13	4843
890.254	4675
890.377	4694
890.501	4516
890.624	4554
890.748	4675
890.871	4531
890.995	4474
891.118	4405
891.241	4542
891.364	4569
891.488	4596
891.611	4512
891.734	4550
891.857	4630
891.98	4596
892.103	4668
892.226	4596
892.349	4542
892.471	4405
892.594	4580
892.717	4611
892.839	4607
892.962	4649
893.085	4698
893.207	4592
893.33	4516
893.452	4565
893.575	4668
893.697	4596
893.819	4778
893.941	4904
894.064	4828
894.186	4626
894.308	4592
894.43	4721
894.552	4843
894.674	4774
894.796	4577
894.918	4592
895.04	4577
895.161	4759
895.283	4675
895.405	4596
895.526	4649
895.648	4733
895.769	4645
895.891	4733
896.012	4786
896.134	4771
896.255	4710
896.376	4691
896.498	4607
896.619	4721
896.74	4584
896.861	4645
896.982	4904
897.103	5124
897.224	4820
897.345	4729
897.466	4710
897.587	4782
897.708	4904
897.828	4786
897.949	4702
898.07	4611
898.19	4668
898.311	4870
898.431	4683
898.552	4790
898.672	4835
898.792	4824
898.913	4755
899.033	4672
899.153	4481
899.273	4443
899.393	4504
899.513	4531
899.633	4531
899.753	4611
899.873	4592
899.993	4592
900.113	4493
900.232	4573
900.352	4596
900.472	4504
900.591	4428
900.711	4478
900.83	4424
900.95	4641
901.069	4698
901.189	4596
901.308	4386
901.427	4363
901.546	4390
901.665	4550
901.784	4538
901.904	4390
902.023	4325
902.141	4192
902.26	4207
902.379	4322
902.498	4257
902.617	4219
902.735	4432
902.854	4440
902.973	4356
903.091	4223
903.21	4207
903.328	4314
903.446	4246
903.565	4322
903.683	4352
903.801	4318
903.919	4436
904.038	4500
904.156	4314
904.274	4478
904.392	4379
904.51	4432
904.627	4500
904.745	4611
904.863	4645
904.981	4474
905.098	4337
905.216	4367
905.334	4424
905.451	4497
905.569	4489
905.686	4592
905.803	4611
905.921	4443
906.038	4565
906.155	4478
906.272	4405
906.389	4489
906.506	4352
906.623	4440
906.74	4436
906.857	4356
906.974	4379
907.091	4535
907.208	4679
907.324	4569
907.441	4512
907.557	4375
907.674	4341
907.79	4341
907.907	4432
908.023	4485
908.139	4497
908.256	4443
908.372	4478
908.488	4455
908.604	4383
908.72	4363
908.836	4394
908.952	4379
909.068	4424
909.184	4580
909.3	4516
909.415	4618
909.531	4603
909.647	4348
909.762	4413
909.878	4383
909.993	4428
910.108	4470
910.224	4424
910.339	4527
910.454	4443
910.57	4443
910.685	4379
910.8	4698
910.915	4599
911.03	4512
911.145	4337
911.259	4337
911.374	4333
911.489	4363
911.604	4310
911.718	4162
911.833	4227
911.947	4078
912.062	4074
912.176	4261
912.291	4253
912.405	4253
912.519	4443
912.633	4497
912.748	4386
912.862	4318
912.976	4234
913.09	4112
913.204	4188
913.318	4261
913.431	4363
913.545	4417
913.659	4493
913.772	4375
913.886	4280
914	4249
914.113	4405
914.226	4470
914.34	4440
914.453	4261
914.566	4489
914.68	4356
914.793	4314
914.906	4097
915.019	4154
915.132	4090
915.245	4246
915.358	4265
915.47	4268
915.583	4261
915.696	4371
915.809	4386
915.921	4455
916.034	4234
916.146	4291
916.259	4219
916.371	4398
916.483	4341
916.595	4306
916.708	4314
916.82	4341
916.932	4306
917.044	4325
917.156	4325
917.268	4246
917.38	4284
917.491	4299
917.603	4344
917.715	4421
917.826	4405
917.938	4383
918.049	4310
918.161	4436
918.272	4550
918.384	4561
918.495	4474
918.606	4299
918.717	4261
918.828	4344
918.939	4375
919.05	4261
919.161	4322
919.272	4147
919.383	4287
919.494	4504
919.604	4615
919.715	4421
919.826	4341
919.936	4432
920.047	4561
920.157	4478
920.267	4714
920.378	4519
920.488	4538
920.598	4698
920.708	4904
920.818	4755
920.928	4793
921.038	4934
921.148	4915
921.258	4630
921.368	4607
921.477	4512
921.587	4447
921.697	4455
921.806	4588
921.916	4428
922.025	4287
922.134	4295
922.244	4223
922.353	4329
922.462	4188
922.571	4109
922.68	4029
922.789	3991
922.898	4036
923.007	4029
923.116	4067
923.224	4143
923.333	4109
923.442	4029
923.55	4002
923.659	4017
923.767	4124
923.876	4059
923.984	4177
924.092	4010
924.201	4086
924.309	4166
924.417	4143
924.525	4097
924.633	4109
924.741	4896
924.849	3918
924.956	4109
925.064	3972
925.172	3892
925.279	4010
925.387	4074
925.494	4074
925.602	4230
925.709	4188
925.816	4074
925.924	4223
926.031	4253
926.138	4230
926.245	4234
926.352	4090
926.459	4268
926.566	4291
926.673	4204
926.779	4101
926.886	4101
926.993	3991
927.099	4002
927.206	3968
927.312	3975
927.419	4071
927.525	3987
927.631	4131
927.737	3983
927.843	3949
927.95	3831
928.056	3987
928.162	4013
928.267	4086
928.373	4618
928.479	4139
928.585	3911
928.69	4040
928.796	4109
928.901	3983
929.007	3854
929.112	3998
929.218	3994
929.323	3979
929.428	3972
929.533	4109
929.638	3960
929.743	4010
929.848	4093
929.953	4036
930.058	3953
930.163	3793
930.267	3838
930.372	4002
930.477	3854
930.581	4086
930.685	3968
930.79	3850
930.894	3922
930.998	3903
931.103	4051
931.207	3705
931.311	3713
931.415	3667
931.519	3515
931.623	3564
