Data from test_V78500241_64.txt Node
Date: Fri Mar 25 16:49:26 CST 2022
User: usil
Spectrometer: V785-0024
Trigger mode: 0
Integration Time (sec): 4.000000E-1
Scans to average: 1
Nonlinearity correction enabled: false
Boxcar width: 0
Storing dark spectrum: false
XAxis mode: Wavelengths
Number of Pixels in Spectrum: 1024
>>>>>Begin Spectral Data<<<<<
801.071	8107
801.214	8043
801.356	8001
801.499	7940
801.641	7833
801.783	7887
801.926	8020
802.068	7944
802.211	8084
802.353	8001
802.496	7951
802.638	7982
802.78	8012
802.923	8035
803.065	7887
803.208	7879
803.35	8005
803.492	8088
803.635	8103
803.777	7959
803.919	8100
804.061	8469
804.204	8157
804.346	7978
804.488	7986
804.63	8138
804.773	8024
804.915	8077
805.057	8320
805.199	8180
805.341	8161
805.483	8164
805.626	8259
805.768	8103
805.91	8183
806.052	8172
806.194	8111
806.336	8339
806.478	8111
806.62	8111
806.762	8225
806.904	8332
807.046	8492
807.188	8412
807.33	8343
807.472	8396
807.614	8229
807.756	8191
807.898	8001
808.04	7894
808.182	7967
808.324	7860
808.465	7955
808.607	8054
808.749	8046
808.891	8176
809.033	8275
809.174	8244
809.316	8142
809.458	8054
809.6	8001
809.741	8039
809.883	8050
810.025	8084
810.166	8050
810.308	8058
810.45	8043
810.591	7875
810.733	7803
810.875	7681
811.016	7491
811.158	7510
811.299	7628
811.441	7799
811.582	7792
811.724	7651
811.865	7578
812.007	7616
812.148	7643
812.29	7670
812.431	7776
812.573	7974
812.714	7974
812.855	8199
812.997	8282
813.138	8366
813.279	8233
813.421	8130
813.562	8012
813.703	7887
813.845	7765
813.986	7540
814.127	7312
814.268	7293
814.41	7240
814.551	7285
814.692	7251
814.833	7137
814.974	7221
815.115	7118
815.256	6977
815.397	6920
815.539	6947
815.68	6913
815.821	6726
815.962	6859
816.103	6897
816.244	6719
816.385	6700
816.526	6639
816.666	6555
816.807	6372
816.948	6517
817.089	6490
817.23	6426
817.371	6494
817.512	6410
817.653	6327
817.793	6422
817.934	6418
818.075	6498
818.216	6471
818.356	6494
818.497	6315
818.638	6182
818.778	6159
818.919	6209
819.06	6220
819.2	6380
819.341	6369
819.481	6353
819.622	6593
819.762	6810
819.903	6730
820.043	6582
820.184	6601
820.324	6646
820.465	6768
820.605	6707
820.746	6650
820.886	6559
821.026	6654
821.167	6738
821.307	6894
821.447	6821
821.588	6726
821.728	6601
821.868	6528
822.008	6384
822.149	6369
822.289	6365
822.429	6121
822.569	6098
822.709	6194
822.849	5961
822.99	5958
823.13	5999
823.27	5935
823.41	5836
823.55	5851
823.69	5802
823.83	5840
823.97	5695
824.11	5619
824.25	5520
824.389	5634
824.529	5627
824.669	5562
824.809	5691
824.949	5691
825.089	5661
825.228	5634
825.368	5436
825.508	5417
825.648	5398
825.787	5372
825.927	5444
826.067	5258
826.206	5326
826.346	5398
826.485	5387
826.625	5398
826.765	5505
826.904	5493
827.044	5330
827.183	5216
827.323	5159
827.462	5216
827.601	5193
827.741	5185
827.88	5296
828.02	5132
828.159	5292
828.298	5353
828.437	5421
828.577	5303
828.716	5501
828.855	5421
828.994	5189
829.134	5197
829.273	5250
829.412	5174
829.551	5197
829.69	5170
829.829	5261
829.968	5379
830.107	5277
830.246	5326
830.385	5223
830.524	5147
830.663	5117
830.802	4991
830.941	4923
831.08	4885
831.219	5037
831.357	4991
831.496	5212
831.635	4930
831.774	4862
831.913	4892
832.051	4733
832.19	4774
832.329	4889
832.467	4702
832.606	4668
832.744	4763
832.883	4740
833.022	4759
833.16	4782
833.299	4870
833.437	4801
833.576	4892
833.714	4866
833.852	4870
833.991	4915
834.129	4984
834.267	4999
834.406	4919
834.544	5064
834.682	5048
834.821	5041
834.959	5197
835.097	4968
835.235	5216
835.373	5162
835.511	5178
835.65	5128
835.788	5029
835.926	4957
836.064	4968
836.202	4961
836.34	5204
836.478	5258
836.615	5159
836.753	5269
836.891	5330
837.029	5273
837.167	5227
837.305	5231
837.443	5140
837.58	5113
837.718	5250
837.856	5223
837.993	5136
838.131	5239
838.269	5178
838.406	5223
838.544	5269
838.681	5067
838.819	5029
838.956	4904
839.094	4961
839.231	5018
839.369	5140
839.506	5471
839.643	5296
839.781	5105
839.918	5064
840.055	5086
840.193	5075
840.33	5132
840.467	5128
840.604	5193
840.742	5493
840.879	5105
841.016	5086
841.153	5174
841.29	5379
841.427	5398
841.564	5383
841.701	5360
841.838	5296
841.975	5273
842.112	5307
842.249	5174
842.385	5155
842.522	5322
842.659	5208
842.796	5212
842.933	5227
843.069	5223
843.206	5170
843.343	5315
843.479	5322
843.616	5288
843.752	5102
843.889	5071
844.025	5254
844.162	5041
844.298	5254
844.435	5105
844.571	5117
844.708	5185
844.844	5318
844.98	5368
845.117	5349
845.253	5174
845.389	5109
845.525	5178
845.661	5204
845.798	5060
845.934	5185
846.07	5045
846.206	5254
846.342	5330
846.478	5208
846.614	5067
846.75	5029
846.886	4949
847.022	5197
847.158	5079
847.294	5083
847.429	5109
847.565	5109
847.701	5318
847.837	4858
847.972	4816
848.108	4972
848.244	4980
848.379	4854
848.515	4759
848.65	4744
848.786	4759
848.921	4809
849.057	4889
849.192	4915
849.328	4793
849.463	4854
849.598	4801
849.734	4771
849.869	4744
850.004	4645
850.14	4691
850.275	4660
850.41	4592
850.545	4584
850.68	4596
850.815	4592
850.95	4645
851.085	4862
851.22	4740
851.355	4687
851.49	4664
851.625	4679
851.76	4698
851.895	4607
852.03	4554
852.165	4721
852.299	4710
852.434	4835
852.569	4835
852.703	4805
852.838	4896
852.973	4927
853.107	4923
853.242	4801
853.376	4687
853.511	4596
853.645	4653
853.78	4850
853.914	4736
854.048	4748
854.183	4721
854.317	4733
854.451	4896
854.585	4702
854.72	4656
854.854	4847
854.988	4599
855.122	4611
855.256	4592
855.39	4668
855.524	4816
855.658	4706
855.792	4729
855.926	4782
856.06	4790
856.194	4828
856.327	4698
856.461	4637
856.595	4630
856.729	4622
856.862	4809
856.996	4698
857.13	4763
857.263	4755
857.397	4854
857.53	4691
857.664	4767
857.797	4771
857.931	4824
858.064	4691
858.197	4816
858.331	4679
858.464	4653
858.597	4558
858.731	4679
858.864	4687
858.997	4618
859.13	4683
859.263	4748
859.396	4706
859.529	4558
859.662	4535
859.795	4577
859.928	4649
860.061	4824
860.194	4801
860.327	4687
860.46	4630
860.592	4763
860.725	4748
860.858	4717
860.99	4626
861.123	4519
861.256	4565
861.388	4668
861.521	5242
861.653	4466
861.786	4462
861.918	4462
862.05	4523
862.183	4577
862.315	4603
862.447	4649
862.58	4561
862.712	4459
862.844	4360
862.976	4508
863.108	4455
863.24	4927
863.372	4363
863.504	4455
863.636	4443
863.768	4512
863.9	4497
864.032	4440
864.164	4409
864.296	4474
864.428	4554
864.559	4596
864.691	4554
864.823	4558
864.954	4558
865.086	4493
865.217	4466
865.349	4440
865.48	4481
865.612	4561
865.743	4660
865.875	4523
866.006	4481
866.137	4466
866.269	4478
866.4	4432
866.531	4443
866.662	4386
866.793	4451
866.924	4455
867.055	4512
867.186	4504
867.317	4424
867.448	4417
867.579	4462
867.71	4424
867.841	4375
867.972	4497
868.103	4508
868.233	4497
868.364	4466
868.495	4527
868.625	4702
868.756	4805
868.886	4588
869.017	4630
869.147	4793
869.278	4839
869.408	4675
869.539	4702
869.669	4729
869.799	4664
869.929	4778
870.06	4755
870.19	4987
870.32	4942
870.45	4976
870.58	5064
870.71	5159
870.84	5117
870.97	5006
871.1	4915
871.23	5162
871.36	5174
871.489	5071
871.619	5132
871.749	5117
871.879	5159
872.008	5227
872.138	5090
872.267	4972
872.397	4889
872.526	4877
872.656	4729
872.785	4885
872.915	5025
873.044	5086
873.173	4915
873.303	4976
873.432	4976
873.561	5029
873.69	4930
873.819	4896
873.948	4976
874.077	4889
874.206	4771
874.335	4847
874.464	4957
874.593	5117
874.722	5003
874.851	5143
874.979	5109
875.108	5022
875.237	4946
875.365	4892
875.494	4972
875.623	4995
875.751	4843
875.88	4873
876.008	5029
876.136	5071
876.265	5227
876.393	5357
876.521	5288
876.65	5277
876.778	5185
876.906	5090
877.034	5067
877.162	5086
877.29	5041
877.418	5117
877.546	5140
877.674	5067
877.802	5048
877.93	5041
878.058	4930
878.185	4942
878.313	4961
878.441	5010
878.568	4858
878.696	4908
878.824	5010
878.951	4984
879.079	5174
879.206	5315
879.333	5174
879.461	4999
879.588	4995
879.715	5147
879.842	5242
879.97	5029
880.097	4816
880.224	4809
880.351	4820
880.478	4873
880.605	4839
880.732	4828
880.859	5086
880.986	4915
881.112	4900
881.239	4820
881.366	4733
881.493	4634
881.619	4618
881.746	4687
881.872	4740
881.999	4675
882.125	4710
882.252	4778
882.378	4854
882.505	5014
882.631	4831
882.757	4698
882.883	4752
883.01	4748
883.136	4675
883.262	4634
883.388	4615
883.514	4828
883.64	4892
883.766	4767
883.892	4717
884.018	4744
884.143	4938
884.269	5003
884.395	4740
884.52	4668
884.646	4683
884.772	4645
884.897	4588
885.023	4721
885.148	4824
885.274	4858
885.399	4824
885.524	4740
885.65	4706
885.775	4797
885.9	4755
886.025	4854
886.15	4797
886.275	4767
886.4	4694
886.525	4759
886.65	4687
886.775	4706
886.9	4919
887.025	5113
887.149	4862
887.274	4679
887.399	4573
887.523	4645
887.648	4622
887.773	4596
887.897	4767
888.021	4850
888.146	4683
888.27	4850
888.395	4930
888.519	4805
888.643	4782
888.767	4877
888.891	4706
889.015	4626
889.139	4675
889.263	4626
889.387	4824
889.511	4892
889.635	4873
889.759	4603
889.883	4664
890.006	4729
890.13	4854
890.254	4641
890.377	4710
890.501	4561
890.624	4527
890.748	4683
890.871	4519
890.995	4466
891.118	4436
891.241	4580
891.364	4550
891.488	4637
891.611	4588
891.734	4542
891.857	4649
891.98	4538
892.103	4672
892.226	4634
892.349	4531
892.471	4466
892.594	4558
892.717	4630
892.839	4607
892.962	4649
893.085	4733
893.207	4664
893.33	4519
893.452	4550
893.575	4717
893.697	4588
893.819	4828
893.941	4885
894.064	4801
894.186	4618
894.308	4569
894.43	4763
894.552	4843
894.674	4782
894.796	4565
894.918	4656
895.04	4573
895.161	4706
895.283	4717
895.405	4596
895.526	4672
895.648	4717
895.769	4675
895.891	4744
896.012	4790
896.134	4714
896.255	4733
896.376	4694
896.498	4599
896.619	4736
896.74	4637
896.861	4698
896.982	4915
897.103	5117
897.224	4866
897.345	4820
897.466	4706
897.587	4790
897.708	4889
897.828	4797
897.949	4740
898.07	4599
898.19	4656
898.311	4877
898.431	4714
898.552	4733
898.672	4771
898.792	4812
898.913	4740
899.033	4649
899.153	4546
899.273	4447
899.393	4577
899.513	4603
899.633	4554
899.753	4561
899.873	4519
899.993	4584
900.113	4588
900.232	4630
900.352	4626
900.472	4569
900.591	4405
900.711	4519
900.83	4455
900.95	4630
901.069	4675
901.189	4588
901.308	4459
901.427	4363
901.546	4436
901.665	4535
901.784	4592
901.904	4451
902.023	4371
902.141	4249
902.26	4223
902.379	4363
902.498	4325
902.617	4223
902.735	4428
902.854	4394
902.973	4402
903.091	4242
903.21	4242
903.328	4310
903.446	4280
903.565	4314
903.683	4363
903.801	4318
903.919	4413
904.038	4443
904.156	4333
904.274	4455
904.392	4402
904.51	4459
904.627	4485
904.745	4599
904.863	4653
904.981	4466
905.098	4348
905.216	4386
905.334	4436
905.451	4432
905.569	4478
905.686	4569
905.803	4603
905.921	4462
906.038	4599
906.155	4489
906.272	4451
906.389	4462
906.506	4379
906.623	4424
906.74	4436
906.857	4352
906.974	4360
907.091	4569
907.208	4702
907.324	4660
907.441	4538
907.557	4390
907.674	4379
907.79	4394
907.907	4432
908.023	4542
908.139	4485
908.256	4478
908.372	4462
908.488	4497
908.604	4409
908.72	4348
908.836	4424
908.952	4383
909.068	4421
909.184	4656
909.3	4508
909.415	4668
909.531	4588
909.647	4363
909.762	4451
909.878	4405
909.993	4493
910.108	4443
910.224	4451
910.339	4504
910.454	4421
910.57	4375
910.685	4363
910.8	4694
910.915	4668
911.03	4519
911.145	4325
911.259	4363
911.374	4367
911.489	4367
911.604	4348
911.718	4200
911.833	4242
911.947	4086
912.062	4044
912.176	4242
912.291	4265
912.405	4287
912.519	4500
912.633	4504
912.748	4352
912.862	4352
912.976	4253
913.09	4116
913.204	4185
913.318	4265
913.431	4383
913.545	4421
913.659	4447
913.772	4405
913.886	4280
914	4242
914.113	4405
914.226	4516
914.34	4481
914.453	4303
914.566	4478
914.68	4363
914.793	4341
914.906	4185
915.019	4173
915.132	4131
915.245	4177
915.358	4261
915.47	4261
915.583	4310
915.696	4337
915.809	4428
915.921	4459
916.034	4280
916.146	4284
916.259	4215
916.371	4489
916.483	4383
916.595	4333
916.708	4363
916.82	4363
916.932	4383
917.044	4360
917.156	4375
917.268	4227
917.38	4303
917.491	4303
917.603	4375
917.715	4443
917.826	4474
917.938	4360
918.049	4280
918.161	4440
918.272	4538
918.384	4554
918.495	4474
918.606	4348
918.717	4249
918.828	4356
918.939	4352
919.05	4325
919.161	4386
919.272	4158
919.383	4280
919.494	4447
919.604	4653
919.715	4436
919.826	4402
919.936	4451
920.047	4508
920.157	4542
920.267	4706
920.378	4573
920.488	4565
920.598	4744
920.708	4930
920.818	4805
920.928	4816
921.038	5033
921.148	4942
921.258	4664
921.368	4580
921.477	4527
921.587	4478
921.697	4379
921.806	4542
921.916	4478
922.025	4242
922.134	4295
922.244	4265
922.353	4371
922.462	4207
922.571	4124
922.68	4055
922.789	4036
922.898	4078
923.007	4055
923.116	4124
923.224	4097
923.333	4109
923.442	4010
923.55	3960
923.659	4067
923.767	4147
923.876	4071
923.984	4112
924.092	4044
924.201	4090
924.309	4131
924.417	4112
924.525	4097
924.633	4128
924.741	4870
924.849	3937
924.956	4150
925.064	4002
925.172	3918
925.279	3968
925.387	4063
925.494	4067
925.602	4238
925.709	4249
925.816	4040
925.924	4188
926.031	4276
926.138	4272
926.245	4280
926.352	4116
926.459	4268
926.566	4337
926.673	4166
926.779	4109
926.886	4112
926.993	3991
927.099	3983
927.206	3991
927.312	3987
927.419	4131
927.525	4048
927.631	4131
927.737	3956
927.843	3987
927.95	3831
928.056	3945
928.162	4040
928.267	4086
928.373	4687
928.479	4139
928.585	3899
928.69	4044
928.796	4128
928.901	4013
929.007	3907
929.112	3998
929.218	4021
929.323	3991
929.428	3979
929.533	4131
929.638	3949
929.743	4002
929.848	4067
929.953	3998
930.058	3937
930.163	3819
930.267	3838
930.372	3975
930.477	3846
930.581	4139
930.685	4013
930.79	3831
930.894	3930
930.998	3865
931.103	4086
931.207	3740
931.311	3732
931.415	3701
931.519	3530
931.623	3584
