Data from test_V78500241_469.txt Node
Date: Fri Mar 25 16:52:15 CST 2022
User: usil
Spectrometer: V785-0024
Trigger mode: 0
Integration Time (sec): 4.000000E-1
Scans to average: 1
Nonlinearity correction enabled: false
Boxcar width: 0
Storing dark spectrum: false
XAxis mode: Wavelengths
Number of Pixels in Spectrum: 1024
>>>>>Begin Spectral Data<<<<<
801.071	8008
801.214	7993
801.356	7875
801.499	7826
801.641	7799
801.783	7822
801.926	8039
802.068	7944
802.211	7936
802.353	8035
802.496	7928
802.638	7936
802.78	7993
802.923	7913
803.065	7875
803.208	7849
803.35	7974
803.492	8062
803.635	8081
803.777	7986
803.919	8107
804.061	8381
804.204	8157
804.346	7978
804.488	7902
804.63	8050
804.773	7932
804.915	8149
805.057	8339
805.199	8138
805.341	8229
805.483	8218
805.626	8176
805.768	7978
805.91	8130
806.052	8134
806.194	8031
806.336	8286
806.478	8149
806.62	8081
806.762	8164
806.904	8248
807.046	8419
807.188	8275
807.33	8229
807.472	8324
807.614	8145
807.756	8115
807.898	8027
808.04	7902
808.182	7860
808.324	7970
808.465	7864
808.607	8043
808.749	8050
808.891	8210
809.033	8202
809.174	8126
809.316	8035
809.458	8069
809.6	7936
809.741	7974
809.883	7967
810.025	8126
810.166	8077
810.308	7989
810.45	7982
810.591	7871
810.733	7746
810.875	7662
811.016	7529
811.158	7491
811.299	7624
811.441	7772
811.582	7704
811.724	7605
811.865	7510
812.007	7624
812.148	7582
812.29	7643
812.431	7734
812.573	7852
812.714	7997
812.855	8115
812.997	8248
813.138	8305
813.279	8199
813.421	8115
813.562	8024
813.703	7925
813.845	7833
813.986	7540
814.127	7350
814.268	7247
814.41	7209
814.551	7110
814.692	7221
814.833	7038
814.974	7091
815.115	7126
815.256	6985
815.397	6878
815.539	6943
815.68	6833
815.821	6833
815.962	6848
816.103	6829
816.244	6772
816.385	6715
816.526	6646
816.666	6551
816.807	6376
816.948	6433
817.089	6471
817.23	6528
817.371	6372
817.512	6414
817.653	6365
817.793	6445
817.934	6357
818.075	6521
818.216	6456
818.356	6414
818.497	6266
818.638	6106
818.778	6144
818.919	6186
819.06	6106
819.2	6254
819.341	6323
819.481	6342
819.622	6517
819.762	6760
819.903	6681
820.043	6574
820.184	6589
820.324	6604
820.465	6642
820.605	6650
820.746	6669
820.886	6506
821.026	6623
821.167	6700
821.307	6726
821.447	6772
821.588	6665
821.728	6521
821.868	6483
822.008	6319
822.149	6350
822.289	6399
822.429	6201
822.569	6140
822.709	6095
822.849	5950
822.99	5874
823.13	5916
823.27	5916
823.41	5764
823.55	5821
823.69	5733
823.83	5802
823.97	5714
824.11	5585
824.25	5512
824.389	5600
824.529	5623
824.669	5554
824.809	5619
824.949	5672
825.089	5589
825.228	5573
825.368	5417
825.508	5311
825.648	5357
825.787	5433
825.927	5334
826.067	5315
826.206	5318
826.346	5360
826.485	5417
826.625	5402
826.765	5501
826.904	5425
827.044	5269
827.183	5231
827.323	5094
827.462	5208
827.601	5155
827.741	5208
827.88	5258
828.02	5113
828.159	5197
828.298	5280
828.437	5318
828.577	5299
828.716	5452
828.855	5303
828.994	5162
829.134	5140
829.273	5162
829.412	5151
829.551	5151
829.69	5140
829.829	5235
829.968	5364
830.107	5273
830.246	5242
830.385	5162
830.524	5140
830.663	5037
830.802	4991
830.941	4870
831.08	4892
831.219	5010
831.357	4976
831.496	5155
831.635	4911
831.774	4885
831.913	4877
832.051	4714
832.19	4710
832.329	4877
832.467	4683
832.606	4599
832.744	4687
832.883	4675
833.022	4740
833.16	4793
833.299	4847
833.437	4797
833.576	4812
833.714	4850
833.852	4858
833.991	4892
834.129	4946
834.267	4999
834.406	4942
834.544	4987
834.682	4949
834.821	4984
834.959	5143
835.097	5048
835.235	5178
835.373	5105
835.511	5117
835.65	5029
835.788	5052
835.926	4870
836.064	4889
836.202	4923
836.34	5197
836.478	5231
836.615	5102
836.753	5155
836.891	5246
837.029	5239
837.167	5185
837.305	5147
837.443	5124
837.58	5105
837.718	5258
837.856	5155
837.993	5166
838.131	5208
838.269	5181
838.406	5159
838.544	5162
838.681	5045
838.819	4995
838.956	4927
839.094	4896
839.231	4987
839.369	5056
839.506	5455
839.643	5288
839.781	5033
839.918	4946
840.055	5151
840.193	5109
840.33	5143
840.467	5162
840.604	5246
840.742	5463
840.879	5071
841.016	5083
841.153	5189
841.29	5383
841.427	5368
841.564	5280
841.701	5379
841.838	5280
841.975	5220
842.112	5280
842.249	5155
842.385	5117
842.522	5372
842.659	5181
842.796	5140
842.933	5147
843.069	5143
843.206	5159
843.343	5280
843.479	5201
843.616	5296
843.752	5045
843.889	5060
844.025	5189
844.162	5029
844.298	5212
844.435	5079
844.571	5098
844.708	5197
844.844	5216
844.98	5288
845.117	5307
845.253	5117
845.389	5075
845.525	5166
845.661	5151
845.798	5090
845.934	5105
846.07	5014
846.206	5239
846.342	5292
846.478	5189
846.614	5022
846.75	4999
846.886	4938
847.022	5185
847.158	5022
847.294	5083
847.429	5109
847.565	5083
847.701	5337
847.837	4885
847.972	4812
848.108	4953
848.244	4949
848.379	4774
848.515	4763
848.65	4706
848.786	4759
848.921	4774
849.057	4847
849.192	4896
849.328	4805
849.463	4839
849.598	4816
849.734	4752
849.869	4721
850.004	4603
850.14	4668
850.275	4615
850.41	4561
850.545	4538
850.68	4592
850.815	4588
850.95	4592
851.085	4809
851.22	4763
851.355	4630
851.49	4641
851.625	4641
851.76	4603
851.895	4561
852.03	4466
852.165	4615
852.299	4721
852.434	4752
852.569	4687
852.703	4744
852.838	4801
852.973	4949
853.107	4946
853.242	4748
853.376	4694
853.511	4584
853.645	4660
853.78	4809
853.914	4694
854.048	4645
854.183	4592
854.317	4725
854.451	4816
854.585	4694
854.72	4664
854.854	4748
854.988	4596
855.122	4622
855.256	4519
855.39	4687
855.524	4729
855.658	4714
855.792	4698
855.926	4714
856.06	4736
856.194	4744
856.327	4679
856.461	4599
856.595	4630
856.729	4607
856.862	4752
856.996	4721
857.13	4725
857.263	4736
857.397	4782
857.53	4599
857.664	4725
857.797	4736
857.931	4755
858.064	4664
858.197	4744
858.331	4641
858.464	4580
858.597	4535
858.731	4615
858.864	4656
858.997	4596
859.13	4691
859.263	4721
859.396	4702
859.529	4611
859.662	4558
859.795	4554
859.928	4634
860.061	4774
860.194	4774
860.327	4622
860.46	4584
860.592	4683
860.725	4710
860.858	4641
860.99	4538
861.123	4527
861.256	4538
861.388	4561
861.521	5254
861.653	4523
861.786	4447
861.918	4428
862.05	4550
862.183	4588
862.315	4607
862.447	4618
862.58	4626
862.712	4405
862.844	4333
862.976	4497
863.108	4409
863.24	4774
863.372	4360
863.504	4447
863.636	4474
863.768	4462
863.9	4424
864.032	4348
864.164	4432
864.296	4470
864.428	4554
864.559	4558
864.691	4523
864.823	4546
864.954	4474
865.086	4516
865.217	4436
865.349	4402
865.48	4462
865.612	4474
865.743	4607
865.875	4451
866.006	4417
866.137	4478
866.269	4485
866.4	4421
866.531	4455
866.662	4405
866.793	4367
866.924	4371
867.055	4478
867.186	4451
867.317	4428
867.448	4367
867.579	4402
867.71	4440
867.841	4356
867.972	4474
868.103	4447
868.233	4489
868.364	4466
868.495	4500
868.625	4626
868.756	4771
868.886	4615
869.017	4618
869.147	4729
869.278	4752
869.408	4675
869.539	4672
869.669	4702
869.799	4626
869.929	4763
870.06	4721
870.19	4984
870.32	4968
870.45	4938
870.58	5025
870.71	5124
870.84	5113
870.97	4889
871.1	4885
871.23	5124
871.36	5147
871.489	5033
871.619	5102
871.749	5151
871.879	5079
872.008	5159
872.138	5064
872.267	4934
872.397	4850
872.526	4778
872.656	4725
872.785	4801
872.915	4957
873.044	5037
873.173	4938
873.303	4999
873.432	4923
873.561	4930
873.69	4843
873.819	4881
873.948	4892
874.077	4873
874.206	4786
874.335	4786
874.464	4915
874.593	5102
874.722	4927
874.851	5006
874.979	5064
875.108	5010
875.237	4911
875.365	4870
875.494	4953
875.623	4999
875.751	4854
875.88	4843
876.008	4968
876.136	5022
876.265	5181
876.393	5376
876.521	5246
876.65	5273
876.778	5170
876.906	5102
877.034	5048
877.162	5060
877.29	5014
877.418	5083
877.546	5048
877.674	5010
877.802	5121
877.93	4976
878.058	4991
878.185	4877
878.313	4953
878.441	4942
878.568	4824
878.696	4843
878.824	4892
878.951	4961
879.079	5159
879.206	5322
879.333	5083
879.461	4987
879.588	5037
879.715	5140
879.842	5208
879.97	5037
880.097	4816
880.224	4752
880.351	4771
880.478	4828
880.605	4767
880.732	4820
880.859	5090
880.986	4919
881.112	4927
881.239	4801
881.366	4675
881.493	4573
881.619	4542
881.746	4615
881.872	4653
881.999	4653
882.125	4717
882.252	4748
882.378	4854
882.505	4953
882.631	4782
882.757	4645
882.883	4733
883.01	4714
883.136	4649
883.262	4603
883.388	4637
883.514	4820
883.64	4820
883.766	4816
883.892	4664
884.018	4733
884.143	4858
884.269	4976
884.395	4653
884.52	4630
884.646	4649
884.772	4630
884.897	4596
885.023	4672
885.148	4778
885.274	4873
885.399	4835
885.524	4736
885.65	4702
885.775	4744
885.9	4721
886.025	4850
886.15	4767
886.275	4702
886.4	4645
886.525	4744
886.65	4710
886.775	4733
886.9	4942
887.025	5033
887.149	4793
887.274	4637
887.399	4577
887.523	4622
887.648	4554
887.773	4546
887.897	4774
888.021	4805
888.146	4687
888.27	4805
888.395	4873
888.519	4828
888.643	4828
888.767	4850
888.891	4714
889.015	4607
889.139	4649
889.263	4618
889.387	4714
889.511	4843
889.635	4812
889.759	4649
889.883	4634
890.006	4744
890.13	4870
890.254	4637
890.377	4706
890.501	4535
890.624	4512
890.748	4637
890.871	4523
890.995	4451
891.118	4424
891.241	4542
891.364	4546
891.488	4660
891.611	4478
891.734	4569
891.857	4573
891.98	4550
892.103	4637
892.226	4607
892.349	4542
892.471	4424
892.594	4546
892.717	4573
892.839	4596
892.962	4584
893.085	4729
893.207	4565
893.33	4497
893.452	4523
893.575	4656
893.697	4607
893.819	4790
893.941	4805
894.064	4752
894.186	4599
894.308	4588
894.43	4740
894.552	4847
894.674	4748
894.796	4554
894.918	4603
895.04	4565
895.161	4725
895.283	4653
895.405	4603
895.526	4626
895.648	4740
895.769	4672
895.891	4679
896.012	4782
896.134	4714
896.255	4641
896.376	4641
896.498	4596
896.619	4672
896.74	4592
896.861	4698
896.982	4984
897.103	5117
897.224	4793
897.345	4755
897.466	4660
897.587	4748
897.708	4812
897.828	4744
897.949	4664
898.07	4561
898.19	4649
898.311	4850
898.431	4649
898.552	4717
898.672	4831
898.792	4812
898.913	4786
899.033	4653
899.153	4451
899.273	4459
899.393	4550
899.513	4538
899.633	4542
899.753	4508
899.873	4516
899.993	4592
900.113	4519
900.232	4630
900.352	4535
900.472	4489
900.591	4447
900.711	4504
900.83	4428
900.95	4634
901.069	4668
901.189	4546
901.308	4363
901.427	4363
901.546	4344
901.665	4466
901.784	4489
901.904	4390
902.023	4329
902.141	4188
902.26	4169
902.379	4379
902.498	4295
902.617	4227
902.735	4352
902.854	4367
902.973	4375
903.091	4253
903.21	4196
903.328	4276
903.446	4246
903.565	4276
903.683	4421
903.801	4265
903.919	4424
904.038	4485
904.156	4348
904.274	4394
904.392	4367
904.51	4432
904.627	4466
904.745	4550
904.863	4611
904.981	4386
905.098	4310
905.216	4394
905.334	4421
905.451	4398
905.569	4417
905.686	4561
905.803	4554
905.921	4402
906.038	4523
906.155	4451
906.272	4383
906.389	4481
906.506	4322
906.623	4386
906.74	4383
906.857	4318
906.974	4409
907.091	4542
907.208	4626
907.324	4603
907.441	4481
907.557	4341
907.674	4356
907.79	4337
907.907	4405
908.023	4497
908.139	4462
908.256	4394
908.372	4443
908.488	4451
908.604	4352
908.72	4314
908.836	4421
908.952	4390
909.068	4402
909.184	4584
909.3	4474
909.415	4630
909.531	4500
909.647	4390
909.762	4344
909.878	4390
909.993	4424
910.108	4436
910.224	4417
910.339	4485
910.454	4421
910.57	4348
910.685	4303
910.8	4641
910.915	4599
911.03	4478
911.145	4341
911.259	4337
911.374	4356
911.489	4268
911.604	4310
911.718	4166
911.833	4230
911.947	4124
912.062	4017
912.176	4173
912.291	4310
912.405	4295
912.519	4504
912.633	4538
912.748	4344
912.862	4318
912.976	4185
913.09	4112
913.204	4177
913.318	4238
913.431	4341
913.545	4341
913.659	4405
913.772	4398
913.886	4276
914	4223
914.113	4356
914.226	4417
914.34	4375
914.453	4249
914.566	4432
914.68	4314
914.793	4337
914.906	4109
915.019	4150
915.132	4036
915.245	4177
915.358	4215
915.47	4238
915.583	4230
915.696	4287
915.809	4413
915.921	4424
916.034	4249
916.146	4272
916.259	4249
916.371	4375
916.483	4375
916.595	4291
916.708	4348
916.82	4303
916.932	4352
917.044	4329
917.156	4367
917.268	4230
917.38	4284
917.491	4310
917.603	4352
917.715	4398
917.826	4451
917.938	4337
918.049	4253
918.161	4371
918.272	4512
918.384	4504
918.495	4474
918.606	4322
918.717	4219
918.828	4356
918.939	4360
919.05	4272
919.161	4299
919.272	4169
919.383	4238
919.494	4436
919.604	4664
919.715	4432
919.826	4360
919.936	4417
920.047	4546
920.157	4481
920.267	4714
920.378	4493
920.488	4478
920.598	4725
920.708	4915
920.818	4767
920.928	4706
921.038	4927
921.148	4934
921.258	4626
921.368	4516
921.477	4455
921.587	4474
921.697	4405
921.806	4554
921.916	4394
922.025	4253
922.134	4227
922.244	4200
922.353	4314
922.462	4181
922.571	4143
922.68	4002
922.789	4032
922.898	4040
923.007	4021
923.116	4055
923.224	4029
923.333	4051
923.442	3964
923.55	4006
923.659	4040
923.767	4112
923.876	4021
923.984	4112
924.092	4013
924.201	4078
924.309	4078
924.417	4131
924.525	4067
924.633	4131
924.741	5045
924.849	3926
924.956	4120
925.064	3956
925.172	3896
925.279	3956
925.387	4032
925.494	4074
925.602	4230
925.709	4200
925.816	4048
925.924	4124
926.031	4192
926.138	4196
926.245	4192
926.352	4090
926.459	4219
926.566	4287
926.673	4154
926.779	4071
926.886	4074
926.993	3956
927.099	3937
927.206	3941
927.312	3964
927.419	4002
927.525	4017
927.631	4097
927.737	3983
927.843	3949
927.95	3819
928.056	3922
928.162	3964
928.267	4071
928.373	4687
928.479	4131
928.585	3911
928.69	4048
928.796	4063
928.901	3991
929.007	3842
929.112	3987
929.218	3994
929.323	3956
929.428	3926
929.533	4162
929.638	3884
929.743	3975
929.848	4071
929.953	3987
930.058	3876
930.163	3740
930.267	3808
930.372	3987
930.477	3793
930.581	4078
930.685	3918
930.79	3850
930.894	3846
930.998	3865
931.103	4010
931.207	3732
931.311	3652
931.415	3637
931.519	3523
931.623	3545
