Data from test_V78500241_781.txt Node
Date: Fri Mar 25 16:54:26 CST 2022
User: usil
Spectrometer: V785-0024
Trigger mode: 0
Integration Time (sec): 4.000000E-1
Scans to average: 1
Nonlinearity correction enabled: false
Boxcar width: 0
Storing dark spectrum: false
XAxis mode: Wavelengths
Number of Pixels in Spectrum: 1024
>>>>>Begin Spectral Data<<<<<
801.071	8065
801.214	7951
801.356	7860
801.499	7871
801.641	7784
801.783	7860
801.926	7993
802.068	7978
802.211	8008
802.353	7989
802.496	7814
802.638	7871
802.78	7959
802.923	7944
803.065	7826
803.208	7856
803.35	8054
803.492	8164
803.635	8195
803.777	8005
803.919	8100
804.061	8457
804.204	8107
804.346	8058
804.488	7974
804.63	8096
804.773	7974
804.915	8062
805.057	8275
805.199	8161
805.341	8256
805.483	8355
805.626	8176
805.768	8157
805.91	8195
806.052	8210
806.194	8103
806.336	8290
806.478	8088
806.62	8024
806.762	8149
806.904	8256
807.046	8480
807.188	8423
807.33	8301
807.472	8336
807.614	8172
807.756	8187
807.898	8035
808.04	7875
808.182	7898
808.324	7841
808.465	7955
808.607	8016
808.749	8100
808.891	8202
809.033	8256
809.174	8244
809.316	8092
809.458	8126
809.6	8005
809.741	8027
809.883	7963
810.025	8119
810.166	8126
810.308	8069
810.45	8043
810.591	7856
810.733	7811
810.875	7776
811.016	7495
811.158	7533
811.299	7563
811.441	7757
811.582	7689
811.724	7571
811.865	7499
812.007	7601
812.148	7628
812.29	7594
812.431	7742
812.573	7868
812.714	7993
812.855	8103
812.997	8157
813.138	8332
813.279	8157
813.421	8123
813.562	8058
813.703	7841
813.845	7788
813.986	7483
814.127	7236
814.268	7251
814.41	7152
814.551	7179
814.692	7103
814.833	7114
814.974	7088
815.115	7099
815.256	6947
815.397	6977
815.539	6958
815.68	6806
815.821	6757
815.962	6924
816.103	6848
816.244	6665
816.385	6665
816.526	6601
816.666	6547
816.807	6285
816.948	6502
817.089	6521
817.23	6456
817.371	6376
817.512	6388
817.653	6357
817.793	6388
817.934	6410
818.075	6490
818.216	6479
818.356	6357
818.497	6251
818.638	6110
818.778	6102
818.919	6144
819.06	6175
819.2	6311
819.341	6338
819.481	6292
819.622	6502
819.762	6734
819.903	6669
820.043	6627
820.184	6582
820.324	6589
820.465	6658
820.605	6703
820.746	6612
820.886	6486
821.026	6684
821.167	6772
821.307	6776
821.447	6768
821.588	6665
821.728	6604
821.868	6563
822.008	6346
822.149	6357
822.289	6346
822.429	6155
822.569	6045
822.709	6136
822.849	5927
822.99	5893
823.13	5901
823.27	5901
823.41	5809
823.55	5817
823.69	5798
823.83	5771
823.97	5649
824.11	5512
824.25	5539
824.389	5535
824.529	5585
824.669	5554
824.809	5630
824.949	5627
825.089	5653
825.228	5573
825.368	5406
825.508	5341
825.648	5383
825.787	5402
825.927	5433
826.067	5353
826.206	5326
826.346	5379
826.485	5368
826.625	5410
826.765	5558
826.904	5490
827.044	5246
827.183	5197
827.323	5102
827.462	5220
827.601	5151
827.741	5204
827.88	5235
828.02	5132
828.159	5265
828.298	5269
828.437	5383
828.577	5292
828.716	5478
828.855	5360
828.994	5113
829.134	5136
829.273	5242
829.412	5147
829.551	5124
829.69	5208
829.829	5246
829.968	5398
830.107	5284
830.246	5261
830.385	5189
830.524	5143
830.663	5079
830.802	4968
830.941	4915
831.08	4828
831.219	5010
831.357	4984
831.496	5208
831.635	4957
831.774	4828
831.913	4877
832.051	4729
832.19	4778
832.329	4850
832.467	4740
832.606	4672
832.744	4759
832.883	4755
833.022	4748
833.16	4790
833.299	4812
833.437	4854
833.576	4831
833.714	4919
833.852	4850
833.991	4911
834.129	4972
834.267	4999
834.406	4961
834.544	5029
834.682	5003
834.821	5006
834.959	5181
835.097	5041
835.235	5193
835.373	5079
835.511	5048
835.65	5048
835.788	5037
835.926	4911
836.064	4900
836.202	4911
836.34	5185
836.478	5254
836.615	5155
836.753	5189
836.891	5360
837.029	5197
837.167	5201
837.305	5170
837.443	5151
837.58	5041
837.718	5277
837.856	5193
837.993	5140
838.131	5258
838.269	5208
838.406	5246
838.544	5223
838.681	5067
838.819	4904
838.956	4877
839.094	4927
839.231	4953
839.369	5056
839.506	5421
839.643	5277
839.781	5075
839.918	5018
840.055	5159
840.193	5136
840.33	5140
840.467	5178
840.604	5204
840.742	5398
840.879	5128
841.016	5090
841.153	5132
841.29	5391
841.427	5311
841.564	5349
841.701	5360
841.838	5265
841.975	5193
842.112	5223
842.249	5117
842.385	5079
842.522	5322
842.659	5143
842.796	5132
842.933	5155
843.069	5124
843.206	5140
843.343	5254
843.479	5246
843.616	5273
843.752	4995
843.889	5014
844.025	5193
844.162	5029
844.298	5246
844.435	5033
844.571	5045
844.708	5223
844.844	5296
844.98	5322
845.117	5288
845.253	5117
845.389	5102
845.525	5201
845.661	5174
845.798	5033
845.934	5128
846.07	5075
846.206	5185
846.342	5258
846.478	5174
846.614	4976
846.75	4987
846.886	4919
847.022	5136
847.158	5071
847.294	5033
847.429	5117
847.565	5041
847.701	5376
847.837	4892
847.972	4809
848.108	4934
848.244	4938
848.379	4778
848.515	4706
848.65	4683
848.786	4736
848.921	4759
849.057	4828
849.192	4896
849.328	4828
849.463	4862
849.598	4767
849.734	4736
849.869	4675
850.004	4653
850.14	4714
850.275	4615
850.41	4512
850.545	4565
850.68	4656
850.815	4611
850.95	4649
851.085	4835
851.22	4733
851.355	4622
851.49	4626
851.625	4615
851.76	4645
851.895	4512
852.03	4519
852.165	4664
852.299	4710
852.434	4790
852.569	4725
852.703	4740
852.838	4889
852.973	4896
853.107	4930
853.242	4740
853.376	4634
853.511	4523
853.645	4615
853.78	4805
853.914	4725
854.048	4649
854.183	4660
854.317	4691
854.451	4858
854.585	4710
854.72	4668
854.854	4721
854.988	4588
855.122	4694
855.256	4546
855.39	4664
855.524	4801
855.658	4687
855.792	4672
855.926	4744
856.06	4774
856.194	4866
856.327	4748
856.461	4577
856.595	4645
856.729	4637
856.862	4771
856.996	4721
857.13	4763
857.263	4797
857.397	4854
857.53	4679
857.664	4714
857.797	4759
857.931	4767
858.064	4721
858.197	4740
858.331	4675
858.464	4596
858.597	4554
858.731	4656
858.864	4687
858.997	4603
859.13	4717
859.263	4717
859.396	4748
859.529	4615
859.662	4615
859.795	4535
859.928	4645
860.061	4744
860.194	4782
860.327	4641
860.46	4599
860.592	4752
860.725	4793
860.858	4805
860.99	4615
861.123	4527
861.256	4561
861.388	4660
861.521	5349
861.653	4493
861.786	4504
861.918	4500
862.05	4538
862.183	4615
862.315	4687
862.447	4683
862.58	4558
862.712	4447
862.844	4379
862.976	4519
863.108	4519
863.24	4930
863.372	4386
863.504	4466
863.636	4409
863.768	4497
863.9	4516
864.032	4428
864.164	4493
864.296	4500
864.428	4603
864.559	4618
864.691	4596
864.823	4558
864.954	4485
865.086	4584
865.217	4497
865.349	4443
865.48	4462
865.612	4558
865.743	4653
865.875	4512
866.006	4436
866.137	4428
866.269	4440
866.4	4497
866.531	4443
866.662	4451
866.793	4436
866.924	4462
867.055	4592
867.186	4516
867.317	4459
867.448	4413
867.579	4459
867.71	4447
867.841	4432
867.972	4546
868.103	4516
868.233	4508
868.364	4447
868.495	4512
868.625	4702
868.756	4771
868.886	4550
869.017	4611
869.147	4854
869.278	4774
869.408	4679
869.539	4656
869.669	4706
869.799	4660
869.929	4771
870.06	4816
870.19	5003
870.32	4957
870.45	4972
870.58	5067
870.71	5124
870.84	5094
870.97	4991
871.1	4949
871.23	5185
871.36	5162
871.489	5067
871.619	5124
871.749	5170
871.879	5147
872.008	5197
872.138	5075
872.267	4972
872.397	4919
872.526	4858
872.656	4698
872.785	4831
872.915	4999
873.044	5060
873.173	5006
873.303	4949
873.432	4972
873.561	4995
873.69	4919
873.819	4885
873.948	4923
874.077	4828
874.206	4801
874.335	4866
874.464	4908
874.593	5071
874.722	4995
874.851	5117
874.979	5136
875.108	5045
875.237	4889
875.365	4881
875.494	4923
875.623	5029
875.751	4816
875.88	4900
876.008	4968
876.136	5056
876.265	5170
876.393	5383
876.521	5277
876.65	5280
876.778	5181
876.906	5105
877.034	5025
877.162	5079
877.29	5018
877.418	5113
877.546	5083
877.674	5075
877.802	5071
877.93	5003
878.058	4900
878.185	4881
878.313	4938
878.441	4987
878.568	4854
878.696	4896
878.824	4984
878.951	5041
879.079	5162
879.206	5296
879.333	5151
879.461	4953
879.588	5052
879.715	5166
879.842	5204
879.97	5048
880.097	4835
880.224	4782
880.351	4816
880.478	4873
880.605	4771
880.732	4843
880.859	5071
880.986	4908
881.112	4942
881.239	4824
881.366	4660
881.493	4656
881.619	4618
881.746	4683
881.872	4656
881.999	4698
882.125	4752
882.252	4824
882.378	4866
882.505	4984
882.631	4858
882.757	4744
882.883	4714
883.01	4752
883.136	4714
883.262	4580
883.388	4675
883.514	4771
883.64	4870
883.766	4824
883.892	4721
884.018	4721
884.143	4930
884.269	5079
884.395	4714
884.52	4656
884.646	4634
884.772	4596
884.897	4546
885.023	4694
885.148	4782
885.274	4877
885.399	4862
885.524	4782
885.65	4706
885.775	4755
885.9	4710
886.025	4866
886.15	4816
886.275	4710
886.4	4679
886.525	4797
886.65	4771
886.775	4675
886.9	4961
887.025	5083
887.149	4828
887.274	4721
887.399	4599
887.523	4694
887.648	4607
887.773	4603
887.897	4786
888.021	4786
888.146	4672
888.27	4847
888.395	4896
888.519	4820
888.643	4870
888.767	4919
888.891	4679
889.015	4641
889.139	4706
889.263	4622
889.387	4797
889.511	4854
889.635	4839
889.759	4687
889.883	4668
890.006	4793
890.13	4850
890.254	4630
890.377	4698
890.501	4546
890.624	4523
890.748	4710
890.871	4554
890.995	4474
891.118	4440
891.241	4550
891.364	4592
891.488	4687
891.611	4493
891.734	4558
891.857	4630
891.98	4531
892.103	4649
892.226	4637
892.349	4527
892.471	4485
892.594	4565
892.717	4607
892.839	4588
892.962	4603
893.085	4706
893.207	4626
893.33	4466
893.452	4558
893.575	4683
893.697	4573
893.819	4809
893.941	4870
894.064	4793
894.186	4599
894.308	4599
894.43	4706
894.552	4862
894.674	4752
894.796	4596
894.918	4592
895.04	4584
895.161	4687
895.283	4710
895.405	4634
895.526	4672
895.648	4759
895.769	4694
895.891	4748
896.012	4744
896.134	4805
896.255	4618
896.376	4691
896.498	4611
896.619	4725
896.74	4668
896.861	4641
896.982	4942
897.103	5056
897.224	4854
897.345	4778
897.466	4687
897.587	4702
897.708	4892
897.828	4850
897.949	4668
898.07	4630
898.19	4607
898.311	4816
898.431	4733
898.552	4740
898.672	4854
898.792	4820
898.913	4752
899.033	4611
899.153	4516
899.273	4455
899.393	4538
899.513	4561
899.633	4504
899.753	4565
899.873	4569
899.993	4592
900.113	4527
900.232	4535
900.352	4523
900.472	4470
900.591	4413
900.711	4459
900.83	4481
900.95	4634
901.069	4660
901.189	4546
901.308	4367
901.427	4329
901.546	4379
901.665	4489
901.784	4519
901.904	4379
902.023	4363
902.141	4166
902.26	4177
902.379	4318
902.498	4223
902.617	4242
902.735	4383
902.854	4424
902.973	4424
903.091	4207
903.21	4234
903.328	4318
903.446	4306
903.565	4280
903.683	4363
903.801	4341
903.919	4394
904.038	4478
904.156	4356
904.274	4413
904.392	4409
904.51	4390
904.627	4470
904.745	4569
904.863	4660
904.981	4428
905.098	4325
905.216	4363
905.334	4440
905.451	4443
905.569	4428
905.686	4592
905.803	4584
905.921	4440
906.038	4558
906.155	4489
906.272	4398
906.389	4462
906.506	4386
906.623	4394
906.74	4436
906.857	4344
906.974	4398
907.091	4558
907.208	4691
907.324	4599
907.441	4489
907.557	4341
907.674	4333
907.79	4371
907.907	4375
908.023	4523
908.139	4516
908.256	4481
908.372	4451
908.488	4466
908.604	4386
908.72	4356
908.836	4398
908.952	4394
909.068	4451
909.184	4573
909.3	4542
909.415	4634
909.531	4550
909.647	4299
909.762	4386
909.878	4356
909.993	4440
910.108	4455
910.224	4443
910.339	4447
910.454	4386
910.57	4383
910.685	4303
910.8	4668
910.915	4637
911.03	4508
911.145	4337
911.259	4367
911.374	4402
911.489	4287
911.604	4276
911.718	4166
911.833	4287
911.947	4101
912.062	4067
912.176	4253
912.291	4215
912.405	4284
912.519	4538
912.633	4516
912.748	4398
912.862	4322
912.976	4215
913.09	4128
913.204	4196
913.318	4314
913.431	4402
913.545	4398
913.659	4443
913.772	4337
913.886	4257
914	4196
914.113	4398
914.226	4440
914.34	4390
914.453	4257
914.566	4417
914.68	4303
914.793	4379
914.906	4185
915.019	4143
915.132	4090
915.245	4173
915.358	4207
915.47	4223
915.583	4276
915.696	4348
915.809	4379
915.921	4443
916.034	4265
916.146	4242
916.259	4219
916.371	4424
916.483	4367
916.595	4268
916.708	4318
916.82	4299
916.932	4341
917.044	4356
917.156	4329
917.268	4253
917.38	4291
917.491	4306
917.603	4348
917.715	4413
917.826	4462
917.938	4363
918.049	4234
918.161	4405
918.272	4542
918.384	4580
918.495	4459
918.606	4356
918.717	4268
918.828	4306
918.939	4390
919.05	4253
919.161	4344
919.272	4116
919.383	4249
919.494	4443
919.604	4645
919.715	4432
919.826	4325
919.936	4386
920.047	4584
920.157	4500
920.267	4687
920.378	4569
920.488	4504
920.598	4706
920.708	4900
920.818	4828
920.928	4797
921.038	4965
921.148	4923
921.258	4592
921.368	4569
921.477	4504
921.587	4459
921.697	4390
921.806	4542
921.916	4466
922.025	4242
922.134	4249
922.244	4234
922.353	4352
922.462	4211
922.571	4109
922.68	4032
922.789	3994
922.898	4055
923.007	3979
923.116	4109
923.224	4093
923.333	4101
923.442	4002
923.55	3979
923.659	4025
923.767	4109
923.876	3991
923.984	4078
924.092	4044
924.201	4078
924.309	4139
924.417	4109
924.525	4090
924.633	4120
924.741	4881
924.849	3888
924.956	4116
925.064	3926
925.172	3937
925.279	3960
925.387	4071
925.494	4071
925.602	4204
925.709	4192
925.816	4067
925.924	4173
926.031	4249
926.138	4154
926.245	4211
926.352	4086
926.459	4249
926.566	4295
926.673	4200
926.779	4105
926.886	4109
926.993	4036
927.099	3975
927.206	3960
927.312	3945
927.419	4101
927.525	4040
927.631	4082
927.737	3987
927.843	3941
927.95	3842
928.056	3987
928.162	4013
928.267	4059
928.373	4656
928.479	4131
928.585	3865
928.69	4071
928.796	4055
928.901	3964
929.007	3823
929.112	4032
929.218	3987
929.323	3994
929.428	3930
929.533	4128
929.638	3911
929.743	3975
929.848	4044
929.953	4002
930.058	3911
930.163	3808
930.267	3800
930.372	3987
930.477	3789
930.581	4059
930.685	3937
930.79	3873
930.894	3857
930.998	3880
931.103	4032
931.207	3713
931.311	3705
931.415	3709
931.519	3534
931.623	3519
