Data from test_V78500241_263.txt Node
Date: Fri Mar 25 16:50:49 CST 2022
User: usil
Spectrometer: V785-0024
Trigger mode: 0
Integration Time (sec): 4.000000E-1
Scans to average: 1
Nonlinearity correction enabled: false
Boxcar width: 0
Storing dark spectrum: false
XAxis mode: Wavelengths
Number of Pixels in Spectrum: 1024
>>>>>Begin Spectral Data<<<<<
801.071	8077
801.214	8024
801.356	7909
801.499	7894
801.641	7818
801.783	7932
801.926	7982
802.068	7997
802.211	8024
802.353	8043
802.496	7925
802.638	7959
802.78	7932
802.923	7986
803.065	7902
803.208	7890
803.35	8035
803.492	8065
803.635	8142
803.777	8077
803.919	8176
804.061	8446
804.204	8138
804.346	8073
804.488	8043
804.63	8092
804.773	8065
804.915	8100
805.057	8267
805.199	8233
805.341	8279
805.483	8240
805.626	8233
805.768	8123
805.91	8244
806.052	8225
806.194	8096
806.336	8298
806.478	8187
806.62	8092
806.762	8161
806.904	8271
807.046	8423
807.188	8412
807.33	8374
807.472	8362
807.614	8210
807.756	8130
807.898	8039
808.04	7845
808.182	7989
808.324	7932
808.465	7951
808.607	8103
808.749	8065
808.891	8290
809.033	8229
809.174	8214
809.316	8092
809.458	8115
809.6	8012
809.741	8043
809.883	8092
810.025	8111
810.166	8092
810.308	8054
810.45	7993
810.591	7818
810.733	7761
810.875	7666
811.016	7521
811.158	7472
811.299	7647
811.441	7712
811.582	7655
811.724	7563
811.865	7609
812.007	7578
812.148	7628
812.29	7693
812.431	7776
812.573	7887
812.714	8020
812.855	8103
812.997	8221
813.138	8317
813.279	8191
813.421	8100
813.562	8031
813.703	7818
813.845	7723
813.986	7460
814.127	7198
814.268	7247
814.41	7255
814.551	7202
814.692	7228
814.833	7137
814.974	7133
815.115	7103
815.256	6970
815.397	6977
815.539	6958
815.68	6821
815.821	6829
815.962	6909
816.103	6848
816.244	6745
816.385	6563
816.526	6646
816.666	6566
816.807	6285
816.948	6445
817.089	6486
817.23	6494
817.371	6429
817.512	6407
817.653	6399
817.793	6319
817.934	6456
818.075	6475
818.216	6509
818.356	6369
818.497	6213
818.638	6163
818.778	6171
818.919	6167
819.06	6197
819.2	6304
819.341	6350
819.481	6308
819.622	6517
819.762	6722
819.903	6642
820.043	6597
820.184	6616
820.324	6547
820.465	6692
820.605	6692
820.746	6662
820.886	6490
821.026	6700
821.167	6700
821.307	6833
821.447	6768
821.588	6715
821.728	6582
821.868	6467
822.008	6338
822.149	6414
822.289	6395
822.429	6182
822.569	6110
822.709	6110
822.849	5950
822.99	5931
823.13	5969
823.27	5935
823.41	5809
823.55	5802
823.69	5798
823.83	5855
823.97	5672
824.11	5596
824.25	5509
824.389	5543
824.529	5554
824.669	5539
824.809	5657
824.949	5680
825.089	5649
825.228	5573
825.368	5414
825.508	5357
825.648	5372
825.787	5414
825.927	5406
826.067	5349
826.206	5280
826.346	5368
826.485	5425
826.625	5421
826.765	5573
826.904	5524
827.044	5261
827.183	5223
827.323	5140
827.462	5246
827.601	5227
827.741	5193
827.88	5189
828.02	5143
828.159	5330
828.298	5368
828.437	5417
828.577	5311
828.716	5566
828.855	5345
828.994	5197
829.134	5178
829.273	5193
829.412	5166
829.551	5143
829.69	5212
829.829	5242
829.968	5395
830.107	5288
830.246	5261
830.385	5174
830.524	5162
830.663	5098
830.802	5003
830.941	4930
831.08	4908
831.219	5033
831.357	5003
831.496	5170
831.635	4987
831.774	4858
831.913	4892
832.051	4786
832.19	4725
832.329	4873
832.467	4706
832.606	4641
832.744	4721
832.883	4763
833.022	4721
833.16	4797
833.299	4809
833.437	4797
833.576	4839
833.714	4930
833.852	4866
833.991	4927
834.129	4934
834.267	4965
834.406	4919
834.544	4995
834.682	4972
834.821	4999
834.959	5151
835.097	4995
835.235	5197
835.373	5090
835.511	5140
835.65	4995
835.788	5048
835.926	4896
836.064	4881
836.202	4965
836.34	5128
836.478	5220
836.615	5159
836.753	5254
836.891	5303
837.029	5318
837.167	5242
837.305	5140
837.443	5185
837.58	5090
837.718	5288
837.856	5201
837.993	5132
838.131	5284
838.269	5227
838.406	5284
838.544	5201
838.681	5045
838.819	5064
838.956	4877
839.094	4896
839.231	4980
839.369	5102
839.506	5429
839.643	5296
839.781	5048
839.918	5041
840.055	5090
840.193	5140
840.33	5098
840.467	5102
840.604	5181
840.742	5425
840.879	5075
841.016	5071
841.153	5117
841.29	5417
841.427	5364
841.564	5330
841.701	5364
841.838	5277
841.975	5242
842.112	5292
842.249	5170
842.385	5098
842.522	5296
842.659	5162
842.796	5143
842.933	5178
843.069	5162
843.206	5105
843.343	5330
843.479	5273
843.616	5303
843.752	5010
843.889	5037
844.025	5254
844.162	5052
844.298	5261
844.435	5098
844.571	5098
844.708	5223
844.844	5334
844.98	5360
845.117	5311
845.253	5166
845.389	5048
845.525	5189
845.661	5140
845.798	5086
845.934	5174
846.07	5056
846.206	5178
846.342	5284
846.478	5151
846.614	5033
846.75	4946
846.886	4946
847.022	5117
847.158	5003
847.294	5113
847.429	5132
847.565	5090
847.701	5311
847.837	4828
847.972	4793
848.108	4980
848.244	4934
848.379	4805
848.515	4752
848.65	4736
848.786	4725
848.921	4816
849.057	4915
849.192	4942
849.328	4839
849.463	4843
849.598	4786
849.734	4740
849.869	4706
850.004	4588
850.14	4710
850.275	4626
850.41	4569
850.545	4569
850.68	4626
850.815	4634
850.95	4637
851.085	4843
851.22	4763
851.355	4679
851.49	4607
851.625	4656
851.76	4660
851.895	4558
852.03	4527
852.165	4687
852.299	4767
852.434	4782
852.569	4782
852.703	4790
852.838	4862
852.973	5033
853.107	4911
853.242	4725
853.376	4717
853.511	4611
853.645	4649
853.78	4786
853.914	4698
854.048	4641
854.183	4607
854.317	4691
854.451	4858
854.585	4664
854.72	4679
854.854	4748
854.988	4577
855.122	4630
855.256	4523
855.39	4675
855.524	4755
855.658	4710
855.792	4698
855.926	4752
856.06	4759
856.194	4774
856.327	4729
856.461	4584
856.595	4653
856.729	4653
856.862	4820
856.996	4683
857.13	4744
857.263	4809
857.397	4835
857.53	4653
857.664	4752
857.797	4786
857.931	4809
858.064	4710
858.197	4733
858.331	4691
858.464	4615
858.597	4497
858.731	4626
858.864	4645
858.997	4599
859.13	4649
859.263	4683
859.396	4694
859.529	4577
859.662	4569
859.795	4573
859.928	4615
860.061	4740
860.194	4752
860.327	4584
860.46	4565
860.592	4763
860.725	4736
860.858	4740
860.99	4634
861.123	4546
861.256	4546
861.388	4634
861.521	5417
861.653	4485
861.786	4489
861.918	4538
862.05	4519
862.183	4573
862.315	4630
862.447	4660
862.58	4584
862.712	4421
862.844	4375
862.976	4493
863.108	4474
863.24	4885
863.372	4348
863.504	4386
863.636	4394
863.768	4485
863.9	4504
864.032	4344
864.164	4409
864.296	4489
864.428	4580
864.559	4542
864.691	4497
864.823	4527
864.954	4519
865.086	4504
865.217	4474
865.349	4390
865.48	4485
865.612	4485
865.743	4599
865.875	4516
866.006	4474
866.137	4489
866.269	4489
866.4	4459
866.531	4390
866.662	4386
866.793	4462
866.924	4428
867.055	4481
867.186	4447
867.317	4413
867.448	4360
867.579	4424
867.71	4451
867.841	4383
867.972	4424
868.103	4523
868.233	4478
868.364	4432
868.495	4523
868.625	4687
868.756	4725
868.886	4607
869.017	4622
869.147	4797
869.278	4782
869.408	4675
869.539	4687
869.669	4702
869.799	4691
869.929	4721
870.06	4801
870.19	4953
870.32	4904
870.45	4938
870.58	5033
870.71	5098
870.84	5071
870.97	4968
871.1	4904
871.23	5143
871.36	5086
871.489	5064
871.619	5079
871.749	5086
871.879	5140
872.008	5185
872.138	5083
872.267	4976
872.397	4850
872.526	4786
872.656	4767
872.785	4820
872.915	4915
873.044	5006
873.173	4858
873.303	4976
873.432	4984
873.561	4953
873.69	4866
873.819	4862
873.948	4923
874.077	4854
874.206	4752
874.335	4824
874.464	4946
874.593	5079
874.722	5014
874.851	5079
874.979	5071
875.108	5045
875.237	4900
875.365	4908
875.494	4934
875.623	4961
875.751	4908
875.88	4885
876.008	4965
876.136	5003
876.265	5197
876.393	5303
876.521	5269
876.65	5174
876.778	5166
876.906	5075
877.034	5010
877.162	5075
877.29	5018
877.418	5083
877.546	5064
877.674	5018
877.802	5029
877.93	4968
878.058	4938
878.185	4949
878.313	4976
878.441	4968
878.568	4774
878.696	4866
878.824	4976
878.951	4980
879.079	5113
879.206	5280
879.333	5136
879.461	4972
879.588	5022
879.715	5128
879.842	5174
879.97	4980
880.097	4793
880.224	4774
880.351	4801
880.478	4854
880.605	4828
880.732	4824
880.859	5067
880.986	4881
881.112	4881
881.239	4820
881.366	4668
881.493	4637
881.619	4573
881.746	4626
881.872	4637
881.999	4675
882.125	4706
882.252	4778
882.378	4797
882.505	4953
882.631	4805
882.757	4634
882.883	4714
883.01	4733
883.136	4679
883.262	4626
883.388	4558
883.514	4763
883.64	4877
883.766	4797
883.892	4717
884.018	4683
884.143	4873
884.269	4995
884.395	4683
884.52	4596
884.646	4717
884.772	4577
884.897	4561
885.023	4702
885.148	4786
885.274	4831
885.399	4790
885.524	4721
885.65	4694
885.775	4748
885.9	4702
886.025	4866
886.15	4820
886.275	4733
886.4	4725
886.525	4706
886.65	4714
886.775	4706
886.9	4877
887.025	5083
887.149	4843
887.274	4653
887.399	4596
887.523	4626
887.648	4599
887.773	4599
887.897	4778
888.021	4786
888.146	4752
888.27	4812
888.395	4892
888.519	4801
888.643	4771
888.767	4782
888.891	4672
889.015	4615
889.139	4660
889.263	4603
889.387	4736
889.511	4892
889.635	4771
889.759	4618
889.883	4706
890.006	4786
890.13	4870
890.254	4626
890.377	4725
890.501	4584
890.624	4538
890.748	4611
890.871	4523
890.995	4455
891.118	4360
891.241	4481
891.364	4538
891.488	4607
891.611	4542
891.734	4577
891.857	4592
891.98	4565
892.103	4611
892.226	4569
892.349	4538
892.471	4440
892.594	4516
892.717	4580
892.839	4569
892.962	4550
893.085	4660
893.207	4573
893.33	4459
893.452	4546
893.575	4660
893.697	4584
893.819	4831
893.941	4809
894.064	4752
894.186	4603
894.308	4577
894.43	4759
894.552	4824
894.674	4752
894.796	4569
894.918	4565
895.04	4618
895.161	4706
895.283	4694
895.405	4573
895.526	4672
895.648	4702
895.769	4698
895.891	4748
896.012	4771
896.134	4729
896.255	4679
896.376	4694
896.498	4592
896.619	4656
896.74	4622
896.861	4653
896.982	4946
897.103	5136
897.224	4892
897.345	4744
897.466	4672
897.587	4790
897.708	4896
897.828	4774
897.949	4740
898.07	4580
898.19	4634
898.311	4828
898.431	4694
898.552	4744
898.672	4828
898.792	4793
898.913	4748
899.033	4592
899.153	4516
899.273	4413
899.393	4466
899.513	4504
899.633	4527
899.753	4584
899.873	4500
899.993	4554
900.113	4542
900.232	4596
900.352	4603
900.472	4516
900.591	4409
900.711	4489
900.83	4462
900.95	4622
901.069	4687
901.189	4558
901.308	4405
901.427	4325
901.546	4417
901.665	4516
901.784	4500
901.904	4432
902.023	4310
902.141	4211
902.26	4177
902.379	4299
902.498	4253
902.617	4211
902.735	4367
902.854	4383
902.973	4421
903.091	4242
903.21	4219
903.328	4303
903.446	4268
903.565	4249
903.683	4348
903.801	4299
903.919	4390
904.038	4451
904.156	4303
904.274	4436
904.392	4405
904.51	4440
904.627	4500
904.745	4599
904.863	4679
904.981	4383
905.098	4322
905.216	4360
905.334	4440
905.451	4447
905.569	4424
905.686	4577
905.803	4573
905.921	4398
906.038	4577
906.155	4470
906.272	4390
906.389	4459
906.506	4356
906.623	4383
906.74	4413
906.857	4363
906.974	4344
907.091	4588
907.208	4637
907.324	4584
907.441	4493
907.557	4352
907.674	4310
907.79	4280
907.907	4379
908.023	4489
908.139	4504
908.256	4440
908.372	4478
908.488	4440
908.604	4421
908.72	4333
908.836	4428
908.952	4402
909.068	4428
909.184	4588
909.3	4500
909.415	4615
909.531	4580
909.647	4352
909.762	4375
909.878	4383
909.993	4421
910.108	4432
910.224	4440
910.339	4497
910.454	4394
910.57	4375
910.685	4314
910.8	4656
910.915	4550
911.03	4523
911.145	4356
911.259	4341
911.374	4360
911.489	4314
911.604	4272
911.718	4173
911.833	4207
911.947	4067
912.062	4013
912.176	4291
912.291	4219
912.405	4230
912.519	4474
912.633	4470
912.748	4428
912.862	4348
912.976	4204
913.09	4131
913.204	4177
913.318	4287
913.431	4379
913.545	4402
913.659	4474
913.772	4318
913.886	4276
914	4211
914.113	4371
914.226	4424
914.34	4398
914.453	4230
914.566	4413
914.68	4329
914.793	4344
914.906	4181
915.019	4135
915.132	4090
915.245	4169
915.358	4230
915.47	4242
915.583	4287
915.696	4329
915.809	4440
915.921	4443
916.034	4268
916.146	4265
916.259	4246
916.371	4367
916.483	4337
916.595	4253
916.708	4291
916.82	4329
916.932	4303
917.044	4348
917.156	4341
917.268	4246
917.38	4265
917.491	4268
917.603	4322
917.715	4417
917.826	4409
917.938	4367
918.049	4242
918.161	4421
918.272	4550
918.384	4603
918.495	4447
918.606	4344
918.717	4265
918.828	4375
918.939	4424
919.05	4257
919.161	4337
919.272	4093
919.383	4219
919.494	4462
919.604	4599
919.715	4413
919.826	4379
919.936	4421
920.047	4542
920.157	4481
920.267	4729
920.378	4546
920.488	4508
920.598	4717
920.708	4870
920.818	4763
920.928	4767
921.038	4953
921.148	4900
921.258	4710
921.368	4577
921.477	4493
921.587	4440
921.697	4348
921.806	4546
921.916	4386
922.025	4242
922.134	4325
922.244	4234
922.353	4352
922.462	4223
922.571	4181
922.68	4017
922.789	4051
922.898	4010
923.007	4029
923.116	4135
923.224	4090
923.333	4086
923.442	4002
923.55	4044
923.659	4002
923.767	4071
923.876	4025
923.984	4082
924.092	3949
924.201	4010
924.309	4101
924.417	4120
924.525	4036
924.633	4150
924.741	5052
924.849	3915
924.956	4150
925.064	3987
925.172	3922
925.279	3968
925.387	4112
925.494	4040
925.602	4215
925.709	4230
925.816	4051
925.924	4128
926.031	4253
926.138	4215
926.245	4242
926.352	4090
926.459	4280
926.566	4306
926.673	4158
926.779	4101
926.886	4105
926.993	3991
927.099	3994
927.206	3960
927.312	3937
927.419	4036
927.525	4021
927.631	4109
927.737	3994
927.843	4002
927.95	3857
928.056	3960
928.162	3998
928.267	4090
928.373	4626
928.479	4128
928.585	3918
928.69	4006
928.796	4067
928.901	3964
929.007	3846
929.112	3994
929.218	3941
929.323	3941
929.428	3934
929.533	4131
929.638	3941
929.743	3994
929.848	4051
929.953	3987
930.058	3930
930.163	3804
930.267	3812
930.372	3983
930.477	3797
930.581	4074
930.685	4013
930.79	3827
930.894	3869
930.998	3850
931.103	4002
931.207	3671
931.311	3709
931.415	3675
931.519	3530
931.623	3530
