Data from test_V78500241_1353.txt Node
Date: Fri Mar 25 16:58:24 CST 2022
User: usil
Spectrometer: V785-0024
Trigger mode: 0
Integration Time (sec): 4.000000E-1
Scans to average: 1
Nonlinearity correction enabled: false
Boxcar width: 0
Storing dark spectrum: false
XAxis mode: Wavelengths
Number of Pixels in Spectrum: 1024
>>>>>Begin Spectral Data<<<<<
801.071	7982
801.214	8027
801.356	7947
801.499	7837
801.641	7894
801.783	7860
801.926	7940
802.068	7963
802.211	7989
802.353	7963
802.496	7849
802.638	7833
802.78	7955
802.923	7936
803.065	7917
803.208	7811
803.35	7917
803.492	8058
803.635	8107
803.777	8065
803.919	8164
804.061	8442
804.204	8195
804.346	8043
804.488	7944
804.63	8142
804.773	8065
804.915	8145
805.057	8256
805.199	8195
805.341	8225
805.483	8275
805.626	8225
805.768	8126
805.91	8229
806.052	8218
806.194	8138
806.336	8351
806.478	8161
806.62	8065
806.762	8172
806.904	8320
807.046	8503
807.188	8339
807.33	8256
807.472	8282
807.614	8180
807.756	8153
807.898	7986
808.04	7944
808.182	7963
808.324	7974
808.465	7974
808.607	8115
808.749	8153
808.891	8218
809.033	8294
809.174	8103
809.316	8046
809.458	8100
809.6	7959
809.741	8050
809.883	8065
810.025	8073
810.166	7978
810.308	8043
810.45	7974
810.591	7856
810.733	7761
810.875	7655
811.016	7605
811.158	7552
811.299	7628
811.441	7742
811.582	7719
811.724	7647
811.865	7525
812.007	7639
812.148	7616
812.29	7647
812.431	7719
812.573	7822
812.714	7959
812.855	8100
812.997	8183
813.138	8290
813.279	8233
813.421	8107
813.562	7959
813.703	7871
813.845	7776
813.986	7495
814.127	7187
814.268	7251
814.41	7240
814.551	7126
814.692	7228
814.833	7114
814.974	7118
815.115	7091
815.256	6973
815.397	6932
815.539	6932
815.68	6821
815.821	6753
815.962	6901
816.103	6863
816.244	6719
816.385	6623
816.526	6612
816.666	6460
816.807	6285
816.948	6483
817.089	6498
817.23	6433
817.371	6304
817.512	6391
817.653	6399
817.793	6350
817.934	6445
818.075	6452
818.216	6395
818.356	6414
818.497	6262
818.638	6197
818.778	6121
818.919	6129
819.06	6213
819.2	6304
819.341	6300
819.481	6376
819.622	6513
819.762	6719
819.903	6681
820.043	6601
820.184	6627
820.324	6589
820.465	6665
820.605	6760
820.746	6673
820.886	6536
821.026	6662
821.167	6688
821.307	6802
821.447	6802
821.588	6623
821.728	6528
821.868	6456
822.008	6388
822.149	6429
822.289	6319
822.429	6209
822.569	6140
822.709	6114
822.849	5946
822.99	5809
823.13	5893
823.27	5889
823.41	5805
823.55	5783
823.69	5733
823.83	5779
823.97	5638
824.11	5589
824.25	5524
824.389	5554
824.529	5623
824.669	5532
824.809	5634
824.949	5627
825.089	5589
825.228	5505
825.368	5383
825.508	5315
825.648	5326
825.787	5383
825.927	5391
826.067	5315
826.206	5299
826.346	5383
826.485	5398
826.625	5414
826.765	5528
826.904	5425
827.044	5246
827.183	5189
827.323	5132
827.462	5250
827.601	5140
827.741	5220
827.88	5231
828.02	5132
828.159	5220
828.298	5296
828.437	5364
828.577	5250
828.716	5490
828.855	5330
828.994	5181
829.134	5124
829.273	5159
829.412	5117
829.551	5140
829.69	5197
829.829	5303
829.968	5376
830.107	5296
830.246	5216
830.385	5159
830.524	5109
830.663	5098
830.802	5014
830.941	4896
831.08	4858
831.219	5010
831.357	4965
831.496	5155
831.635	4911
831.774	4843
831.913	4839
832.051	4740
832.19	4744
832.329	4835
832.467	4653
832.606	4596
832.744	4717
832.883	4733
833.022	4736
833.16	4820
833.299	4816
833.437	4828
833.576	4843
833.714	4866
833.852	4850
833.991	4809
834.129	4965
834.267	4968
834.406	4911
834.544	4976
834.682	4938
834.821	4930
834.959	5201
835.097	4984
835.235	5102
835.373	5022
835.511	5128
835.65	5079
835.788	5052
835.926	4896
836.064	4862
836.202	4900
836.34	5193
836.478	5239
836.615	5117
836.753	5193
836.891	5250
837.029	5280
837.167	5204
837.305	5147
837.443	5128
837.58	5079
837.718	5220
837.856	5181
837.993	5117
838.131	5277
838.269	5216
838.406	5242
838.544	5212
838.681	5048
838.819	5064
838.956	4915
839.094	4942
839.231	4927
839.369	5090
839.506	5402
839.643	5239
839.781	5025
839.918	5033
840.055	5109
840.193	5094
840.33	5045
840.467	5117
840.604	5170
840.742	5421
840.879	5052
841.016	5113
841.153	5121
841.29	5379
841.427	5368
841.564	5303
841.701	5364
841.838	5258
841.975	5288
842.112	5250
842.249	5113
842.385	5109
842.522	5269
842.659	5162
842.796	5128
842.933	5147
843.069	5170
843.206	5193
843.343	5284
843.479	5223
843.616	5258
843.752	5022
843.889	4987
844.025	5174
844.162	5029
844.298	5208
844.435	5041
844.571	5022
844.708	5223
844.844	5322
844.98	5376
845.117	5337
845.253	5204
845.389	5064
845.525	5185
845.661	5090
845.798	5033
845.934	5109
846.07	5003
846.206	5136
846.342	5292
846.478	5121
846.614	5018
846.75	4976
846.886	4919
847.022	5113
847.158	5010
847.294	5075
847.429	5075
847.565	5052
847.701	5326
847.837	4843
847.972	4843
848.108	4972
848.244	4919
848.379	4805
848.515	4801
848.65	4755
848.786	4752
848.921	4782
849.057	4908
849.192	4866
849.328	4805
849.463	4820
849.598	4793
849.734	4759
849.869	4717
850.004	4603
850.14	4683
850.275	4573
850.41	4527
850.545	4580
850.68	4607
850.815	4596
850.95	4641
851.085	4858
851.22	4759
851.355	4664
851.49	4615
851.625	4664
851.76	4599
851.895	4565
852.03	4542
852.165	4694
852.299	4725
852.434	4771
852.569	4790
852.703	4790
852.838	4854
852.973	4911
853.107	4908
853.242	4721
853.376	4683
853.511	4554
853.645	4588
853.78	4812
853.914	4691
854.048	4653
854.183	4641
854.317	4706
854.451	4835
854.585	4672
854.72	4618
854.854	4736
854.988	4603
855.122	4649
855.256	4489
855.39	4694
855.524	4812
855.658	4736
855.792	4668
855.926	4668
856.06	4698
856.194	4782
856.327	4679
856.461	4584
856.595	4645
856.729	4656
856.862	4786
856.996	4694
857.13	4702
857.263	4763
857.397	4820
857.53	4656
857.664	4733
857.797	4771
857.931	4809
858.064	4714
858.197	4744
858.331	4645
858.464	4630
858.597	4512
858.731	4603
858.864	4656
858.997	4573
859.13	4702
859.263	4615
859.396	4691
859.529	4542
859.662	4546
859.795	4546
859.928	4634
860.061	4774
860.194	4767
860.327	4558
860.46	4611
860.592	4687
860.725	4714
860.858	4774
860.99	4577
861.123	4531
861.256	4558
861.388	4626
861.521	5311
861.653	4455
861.786	4459
861.918	4455
862.05	4500
862.183	4516
862.315	4558
862.447	4626
862.58	4504
862.712	4398
862.844	4310
862.976	4478
863.108	4474
863.24	4843
863.372	4329
863.504	4379
863.636	4394
863.768	4535
863.9	4413
864.032	4333
864.164	4421
864.296	4489
864.428	4531
864.559	4508
864.691	4485
864.823	4527
864.954	4459
865.086	4493
865.217	4409
865.349	4405
865.48	4398
865.612	4459
865.743	4611
865.875	4516
866.006	4447
866.137	4478
866.269	4428
866.4	4383
866.531	4402
866.662	4394
866.793	4413
866.924	4379
867.055	4508
867.186	4390
867.317	4405
867.448	4375
867.579	4386
867.71	4363
867.841	4352
867.972	4474
868.103	4462
868.233	4462
868.364	4436
868.495	4546
868.625	4691
868.756	4782
868.886	4580
869.017	4637
869.147	4759
869.278	4797
869.408	4630
869.539	4634
869.669	4672
869.799	4668
869.929	4767
870.06	4725
870.19	4927
870.32	4870
870.45	4930
870.58	4965
870.71	5056
870.84	5022
870.97	4923
871.1	4946
871.23	5140
871.36	5094
871.489	5010
871.619	5079
871.749	5060
871.879	5086
872.008	5132
872.138	4984
872.267	5003
872.397	4873
872.526	4828
872.656	4687
872.785	4809
872.915	4938
873.044	4991
873.173	4911
873.303	4995
873.432	4946
873.561	4904
873.69	4877
873.819	4881
873.948	4885
874.077	4820
874.206	4759
874.335	4812
874.464	4858
874.593	5048
874.722	4946
874.851	5109
874.979	5048
875.108	5010
875.237	4953
875.365	4816
875.494	4850
875.623	4957
875.751	4786
875.88	4866
876.008	4968
876.136	5010
876.265	5159
876.393	5349
876.521	5246
876.65	5223
876.778	5174
876.906	5086
877.034	5045
877.162	5018
877.29	4923
877.418	5102
877.546	5037
877.674	5018
877.802	5006
877.93	5041
878.058	4919
878.185	4839
878.313	4957
878.441	4965
878.568	4752
878.696	4870
878.824	4995
878.951	5022
879.079	5136
879.206	5265
879.333	5098
879.461	4908
879.588	5010
879.715	5124
879.842	5231
879.97	5033
880.097	4816
880.224	4725
880.351	4774
880.478	4820
880.605	4812
880.732	4778
880.859	5064
880.986	4911
881.112	4900
881.239	4831
881.366	4687
881.493	4626
881.619	4618
881.746	4649
881.872	4622
881.999	4660
882.125	4729
882.252	4778
882.378	4809
882.505	4915
882.631	4767
882.757	4653
882.883	4725
883.01	4767
883.136	4618
883.262	4603
883.388	4592
883.514	4790
883.64	4862
883.766	4774
883.892	4622
884.018	4744
884.143	4915
884.269	4984
884.395	4649
884.52	4615
884.646	4672
884.772	4558
884.897	4569
885.023	4637
885.148	4778
885.274	4873
885.399	4831
885.524	4714
885.65	4660
885.775	4755
885.9	4679
886.025	4854
886.15	4759
886.275	4706
886.4	4626
886.525	4736
886.65	4714
886.775	4637
886.9	4885
887.025	5014
887.149	4820
887.274	4622
887.399	4580
887.523	4577
887.648	4554
887.773	4588
887.897	4710
888.021	4763
888.146	4622
888.27	4786
888.395	4930
888.519	4729
888.643	4816
888.767	4790
888.891	4683
889.015	4599
889.139	4649
889.263	4580
889.387	4748
889.511	4828
889.635	4801
889.759	4592
889.883	4641
890.006	4672
890.13	4797
890.254	4653
890.377	4675
890.501	4527
890.624	4512
890.748	4611
890.871	4466
890.995	4428
891.118	4367
891.241	4523
891.364	4546
891.488	4558
891.611	4443
891.734	4535
891.857	4569
891.98	4523
892.103	4683
892.226	4592
892.349	4500
892.471	4402
892.594	4554
892.717	4584
892.839	4531
892.962	4592
893.085	4687
893.207	4554
893.33	4508
893.452	4531
893.575	4626
893.697	4565
893.819	4748
893.941	4824
894.064	4752
894.186	4580
894.308	4531
894.43	4744
894.552	4774
894.674	4778
894.796	4561
894.918	4603
895.04	4546
895.161	4717
895.283	4630
895.405	4573
895.526	4596
895.648	4653
895.769	4683
895.891	4706
896.012	4733
896.134	4694
896.255	4634
896.376	4607
896.498	4599
896.619	4702
896.74	4607
896.861	4649
896.982	4911
897.103	5056
897.224	4850
897.345	4729
897.466	4622
897.587	4740
897.708	4816
897.828	4759
897.949	4660
898.07	4538
898.19	4683
898.311	4824
898.431	4649
898.552	4774
898.672	4797
898.792	4755
898.913	4755
899.033	4618
899.153	4462
899.273	4447
899.393	4512
899.513	4459
899.633	4538
899.753	4558
899.873	4508
899.993	4550
900.113	4527
900.232	4561
900.352	4527
900.472	4470
900.591	4409
900.711	4443
900.83	4428
900.95	4596
901.069	4641
901.189	4459
901.308	4333
901.427	4295
901.546	4352
901.665	4455
901.784	4504
901.904	4367
902.023	4363
902.141	4150
902.26	4162
902.379	4314
902.498	4215
902.617	4230
902.735	4341
902.854	4390
902.973	4352
903.091	4253
903.21	4223
903.328	4284
903.446	4238
903.565	4253
903.683	4344
903.801	4268
903.919	4379
904.038	4459
904.156	4295
904.274	4398
904.392	4417
904.51	4417
904.627	4459
904.745	4546
904.863	4660
904.981	4363
905.098	4303
905.216	4333
905.334	4390
905.451	4428
905.569	4443
905.686	4481
905.803	4573
905.921	4390
906.038	4516
906.155	4455
906.272	4424
906.389	4398
906.506	4390
906.623	4303
906.74	4432
906.857	4280
906.974	4333
907.091	4558
907.208	4672
907.324	4592
907.441	4508
907.557	4280
907.674	4333
907.79	4284
907.907	4344
908.023	4481
908.139	4451
908.256	4440
908.372	4493
908.488	4413
908.604	4318
908.72	4318
908.836	4352
908.952	4371
909.068	4455
909.184	4558
909.3	4481
909.415	4542
909.531	4554
909.647	4337
909.762	4348
909.878	4337
909.993	4417
910.108	4386
910.224	4432
910.339	4478
910.454	4383
910.57	4440
910.685	4272
910.8	4618
910.915	4611
911.03	4535
911.145	4314
911.259	4276
911.374	4356
911.489	4219
911.604	4261
911.718	4128
911.833	4177
911.947	4109
912.062	4025
912.176	4173
912.291	4200
912.405	4246
912.519	4443
912.633	4493
912.748	4383
912.862	4306
912.976	4177
913.09	4105
913.204	4177
913.318	4261
913.431	4325
913.545	4352
913.659	4428
913.772	4352
913.886	4192
914	4200
914.113	4356
914.226	4417
914.34	4402
914.453	4227
914.566	4459
914.68	4287
914.793	4325
914.906	4139
915.019	4105
915.132	4078
915.245	4150
915.358	4200
915.47	4227
915.583	4230
915.696	4306
915.809	4462
915.921	4432
916.034	4261
916.146	4261
916.259	4249
916.371	4383
916.483	4367
916.595	4219
916.708	4310
916.82	4352
916.932	4303
917.044	4333
917.156	4341
917.268	4211
917.38	4287
917.491	4287
917.603	4352
917.715	4424
917.826	4436
917.938	4344
918.049	4249
918.161	4409
918.272	4542
918.384	4474
918.495	4424
918.606	4272
918.717	4242
918.828	4337
918.939	4348
919.05	4246
919.161	4322
919.272	4120
919.383	4238
919.494	4443
919.604	4618
919.715	4432
919.826	4325
919.936	4405
920.047	4485
920.157	4466
920.267	4626
920.378	4504
920.488	4470
920.598	4706
920.708	4908
920.818	4694
920.928	4740
921.038	4915
921.148	4938
921.258	4592
921.368	4531
921.477	4508
921.587	4462
921.697	4322
921.806	4504
921.916	4402
922.025	4234
922.134	4238
922.244	4196
922.353	4360
922.462	4154
922.571	4162
922.68	3987
922.789	4010
922.898	4006
923.007	3979
923.116	4116
923.224	4082
923.333	4059
923.442	3945
923.55	3991
923.659	4048
923.767	4120
923.876	3991
923.984	4105
924.092	3987
924.201	4078
924.309	4074
924.417	4116
924.525	4029
924.633	4086
924.741	4991
924.849	3880
924.956	4177
925.064	3972
925.172	3930
925.279	3972
925.387	4078
925.494	4055
925.602	4166
925.709	4131
925.816	4067
925.924	4112
926.031	4177
926.138	4162
926.245	4185
926.352	4105
926.459	4246
926.566	4352
926.673	4150
926.779	4063
926.886	4097
926.993	3953
927.099	3968
927.206	3907
927.312	3956
927.419	4067
927.525	4048
927.631	4048
927.737	4006
927.843	3911
927.95	3800
928.056	3945
928.162	4032
928.267	4044
928.373	4717
928.479	4120
928.585	3926
928.69	4086
928.796	4116
928.901	3983
929.007	3869
929.112	3998
929.218	3941
929.323	3930
929.428	3926
929.533	4093
929.638	3888
929.743	3953
929.848	4055
929.953	4025
930.058	3934
930.163	3808
930.267	3838
930.372	3941
930.477	3808
930.581	4112
930.685	3960
930.79	3846
930.894	3888
930.998	3857
931.103	4074
931.207	3736
931.311	3709
931.415	3682
931.519	3538
931.623	3507
