Data from test_V78500241_846.txt Node
Date: Fri Mar 25 16:54:53 CST 2022
User: usil
Spectrometer: V785-0024
Trigger mode: 0
Integration Time (sec): 4.000000E-1
Scans to average: 1
Nonlinearity correction enabled: false
Boxcar width: 0
Storing dark spectrum: false
XAxis mode: Wavelengths
Number of Pixels in Spectrum: 1024
>>>>>Begin Spectral Data<<<<<
801.071	7906
801.214	7993
801.356	7849
801.499	7856
801.641	7826
801.783	7811
801.926	7860
802.068	7982
802.211	7906
802.353	7921
802.496	7890
802.638	7830
802.78	7921
802.923	7887
803.065	7841
803.208	7875
803.35	7982
803.492	8134
803.635	8130
803.777	7997
803.919	8081
804.061	8381
804.204	8164
804.346	8039
804.488	7921
804.63	8103
804.773	7993
804.915	8016
805.057	8244
805.199	8115
805.341	8172
805.483	8240
805.626	8142
805.768	8134
805.91	8180
806.052	8161
806.194	8039
806.336	8290
806.478	8043
806.62	8016
806.762	8100
806.904	8202
807.046	8412
807.188	8351
807.33	8294
807.472	8366
807.614	8164
807.756	8088
807.898	8062
808.04	7883
808.182	7879
808.324	7845
808.465	7879
808.607	8031
808.749	7982
808.891	8111
809.033	8298
809.174	8187
809.316	8077
809.458	8020
809.6	7921
809.741	8027
809.883	7959
810.025	8119
810.166	8062
810.308	8065
810.45	8054
810.591	7883
810.733	7776
810.875	7666
811.016	7510
811.158	7472
811.299	7613
811.441	7712
811.582	7624
811.724	7586
811.865	7468
812.007	7529
812.148	7609
812.29	7563
812.431	7712
812.573	7769
812.714	7970
812.855	8084
812.997	8126
813.138	8267
813.279	8183
813.421	8031
813.562	8005
813.703	7811
813.845	7708
813.986	7449
814.127	7255
814.268	7259
814.41	7190
814.551	7110
814.692	7084
814.833	7038
814.974	7129
815.115	7118
815.256	6909
815.397	6928
815.539	6958
815.68	6783
815.821	6798
815.962	6897
816.103	6757
816.244	6684
816.385	6654
816.526	6654
816.666	6471
816.807	6311
816.948	6372
817.089	6437
817.23	6418
817.371	6365
817.512	6372
817.653	6338
817.793	6357
817.934	6372
818.075	6384
818.216	6475
818.356	6346
818.497	6216
818.638	6076
818.778	6194
818.919	6110
819.06	6136
819.2	6251
819.341	6273
819.481	6384
819.622	6479
819.762	6688
819.903	6700
820.043	6585
820.184	6627
820.324	6540
820.465	6635
820.605	6623
820.746	6631
820.886	6525
821.026	6639
821.167	6684
821.307	6787
821.447	6768
821.588	6593
821.728	6585
821.868	6521
822.008	6308
822.149	6376
822.289	6357
822.429	6144
822.569	6068
822.709	6110
822.849	5923
822.99	5901
823.13	5885
823.27	5897
823.41	5794
823.55	5710
823.69	5779
823.83	5828
823.97	5627
824.11	5501
824.25	5467
824.389	5524
824.529	5592
824.669	5490
824.809	5638
824.949	5627
825.089	5600
825.228	5554
825.368	5417
825.508	5353
825.648	5273
825.787	5341
825.927	5379
826.067	5284
826.206	5303
826.346	5334
826.485	5349
826.625	5398
826.765	5482
826.904	5436
827.044	5208
827.183	5181
827.323	5056
827.462	5170
827.601	5189
827.741	5189
827.88	5235
828.02	5071
828.159	5197
828.298	5315
828.437	5296
828.577	5277
828.716	5417
828.855	5288
828.994	5166
829.134	5155
829.273	5208
829.412	5147
829.551	5102
829.69	5166
829.829	5193
829.968	5383
830.107	5288
830.246	5284
830.385	5124
830.524	5155
830.663	5079
830.802	4934
830.941	4930
831.08	4828
831.219	4980
831.357	4968
831.496	5124
831.635	4904
831.774	4835
831.913	4854
832.051	4725
832.19	4733
832.329	4828
832.467	4656
832.606	4630
832.744	4744
832.883	4733
833.022	4714
833.16	4767
833.299	4820
833.437	4824
833.576	4843
833.714	4839
833.852	4816
833.991	4919
834.129	4965
834.267	4946
834.406	4892
834.544	4976
834.682	4987
834.821	4976
834.959	5155
835.097	5010
835.235	5071
835.373	5079
835.511	5048
835.65	4987
835.788	4961
835.926	4862
836.064	4862
836.202	4896
836.34	5181
836.478	5220
836.615	5132
836.753	5216
836.891	5265
837.029	5204
837.167	5170
837.305	5193
837.443	5162
837.58	5045
837.718	5239
837.856	5143
837.993	5083
838.131	5155
838.269	5223
838.406	5189
838.544	5151
838.681	4957
838.819	4980
838.956	4889
839.094	4824
839.231	4991
839.369	5086
839.506	5417
839.643	5185
839.781	5052
839.918	5014
840.055	5067
840.193	5075
840.33	5056
840.467	5102
840.604	5151
840.742	5387
840.879	5075
841.016	5086
841.153	5132
841.29	5368
841.427	5326
841.564	5284
841.701	5322
841.838	5231
841.975	5151
842.112	5288
842.249	5151
842.385	5064
842.522	5337
842.659	5094
842.796	5132
842.933	5178
843.069	5143
843.206	5166
843.343	5265
843.479	5185
843.616	5269
843.752	5041
843.889	5025
844.025	5181
844.162	4991
844.298	5159
844.435	5098
844.571	5052
844.708	5166
844.844	5292
844.98	5349
845.117	5227
845.253	5109
845.389	5060
845.525	5159
845.661	5090
845.798	4991
845.934	5105
846.07	5025
846.206	5166
846.342	5303
846.478	5189
846.614	5022
846.75	4942
846.886	4965
847.022	5102
847.158	5014
847.294	5098
847.429	5102
847.565	5079
847.701	5292
847.837	4839
847.972	4759
848.108	4976
848.244	4915
848.379	4736
848.515	4710
848.65	4714
848.786	4698
848.921	4767
849.057	4847
849.192	4919
849.328	4782
849.463	4850
849.598	4828
849.734	4714
849.869	4672
850.004	4603
850.14	4691
850.275	4584
850.41	4538
850.545	4569
850.68	4603
850.815	4630
850.95	4615
851.085	4850
851.22	4729
851.355	4622
851.49	4634
851.625	4641
851.76	4664
851.895	4538
852.03	4531
852.165	4596
852.299	4675
852.434	4744
852.569	4710
852.703	4721
852.838	4820
852.973	4923
853.107	4885
853.242	4740
853.376	4675
853.511	4527
853.645	4615
853.78	4702
853.914	4687
854.048	4618
854.183	4592
854.317	4656
854.451	4858
854.585	4679
854.72	4653
854.854	4786
854.988	4588
855.122	4641
855.256	4470
855.39	4618
855.524	4755
855.658	4714
855.792	4660
855.926	4755
856.06	4740
856.194	4759
856.327	4653
856.461	4603
856.595	4592
856.729	4626
856.862	4752
856.996	4721
857.13	4744
857.263	4702
857.397	4801
857.53	4615
857.664	4710
857.797	4710
857.931	4790
858.064	4630
858.197	4694
858.331	4668
858.464	4592
858.597	4561
858.731	4577
858.864	4611
858.997	4531
859.13	4634
859.263	4687
859.396	4710
859.529	4535
859.662	4542
859.795	4527
859.928	4630
860.061	4710
860.194	4717
860.327	4584
860.46	4573
860.592	4698
860.725	4672
860.858	4694
860.99	4558
861.123	4554
861.256	4523
861.388	4558
861.521	5254
861.653	4493
861.786	4462
861.918	4436
862.05	4523
862.183	4527
862.315	4577
862.447	4626
862.58	4554
862.712	4402
862.844	4363
862.976	4443
863.108	4443
863.24	4740
863.372	4371
863.504	4390
863.636	4390
863.768	4519
863.9	4413
864.032	4363
864.164	4371
864.296	4451
864.428	4470
864.559	4527
864.691	4523
864.823	4542
864.954	4447
865.086	4497
865.217	4440
865.349	4367
865.48	4432
865.612	4481
865.743	4630
865.875	4421
866.006	4409
866.137	4493
866.269	4390
866.4	4451
866.531	4398
866.662	4375
866.793	4367
866.924	4417
867.055	4466
867.186	4474
867.317	4405
867.448	4371
867.579	4352
867.71	4390
867.841	4390
867.972	4428
868.103	4440
868.233	4493
868.364	4432
868.495	4451
868.625	4637
868.756	4733
868.886	4554
869.017	4599
869.147	4744
869.278	4801
869.408	4630
869.539	4675
869.669	4668
869.799	4626
869.929	4721
870.06	4702
870.19	4919
870.32	4870
870.45	4934
870.58	5018
870.71	5056
870.84	5045
870.97	4938
871.1	4904
871.23	5113
871.36	5083
871.489	5014
871.619	5025
871.749	5098
871.879	5079
872.008	5162
872.138	5010
872.267	4946
872.397	4816
872.526	4820
872.656	4691
872.785	4805
872.915	4968
873.044	5033
873.173	4896
873.303	4930
873.432	4968
873.561	4942
873.69	4782
873.819	4847
873.948	4908
874.077	4839
874.206	4755
874.335	4828
874.464	4904
874.593	5067
874.722	4938
874.851	5064
874.979	5033
875.108	5033
875.237	4946
875.365	4870
875.494	4850
875.623	4976
875.751	4816
875.88	4816
876.008	4961
876.136	5022
876.265	5162
876.393	5345
876.521	5246
876.65	5208
876.778	5121
876.906	5102
877.034	5006
877.162	5060
877.29	4972
877.418	5056
877.546	5033
877.674	4999
877.802	5033
877.93	4991
878.058	4900
878.185	4854
878.313	4949
878.441	4961
878.568	4786
878.696	4816
878.824	4961
878.951	5003
879.079	5109
879.206	5269
879.333	5045
879.461	4980
879.588	4984
879.715	5128
879.842	5227
879.97	5010
880.097	4831
880.224	4733
880.351	4767
880.478	4850
880.605	4710
880.732	4736
880.859	5056
880.986	4885
881.112	4896
881.239	4786
881.366	4618
881.493	4580
881.619	4599
881.746	4615
881.872	4641
881.999	4645
882.125	4687
882.252	4782
882.378	4778
882.505	4927
882.631	4812
882.757	4656
882.883	4687
883.01	4721
883.136	4653
883.262	4573
883.388	4580
883.514	4812
883.64	4793
883.766	4733
883.892	4698
884.018	4740
884.143	4877
884.269	5010
884.395	4660
884.52	4584
884.646	4615
884.772	4527
884.897	4516
885.023	4626
885.148	4755
885.274	4873
885.399	4786
885.524	4683
885.65	4694
885.775	4748
885.9	4698
886.025	4828
886.15	4793
886.275	4698
886.4	4626
886.525	4710
886.65	4653
886.775	4679
886.9	4885
887.025	5029
887.149	4782
887.274	4694
887.399	4558
887.523	4615
887.648	4577
887.773	4607
887.897	4714
888.021	4797
888.146	4626
888.27	4812
888.395	4923
888.519	4755
888.643	4729
888.767	4793
888.891	4691
889.015	4527
889.139	4592
889.263	4577
889.387	4717
889.511	4824
889.635	4843
889.759	4615
889.883	4664
890.006	4702
890.13	4858
890.254	4649
890.377	4653
890.501	4516
890.624	4497
890.748	4615
890.871	4535
890.995	4383
891.118	4390
891.241	4451
891.364	4504
891.488	4603
891.611	4462
891.734	4531
891.857	4592
891.98	4527
892.103	4618
892.226	4599
892.349	4497
892.471	4443
892.594	4565
892.717	4561
892.839	4512
892.962	4592
893.085	4634
893.207	4561
893.33	4470
893.452	4497
893.575	4634
893.697	4569
893.819	4752
893.941	4782
894.064	4786
894.186	4626
894.308	4580
894.43	4656
894.552	4797
894.674	4721
894.796	4584
894.918	4630
895.04	4550
895.161	4694
895.283	4649
895.405	4569
895.526	4649
895.648	4641
895.769	4683
895.891	4653
896.012	4771
896.134	4721
896.255	4622
896.376	4626
896.498	4615
896.619	4660
896.74	4596
896.861	4645
896.982	4961
897.103	5045
897.224	4828
897.345	4755
897.466	4599
897.587	4782
897.708	4896
897.828	4801
897.949	4664
898.07	4573
898.19	4649
898.311	4870
898.431	4668
898.552	4714
898.672	4850
898.792	4850
898.913	4729
899.033	4668
899.153	4535
899.273	4455
899.393	4531
899.513	4565
899.633	4561
899.753	4569
899.873	4542
899.993	4626
900.113	4508
900.232	4637
900.352	4504
900.472	4478
900.591	4455
900.711	4516
900.83	4455
900.95	4637
901.069	4710
901.189	4561
901.308	4432
901.427	4371
901.546	4409
901.665	4485
901.784	4573
901.904	4451
902.023	4405
902.141	4196
902.26	4147
902.379	4356
902.498	4272
902.617	4306
902.735	4436
902.854	4451
902.973	4337
903.091	4246
903.21	4230
903.328	4303
903.446	4303
903.565	4287
903.683	4394
903.801	4348
903.919	4421
904.038	4451
904.156	4337
904.274	4455
904.392	4443
904.51	4417
904.627	4538
904.745	4645
904.863	4687
904.981	4428
905.098	4363
905.216	4417
905.334	4443
905.451	4432
905.569	4436
905.686	4584
905.803	4580
905.921	4478
906.038	4611
906.155	4489
906.272	4424
906.389	4478
906.506	4428
906.623	4375
906.74	4443
906.857	4318
906.974	4405
907.091	4588
907.208	4763
907.324	4558
907.441	4504
907.557	4386
907.674	4394
907.79	4348
907.907	4417
908.023	4535
908.139	4489
908.256	4440
908.372	4481
908.488	4527
908.604	4375
908.72	4360
908.836	4443
908.952	4440
909.068	4451
909.184	4573
909.3	4535
909.415	4580
909.531	4531
909.647	4356
909.762	4379
909.878	4390
909.993	4443
910.108	4394
910.224	4459
910.339	4508
910.454	4443
910.57	4363
910.685	4318
910.8	4656
910.915	4596
911.03	4531
911.145	4348
911.259	4371
911.374	4394
911.489	4310
911.604	4310
911.718	4223
911.833	4207
911.947	4105
912.062	4051
912.176	4181
912.291	4280
912.405	4268
912.519	4478
912.633	4516
912.748	4405
912.862	4325
912.976	4230
913.09	4097
913.204	4223
913.318	4249
913.431	4386
913.545	4447
913.659	4432
913.772	4360
913.886	4291
914	4287
914.113	4436
914.226	4424
914.34	4413
914.453	4265
914.566	4413
914.68	4318
914.793	4371
914.906	4162
915.019	4124
915.132	4139
915.245	4211
915.358	4253
915.47	4276
915.583	4287
915.696	4291
915.809	4443
915.921	4451
916.034	4265
916.146	4325
916.259	4299
916.371	4398
916.483	4409
916.595	4325
916.708	4329
916.82	4405
916.932	4337
917.044	4352
917.156	4348
917.268	4272
917.38	4318
917.491	4306
917.603	4371
917.715	4466
917.826	4497
917.938	4348
918.049	4268
918.161	4481
918.272	4592
918.384	4531
918.495	4523
918.606	4306
918.717	4306
918.828	4322
918.939	4390
919.05	4280
919.161	4337
919.272	4173
919.383	4207
919.494	4493
919.604	4679
919.715	4485
919.826	4318
919.936	4459
920.047	4508
920.157	4451
920.267	4744
920.378	4554
920.488	4546
920.598	4740
920.708	4889
920.818	4755
920.928	4782
921.038	5018
921.148	4930
921.258	4714
921.368	4592
921.477	4527
921.587	4459
921.697	4386
921.806	4580
921.916	4436
922.025	4272
922.134	4306
922.244	4261
922.353	4375
922.462	4223
922.571	4116
922.68	4040
922.789	3937
922.898	4059
923.007	4032
923.116	4150
923.224	4055
923.333	4093
923.442	4074
923.55	4059
923.659	4032
923.767	4097
923.876	4032
923.984	4147
924.092	3994
924.201	4097
924.309	4128
924.417	4185
924.525	4074
924.633	4158
924.741	4858
924.849	3907
924.956	4154
925.064	4013
925.172	3899
925.279	3994
925.387	4036
925.494	4059
925.602	4249
925.709	4211
925.816	4150
925.924	4112
926.031	4280
926.138	4158
926.245	4246
926.352	4105
926.459	4230
926.566	4287
926.673	4192
926.779	4131
926.886	4139
926.993	3983
927.099	3975
927.206	3994
927.312	3987
927.419	4078
927.525	4063
927.631	4139
927.737	4010
927.843	3941
927.95	3884
928.056	3998
928.162	4002
928.267	4093
928.373	4710
928.479	4192
928.585	3930
928.69	4036
928.796	4166
928.901	3991
929.007	3861
929.112	3979
929.218	4013
929.323	3907
929.428	3956
929.533	4112
929.638	3960
929.743	4006
929.848	4097
929.953	4017
930.058	3907
930.163	3793
930.267	3880
930.372	3998
930.477	3854
930.581	4097
930.685	3983
930.79	3854
930.894	3922
930.998	3876
931.103	4040
931.207	3724
931.311	3705
931.415	3747
931.519	3542
931.623	3564
