Data from test_V78500241_2103.txt Node
Date: Fri Mar 25 17:03:37 CST 2022
User: usil
Spectrometer: V785-0024
Trigger mode: 0
Integration Time (sec): 4.000000E-1
Scans to average: 1
Nonlinearity correction enabled: false
Boxcar width: 0
Storing dark spectrum: false
XAxis mode: Wavelengths
Number of Pixels in Spectrum: 1024
>>>>>Begin Spectral Data<<<<<
801.071	8073
801.214	7921
801.356	7864
801.499	7845
801.641	7807
801.783	7818
801.926	7951
802.068	7978
802.211	7974
802.353	8020
802.496	7898
802.638	7826
802.78	7868
802.923	7807
803.065	7822
803.208	7875
803.35	7951
803.492	8054
803.635	8168
803.777	8012
803.919	8126
804.061	8442
804.204	8145
804.346	8077
804.488	7951
804.63	8153
804.773	8058
804.915	8206
805.057	8267
805.199	8092
805.341	8218
805.483	8263
805.626	8195
805.768	8142
805.91	8191
806.052	8199
806.194	8111
806.336	8275
806.478	8073
806.62	8046
806.762	8164
806.904	8271
807.046	8484
807.188	8347
807.33	8309
807.472	8332
807.614	8142
807.756	8187
807.898	7974
808.04	7830
808.182	7822
808.324	7887
808.465	7894
808.607	8077
808.749	8096
808.891	8195
809.033	8286
809.174	8244
809.316	8035
809.458	8043
809.6	8039
809.741	8054
809.883	8077
810.025	8024
810.166	8100
810.308	8024
810.45	8027
810.591	7909
810.733	7700
810.875	7681
811.016	7396
811.158	7453
811.299	7616
811.441	7689
811.582	7753
811.724	7567
811.865	7483
812.007	7601
812.148	7632
812.29	7613
812.431	7757
812.573	7860
812.714	7997
812.855	8126
812.997	8199
813.138	8301
813.279	8115
813.421	8111
813.562	7925
813.703	7761
813.845	7700
813.986	7396
814.127	7251
814.268	7198
814.41	7149
814.551	7179
814.692	7240
814.833	7084
814.974	7095
815.115	7171
815.256	6973
815.397	6966
815.539	6985
815.68	6814
815.821	6753
815.962	6802
816.103	6833
816.244	6677
816.385	6612
816.526	6601
816.666	6479
816.807	6346
816.948	6403
817.089	6464
817.23	6464
817.371	6369
817.512	6331
817.653	6426
817.793	6338
817.934	6445
818.075	6426
818.216	6445
818.356	6407
818.497	6216
818.638	6095
818.778	6152
818.919	6129
819.06	6098
819.2	6342
819.341	6331
819.481	6342
819.622	6517
819.762	6753
819.903	6730
820.043	6544
820.184	6585
820.324	6616
820.465	6700
820.605	6684
820.746	6646
820.886	6494
821.026	6608
821.167	6673
821.307	6779
821.447	6719
821.588	6700
821.728	6597
821.868	6509
822.008	6342
822.149	6342
822.289	6331
822.429	6224
822.569	6091
822.709	6125
822.849	5946
822.99	5893
823.13	5935
823.27	5927
823.41	5775
823.55	5821
823.69	5771
823.83	5764
823.97	5676
824.11	5516
824.25	5520
824.389	5547
824.529	5539
824.669	5524
824.809	5638
824.949	5676
825.089	5600
825.228	5516
825.368	5391
825.508	5345
825.648	5307
825.787	5372
825.927	5368
826.067	5311
826.206	5303
826.346	5357
826.485	5417
826.625	5516
826.765	5566
826.904	5482
827.044	5296
827.183	5212
827.323	5132
827.462	5269
827.601	5166
827.741	5162
827.88	5185
828.02	5121
828.159	5223
828.298	5322
828.437	5345
828.577	5254
828.716	5478
828.855	5345
828.994	5185
829.134	5102
829.273	5197
829.412	5174
829.551	5090
829.69	5204
829.829	5315
829.968	5387
830.107	5250
830.246	5284
830.385	5143
830.524	5155
830.663	5098
830.802	4946
830.941	4896
831.08	4923
831.219	4930
831.357	4984
831.496	5143
831.635	4957
831.774	4854
831.913	4850
832.051	4668
832.19	4679
832.329	4858
832.467	4683
832.606	4649
832.744	4687
832.883	4698
833.022	4744
833.16	4736
833.299	4850
833.437	4812
833.576	4850
833.714	4885
833.852	4866
833.991	4877
834.129	4953
834.267	4953
834.406	4904
834.544	5033
834.682	4991
834.821	4965
834.959	5159
835.097	4987
835.235	5159
835.373	5064
835.511	5124
835.65	5014
835.788	5037
835.926	4904
836.064	4873
836.202	4908
836.34	5117
836.478	5246
836.615	5113
836.753	5189
836.891	5261
837.029	5246
837.167	5220
837.305	5136
837.443	5174
837.58	5041
837.718	5246
837.856	5170
837.993	5121
838.131	5208
838.269	5258
838.406	5258
838.544	5166
838.681	5064
838.819	5029
838.956	4965
839.094	4892
839.231	4961
839.369	5071
839.506	5341
839.643	5223
839.781	5033
839.918	5056
840.055	5140
840.193	5094
840.33	5098
840.467	5124
840.604	5178
840.742	5444
840.879	5067
841.016	5048
841.153	5159
841.29	5383
841.427	5372
841.564	5277
841.701	5433
841.838	5318
841.975	5197
842.112	5315
842.249	5162
842.385	5098
842.522	5341
842.659	5155
842.796	5132
842.933	5220
843.069	5166
843.206	5105
843.343	5318
843.479	5227
843.616	5242
843.752	5006
843.889	4991
844.025	5235
844.162	4995
844.298	5208
844.435	5079
844.571	5079
844.708	5143
844.844	5242
844.98	5345
845.117	5273
845.253	5098
845.389	5056
845.525	5159
845.661	5064
845.798	5083
845.934	5162
846.07	5045
846.206	5242
846.342	5280
846.478	5174
846.614	5048
846.75	4953
846.886	4904
847.022	5128
847.158	5014
847.294	5083
847.429	5079
847.565	5079
847.701	5280
847.837	4835
847.972	4843
848.108	4934
848.244	4934
848.379	4752
848.515	4778
848.65	4698
848.786	4790
848.921	4778
849.057	4835
849.192	4942
849.328	4790
849.463	4904
849.598	4816
849.734	4752
849.869	4672
850.004	4626
850.14	4691
850.275	4599
850.41	4535
850.545	4577
850.68	4626
850.815	4634
850.95	4626
851.085	4896
851.22	4767
851.355	4660
851.49	4645
851.625	4641
851.76	4679
851.895	4550
852.03	4527
852.165	4656
852.299	4736
852.434	4812
852.569	4748
852.703	4774
852.838	4881
852.973	4934
853.107	4927
853.242	4744
853.376	4698
853.511	4516
853.645	4645
853.78	4854
853.914	4683
854.048	4714
854.183	4622
854.317	4645
854.451	4805
854.585	4641
854.72	4554
854.854	4752
854.988	4637
855.122	4615
855.256	4569
855.39	4611
855.524	4797
855.658	4687
855.792	4622
855.926	4702
856.06	4759
856.194	4790
856.327	4721
856.461	4611
856.595	4637
856.729	4611
856.862	4748
856.996	4656
857.13	4717
857.263	4759
857.397	4809
857.53	4603
857.664	4733
857.797	4721
857.931	4782
858.064	4691
858.197	4748
858.331	4668
858.464	4622
858.597	4493
858.731	4645
858.864	4630
858.997	4577
859.13	4687
859.263	4649
859.396	4637
859.529	4603
859.662	4561
859.795	4523
859.928	4630
860.061	4782
860.194	4782
860.327	4565
860.46	4531
860.592	4767
860.725	4725
860.858	4763
860.99	4599
861.123	4504
861.256	4569
861.388	4580
861.521	5376
861.653	4466
861.786	4462
861.918	4466
862.05	4546
862.183	4584
862.315	4588
862.447	4660
862.58	4512
862.712	4375
862.844	4341
862.976	4478
863.108	4447
863.24	4759
863.372	4356
863.504	4390
863.636	4394
863.768	4462
863.9	4428
864.032	4348
864.164	4383
864.296	4459
864.428	4596
864.559	4558
864.691	4596
864.823	4538
864.954	4493
865.086	4497
865.217	4447
865.349	4390
865.48	4432
865.612	4459
865.743	4615
865.875	4497
866.006	4394
866.137	4489
866.269	4493
866.4	4413
866.531	4417
866.662	4367
866.793	4356
866.924	4424
867.055	4481
867.186	4493
867.317	4428
867.448	4417
867.579	4394
867.71	4379
867.841	4383
867.972	4428
868.103	4428
868.233	4417
868.364	4451
868.495	4516
868.625	4634
868.756	4801
868.886	4546
869.017	4603
869.147	4778
869.278	4744
869.408	4653
869.539	4656
869.669	4714
869.799	4641
869.929	4744
870.06	4736
870.19	4927
870.32	4923
870.45	4949
870.58	4930
870.71	5098
870.84	5079
870.97	4976
871.1	4900
871.23	5090
871.36	5113
871.489	5025
871.619	5060
871.749	5117
871.879	5117
872.008	5159
872.138	5025
872.267	4946
872.397	4793
872.526	4816
872.656	4664
872.785	4805
872.915	4896
873.044	5018
873.173	4889
873.303	5014
873.432	4961
873.561	4942
873.69	4866
873.819	4847
873.948	4862
874.077	4809
874.206	4717
874.335	4774
874.464	4965
874.593	5056
874.722	4957
874.851	5071
874.979	5075
875.108	5052
875.237	4870
875.365	4885
875.494	4885
875.623	5018
875.751	4835
875.88	4904
876.008	4953
876.136	5010
876.265	5193
876.393	5318
876.521	5254
876.65	5242
876.778	5223
876.906	5071
877.034	5041
877.162	5071
877.29	4965
877.418	5064
877.546	5033
877.674	5071
877.802	5033
877.93	5014
878.058	4938
878.185	4908
878.313	4953
878.441	4881
878.568	4824
878.696	4904
878.824	4965
878.951	5006
879.079	5204
879.206	5311
879.333	5075
879.461	4976
879.588	4984
879.715	5117
879.842	5208
879.97	4976
880.097	4774
880.224	4725
880.351	4801
880.478	4778
880.605	4816
880.732	4782
880.859	5064
880.986	4862
881.112	4843
881.239	4812
881.366	4649
881.493	4584
881.619	4596
881.746	4694
881.872	4672
881.999	4672
882.125	4672
882.252	4790
882.378	4805
882.505	4942
882.631	4763
882.757	4641
882.883	4763
883.01	4687
883.136	4645
883.262	4554
883.388	4630
883.514	4767
883.64	4828
883.766	4805
883.892	4683
884.018	4725
884.143	4904
884.269	4991
884.395	4694
884.52	4641
884.646	4634
884.772	4607
884.897	4588
885.023	4653
885.148	4755
885.274	4790
885.399	4793
885.524	4717
885.65	4706
885.775	4763
885.9	4679
886.025	4881
886.15	4778
886.275	4717
886.4	4691
886.525	4714
886.65	4717
886.775	4634
886.9	4927
887.025	5041
887.149	4786
887.274	4664
887.399	4512
887.523	4615
887.648	4569
887.773	4607
887.897	4797
888.021	4778
888.146	4668
888.27	4801
888.395	4930
888.519	4820
888.643	4797
888.767	4809
888.891	4683
889.015	4596
889.139	4656
889.263	4618
889.387	4748
889.511	4854
889.635	4812
889.759	4649
889.883	4672
890.006	4725
890.13	4870
890.254	4645
890.377	4668
890.501	4538
890.624	4462
890.748	4626
890.871	4481
890.995	4455
891.118	4394
891.241	4531
891.364	4519
891.488	4626
891.611	4447
891.734	4546
891.857	4558
891.98	4550
892.103	4611
892.226	4542
892.349	4527
892.471	4405
892.594	4580
892.717	4588
892.839	4573
892.962	4592
893.085	4649
893.207	4615
893.33	4413
893.452	4481
893.575	4656
893.697	4577
893.819	4801
893.941	4870
894.064	4774
894.186	4546
894.308	4592
894.43	4744
894.552	4843
894.674	4748
894.796	4535
894.918	4592
895.04	4592
895.161	4691
895.283	4660
895.405	4599
895.526	4653
895.648	4683
895.769	4672
895.891	4752
896.012	4755
896.134	4748
896.255	4656
896.376	4615
896.498	4607
896.619	4698
896.74	4580
896.861	4637
896.982	4866
897.103	5090
897.224	4835
897.345	4782
897.466	4683
897.587	4733
897.708	4824
897.828	4793
897.949	4675
898.07	4535
898.19	4656
898.311	4854
898.431	4653
898.552	4710
898.672	4812
898.792	4744
898.913	4717
899.033	4637
899.153	4481
899.273	4447
899.393	4538
899.513	4462
899.633	4493
899.753	4535
899.873	4489
899.993	4577
900.113	4508
900.232	4565
900.352	4550
900.472	4516
900.591	4413
900.711	4466
900.83	4455
900.95	4615
901.069	4683
901.189	4516
901.308	4375
901.427	4337
901.546	4356
901.665	4474
901.784	4493
901.904	4383
902.023	4363
902.141	4204
902.26	4154
902.379	4272
902.498	4284
902.617	4238
902.735	4386
902.854	4398
902.973	4306
903.091	4154
903.21	4223
903.328	4265
903.446	4280
903.565	4227
903.683	4356
903.801	4280
903.919	4409
904.038	4413
904.156	4318
904.274	4447
904.392	4398
904.51	4417
904.627	4485
904.745	4588
904.863	4645
904.981	4394
905.098	4287
905.216	4413
905.334	4455
905.451	4409
905.569	4481
905.686	4569
905.803	4527
905.921	4440
906.038	4554
906.155	4516
906.272	4363
906.389	4436
906.506	4360
906.623	4379
906.74	4413
906.857	4291
906.974	4352
907.091	4577
907.208	4702
907.324	4607
907.441	4481
907.557	4329
907.674	4375
907.79	4276
907.907	4386
908.023	4443
908.139	4428
908.256	4405
908.372	4440
908.488	4443
908.604	4363
908.72	4329
908.836	4371
908.952	4360
909.068	4436
909.184	4558
909.3	4459
909.415	4599
909.531	4599
909.647	4348
909.762	4402
909.878	4356
909.993	4455
910.108	4390
910.224	4440
910.339	4432
910.454	4417
910.57	4371
910.685	4352
910.8	4660
910.915	4645
911.03	4561
911.145	4310
911.259	4329
911.374	4405
911.489	4295
911.604	4284
911.718	4188
911.833	4215
911.947	4078
912.062	4051
912.176	4219
912.291	4238
912.405	4185
912.519	4478
912.633	4554
912.748	4333
912.862	4341
912.976	4207
913.09	4063
913.204	4158
913.318	4246
913.431	4383
913.545	4306
913.659	4447
913.772	4371
913.886	4253
914	4234
914.113	4390
914.226	4405
914.34	4386
914.453	4227
914.566	4405
914.68	4284
914.793	4295
914.906	4181
915.019	4112
915.132	4105
915.245	4185
915.358	4173
915.47	4227
915.583	4299
915.696	4280
915.809	4428
915.921	4386
916.034	4238
916.146	4234
916.259	4204
916.371	4348
916.483	4333
916.595	4249
916.708	4325
916.82	4306
916.932	4306
917.044	4310
917.156	4291
917.268	4227
917.38	4261
917.491	4276
917.603	4375
917.715	4440
917.826	4443
917.938	4314
918.049	4249
918.161	4409
918.272	4500
918.384	4546
918.495	4440
918.606	4276
918.717	4230
918.828	4337
918.939	4371
919.05	4272
919.161	4329
919.272	4109
919.383	4257
919.494	4432
919.604	4599
919.715	4497
919.826	4356
919.936	4398
920.047	4500
920.157	4493
920.267	4714
920.378	4588
920.488	4462
920.598	4725
920.708	4831
920.818	4767
920.928	4759
921.038	4919
921.148	4919
921.258	4622
921.368	4504
921.477	4489
921.587	4466
921.697	4375
921.806	4592
921.916	4402
922.025	4280
922.134	4268
922.244	4204
922.353	4299
922.462	4200
922.571	4150
922.68	4029
922.789	3975
922.898	4029
923.007	3987
923.116	4067
923.224	4093
923.333	4086
923.442	3991
923.55	4013
923.659	4044
923.767	4093
923.876	4029
923.984	4128
924.092	3994
924.201	4109
924.309	4135
924.417	4105
924.525	4044
924.633	4082
924.741	5060
924.849	3896
924.956	4150
925.064	3945
925.172	3896
925.279	3960
925.387	4067
925.494	4078
925.602	4242
925.709	4181
925.816	4029
925.924	4131
926.031	4196
926.138	4128
926.245	4219
926.352	4093
926.459	4242
926.566	4303
926.673	4120
926.779	4055
926.886	4036
926.993	3983
927.099	3934
927.206	3903
927.312	3941
927.419	4078
927.525	4036
927.631	4055
927.737	3934
927.843	3979
927.95	3804
928.056	3934
928.162	3998
928.267	4021
928.373	4592
928.479	4131
928.585	3865
928.69	4029
928.796	4093
928.901	3949
929.007	3835
929.112	3991
929.218	3983
929.323	3968
929.428	3930
929.533	4097
929.638	3911
929.743	3991
929.848	4071
929.953	3987
930.058	3869
930.163	3774
930.267	3774
930.372	3994
930.477	3816
930.581	4044
930.685	3953
930.79	3778
930.894	3861
930.998	3854
931.103	4048
931.207	3705
931.311	3694
931.415	3671
931.519	3561
931.623	3557
