Data from test_V78500241_1876.txt Node
Date: Fri Mar 25 17:02:02 CST 2022
User: usil
Spectrometer: V785-0024
Trigger mode: 0
Integration Time (sec): 4.000000E-1
Scans to average: 1
Nonlinearity correction enabled: false
Boxcar width: 0
Storing dark spectrum: false
XAxis mode: Wavelengths
Number of Pixels in Spectrum: 1024
>>>>>Begin Spectral Data<<<<<
801.071	7967
801.214	8008
801.356	7887
801.499	7856
801.641	7795
801.783	7784
801.926	7947
802.068	7906
802.211	7951
802.353	7974
802.496	7871
802.638	7818
802.78	7940
802.923	7871
803.065	7807
803.208	7818
803.35	7928
803.492	8096
803.635	8111
803.777	8054
803.919	8107
804.061	8450
804.204	8233
804.346	8073
804.488	7993
804.63	8100
804.773	8005
804.915	8077
805.057	8343
805.199	8195
805.341	8176
805.483	8202
805.626	8202
805.768	8073
805.91	8221
806.052	8218
806.194	8077
806.336	8252
806.478	8058
806.62	8046
806.762	8119
806.904	8305
807.046	8431
807.188	8362
807.33	8324
807.472	8347
807.614	8111
807.756	8161
807.898	7909
808.04	7894
808.182	7860
808.324	7917
808.465	7902
808.607	8031
808.749	8126
808.891	8271
809.033	8271
809.174	8256
809.316	8062
809.458	8103
809.6	7967
809.741	8008
809.883	8020
810.025	8096
810.166	8092
810.308	7997
810.45	7947
810.591	7864
810.733	7715
810.875	7651
811.016	7464
811.158	7460
811.299	7575
811.441	7723
811.582	7685
811.724	7590
811.865	7609
812.007	7597
812.148	7575
812.29	7651
812.431	7761
812.573	7868
812.714	8088
812.855	8168
812.997	8267
813.138	8259
813.279	8157
813.421	8054
813.562	7978
813.703	7811
813.845	7738
813.986	7388
814.127	7213
814.268	7247
814.41	7194
814.551	7118
814.692	7190
814.833	7133
814.974	7129
815.115	7072
815.256	6939
815.397	6947
815.539	6932
815.68	6814
815.821	6764
815.962	6833
816.103	6795
816.244	6741
816.385	6627
816.526	6544
816.666	6486
816.807	6285
816.948	6464
817.089	6429
817.23	6410
817.371	6353
817.512	6399
817.653	6414
817.793	6289
817.934	6422
818.075	6422
818.216	6403
818.356	6384
818.497	6281
818.638	6121
818.778	6163
818.919	6140
819.06	6175
819.2	6369
819.341	6319
819.481	6388
819.622	6513
819.762	6696
819.903	6684
820.043	6608
820.184	6513
820.324	6536
820.465	6673
820.605	6719
820.746	6650
820.886	6517
821.026	6620
821.167	6768
821.307	6711
821.447	6802
821.588	6711
821.728	6627
821.868	6483
822.008	6376
822.149	6414
822.289	6304
822.429	6155
822.569	6087
822.709	6057
822.849	5965
822.99	5863
823.13	5927
823.27	5927
823.41	5805
823.55	5775
823.69	5756
823.83	5783
823.97	5691
824.11	5512
824.25	5512
824.389	5558
824.529	5592
824.669	5463
824.809	5589
824.949	5665
825.089	5532
825.228	5497
825.368	5421
825.508	5349
825.648	5383
825.787	5372
825.927	5402
826.067	5296
826.206	5292
826.346	5395
826.485	5421
826.625	5429
826.765	5516
826.904	5512
827.044	5174
827.183	5178
827.323	5079
827.462	5227
827.601	5181
827.741	5170
827.88	5242
828.02	5102
828.159	5193
828.298	5265
828.437	5372
828.577	5273
828.716	5459
828.855	5349
828.994	5071
829.134	5109
829.273	5178
829.412	5132
829.551	5075
829.69	5117
829.829	5254
829.968	5379
830.107	5242
830.246	5250
830.385	5204
830.524	5143
830.663	5071
830.802	4965
830.941	4889
831.08	4881
831.219	4965
831.357	4919
831.496	5166
831.635	4896
831.774	4801
831.913	4858
832.051	4733
832.19	4736
832.329	4835
832.467	4721
832.606	4679
832.744	4660
832.883	4698
833.022	4717
833.16	4748
833.299	4820
833.437	4820
833.576	4816
833.714	4850
833.852	4835
833.991	4866
834.129	4961
834.267	4911
834.406	4938
834.544	4991
834.682	4949
834.821	4991
834.959	5181
835.097	5037
835.235	5124
835.373	5140
835.511	5067
835.65	5018
835.788	4984
835.926	4862
836.064	4911
836.202	4923
836.34	5140
836.478	5178
836.615	5113
836.753	5220
836.891	5239
837.029	5227
837.167	5155
837.305	5121
837.443	5143
837.58	5052
837.718	5261
837.856	5143
837.993	5140
838.131	5242
838.269	5170
838.406	5201
838.544	5189
838.681	5033
838.819	5010
838.956	4854
839.094	4885
839.231	4942
839.369	5075
839.506	5398
839.643	5261
839.781	5025
839.918	4995
840.055	5102
840.193	5109
840.33	5117
840.467	5105
840.604	5143
840.742	5429
840.879	5075
841.016	5067
841.153	5170
841.29	5368
841.427	5337
841.564	5337
841.701	5311
841.838	5303
841.975	5204
842.112	5208
842.249	5121
842.385	5102
842.522	5345
842.659	5197
842.796	5181
842.933	5223
843.069	5178
843.206	5140
843.343	5269
843.479	5239
843.616	5193
843.752	5064
843.889	5052
844.025	5178
844.162	4995
844.298	5201
844.435	5094
844.571	5083
844.708	5193
844.844	5254
844.98	5315
845.117	5315
845.253	5113
845.389	5079
845.525	5102
845.661	5109
845.798	5029
845.934	5113
846.07	5060
846.206	5197
846.342	5269
846.478	5136
846.614	5003
846.75	4946
846.886	4927
847.022	5086
847.158	4984
847.294	5029
847.429	5090
847.565	5048
847.701	5311
847.837	4866
847.972	4782
848.108	4999
848.244	4938
848.379	4812
848.515	4755
848.65	4725
848.786	4771
848.921	4793
849.057	4873
849.192	4873
849.328	4801
849.463	4892
849.598	4767
849.734	4763
849.869	4687
850.004	4626
850.14	4694
850.275	4611
850.41	4500
850.545	4580
850.68	4592
850.815	4588
850.95	4622
851.085	4850
851.22	4679
851.355	4653
851.49	4611
851.625	4645
851.76	4615
851.895	4588
852.03	4459
852.165	4607
852.299	4736
852.434	4767
852.569	4740
852.703	4809
852.838	4824
852.973	4927
853.107	4953
853.242	4733
853.376	4660
853.511	4561
853.645	4653
853.78	4793
853.914	4714
854.048	4683
854.183	4580
854.317	4729
854.451	4805
854.585	4653
854.72	4656
854.854	4755
854.988	4607
855.122	4645
855.256	4561
855.39	4668
855.524	4759
855.658	4752
855.792	4672
855.926	4759
856.06	4710
856.194	4797
856.327	4656
856.461	4584
856.595	4649
856.729	4668
856.862	4733
856.996	4714
857.13	4736
857.263	4721
857.397	4790
857.53	4599
857.664	4767
857.797	4744
857.931	4778
858.064	4736
858.197	4710
858.331	4660
858.464	4592
858.597	4489
858.731	4634
858.864	4649
858.997	4588
859.13	4653
859.263	4641
859.396	4660
859.529	4561
859.662	4573
859.795	4535
859.928	4660
860.061	4721
860.194	4790
860.327	4592
860.46	4584
860.592	4694
860.725	4687
860.858	4672
860.99	4580
861.123	4561
861.256	4516
861.388	4630
861.521	5349
861.653	4447
861.786	4459
861.918	4474
862.05	4493
862.183	4569
862.315	4577
862.447	4615
862.58	4550
862.712	4421
862.844	4303
862.976	4443
863.108	4436
863.24	4854
863.372	4322
863.504	4379
863.636	4360
863.768	4440
863.9	4405
864.032	4356
864.164	4394
864.296	4466
864.428	4577
864.559	4500
864.691	4573
864.823	4516
864.954	4531
865.086	4481
865.217	4451
865.349	4398
865.48	4421
865.612	4436
865.743	4607
865.875	4466
866.006	4440
866.137	4462
866.269	4421
866.4	4440
866.531	4398
866.662	4360
866.793	4352
866.924	4363
867.055	4417
867.186	4398
867.317	4398
867.448	4348
867.579	4356
867.71	4394
867.841	4363
867.972	4443
868.103	4421
868.233	4451
868.364	4478
868.495	4481
868.625	4649
868.756	4714
868.886	4580
869.017	4615
869.147	4786
869.278	4759
869.408	4637
869.539	4660
869.669	4664
869.799	4630
869.929	4740
870.06	4672
870.19	4927
870.32	4900
870.45	4911
870.58	5010
870.71	5083
870.84	5109
870.97	4961
871.1	4930
871.23	5083
871.36	5151
871.489	5025
871.619	5041
871.749	5052
871.879	5178
872.008	5151
872.138	5079
872.267	4953
872.397	4809
872.526	4809
872.656	4660
872.785	4835
872.915	4965
873.044	5010
873.173	4908
873.303	4961
873.432	4965
873.561	4953
873.69	4927
873.819	4839
873.948	4953
874.077	4824
874.206	4740
874.335	4793
874.464	4877
874.593	5067
874.722	4965
874.851	5083
874.979	5025
875.108	5010
875.237	4908
875.365	4858
875.494	4862
875.623	4930
875.751	4839
875.88	4873
876.008	4991
876.136	5010
876.265	5147
876.393	5341
876.521	5189
876.65	5242
876.778	5159
876.906	5094
877.034	5037
877.162	5067
877.29	4961
877.418	5033
877.546	5029
877.674	4965
877.802	4991
877.93	5010
878.058	4957
878.185	4831
878.313	4911
878.441	4953
878.568	4816
878.696	4866
878.824	4915
878.951	4938
879.079	5121
879.206	5246
879.333	5147
879.461	5018
879.588	5025
879.715	5094
879.842	5242
879.97	5071
880.097	4771
880.224	4752
880.351	4805
880.478	4793
880.605	4748
880.732	4812
880.859	5045
880.986	4854
881.112	4923
881.239	4763
881.366	4645
881.493	4584
881.619	4603
881.746	4626
881.872	4641
881.999	4675
882.125	4698
882.252	4778
882.378	4828
882.505	4949
882.631	4812
882.757	4660
882.883	4679
883.01	4729
883.136	4679
883.262	4607
883.388	4637
883.514	4771
883.64	4847
883.766	4839
883.892	4679
884.018	4725
884.143	4835
884.269	5006
884.395	4668
884.52	4622
884.646	4592
884.772	4561
884.897	4569
885.023	4683
885.148	4702
885.274	4858
885.399	4778
885.524	4736
885.65	4698
885.775	4767
885.9	4683
886.025	4854
886.15	4740
886.275	4691
886.4	4641
886.525	4710
886.65	4714
886.775	4653
886.9	4850
887.025	5041
887.149	4831
887.274	4645
887.399	4554
887.523	4561
887.648	4580
887.773	4592
887.897	4767
888.021	4835
888.146	4664
888.27	4790
888.395	4934
888.519	4782
888.643	4824
888.767	4858
888.891	4668
889.015	4599
889.139	4634
889.263	4630
889.387	4755
889.511	4870
889.635	4820
889.759	4641
889.883	4656
890.006	4752
890.13	4839
890.254	4630
890.377	4691
890.501	4550
890.624	4485
890.748	4660
890.871	4451
890.995	4424
891.118	4398
891.241	4470
891.364	4565
891.488	4588
891.611	4538
891.734	4478
891.857	4588
891.98	4523
892.103	4675
892.226	4565
892.349	4550
892.471	4405
892.594	4519
892.717	4641
892.839	4569
892.962	4558
893.085	4641
893.207	4569
893.33	4428
893.452	4500
893.575	4618
893.697	4584
893.819	4786
893.941	4790
894.064	4793
894.186	4580
894.308	4554
894.43	4729
894.552	4873
894.674	4721
894.796	4577
894.918	4599
895.04	4592
895.161	4683
895.283	4656
895.405	4542
895.526	4649
895.648	4679
895.769	4687
895.891	4683
896.012	4733
896.134	4698
896.255	4694
896.376	4641
896.498	4603
896.619	4653
896.74	4622
896.861	4645
896.982	4843
897.103	5094
897.224	4801
897.345	4759
897.466	4615
897.587	4725
897.708	4812
897.828	4782
897.949	4679
898.07	4577
898.19	4618
898.311	4831
898.431	4691
898.552	4694
898.672	4774
898.792	4850
898.913	4740
899.033	4611
899.153	4519
899.273	4451
899.393	4504
899.513	4531
899.633	4546
899.753	4596
899.873	4474
899.993	4588
900.113	4497
900.232	4554
900.352	4558
900.472	4489
900.591	4375
900.711	4523
900.83	4462
900.95	4558
901.069	4694
901.189	4561
901.308	4344
901.427	4299
901.546	4363
901.665	4455
901.784	4516
901.904	4417
902.023	4322
902.141	4215
902.26	4185
902.379	4303
902.498	4238
902.617	4246
902.735	4363
902.854	4436
902.973	4356
903.091	4204
903.21	4223
903.328	4299
903.446	4325
903.565	4295
903.683	4356
903.801	4238
903.919	4367
904.038	4405
904.156	4322
904.274	4459
904.392	4371
904.51	4409
904.627	4508
904.745	4592
904.863	4603
904.981	4379
905.098	4287
905.216	4325
905.334	4436
905.451	4451
905.569	4409
905.686	4531
905.803	4508
905.921	4443
906.038	4500
906.155	4459
906.272	4379
906.389	4466
906.506	4329
906.623	4325
906.74	4375
906.857	4306
906.974	4375
907.091	4519
907.208	4664
907.324	4535
907.441	4493
907.557	4356
907.674	4322
907.79	4322
907.907	4383
908.023	4440
908.139	4470
908.256	4432
908.372	4481
908.488	4485
908.604	4367
908.72	4314
908.836	4356
908.952	4348
909.068	4462
909.184	4531
909.3	4485
909.415	4607
909.531	4550
909.647	4333
909.762	4375
909.878	4356
909.993	4417
910.108	4375
910.224	4440
910.339	4478
910.454	4405
910.57	4352
910.685	4306
910.8	4664
910.915	4573
911.03	4489
911.145	4314
911.259	4295
911.374	4356
911.489	4284
911.604	4257
911.718	4207
911.833	4188
911.947	4063
912.062	4002
912.176	4227
912.291	4215
912.405	4223
912.519	4470
912.633	4478
912.748	4402
912.862	4268
912.976	4177
913.09	4109
913.204	4143
913.318	4287
913.431	4344
913.545	4337
913.659	4432
913.772	4386
913.886	4234
914	4211
914.113	4386
914.226	4398
914.34	4440
914.453	4185
914.566	4447
914.68	4295
914.793	4337
914.906	4181
915.019	4101
915.132	4029
915.245	4192
915.358	4219
915.47	4246
915.583	4265
915.696	4253
915.809	4417
915.921	4409
916.034	4234
916.146	4261
916.259	4234
916.371	4348
916.483	4344
916.595	4291
916.708	4280
916.82	4360
916.932	4295
917.044	4284
917.156	4341
917.268	4219
917.38	4287
917.491	4280
917.603	4325
917.715	4443
917.826	4447
917.938	4341
918.049	4242
918.161	4363
918.272	4527
918.384	4523
918.495	4455
918.606	4295
918.717	4223
918.828	4337
918.939	4371
919.05	4249
919.161	4329
919.272	4162
919.383	4246
919.494	4421
919.604	4630
919.715	4432
919.826	4325
919.936	4352
920.047	4516
920.157	4493
920.267	4675
920.378	4531
920.488	4519
920.598	4683
920.708	4889
920.818	4733
920.928	4740
921.038	4915
921.148	4919
921.258	4607
921.368	4542
921.477	4500
921.587	4413
921.697	4344
921.806	4535
921.916	4424
922.025	4291
922.134	4268
922.244	4204
922.353	4325
922.462	4169
922.571	4169
922.68	4017
922.789	3945
922.898	4059
923.007	3968
923.116	4105
923.224	4074
923.333	4051
923.442	3991
923.55	3956
923.659	4051
923.767	4082
923.876	4013
923.984	4112
924.092	3953
924.201	4006
924.309	4067
924.417	4154
924.525	4082
924.633	4078
924.741	5022
924.849	3968
924.956	4150
925.064	3884
925.172	3884
925.279	3987
925.387	4051
925.494	4101
925.602	4150
925.709	4207
925.816	4010
925.924	4120
926.031	4215
926.138	4147
926.245	4227
926.352	4090
926.459	4223
926.566	4303
926.673	4093
926.779	4036
926.886	4105
926.993	3979
927.099	3960
927.206	3945
927.312	3979
927.419	4029
927.525	4044
927.631	4105
927.737	3964
927.843	3922
927.95	3838
928.056	3979
928.162	4021
928.267	4044
928.373	4596
928.479	4097
928.585	3892
928.69	4036
928.796	4048
928.901	3972
929.007	3808
929.112	3983
929.218	3953
929.323	3941
929.428	3934
929.533	4063
929.638	3899
929.743	3975
929.848	4044
929.953	3975
930.058	3888
930.163	3800
930.267	3861
930.372	3975
930.477	3827
930.581	4059
930.685	3945
930.79	3808
930.894	3842
930.998	3896
931.103	4040
931.207	3675
931.311	3713
931.415	3660
931.519	3542
931.623	3534
