Data from test_V78500241_142.txt Node
Date: Fri Mar 25 16:49:59 CST 2022
User: usil
Spectrometer: V785-0024
Trigger mode: 0
Integration Time (sec): 4.000000E-1
Scans to average: 1
Nonlinearity correction enabled: false
Boxcar width: 0
Storing dark spectrum: false
XAxis mode: Wavelengths
Number of Pixels in Spectrum: 1024
>>>>>Begin Spectral Data<<<<<
801.071	8031
801.214	7940
801.356	7887
801.499	7894
801.641	7795
801.783	7830
801.926	7974
802.068	8020
802.211	7932
802.353	8012
802.496	7849
802.638	7887
802.78	7963
802.923	7921
803.065	7894
803.208	7845
803.35	7967
803.492	8050
803.635	8115
803.777	7936
803.919	8073
804.061	8301
804.204	8096
804.346	8027
804.488	7944
804.63	8016
804.773	7986
804.915	8119
805.057	8282
805.199	8073
805.341	8199
805.483	8248
805.626	8221
805.768	8092
805.91	8077
806.052	8240
806.194	8054
806.336	8294
806.478	8134
806.62	8039
806.762	8126
806.904	8218
807.046	8396
807.188	8377
807.33	8298
807.472	8358
807.614	8157
807.756	8130
807.898	7967
808.04	7902
808.182	7917
808.324	7849
808.465	7967
808.607	7997
808.749	8073
808.891	8313
809.033	8339
809.174	8199
809.316	8054
809.458	8027
809.6	7986
809.741	8130
809.883	8031
810.025	8077
810.166	8111
810.308	8050
810.45	8054
810.591	7875
810.733	7776
810.875	7693
811.016	7578
811.158	7468
811.299	7639
811.441	7784
811.582	7738
811.724	7636
811.865	7582
812.007	7616
812.148	7609
812.29	7666
812.431	7807
812.573	7925
812.714	8035
812.855	8233
812.997	8298
813.138	8355
813.279	8237
813.421	8100
813.562	7982
813.703	7898
813.845	7795
813.986	7491
814.127	7335
814.268	7316
814.41	7255
814.551	7213
814.692	7217
814.833	7114
814.974	7145
815.115	7179
815.256	7023
815.397	6947
815.539	7015
815.68	6787
815.821	6779
815.962	6825
816.103	6844
816.244	6688
816.385	6692
816.526	6578
816.666	6525
816.807	6372
816.948	6422
817.089	6456
817.23	6528
817.371	6391
817.512	6334
817.653	6399
817.793	6403
817.934	6448
818.075	6460
818.216	6441
818.356	6388
818.497	6285
818.638	6148
818.778	6182
818.919	6190
819.06	6121
819.2	6380
819.341	6376
819.481	6403
819.622	6555
819.762	6745
819.903	6738
820.043	6601
820.184	6578
820.324	6551
820.465	6700
820.605	6688
820.746	6639
820.886	6528
821.026	6665
821.167	6722
821.307	6818
821.447	6749
821.588	6688
821.728	6578
821.868	6570
822.008	6445
822.149	6410
822.289	6357
822.429	6155
822.569	6129
822.709	6125
822.849	5939
822.99	5912
823.13	5946
823.27	5969
823.41	5866
823.55	5832
823.69	5775
823.83	5828
823.97	5646
824.11	5543
824.25	5570
824.389	5600
824.529	5592
824.669	5520
824.809	5646
824.949	5695
825.089	5627
825.228	5596
825.368	5402
825.508	5364
825.648	5326
825.787	5379
825.927	5429
826.067	5345
826.206	5277
826.346	5345
826.485	5417
826.625	5410
826.765	5562
826.904	5490
827.044	5277
827.183	5208
827.323	5117
827.462	5246
827.601	5235
827.741	5212
827.88	5277
828.02	5204
828.159	5231
828.298	5280
828.437	5337
828.577	5311
828.716	5543
828.855	5383
828.994	5201
829.134	5216
829.273	5242
829.412	5083
829.551	5132
829.69	5181
829.829	5227
829.968	5406
830.107	5261
830.246	5322
830.385	5181
830.524	5174
830.663	5113
830.802	4957
830.941	4908
831.08	4930
831.219	4961
831.357	4972
831.496	5212
831.635	4946
831.774	4824
831.913	4885
832.051	4729
832.19	4778
832.329	4839
832.467	4744
832.606	4664
832.744	4721
832.883	4759
833.022	4767
833.16	4805
833.299	4782
833.437	4797
833.576	4824
833.714	4866
833.852	4885
833.991	4885
834.129	4961
834.267	5010
834.406	4938
834.544	4980
834.682	4980
834.821	4965
834.959	5178
835.097	5006
835.235	5193
835.373	5102
835.511	5124
835.65	5033
835.788	5010
835.926	4957
836.064	4892
836.202	4934
836.34	5189
836.478	5288
836.615	5170
836.753	5227
836.891	5322
837.029	5250
837.167	5261
837.305	5178
837.443	5162
837.58	5105
837.718	5258
837.856	5216
837.993	5159
838.131	5242
838.269	5204
838.406	5227
838.544	5178
838.681	5067
838.819	4984
838.956	4911
839.094	4904
839.231	4984
839.369	5121
839.506	5467
839.643	5277
839.781	5083
839.918	4999
840.055	5109
840.193	5098
840.33	5113
840.467	5170
840.604	5193
840.742	5440
840.879	5102
841.016	5140
841.153	5140
841.29	5379
841.427	5341
841.564	5311
841.701	5406
841.838	5292
841.975	5201
842.112	5254
842.249	5117
842.385	5079
842.522	5395
842.659	5170
842.796	5124
842.933	5197
843.069	5159
843.206	5189
843.343	5296
843.479	5269
843.616	5212
843.752	5033
843.889	4987
844.025	5227
844.162	4987
844.298	5231
844.435	5056
844.571	5037
844.708	5242
844.844	5357
844.98	5368
845.117	5292
845.253	5124
845.389	5094
845.525	5185
845.661	5147
845.798	5086
845.934	5147
846.07	5022
846.206	5197
846.342	5299
846.478	5197
846.614	5033
846.75	4980
846.886	4968
847.022	5109
847.158	5033
847.294	5022
847.429	5128
847.565	5086
847.701	5322
847.837	4889
847.972	4839
848.108	4949
848.244	4904
848.379	4805
848.515	4721
848.65	4725
848.786	4759
848.921	4805
849.057	4873
849.192	4889
849.328	4828
849.463	4854
849.598	4824
849.734	4782
849.869	4668
850.004	4634
850.14	4691
850.275	4664
850.41	4519
850.545	4588
850.68	4596
850.815	4641
850.95	4630
851.085	4892
851.22	4782
851.355	4694
851.49	4626
851.625	4630
851.76	4675
851.895	4599
852.03	4527
852.165	4668
852.299	4729
852.434	4843
852.569	4748
852.703	4801
852.838	4858
852.973	4984
853.107	4923
853.242	4694
853.376	4672
853.511	4588
853.645	4649
853.78	4816
853.914	4721
854.048	4733
854.183	4649
854.317	4694
854.451	4885
854.585	4698
854.72	4607
854.854	4748
854.988	4626
855.122	4668
855.256	4542
855.39	4679
855.524	4790
855.658	4740
855.792	4637
855.926	4790
856.06	4748
856.194	4854
856.327	4710
856.461	4630
856.595	4630
856.729	4622
856.862	4793
856.996	4694
857.13	4778
857.263	4797
857.397	4793
857.53	4611
857.664	4679
857.797	4790
857.931	4793
858.064	4725
858.197	4752
858.331	4679
858.464	4675
858.597	4500
858.731	4637
858.864	4683
858.997	4611
859.13	4687
859.263	4710
859.396	4729
859.529	4607
859.662	4554
859.795	4538
859.928	4622
860.061	4702
860.194	4847
860.327	4641
860.46	4573
860.592	4702
860.725	4729
860.858	4698
860.99	4584
861.123	4523
861.256	4516
861.388	4596
861.521	5357
861.653	4535
861.786	4447
861.918	4481
862.05	4546
862.183	4577
862.315	4615
862.447	4634
862.58	4504
862.712	4405
862.844	4363
862.976	4459
863.108	4398
863.24	4881
863.372	4325
863.504	4417
863.636	4394
863.768	4470
863.9	4447
864.032	4390
864.164	4402
864.296	4462
864.428	4535
864.559	4519
864.691	4535
864.823	4538
864.954	4508
865.086	4577
865.217	4443
865.349	4413
865.48	4451
865.612	4523
865.743	4672
865.875	4462
866.006	4447
866.137	4489
866.269	4390
866.4	4493
866.531	4470
866.662	4428
866.793	4409
866.924	4455
867.055	4500
867.186	4447
867.317	4421
867.448	4379
867.579	4375
867.71	4440
867.841	4386
867.972	4462
868.103	4455
868.233	4455
868.364	4497
868.495	4451
868.625	4668
868.756	4790
868.886	4599
869.017	4637
869.147	4782
869.278	4755
869.408	4683
869.539	4714
869.669	4748
869.799	4653
869.929	4782
870.06	4717
870.19	5014
870.32	4953
870.45	4968
870.58	5075
870.71	5124
870.84	5102
870.97	4946
871.1	4927
871.23	5128
871.36	5151
871.489	5071
871.619	5136
871.749	5109
871.879	5181
872.008	5197
872.138	5094
872.267	4919
872.397	4858
872.526	4805
872.656	4706
872.785	4801
872.915	4987
873.044	5003
873.173	4949
873.303	4953
873.432	5006
873.561	4942
873.69	4862
873.819	4908
873.948	4949
874.077	4911
874.206	4771
874.335	4847
874.464	4957
874.593	5052
874.722	4930
874.851	5155
874.979	5071
875.108	5060
875.237	4949
875.365	4873
875.494	4900
875.623	5014
875.751	4828
875.88	4885
876.008	5014
876.136	5022
876.265	5212
876.393	5391
876.521	5265
876.65	5235
876.778	5128
876.906	5105
877.034	4987
877.162	5048
877.29	5037
877.418	4999
877.546	5048
877.674	5037
877.802	4991
877.93	5067
878.058	4961
878.185	4866
878.313	4957
878.441	4965
878.568	4839
878.696	4885
878.824	4976
878.951	5033
879.079	5162
879.206	5368
879.333	5109
879.461	5006
879.588	5025
879.715	5143
879.842	5170
879.97	4991
880.097	4767
880.224	4759
880.351	4847
880.478	4774
880.605	4839
880.732	4782
880.859	5075
880.986	4946
881.112	4991
881.239	4812
881.366	4683
881.493	4584
881.619	4592
881.746	4634
881.872	4683
881.999	4618
882.125	4721
882.252	4805
882.378	4828
882.505	4961
882.631	4847
882.757	4656
882.883	4736
883.01	4752
883.136	4675
883.262	4607
883.388	4622
883.514	4854
883.64	4873
883.766	4816
883.892	4721
884.018	4733
884.143	4904
884.269	5018
884.395	4664
884.52	4615
884.646	4675
884.772	4561
884.897	4561
885.023	4675
885.148	4790
885.274	4873
885.399	4793
885.524	4755
885.65	4725
885.775	4736
885.9	4717
886.025	4866
886.15	4828
886.275	4717
886.4	4683
886.525	4706
886.65	4721
886.775	4706
886.9	4938
887.025	5086
887.149	4786
887.274	4645
887.399	4596
887.523	4607
887.648	4618
887.773	4607
887.897	4812
888.021	4782
888.146	4668
888.27	4824
888.395	4892
888.519	4820
888.643	4809
888.767	4828
888.891	4706
889.015	4626
889.139	4672
889.263	4603
889.387	4752
889.511	4900
889.635	4828
889.759	4634
889.883	4660
890.006	4755
890.13	4801
890.254	4634
890.377	4710
890.501	4565
890.624	4497
890.748	4634
890.871	4573
890.995	4455
891.118	4417
891.241	4550
891.364	4550
891.488	4626
891.611	4512
891.734	4584
891.857	4599
891.98	4569
892.103	4675
892.226	4596
892.349	4489
892.471	4428
892.594	4546
892.717	4588
892.839	4584
892.962	4645
893.085	4641
893.207	4580
893.33	4462
893.452	4550
893.575	4698
893.697	4630
893.819	4866
893.941	4847
894.064	4828
894.186	4554
894.308	4603
894.43	4729
894.552	4820
894.674	4763
894.796	4535
894.918	4634
895.04	4542
895.161	4721
895.283	4664
895.405	4580
895.526	4675
895.648	4683
895.769	4733
895.891	4782
896.012	4767
896.134	4740
896.255	4725
896.376	4679
896.498	4641
896.619	4744
896.74	4603
896.861	4660
896.982	5003
897.103	5128
897.224	4854
897.345	4774
897.466	4664
897.587	4714
897.708	4847
897.828	4809
897.949	4679
898.07	4550
898.19	4683
898.311	4850
898.431	4672
898.552	4733
898.672	4850
898.792	4850
898.913	4778
899.033	4664
899.153	4512
899.273	4447
899.393	4470
899.513	4569
899.633	4554
899.753	4554
899.873	4538
899.993	4573
900.113	4569
900.232	4558
900.352	4550
900.472	4489
900.591	4459
900.711	4500
900.83	4428
900.95	4607
901.069	4702
901.189	4599
901.308	4371
901.427	4363
901.546	4421
901.665	4470
901.784	4546
901.904	4394
902.023	4310
902.141	4200
902.26	4181
902.379	4379
902.498	4242
902.617	4268
902.735	4360
902.854	4390
902.973	4383
903.091	4200
903.21	4215
903.328	4287
903.446	4265
903.565	4227
903.683	4424
903.801	4291
903.919	4390
904.038	4459
904.156	4344
904.274	4455
904.392	4405
904.51	4405
904.627	4489
904.745	4637
904.863	4645
904.981	4394
905.098	4333
905.216	4360
905.334	4443
905.451	4451
905.569	4432
905.686	4573
905.803	4630
905.921	4394
906.038	4569
906.155	4523
906.272	4432
906.389	4500
906.506	4356
906.623	4405
906.74	4443
906.857	4348
906.974	4367
907.091	4622
907.208	4672
907.324	4618
907.441	4531
907.557	4386
907.674	4318
907.79	4329
907.907	4447
908.023	4466
908.139	4531
908.256	4459
908.372	4500
908.488	4466
908.604	4360
908.72	4344
908.836	4371
908.952	4386
909.068	4443
909.184	4561
909.3	4504
909.415	4615
909.531	4603
909.647	4329
909.762	4405
909.878	4398
909.993	4455
910.108	4390
910.224	4390
910.339	4474
910.454	4428
910.57	4360
910.685	4333
910.8	4664
910.915	4607
911.03	4489
911.145	4348
911.259	4333
911.374	4394
911.489	4295
911.604	4333
911.718	4196
911.833	4230
911.947	4109
912.062	3979
912.176	4246
912.291	4318
912.405	4295
912.519	4500
912.633	4516
912.748	4371
912.862	4344
912.976	4249
913.09	4135
913.204	4188
913.318	4310
913.431	4413
913.545	4409
913.659	4451
913.772	4383
913.886	4287
914	4234
914.113	4371
914.226	4462
914.34	4421
914.453	4238
914.566	4443
914.68	4306
914.793	4383
914.906	4207
915.019	4162
915.132	4067
915.245	4147
915.358	4200
915.47	4261
915.583	4318
915.696	4314
915.809	4447
915.921	4493
916.034	4268
916.146	4284
916.259	4230
916.371	4405
916.483	4360
916.595	4299
916.708	4363
916.82	4352
916.932	4306
917.044	4348
917.156	4318
917.268	4227
917.38	4310
917.491	4280
917.603	4329
917.715	4474
917.826	4459
917.938	4375
918.049	4272
918.161	4405
918.272	4531
918.384	4573
918.495	4485
918.606	4306
918.717	4227
918.828	4394
918.939	4375
919.05	4295
919.161	4367
919.272	4112
919.383	4261
919.494	4512
919.604	4630
919.715	4436
919.826	4360
919.936	4390
920.047	4584
920.157	4478
920.267	4710
920.378	4584
920.488	4523
920.598	4736
920.708	4911
920.818	4782
920.928	4782
921.038	4953
921.148	4900
921.258	4634
921.368	4584
921.477	4500
921.587	4478
921.697	4386
921.806	4561
921.916	4413
922.025	4253
922.134	4291
922.244	4242
922.353	4352
922.462	4158
922.571	4173
922.68	4025
922.789	3968
922.898	4025
923.007	4013
923.116	4120
923.224	4067
923.333	4093
923.442	3975
923.55	4002
923.659	4063
923.767	4154
923.876	4044
923.984	4128
924.092	4021
924.201	4082
924.309	4124
924.417	4185
924.525	4063
924.633	4116
924.741	4881
924.849	3876
924.956	4093
925.064	3960
925.172	3934
925.279	4010
925.387	4078
925.494	4025
925.602	4257
925.709	4215
925.816	4044
925.924	4139
926.031	4246
926.138	4181
926.245	4227
926.352	4116
926.459	4287
926.566	4356
926.673	4169
926.779	4086
926.886	4071
926.993	4002
927.099	3934
927.206	3956
927.312	3953
927.419	4074
927.525	4055
927.631	4063
927.737	4029
927.843	3934
927.95	3850
928.056	3979
928.162	4010
928.267	4086
928.373	4649
928.479	4173
928.585	3873
928.69	4002
928.796	4040
928.901	3987
929.007	3850
929.112	4063
929.218	3968
929.323	3934
929.428	3941
929.533	4116
929.638	3899
929.743	3994
929.848	4040
929.953	4044
930.058	3937
930.163	3778
930.267	3819
930.372	3987
930.477	3770
930.581	4109
930.685	3953
930.79	3819
930.894	3876
930.998	3892
931.103	4048
931.207	3720
931.311	3652
931.415	3694
931.519	3534
931.623	3545
