Data from test_V78500241_591.txt Node
Date: Fri Mar 25 16:53:06 CST 2022
User: usil
Spectrometer: V785-0024
Trigger mode: 0
Integration Time (sec): 4.000000E-1
Scans to average: 1
Nonlinearity correction enabled: false
Boxcar width: 0
Storing dark spectrum: false
XAxis mode: Wavelengths
Number of Pixels in Spectrum: 1024
>>>>>Begin Spectral Data<<<<<
801.071	8054
801.214	7989
801.356	7944
801.499	7902
801.641	7776
801.783	7887
801.926	8001
802.068	7978
802.211	8008
802.353	8027
802.496	7898
802.638	7906
802.78	7921
802.923	7925
803.065	7883
803.208	7875
803.35	7898
803.492	8119
803.635	8191
803.777	8050
803.919	8172
804.061	8381
804.204	8107
804.346	8069
804.488	7978
804.63	8092
804.773	8050
804.915	8092
805.057	8282
805.199	8111
805.341	8324
805.483	8324
805.626	8180
805.768	8100
805.91	8176
806.052	8248
806.194	8100
806.336	8290
806.478	8134
806.62	8062
806.762	8164
806.904	8271
807.046	8396
807.188	8339
807.33	8229
807.472	8309
807.614	8202
807.756	8142
807.898	8031
808.04	7906
808.182	7925
808.324	7887
808.465	7849
808.607	8016
808.749	8084
808.891	8176
809.033	8199
809.174	8142
809.316	8050
809.458	8008
809.6	7928
809.741	8058
809.883	8039
810.025	8092
810.166	8069
810.308	7967
810.45	7959
810.591	7845
810.733	7727
810.875	7624
811.016	7464
811.158	7495
811.299	7613
811.441	7666
811.582	7666
811.724	7548
811.865	7445
812.007	7582
812.148	7597
812.29	7670
812.431	7753
812.573	7864
812.714	8016
812.855	8107
812.997	8218
813.138	8400
813.279	8199
813.421	8096
813.562	8020
813.703	7906
813.845	7830
813.986	7525
814.127	7320
814.268	7339
814.41	7244
814.551	7179
814.692	7187
814.833	7095
814.974	7050
815.115	7031
815.256	6985
815.397	6920
815.539	6939
815.68	6821
815.821	6768
815.962	6905
816.103	6848
816.244	6787
816.385	6658
816.526	6635
816.666	6490
816.807	6258
816.948	6429
817.089	6452
817.23	6372
817.371	6384
817.512	6407
817.653	6418
817.793	6353
817.934	6418
818.075	6437
818.216	6437
818.356	6456
818.497	6182
818.638	6087
818.778	6140
818.919	6095
819.06	6125
819.2	6311
819.341	6315
819.481	6353
819.622	6494
819.762	6711
819.903	6677
820.043	6502
820.184	6593
820.324	6521
820.465	6673
820.605	6608
820.746	6627
820.886	6429
821.026	6559
821.167	6669
821.307	6776
821.447	6764
821.588	6665
821.728	6483
821.868	6448
822.008	6292
822.149	6315
822.289	6361
822.429	6095
822.569	6098
822.709	6129
822.849	5893
822.99	5847
823.13	5935
823.27	5859
823.41	5794
823.55	5733
823.69	5771
823.83	5802
823.97	5699
824.11	5558
824.25	5471
824.389	5608
824.529	5589
824.669	5505
824.809	5638
824.949	5657
825.089	5627
825.228	5619
825.368	5334
825.508	5315
825.648	5330
825.787	5410
825.927	5379
826.067	5277
826.206	5296
826.346	5357
826.485	5452
826.625	5406
826.765	5539
826.904	5452
827.044	5201
827.183	5197
827.323	5105
827.462	5284
827.601	5151
827.741	5193
827.88	5204
828.02	5102
828.159	5254
828.298	5288
828.437	5395
828.577	5311
828.716	5573
828.855	5360
828.994	5181
829.134	5178
829.273	5235
829.412	5132
829.551	5121
829.69	5185
829.829	5277
829.968	5383
830.107	5292
830.246	5269
830.385	5235
830.524	5147
830.663	5105
830.802	4965
830.941	4881
831.08	4923
831.219	5025
831.357	5010
831.496	5174
831.635	4972
831.774	4843
831.913	4889
832.051	4782
832.19	4778
832.329	4877
832.467	4752
832.606	4664
832.744	4786
832.883	4744
833.022	4740
833.16	4816
833.299	4885
833.437	4862
833.576	4839
833.714	4900
833.852	4889
833.991	4889
834.129	5048
834.267	5014
834.406	4965
834.544	5003
834.682	4984
834.821	4984
834.959	5246
835.097	5045
835.235	5155
835.373	5113
835.511	5136
835.65	5071
835.788	5014
835.926	4961
836.064	4896
836.202	4965
836.34	5212
836.478	5258
836.615	5159
836.753	5185
836.891	5334
837.029	5265
837.167	5265
837.305	5239
837.443	5189
837.58	5132
837.718	5246
837.856	5201
837.993	5227
838.131	5239
838.269	5189
838.406	5239
838.544	5246
838.681	5109
838.819	5037
838.956	4934
839.094	4904
839.231	5056
839.369	5155
839.506	5395
839.643	5288
839.781	5090
839.918	5083
840.055	5094
840.193	5162
840.33	5166
840.467	5166
840.604	5239
840.742	5425
840.879	5098
841.016	5140
841.153	5197
841.29	5459
841.427	5379
841.564	5322
841.701	5376
841.838	5345
841.975	5235
842.112	5250
842.249	5155
842.385	5109
842.522	5360
842.659	5143
842.796	5208
842.933	5208
843.069	5117
843.206	5216
843.343	5326
843.479	5261
843.616	5265
843.752	5006
843.889	5041
844.025	5246
844.162	5041
844.298	5212
844.435	5121
844.571	5041
844.708	5250
844.844	5326
844.98	5383
845.117	5337
845.253	5143
845.389	5124
845.525	5147
845.661	5155
845.798	5056
845.934	5155
846.07	5121
846.206	5212
846.342	5330
846.478	5242
846.614	5102
846.75	4987
846.886	4923
847.022	5155
847.158	5006
847.294	5140
847.429	5197
847.565	5018
847.701	5337
847.837	4870
847.972	4881
848.108	4987
848.244	4942
848.379	4870
848.515	4801
848.65	4729
848.786	4767
848.921	4771
849.057	4873
849.192	4930
849.328	4866
849.463	4850
849.598	4793
849.734	4748
849.869	4653
850.004	4630
850.14	4679
850.275	4668
850.41	4588
850.545	4573
850.68	4607
850.815	4683
850.95	4653
851.085	4831
851.22	4763
851.355	4687
851.49	4588
851.625	4664
851.76	4664
851.895	4546
852.03	4550
852.165	4683
852.299	4729
852.434	4809
852.569	4816
852.703	4816
852.838	4873
852.973	4961
853.107	4972
853.242	4744
853.376	4710
853.511	4538
853.645	4660
853.78	4877
853.914	4679
854.048	4679
854.183	4664
854.317	4733
854.451	4820
854.585	4725
854.72	4653
854.854	4816
854.988	4599
855.122	4649
855.256	4561
855.39	4641
855.524	4778
855.658	4710
855.792	4725
855.926	4763
856.06	4805
856.194	4847
856.327	4687
856.461	4664
856.595	4656
856.729	4694
856.862	4797
856.996	4763
857.13	4752
857.263	4752
857.397	4801
857.53	4714
857.664	4740
857.797	4801
857.931	4759
858.064	4710
858.197	4812
858.331	4683
858.464	4664
858.597	4561
858.731	4675
858.864	4706
858.997	4622
859.13	4660
859.263	4710
859.396	4706
859.529	4675
859.662	4660
859.795	4569
859.928	4649
860.061	4805
860.194	4850
860.327	4630
860.46	4611
860.592	4702
860.725	4717
860.858	4767
860.99	4580
861.123	4554
861.256	4554
861.388	4596
861.521	5398
861.653	4531
861.786	4462
861.918	4500
862.05	4592
862.183	4561
862.315	4641
862.447	4672
862.58	4546
862.712	4451
862.844	4356
862.976	4489
863.108	4497
863.24	4881
863.372	4386
863.504	4462
863.636	4417
863.768	4500
863.9	4459
864.032	4379
864.164	4462
864.296	4497
864.428	4588
864.559	4577
864.691	4561
864.823	4565
864.954	4478
865.086	4580
865.217	4489
865.349	4432
865.48	4478
865.612	4542
865.743	4615
865.875	4531
866.006	4455
866.137	4470
866.269	4455
866.4	4432
866.531	4428
866.662	4440
866.793	4462
866.924	4459
867.055	4558
867.186	4447
867.317	4470
867.448	4398
867.579	4402
867.71	4390
867.841	4356
867.972	4500
868.103	4504
868.233	4489
868.364	4516
868.495	4508
868.625	4691
868.756	4793
868.886	4607
869.017	4649
869.147	4824
869.278	4786
869.408	4660
869.539	4630
869.669	4679
869.799	4691
869.929	4835
870.06	4790
870.19	4927
870.32	4908
870.45	4999
870.58	5029
870.71	5151
870.84	5159
870.97	4995
871.1	4915
871.23	5143
871.36	5220
871.489	5041
871.619	5094
871.749	5090
871.879	5174
872.008	5185
872.138	5060
872.267	5025
872.397	4858
872.526	4866
872.656	4744
872.785	4843
872.915	4965
873.044	5056
873.173	4980
873.303	5003
873.432	5025
873.561	4927
873.69	4908
873.819	4892
873.948	4889
874.077	4839
874.206	4790
874.335	4812
874.464	4949
874.593	5083
874.722	4995
874.851	5109
874.979	5025
875.108	5109
875.237	4923
875.365	4904
875.494	4938
875.623	5037
875.751	4843
875.88	4923
876.008	4953
876.136	5060
876.265	5208
876.393	5368
876.521	5261
876.65	5242
876.778	5113
876.906	5098
877.034	5117
877.162	5098
877.29	4984
877.418	5067
877.546	5052
877.674	5094
877.802	5064
877.93	5010
878.058	4995
878.185	4873
878.313	4991
878.441	4923
878.568	4820
878.696	4866
878.824	4995
878.951	5037
879.079	5136
879.206	5265
879.333	5083
879.461	5037
879.588	5060
879.715	5162
879.842	5216
879.97	5033
880.097	4828
880.224	4801
880.351	4839
880.478	4877
880.605	4843
880.732	4843
880.859	5105
880.986	4870
881.112	4889
881.239	4786
881.366	4698
881.493	4607
881.619	4592
881.746	4656
881.872	4672
881.999	4683
882.125	4691
882.252	4850
882.378	4831
882.505	4984
882.631	4812
882.757	4748
882.883	4740
883.01	4759
883.136	4698
883.262	4649
883.388	4615
883.514	4839
883.64	4908
883.766	4831
883.892	4721
884.018	4744
884.143	4866
884.269	5014
884.395	4660
884.52	4683
884.646	4706
884.772	4596
884.897	4599
885.023	4698
885.148	4809
885.274	4904
885.399	4820
885.524	4729
885.65	4725
885.775	4740
885.9	4752
886.025	4854
886.15	4786
886.275	4755
886.4	4706
886.525	4725
886.65	4698
886.775	4706
886.9	4911
887.025	5045
887.149	4831
887.274	4698
887.399	4615
887.523	4599
887.648	4577
887.773	4580
887.897	4801
888.021	4809
888.146	4721
888.27	4816
888.395	4889
888.519	4797
888.643	4847
888.767	4839
888.891	4683
889.015	4656
889.139	4660
889.263	4584
889.387	4683
889.511	4873
889.635	4839
889.759	4626
889.883	4656
890.006	4721
890.13	4824
890.254	4603
890.377	4687
890.501	4519
890.624	4561
890.748	4622
890.871	4554
890.995	4459
891.118	4421
891.241	4474
891.364	4554
891.488	4656
891.611	4519
891.734	4622
891.857	4603
891.98	4588
892.103	4656
892.226	4577
892.349	4527
892.471	4462
892.594	4577
892.717	4641
892.839	4584
892.962	4641
893.085	4702
893.207	4603
893.33	4462
893.452	4485
893.575	4679
893.697	4596
893.819	4797
893.941	4839
894.064	4809
894.186	4577
894.308	4596
894.43	4702
894.552	4809
894.674	4782
894.796	4550
894.918	4645
895.04	4637
895.161	4691
895.283	4656
895.405	4641
895.526	4656
895.648	4755
895.769	4691
895.891	4729
896.012	4691
896.134	4725
896.255	4649
896.376	4656
896.498	4649
896.619	4679
896.74	4611
896.861	4679
896.982	4949
897.103	5083
897.224	4866
897.345	4755
897.466	4721
897.587	4782
897.708	4870
897.828	4839
897.949	4706
898.07	4596
898.19	4653
898.311	4816
898.431	4698
898.552	4805
898.672	4805
898.792	4797
898.913	4755
899.033	4599
899.153	4516
899.273	4447
899.393	4535
899.513	4554
899.633	4527
899.753	4535
899.873	4535
899.993	4630
900.113	4554
900.232	4622
900.352	4596
900.472	4531
900.591	4386
900.711	4516
900.83	4447
900.95	4641
901.069	4660
901.189	4538
901.308	4394
901.427	4379
901.546	4405
901.665	4432
901.784	4531
901.904	4402
902.023	4287
902.141	4249
902.26	4230
902.379	4310
902.498	4257
902.617	4257
902.735	4413
902.854	4417
902.973	4348
903.091	4185
903.21	4238
903.328	4306
903.446	4246
903.565	4265
903.683	4329
903.801	4306
903.919	4383
904.038	4470
904.156	4333
904.274	4459
904.392	4421
904.51	4409
904.627	4447
904.745	4569
904.863	4641
904.981	4398
905.098	4356
905.216	4367
905.334	4386
905.451	4447
905.569	4455
905.686	4573
905.803	4584
905.921	4413
906.038	4584
906.155	4512
906.272	4390
906.389	4493
906.506	4363
906.623	4379
906.74	4363
906.857	4257
906.974	4447
907.091	4535
907.208	4714
907.324	4569
907.441	4550
907.557	4390
907.674	4371
907.79	4299
907.907	4405
908.023	4481
908.139	4466
908.256	4409
908.372	4443
908.488	4405
908.604	4371
908.72	4352
908.836	4398
908.952	4398
909.068	4459
909.184	4577
909.3	4478
909.415	4554
909.531	4577
909.647	4341
909.762	4478
909.878	4375
909.993	4462
910.108	4413
910.224	4436
910.339	4504
910.454	4428
910.57	4375
910.685	4363
910.8	4679
910.915	4603
911.03	4485
911.145	4329
911.259	4348
911.374	4405
911.489	4322
911.604	4261
911.718	4188
911.833	4242
911.947	4097
912.062	4086
912.176	4261
912.291	4234
912.405	4287
912.519	4493
912.633	4588
912.748	4405
912.862	4322
912.976	4204
913.09	4120
913.204	4177
913.318	4284
913.431	4390
913.545	4348
913.659	4455
913.772	4383
913.886	4257
914	4204
914.113	4409
914.226	4451
914.34	4405
914.453	4219
914.566	4443
914.68	4306
914.793	4337
914.906	4162
915.019	4128
915.132	4093
915.245	4192
915.358	4268
915.47	4280
915.583	4295
915.696	4306
915.809	4428
915.921	4497
916.034	4261
916.146	4265
916.259	4280
916.371	4390
916.483	4367
916.595	4318
916.708	4318
916.82	4341
916.932	4299
917.044	4344
917.156	4367
917.268	4242
917.38	4242
917.491	4284
917.603	4405
917.715	4432
917.826	4443
917.938	4329
918.049	4261
918.161	4443
918.272	4523
918.384	4588
918.495	4451
918.606	4310
918.717	4291
918.828	4337
918.939	4375
919.05	4291
919.161	4371
919.272	4116
919.383	4230
919.494	4440
919.604	4645
919.715	4474
919.826	4356
919.936	4402
920.047	4558
920.157	4497
920.267	4675
920.378	4558
920.488	4519
920.598	4649
920.708	4919
920.818	4767
920.928	4744
921.038	4946
921.148	4972
921.258	4672
921.368	4573
921.477	4478
921.587	4466
921.697	4402
921.806	4561
921.916	4478
922.025	4253
922.134	4230
922.244	4219
922.353	4356
922.462	4188
922.571	4143
922.68	4017
922.789	3998
922.898	4063
923.007	3994
923.116	4101
923.224	4112
923.333	4048
923.442	4006
923.55	4002
923.659	4048
923.767	4063
923.876	4002
923.984	4116
924.092	3975
924.201	4078
924.309	4120
924.417	4124
924.525	4036
924.633	4090
924.741	5075
924.849	3911
924.956	4147
925.064	3949
925.172	3934
925.279	3956
925.387	4032
925.494	4093
925.602	4223
925.709	4135
925.816	4063
925.924	4158
926.031	4276
926.138	4154
926.245	4207
926.352	4063
926.459	4253
926.566	4310
926.673	4162
926.779	4074
926.886	4131
926.993	3956
927.099	3994
927.206	3941
927.312	3968
927.419	4120
927.525	4063
927.631	4101
927.737	3968
927.843	3934
927.95	3846
928.056	3972
928.162	4006
928.267	4048
928.373	4672
928.479	4131
928.585	3842
928.69	3960
928.796	4071
928.901	4013
929.007	3861
929.112	4013
929.218	3956
929.323	3983
929.428	3934
929.533	4097
929.638	3945
929.743	3979
929.848	4017
929.953	3979
930.058	3915
930.163	3789
930.267	3785
930.372	4002
930.477	3831
930.581	4162
930.685	3960
930.79	3804
930.894	3876
930.998	3903
931.103	4029
931.207	3701
931.311	3713
931.415	3740
931.519	3564
931.623	3542
