Data from test_V78500241_1482.txt Node
Date: Fri Mar 25 16:59:18 CST 2022
User: usil
Spectrometer: V785-0024
Trigger mode: 0
Integration Time (sec): 4.000000E-1
Scans to average: 1
Nonlinearity correction enabled: false
Boxcar width: 0
Storing dark spectrum: false
XAxis mode: Wavelengths
Number of Pixels in Spectrum: 1024
>>>>>Begin Spectral Data<<<<<
801.071	8027
801.214	7947
801.356	7849
801.499	7784
801.641	7780
801.783	7780
801.926	8027
802.068	7883
802.211	7944
802.353	8012
802.496	7879
802.638	7894
802.78	7917
802.923	7944
803.065	7879
803.208	7811
803.35	8039
803.492	8035
803.635	8164
803.777	8035
803.919	8119
804.061	8393
804.204	8161
804.346	8012
804.488	7982
804.63	8119
804.773	8012
804.915	8084
805.057	8298
805.199	8134
805.341	8259
805.483	8332
805.626	8286
805.768	8103
805.91	8153
806.052	8221
806.194	8138
806.336	8214
806.478	8092
806.62	8039
806.762	8191
806.904	8225
807.046	8450
807.188	8282
807.33	8271
807.472	8282
807.614	8153
807.756	8111
807.898	7955
808.04	7902
808.182	7887
808.324	7864
808.465	7955
808.607	8035
808.749	8149
808.891	8065
809.033	8210
809.174	8195
809.316	8016
809.458	8027
809.6	7997
809.741	8016
809.883	7955
810.025	8058
810.166	8065
810.308	8008
810.45	7986
810.591	7849
810.733	7742
810.875	7594
811.016	7495
811.158	7453
811.299	7590
811.441	7700
811.582	7677
811.724	7609
811.865	7514
812.007	7582
812.148	7575
812.29	7632
812.431	7784
812.573	7879
812.714	8024
812.855	8081
812.997	8172
813.138	8290
813.279	8153
813.421	8111
813.562	7978
813.703	7822
813.845	7704
813.986	7415
814.127	7285
814.268	7209
814.41	7175
814.551	7168
814.692	7209
814.833	7103
814.974	7103
815.115	7122
815.256	6924
815.397	6970
815.539	6947
815.68	6779
815.821	6779
815.962	6840
816.103	6806
816.244	6772
816.385	6574
816.526	6547
816.666	6498
816.807	6277
816.948	6391
817.089	6376
817.23	6445
817.371	6372
817.512	6327
817.653	6365
817.793	6372
817.934	6422
818.075	6483
818.216	6395
818.356	6399
818.497	6220
818.638	6095
818.778	6102
818.919	6129
819.06	6178
819.2	6346
819.341	6285
819.481	6315
819.622	6490
819.762	6783
819.903	6677
820.043	6555
820.184	6574
820.324	6544
820.465	6741
820.605	6700
820.746	6623
820.886	6536
821.026	6654
821.167	6684
821.307	6764
821.447	6730
821.588	6642
821.728	6528
821.868	6547
822.008	6350
822.149	6414
822.289	6410
822.429	6155
822.569	6060
822.709	6110
822.849	5931
822.99	5916
823.13	5859
823.27	5874
823.41	5767
823.55	5748
823.69	5733
823.83	5798
823.97	5672
824.11	5535
824.25	5463
824.389	5528
824.529	5585
824.669	5486
824.809	5627
824.949	5630
825.089	5551
825.228	5505
825.368	5379
825.508	5345
825.648	5398
825.787	5376
825.927	5345
826.067	5303
826.206	5292
826.346	5391
826.485	5379
826.625	5459
826.765	5539
826.904	5482
827.044	5235
827.183	5208
827.323	5132
827.462	5254
827.601	5174
827.741	5147
827.88	5261
828.02	5162
828.159	5216
828.298	5296
828.437	5307
828.577	5273
828.716	5421
828.855	5303
828.994	5124
829.134	5113
829.273	5132
829.412	5143
829.551	5098
829.69	5170
829.829	5227
829.968	5360
830.107	5292
830.246	5273
830.385	5136
830.524	5128
830.663	5064
830.802	5018
830.941	4885
831.08	4881
831.219	4953
831.357	4942
831.496	5170
831.635	4881
831.774	4816
831.913	4824
832.051	4733
832.19	4706
832.329	4843
832.467	4691
832.606	4656
832.744	4725
832.883	4725
833.022	4725
833.16	4801
833.299	4816
833.437	4797
833.576	4843
833.714	4858
833.852	4904
833.991	4858
834.129	4987
834.267	4938
834.406	4889
834.544	4987
834.682	4942
834.821	4934
834.959	5155
835.097	4949
835.235	5159
835.373	5067
835.511	5086
835.65	5060
835.788	5025
835.926	4949
836.064	4839
836.202	4896
836.34	5185
836.478	5189
836.615	5113
836.753	5227
836.891	5231
837.029	5242
837.167	5197
837.305	5151
837.443	5075
837.58	5071
837.718	5288
837.856	5151
837.993	5151
838.131	5269
838.269	5193
838.406	5193
838.544	5166
838.681	5090
838.819	4999
838.956	4862
839.094	4839
839.231	4957
839.369	5014
839.506	5440
839.643	5223
839.781	5075
839.918	5029
840.055	5064
840.193	5064
840.33	5109
840.467	5121
840.604	5159
840.742	5398
840.879	5037
841.016	5124
841.153	5105
841.29	5391
841.427	5364
841.564	5307
841.701	5372
841.838	5254
841.975	5197
842.112	5292
842.249	5178
842.385	5102
842.522	5242
842.659	5162
842.796	5090
842.933	5220
843.069	5162
843.206	5136
843.343	5273
843.479	5254
843.616	5307
843.752	5056
843.889	4991
844.025	5181
844.162	5018
844.298	5216
844.435	5075
844.571	5003
844.708	5178
844.844	5318
844.98	5296
845.117	5296
845.253	5105
845.389	5056
845.525	5155
845.661	5105
845.798	5014
845.934	5124
846.07	5041
846.206	5197
846.342	5216
846.478	5204
846.614	5052
846.75	4942
846.886	4915
847.022	5140
847.158	5006
847.294	5045
847.429	5109
847.565	5056
847.701	5315
847.837	4870
847.972	4805
848.108	4923
848.244	4934
848.379	4736
848.515	4725
848.65	4721
848.786	4717
848.921	4714
849.057	4843
849.192	4881
849.328	4816
849.463	4831
849.598	4793
849.734	4778
849.869	4694
850.004	4611
850.14	4641
850.275	4588
850.41	4542
850.545	4508
850.68	4565
850.815	4592
850.95	4626
851.085	4820
851.22	4755
851.355	4660
851.49	4603
851.625	4611
851.76	4656
851.895	4584
852.03	4527
852.165	4622
852.299	4721
852.434	4812
852.569	4698
852.703	4767
852.838	4873
852.973	4946
853.107	4927
853.242	4733
853.376	4660
853.511	4489
853.645	4565
853.78	4793
853.914	4656
854.048	4691
854.183	4634
854.317	4653
854.451	4835
854.585	4656
854.72	4653
854.854	4721
854.988	4611
855.122	4588
855.256	4535
855.39	4672
855.524	4774
855.658	4706
855.792	4702
855.926	4774
856.06	4752
856.194	4782
856.327	4733
856.461	4561
856.595	4577
856.729	4588
856.862	4736
856.996	4660
857.13	4687
857.263	4752
857.397	4759
857.53	4626
857.664	4694
857.797	4786
857.931	4759
858.064	4683
858.197	4725
858.331	4641
858.464	4615
858.597	4519
858.731	4603
858.864	4611
858.997	4523
859.13	4622
859.263	4645
859.396	4740
859.529	4565
859.662	4531
859.795	4542
859.928	4580
860.061	4725
860.194	4752
860.327	4607
860.46	4531
860.592	4717
860.725	4694
860.858	4687
860.99	4561
861.123	4550
861.256	4481
861.388	4596
861.521	5360
861.653	4440
861.786	4481
861.918	4485
862.05	4538
862.183	4584
862.315	4603
862.447	4630
862.58	4508
862.712	4383
862.844	4295
862.976	4440
863.108	4474
863.24	4759
863.372	4348
863.504	4421
863.636	4421
863.768	4500
863.9	4443
864.032	4371
864.164	4379
864.296	4459
864.428	4565
864.559	4546
864.691	4558
864.823	4535
864.954	4455
865.086	4516
865.217	4459
865.349	4443
865.48	4436
865.612	4504
865.743	4611
865.875	4432
866.006	4428
866.137	4428
866.269	4424
866.4	4421
866.531	4402
866.662	4428
866.793	4417
866.924	4379
867.055	4474
867.186	4417
867.317	4417
867.448	4371
867.579	4417
867.71	4383
867.841	4367
867.972	4459
868.103	4459
868.233	4440
868.364	4462
868.495	4443
868.625	4679
868.756	4714
868.886	4577
869.017	4573
869.147	4767
869.278	4790
869.408	4634
869.539	4645
869.669	4702
869.799	4656
869.929	4774
870.06	4675
870.19	4987
870.32	4915
870.45	4915
870.58	4976
870.71	5090
870.84	5075
870.97	4987
871.1	4873
871.23	5121
871.36	5132
871.489	4987
871.619	5003
871.749	5102
871.879	5109
872.008	5094
872.138	5056
872.267	5010
872.397	4824
872.526	4786
872.656	4698
872.785	4850
872.915	4885
873.044	4995
873.173	4930
873.303	4976
873.432	4911
873.561	4942
873.69	4854
873.819	4847
873.948	4900
874.077	4801
874.206	4782
874.335	4786
874.464	4881
874.593	5060
874.722	4911
874.851	5102
874.979	5041
875.108	5033
875.237	4949
875.365	4862
875.494	4889
875.623	4930
875.751	4805
875.88	4889
876.008	4976
876.136	5064
876.265	5178
876.393	5322
876.521	5265
876.65	5204
876.778	5109
876.906	5060
877.034	5006
877.162	5052
877.29	5041
877.418	5037
877.546	5033
877.674	5079
877.802	5014
877.93	5014
878.058	4923
878.185	4835
878.313	4927
878.441	4949
878.568	4771
878.696	4904
878.824	4889
878.951	4991
879.079	5109
879.206	5235
879.333	5105
879.461	4961
879.588	4961
879.715	5102
879.842	5178
879.97	5010
880.097	4847
880.224	4748
880.351	4854
880.478	4831
880.605	4744
880.732	4736
880.859	5048
880.986	4904
881.112	4923
881.239	4767
881.366	4675
881.493	4630
881.619	4565
881.746	4634
881.872	4634
881.999	4630
882.125	4694
882.252	4778
882.378	4866
882.505	4976
882.631	4763
882.757	4630
882.883	4744
883.01	4687
883.136	4706
883.262	4577
883.388	4603
883.514	4816
883.64	4862
883.766	4801
883.892	4675
884.018	4691
884.143	4889
884.269	5003
884.395	4649
884.52	4645
884.646	4653
884.772	4512
884.897	4512
885.023	4698
885.148	4736
885.274	4843
885.399	4809
885.524	4744
885.65	4653
885.775	4725
885.9	4675
886.025	4835
886.15	4797
886.275	4717
886.4	4653
886.525	4721
886.65	4660
886.775	4687
886.9	4889
887.025	5037
887.149	4824
887.274	4607
887.399	4622
887.523	4561
887.648	4516
887.773	4569
887.897	4744
888.021	4778
888.146	4664
888.27	4839
888.395	4904
888.519	4778
888.643	4801
888.767	4839
888.891	4645
889.015	4599
889.139	4656
889.263	4584
889.387	4774
889.511	4820
889.635	4767
889.759	4637
889.883	4664
890.006	4706
890.13	4835
890.254	4615
890.377	4653
890.501	4573
890.624	4538
890.748	4592
890.871	4478
890.995	4428
891.118	4356
891.241	4500
891.364	4531
891.488	4630
891.611	4474
891.734	4523
891.857	4580
891.98	4508
892.103	4656
892.226	4592
892.349	4466
892.471	4413
892.594	4565
892.717	4611
892.839	4577
892.962	4531
893.085	4675
893.207	4577
893.33	4493
893.452	4535
893.575	4679
893.697	4565
893.819	4767
893.941	4866
894.064	4763
894.186	4535
894.308	4573
894.43	4721
894.552	4778
894.674	4748
894.796	4538
894.918	4592
895.04	4615
895.161	4645
895.283	4641
895.405	4573
895.526	4615
895.648	4645
895.769	4649
895.891	4672
896.012	4744
896.134	4759
896.255	4626
896.376	4569
896.498	4622
896.619	4698
896.74	4641
896.861	4653
896.982	4911
897.103	5105
897.224	4831
897.345	4763
897.466	4641
897.587	4698
897.708	4812
897.828	4763
897.949	4668
898.07	4561
898.19	4645
898.311	4816
898.431	4679
898.552	4717
898.672	4793
898.792	4839
898.913	4733
899.033	4622
899.153	4462
899.273	4428
899.393	4489
899.513	4527
899.633	4542
899.753	4561
899.873	4500
899.993	4569
900.113	4493
900.232	4554
900.352	4523
900.472	4489
900.591	4386
900.711	4432
900.83	4390
900.95	4577
901.069	4664
901.189	4493
901.308	4363
901.427	4325
901.546	4386
901.665	4459
901.784	4481
901.904	4398
902.023	4276
902.141	4139
902.26	4177
902.379	4272
902.498	4234
902.617	4211
902.735	4386
902.854	4386
902.973	4337
903.091	4223
903.21	4204
903.328	4295
903.446	4276
903.565	4299
903.683	4314
903.801	4227
903.919	4318
904.038	4432
904.156	4291
904.274	4421
904.392	4459
904.51	4424
904.627	4447
904.745	4599
904.863	4615
904.981	4352
905.098	4261
905.216	4352
905.334	4394
905.451	4462
905.569	4405
905.686	4546
905.803	4554
905.921	4421
906.038	4561
906.155	4470
906.272	4375
906.389	4447
906.506	4352
906.623	4356
906.74	4386
906.857	4268
906.974	4348
907.091	4504
907.208	4664
907.324	4588
907.441	4538
907.557	4329
907.674	4333
907.79	4322
907.907	4360
908.023	4478
908.139	4474
908.256	4443
908.372	4424
908.488	4489
908.604	4318
908.72	4295
908.836	4367
908.952	4337
909.068	4356
909.184	4554
909.3	4466
909.415	4535
909.531	4523
909.647	4337
909.762	4371
909.878	4333
909.993	4436
910.108	4371
910.224	4455
910.339	4516
910.454	4383
910.57	4348
910.685	4310
910.8	4577
910.915	4565
911.03	4485
911.145	4390
911.259	4306
911.374	4367
911.489	4268
911.604	4284
911.718	4166
911.833	4204
911.947	4067
912.062	4059
912.176	4200
912.291	4249
912.405	4219
912.519	4413
912.633	4481
912.748	4367
912.862	4318
912.976	4192
913.09	4071
913.204	4169
913.318	4204
913.431	4356
913.545	4386
913.659	4421
913.772	4360
913.886	4227
914	4204
914.113	4341
914.226	4424
914.34	4363
914.453	4185
914.566	4451
914.68	4306
914.793	4325
914.906	4158
915.019	4093
915.132	4116
915.245	4177
915.358	4207
915.47	4257
915.583	4242
915.696	4249
915.809	4428
915.921	4459
916.034	4265
916.146	4310
916.259	4246
916.371	4341
916.483	4375
916.595	4246
916.708	4333
916.82	4318
916.932	4318
917.044	4295
917.156	4306
917.268	4287
917.38	4253
917.491	4276
917.603	4318
917.715	4398
917.826	4466
917.938	4405
918.049	4272
918.161	4371
918.272	4538
918.384	4565
918.495	4402
918.606	4265
918.717	4249
918.828	4356
918.939	4390
919.05	4227
919.161	4356
919.272	4154
919.383	4249
919.494	4413
919.604	4580
919.715	4413
919.826	4310
919.936	4390
920.047	4527
920.157	4470
920.267	4679
920.378	4577
920.488	4519
920.598	4740
920.708	4915
920.818	4759
920.928	4725
921.038	4908
921.148	4908
921.258	4607
921.368	4588
921.477	4474
921.587	4466
921.697	4352
921.806	4546
921.916	4409
922.025	4227
922.134	4299
922.244	4227
922.353	4348
922.462	4124
922.571	4112
922.68	4013
922.789	3983
922.898	4006
923.007	3975
923.116	4082
923.224	4051
923.333	4048
923.442	3972
923.55	3975
923.659	3998
923.767	4097
923.876	3994
923.984	4105
924.092	3975
924.201	4059
924.309	4048
924.417	4128
924.525	4090
924.633	4105
924.741	5022
924.849	3945
924.956	4109
925.064	4002
925.172	3873
925.279	3968
925.387	4055
925.494	4021
925.602	4211
925.709	4166
925.816	4021
925.924	4109
926.031	4207
926.138	4177
926.245	4169
926.352	4101
926.459	4246
926.566	4337
926.673	4135
926.779	4067
926.886	4040
926.993	3975
927.099	3987
927.206	3968
927.312	3922
927.419	4032
927.525	4059
927.631	4071
927.737	3949
927.843	3937
927.95	3857
928.056	3953
928.162	3968
928.267	4013
928.373	4550
928.479	4139
928.585	3865
928.69	4013
928.796	4071
928.901	3941
929.007	3842
929.112	3991
929.218	3983
929.323	3945
929.428	3941
929.533	4109
929.638	3937
929.743	3941
929.848	4032
929.953	3983
930.058	3915
930.163	3774
930.267	3838
930.372	4002
930.477	3774
930.581	4093
930.685	3915
930.79	3827
930.894	3899
930.998	3797
931.103	4059
931.207	3679
931.311	3682
931.415	3644
931.519	3519
931.623	3549
