Data from test_V78500241_710.txt Node
Date: Fri Mar 25 16:53:56 CST 2022
User: usil
Spectrometer: V785-0024
Trigger mode: 0
Integration Time (sec): 4.000000E-1
Scans to average: 1
Nonlinearity correction enabled: false
Boxcar width: 0
Storing dark spectrum: false
XAxis mode: Wavelengths
Number of Pixels in Spectrum: 1024
>>>>>Begin Spectral Data<<<<<
801.071	7974
801.214	8039
801.356	7879
801.499	7860
801.641	7841
801.783	7871
801.926	8024
802.068	7906
802.211	7974
802.353	7917
802.496	7852
802.638	7925
802.78	7947
802.923	7868
803.065	7871
803.208	7822
803.35	8016
803.492	8134
803.635	8161
803.777	7997
803.919	8088
804.061	8320
804.204	8115
804.346	8016
804.488	7967
804.63	8073
804.773	8069
804.915	8100
805.057	8275
805.199	8168
805.341	8172
805.483	8199
805.626	8210
805.768	8050
805.91	8161
806.052	8126
806.194	8065
806.336	8259
806.478	8054
806.62	8077
806.762	8084
806.904	8237
807.046	8480
807.188	8324
807.33	8252
807.472	8328
807.614	8157
807.756	8073
807.898	7986
808.04	7856
808.182	7894
808.324	7947
808.465	7932
808.607	8031
808.749	8039
808.891	8202
809.033	8240
809.174	8180
809.316	7978
809.458	8035
809.6	7947
809.741	8050
809.883	8031
810.025	8119
810.166	7978
810.308	8020
810.45	8016
810.591	7887
810.733	7742
810.875	7655
811.016	7525
811.158	7441
811.299	7590
811.441	7670
811.582	7727
811.724	7506
811.865	7476
812.007	7533
812.148	7578
812.29	7510
812.431	7700
812.573	7837
812.714	7917
812.855	8138
812.997	8161
813.138	8275
813.279	8191
813.421	8145
813.562	7978
813.703	7875
813.845	7788
813.986	7434
814.127	7335
814.268	7221
814.41	7209
814.551	7129
814.692	7160
814.833	7015
814.974	7126
815.115	7031
815.256	6939
815.397	6951
815.539	6962
815.68	6787
815.821	6726
815.962	6901
816.103	6772
816.244	6719
816.385	6597
816.526	6563
816.666	6452
816.807	6338
816.948	6441
817.089	6399
817.23	6426
817.371	6391
817.512	6350
817.653	6361
817.793	6361
817.934	6426
818.075	6380
818.216	6403
818.356	6403
818.497	6209
818.638	6148
818.778	6098
818.919	6125
819.06	6121
819.2	6331
819.341	6277
819.481	6403
819.622	6502
819.762	6726
819.903	6650
820.043	6589
820.184	6555
820.324	6509
820.465	6669
820.605	6635
820.746	6623
820.886	6532
821.026	6650
821.167	6684
821.307	6783
821.447	6722
821.588	6623
821.728	6517
821.868	6414
822.008	6296
822.149	6384
822.289	6338
822.429	6136
822.569	6034
822.709	6072
822.849	5897
822.99	5950
823.13	5901
823.27	5950
823.41	5771
823.55	5756
823.69	5722
823.83	5764
823.97	5661
824.11	5581
824.25	5547
824.389	5566
824.529	5566
824.669	5490
824.809	5642
824.949	5619
825.089	5589
825.228	5566
825.368	5372
825.508	5368
825.648	5379
825.787	5414
825.927	5376
826.067	5227
826.206	5254
826.346	5391
826.485	5376
826.625	5368
826.765	5577
826.904	5463
827.044	5246
827.183	5193
827.323	5132
827.462	5223
827.601	5185
827.741	5128
827.88	5239
828.02	5060
828.159	5208
828.298	5235
828.437	5349
828.577	5303
828.716	5463
828.855	5349
828.994	5136
829.134	5124
829.273	5193
829.412	5121
829.551	5079
829.69	5124
829.829	5246
829.968	5379
830.107	5261
830.246	5254
830.385	5193
830.524	5083
830.663	5067
830.802	5006
830.941	4858
831.08	4923
831.219	4904
831.357	4934
831.496	5178
831.635	4896
831.774	4824
831.913	4824
832.051	4710
832.19	4714
832.329	4854
832.467	4687
832.606	4607
832.744	4778
832.883	4702
833.022	4714
833.16	4786
833.299	4809
833.437	4801
833.576	4812
833.714	4820
833.852	4862
833.991	4896
834.129	4927
834.267	4911
834.406	4839
834.544	4953
834.682	4972
834.821	4987
834.959	5113
835.097	4976
835.235	5185
835.373	5071
835.511	5109
835.65	5014
835.788	4987
835.926	4927
836.064	4858
836.202	4885
836.34	5166
836.478	5193
836.615	5086
836.753	5197
836.891	5315
837.029	5261
837.167	5181
837.305	5174
837.443	5124
837.58	5090
837.718	5201
837.856	5220
837.993	5113
838.131	5220
838.269	5250
838.406	5227
838.544	5147
838.681	5010
838.819	4976
838.956	4858
839.094	4866
839.231	4968
839.369	5071
839.506	5402
839.643	5277
839.781	5006
839.918	5010
840.055	5064
840.193	5064
840.33	5071
840.467	5151
840.604	5204
840.742	5402
840.879	5041
841.016	5067
841.153	5109
841.29	5376
841.427	5318
841.564	5326
841.701	5250
841.838	5277
841.975	5220
842.112	5307
842.249	5216
842.385	5090
842.522	5318
842.659	5170
842.796	5128
842.933	5162
843.069	5143
843.206	5185
843.343	5280
843.479	5174
843.616	5254
843.752	5018
843.889	4976
844.025	5242
844.162	4957
844.298	5193
844.435	5071
844.571	5033
844.708	5201
844.844	5318
844.98	5330
845.117	5280
845.253	5143
845.389	5064
845.525	5174
845.661	5147
845.798	5048
845.934	5105
846.07	5083
846.206	5185
846.342	5265
846.478	5143
846.614	5029
846.75	4953
846.886	4881
847.022	5079
847.158	5018
847.294	4995
847.429	5109
847.565	5022
847.701	5322
847.837	4828
847.972	4805
848.108	4889
848.244	4877
848.379	4831
848.515	4714
848.65	4717
848.786	4774
848.921	4759
849.057	4862
849.192	4908
849.328	4831
849.463	4839
849.598	4729
849.734	4790
849.869	4653
850.004	4592
850.14	4637
850.275	4675
850.41	4512
850.545	4538
850.68	4542
850.815	4634
850.95	4641
851.085	4877
851.22	4755
851.355	4675
851.49	4596
851.625	4714
851.76	4588
851.895	4569
852.03	4554
852.165	4622
852.299	4687
852.434	4793
852.569	4675
852.703	4733
852.838	4816
852.973	4930
853.107	4919
853.242	4733
853.376	4630
853.511	4596
853.645	4584
853.78	4755
853.914	4664
854.048	4672
854.183	4618
854.317	4660
854.451	4786
854.585	4668
854.72	4637
854.854	4740
854.988	4569
855.122	4577
855.256	4531
855.39	4634
855.524	4801
855.658	4725
855.792	4714
855.926	4706
856.06	4725
856.194	4744
856.327	4656
856.461	4622
856.595	4599
856.729	4592
856.862	4710
856.996	4653
857.13	4691
857.263	4702
857.397	4763
857.53	4618
857.664	4790
857.797	4805
857.931	4774
858.064	4668
858.197	4717
858.331	4683
858.464	4584
858.597	4504
858.731	4660
858.864	4634
858.997	4565
859.13	4660
859.263	4660
859.396	4683
859.529	4516
859.662	4519
859.795	4508
859.928	4592
860.061	4736
860.194	4729
860.327	4546
860.46	4561
860.592	4706
860.725	4698
860.858	4744
860.99	4607
861.123	4504
861.256	4497
861.388	4615
861.521	5402
861.653	4455
861.786	4421
861.918	4417
862.05	4527
862.183	4538
862.315	4611
862.447	4573
862.58	4550
862.712	4455
862.844	4329
862.976	4481
863.108	4500
863.24	4870
863.372	4322
863.504	4413
863.636	4424
863.768	4466
863.9	4398
864.032	4405
864.164	4398
864.296	4440
864.428	4580
864.559	4577
864.691	4546
864.823	4535
864.954	4493
865.086	4474
865.217	4440
865.349	4447
865.48	4413
865.612	4500
865.743	4634
865.875	4478
866.006	4432
866.137	4440
866.269	4409
866.4	4413
866.531	4447
866.662	4383
866.793	4383
866.924	4405
867.055	4497
867.186	4440
867.317	4386
867.448	4356
867.579	4375
867.71	4409
867.841	4348
867.972	4436
868.103	4428
868.233	4413
868.364	4409
868.495	4489
868.625	4672
868.756	4774
868.886	4504
869.017	4599
869.147	4778
869.278	4774
869.408	4649
869.539	4622
869.669	4694
869.799	4675
869.929	4733
870.06	4786
870.19	4930
870.32	4873
870.45	4896
870.58	5025
870.71	5090
870.84	5083
870.97	4934
871.1	4862
871.23	5170
871.36	5075
871.489	5033
871.619	5052
871.749	5094
871.879	5105
872.008	5140
872.138	4987
872.267	4980
872.397	4847
872.526	4835
872.656	4706
872.785	4793
872.915	4930
873.044	4949
873.173	4938
873.303	4911
873.432	4949
873.561	4923
873.69	4854
873.819	4843
873.948	4930
874.077	4805
874.206	4740
874.335	4831
874.464	4904
874.593	5090
874.722	4927
874.851	5075
874.979	5067
875.108	5006
875.237	4911
875.365	4862
875.494	4828
875.623	4972
875.751	4850
875.88	4877
876.008	4995
876.136	5067
876.265	5181
876.393	5299
876.521	5292
876.65	5220
876.778	5113
876.906	5033
877.034	5029
877.162	4995
877.29	4923
877.418	5075
877.546	5006
877.674	5048
877.802	4980
877.93	4987
878.058	4900
878.185	4854
878.313	4957
878.441	4934
878.568	4793
878.696	4790
878.824	4885
878.951	4976
879.079	5117
879.206	5288
879.333	5132
879.461	4961
879.588	4991
879.715	5064
879.842	5174
879.97	4972
880.097	4744
880.224	4774
880.351	4805
880.478	4812
880.605	4831
880.732	4771
880.859	5048
880.986	4889
881.112	4915
881.239	4752
881.366	4634
881.493	4618
881.619	4580
881.746	4687
881.872	4603
881.999	4615
882.125	4626
882.252	4763
882.378	4824
882.505	4938
882.631	4824
882.757	4702
882.883	4717
883.01	4721
883.136	4599
883.262	4565
883.388	4615
883.514	4748
883.64	4805
883.766	4782
883.892	4596
884.018	4698
884.143	4904
884.269	4934
884.395	4630
884.52	4607
884.646	4618
884.772	4535
884.897	4527
885.023	4615
885.148	4782
885.274	4828
885.399	4782
885.524	4706
885.65	4653
885.775	4721
885.9	4672
886.025	4820
886.15	4782
886.275	4710
886.4	4641
886.525	4698
886.65	4641
886.775	4714
886.9	4870
887.025	4995
887.149	4790
887.274	4672
887.399	4569
887.523	4573
887.648	4584
887.773	4523
887.897	4763
888.021	4790
888.146	4675
888.27	4767
888.395	4870
888.519	4809
888.643	4790
888.767	4797
888.891	4634
889.015	4596
889.139	4626
889.263	4573
889.387	4748
889.511	4835
889.635	4782
889.759	4626
889.883	4668
890.006	4733
890.13	4786
890.254	4618
890.377	4653
890.501	4500
890.624	4493
890.748	4634
890.871	4497
890.995	4447
891.118	4348
891.241	4527
891.364	4504
891.488	4679
891.611	4512
891.734	4577
891.857	4550
891.98	4550
892.103	4641
892.226	4607
892.349	4546
892.471	4462
892.594	4519
892.717	4550
892.839	4584
892.962	4649
893.085	4637
893.207	4592
893.33	4459
893.452	4550
893.575	4668
893.697	4622
893.819	4774
893.941	4835
894.064	4820
894.186	4577
894.308	4558
894.43	4755
894.552	4824
894.674	4771
894.796	4592
894.918	4622
895.04	4558
895.161	4771
895.283	4679
895.405	4611
895.526	4649
895.648	4721
895.769	4702
895.891	4744
896.012	4771
896.134	4767
896.255	4664
896.376	4668
896.498	4675
896.619	4710
896.74	4702
896.861	4694
896.982	5003
897.103	5064
897.224	4881
897.345	4843
897.466	4725
897.587	4801
897.708	4930
897.828	4847
897.949	4702
898.07	4599
898.19	4679
898.311	4877
898.431	4679
898.552	4828
898.672	4831
898.792	4866
898.913	4816
899.033	4626
899.153	4531
899.273	4500
899.393	4523
899.513	4580
899.633	4561
899.753	4558
899.873	4542
899.993	4611
900.113	4527
900.232	4687
900.352	4577
900.472	4504
900.591	4474
900.711	4523
900.83	4451
900.95	4653
901.069	4744
901.189	4565
901.308	4417
901.427	4325
901.546	4386
901.665	4523
901.784	4504
901.904	4428
902.023	4337
902.141	4215
902.26	4188
902.379	4413
902.498	4280
902.617	4227
902.735	4455
902.854	4436
902.973	4344
903.091	4246
903.21	4242
903.328	4329
903.446	4344
903.565	4322
903.683	4405
903.801	4318
903.919	4436
904.038	4447
904.156	4383
904.274	4409
904.392	4379
904.51	4459
904.627	4535
904.745	4618
904.863	4630
904.981	4455
905.098	4310
905.216	4409
905.334	4455
905.451	4417
905.569	4478
905.686	4599
905.803	4622
905.921	4466
906.038	4565
906.155	4504
906.272	4398
906.389	4550
906.506	4375
906.623	4451
906.74	4398
906.857	4344
906.974	4375
907.091	4554
907.208	4706
907.324	4641
907.441	4584
907.557	4379
907.674	4390
907.79	4333
907.907	4417
908.023	4504
908.139	4531
908.256	4474
908.372	4485
908.488	4497
908.604	4371
908.72	4333
908.836	4402
908.952	4375
909.068	4455
909.184	4599
909.3	4478
909.415	4611
909.531	4584
909.647	4386
909.762	4402
909.878	4398
909.993	4428
910.108	4493
910.224	4432
910.339	4523
910.454	4402
910.57	4428
910.685	4318
910.8	4687
910.915	4573
911.03	4527
911.145	4295
911.259	4352
911.374	4455
911.489	4329
911.604	4333
911.718	4188
911.833	4246
911.947	4090
912.062	4002
912.176	4207
912.291	4238
912.405	4310
912.519	4527
912.633	4527
912.748	4424
912.862	4291
912.976	4196
913.09	4120
913.204	4185
913.318	4280
913.431	4394
913.545	4413
913.659	4432
913.772	4356
913.886	4246
914	4242
914.113	4386
914.226	4519
914.34	4409
914.453	4265
914.566	4462
914.68	4352
914.793	4344
914.906	4169
915.019	4150
915.132	4143
915.245	4177
915.358	4268
915.47	4299
915.583	4261
915.696	4322
915.809	4421
915.921	4451
916.034	4272
916.146	4265
916.259	4265
916.371	4402
916.483	4363
916.595	4291
916.708	4390
916.82	4371
916.932	4356
917.044	4390
917.156	4360
917.268	4272
917.38	4310
917.491	4268
917.603	4386
917.715	4447
917.826	4462
917.938	4360
918.049	4299
918.161	4462
918.272	4558
918.384	4558
918.495	4497
918.606	4356
918.717	4268
918.828	4371
918.939	4402
919.05	4318
919.161	4333
919.272	4150
919.383	4230
919.494	4436
919.604	4653
919.715	4542
919.826	4363
919.936	4436
920.047	4538
920.157	4531
920.267	4702
920.378	4538
920.488	4519
920.598	4736
920.708	4873
920.818	4782
920.928	4786
921.038	4949
921.148	4938
921.258	4645
921.368	4599
921.477	4516
921.587	4531
921.697	4390
921.806	4588
921.916	4417
922.025	4284
922.134	4295
922.244	4230
922.353	4363
922.462	4249
922.571	4166
922.68	4078
922.789	4048
922.898	4029
923.007	4017
923.116	4116
923.224	4097
923.333	4063
923.442	3983
923.55	3983
923.659	4032
923.767	4131
923.876	4044
923.984	4211
924.092	4036
924.201	4086
924.309	4124
924.417	4158
924.525	4082
924.633	4097
924.741	5064
924.849	3968
924.956	4173
925.064	4006
925.172	3937
925.279	4010
925.387	4051
925.494	4086
925.602	4253
925.709	4219
925.816	4055
925.924	4143
926.031	4284
926.138	4234
926.245	4207
926.352	4078
926.459	4318
926.566	4280
926.673	4139
926.779	4063
926.886	4090
926.993	4006
927.099	4025
927.206	3915
927.312	3994
927.419	4086
927.525	4063
927.631	4131
927.737	3937
927.843	3960
927.95	3869
928.056	3987
928.162	4032
928.267	4067
928.373	4668
928.479	4105
928.585	3903
928.69	4048
928.796	4112
928.901	3987
929.007	3838
929.112	4051
929.218	4002
929.323	3983
929.428	4002
929.533	4124
929.638	3926
929.743	3991
929.848	4093
929.953	4002
930.058	3987
930.163	3793
930.267	3873
930.372	4010
930.477	3819
930.581	4082
930.685	3930
930.79	3854
930.894	3884
930.998	3903
931.103	4086
931.207	3713
931.311	3740
931.415	3720
931.519	3557
931.623	3614
