Data from test_V78500241_425.txt Node
Date: Fri Mar 25 16:51:57 CST 2022
User: usil
Spectrometer: V785-0024
Trigger mode: 0
Integration Time (sec): 4.000000E-1
Scans to average: 1
Nonlinearity correction enabled: false
Boxcar width: 0
Storing dark spectrum: false
XAxis mode: Wavelengths
Number of Pixels in Spectrum: 1024
>>>>>Begin Spectral Data<<<<<
801.071	8054
801.214	8001
801.356	7837
801.499	7906
801.641	7818
801.783	7826
801.926	8050
802.068	8016
802.211	7989
802.353	8001
802.496	7917
802.638	7887
802.78	7902
802.923	7894
803.065	7928
803.208	7921
803.35	7997
803.492	8031
803.635	8111
803.777	8058
803.919	8134
804.061	8377
804.204	8130
804.346	8054
804.488	8016
804.63	8046
804.773	8024
804.915	8138
805.057	8320
805.199	8149
805.341	8199
805.483	8271
805.626	8161
805.768	8024
805.91	8168
806.052	8168
806.194	8088
806.336	8434
806.478	8183
806.62	8149
806.762	8164
806.904	8244
807.046	8488
807.188	8355
807.33	8294
807.472	8320
807.614	8115
807.756	8176
807.898	8035
808.04	7947
808.182	7970
808.324	7982
808.465	7982
808.607	8088
808.749	8126
808.891	8183
809.033	8271
809.174	8176
809.316	8092
809.458	8149
809.6	8005
809.741	8062
809.883	8050
810.025	8161
810.166	8054
810.308	8054
810.45	8008
810.591	7928
810.733	7750
810.875	7731
811.016	7525
811.158	7556
811.299	7594
811.441	7799
811.582	7719
811.724	7666
811.865	7670
812.007	7666
812.148	7658
812.29	7624
812.431	7814
812.573	7963
812.714	8020
812.855	8214
812.997	8282
813.138	8400
813.279	8267
813.421	8130
813.562	8054
813.703	7906
813.845	7837
813.986	7518
814.127	7358
814.268	7346
814.41	7251
814.551	7198
814.692	7312
814.833	7183
814.974	7069
815.115	7069
815.256	7027
815.397	6924
815.539	6947
815.68	6806
815.821	6852
815.962	6962
816.103	6863
816.244	6833
816.385	6616
816.526	6684
816.666	6502
816.807	6338
816.948	6467
817.089	6547
817.23	6456
817.371	6407
817.512	6422
817.653	6391
817.793	6422
817.934	6407
818.075	6486
818.216	6540
818.356	6475
818.497	6235
818.638	6163
818.778	6175
818.919	6152
819.06	6201
819.2	6289
819.341	6331
819.481	6361
819.622	6544
819.762	6798
819.903	6764
820.043	6578
820.184	6566
820.324	6582
820.465	6760
820.605	6696
820.746	6642
820.886	6517
821.026	6639
821.167	6700
821.307	6840
821.447	6787
821.588	6692
821.728	6620
821.868	6563
822.008	6300
822.149	6399
822.289	6327
822.429	6182
822.569	6136
822.709	6171
822.849	5901
822.99	5942
823.13	5927
823.27	5946
823.41	5802
823.55	5817
823.69	5760
823.83	5893
823.97	5707
824.11	5551
824.25	5520
824.389	5547
824.529	5585
824.669	5543
824.809	5661
824.949	5665
825.089	5657
825.228	5512
825.368	5387
825.508	5299
825.648	5345
825.787	5383
825.927	5410
826.067	5341
826.206	5261
826.346	5417
826.485	5429
826.625	5406
826.765	5585
826.904	5486
827.044	5261
827.183	5159
827.323	5136
827.462	5250
827.601	5136
827.741	5197
827.88	5254
828.02	5140
828.159	5311
828.298	5353
828.437	5372
828.577	5280
828.716	5482
828.855	5376
828.994	5208
829.134	5128
829.273	5246
829.412	5113
829.551	5140
829.69	5193
829.829	5223
829.968	5360
830.107	5288
830.246	5254
830.385	5193
830.524	5121
830.663	5083
830.802	4930
830.941	4877
831.08	4873
831.219	5006
831.357	4976
831.496	5162
831.635	4942
831.774	4877
831.913	4831
832.051	4755
832.19	4778
832.329	4870
832.467	4714
832.606	4630
832.744	4733
832.883	4725
833.022	4744
833.16	4816
833.299	4816
833.437	4843
833.576	4797
833.714	4771
833.852	4877
833.991	4927
834.129	4987
834.267	4930
834.406	4934
834.544	5025
834.682	4938
834.821	4972
834.959	5166
835.097	4965
835.235	5189
835.373	5102
835.511	5124
835.65	5064
835.788	4968
835.926	4889
836.064	4866
836.202	4889
836.34	5201
836.478	5220
836.615	5132
836.753	5204
836.891	5284
837.029	5265
837.167	5189
837.305	5174
837.443	5151
837.58	5098
837.718	5193
837.856	5212
837.993	5147
838.131	5235
838.269	5216
838.406	5223
838.544	5189
838.681	5056
838.819	5014
838.956	4908
839.094	4877
839.231	4987
839.369	5075
839.506	5395
839.643	5318
839.781	5071
839.918	5067
840.055	5109
840.193	5109
840.33	5117
840.467	5128
840.604	5193
840.742	5417
840.879	5155
841.016	5086
841.153	5140
841.29	5318
841.427	5436
841.564	5360
841.701	5368
841.838	5288
841.975	5235
842.112	5250
842.249	5151
842.385	5143
842.522	5391
842.659	5204
842.796	5181
842.933	5246
843.069	5185
843.206	5136
843.343	5311
843.479	5242
843.616	5277
843.752	5037
843.889	5010
844.025	5181
844.162	5048
844.298	5231
844.435	5090
844.571	5041
844.708	5220
844.844	5280
844.98	5349
845.117	5299
845.253	5136
845.389	5128
845.525	5147
845.661	5166
845.798	5006
845.934	5201
846.07	5071
846.206	5170
846.342	5318
846.478	5204
846.614	5048
846.75	4957
846.886	4946
847.022	5109
847.158	4999
847.294	5067
847.429	5143
847.565	5105
847.701	5307
847.837	4900
847.972	4824
848.108	4965
848.244	4946
848.379	4786
848.515	4706
848.65	4744
848.786	4805
848.921	4786
849.057	4850
849.192	4877
849.328	4790
849.463	4797
849.598	4755
849.734	4778
849.869	4694
850.004	4645
850.14	4634
850.275	4603
850.41	4577
850.545	4558
850.68	4573
850.815	4664
850.95	4672
851.085	4854
851.22	4752
851.355	4683
851.49	4641
851.625	4683
851.76	4634
851.895	4561
852.03	4542
852.165	4694
852.299	4767
852.434	4733
852.569	4702
852.703	4793
852.838	4839
852.973	4900
853.107	4866
853.242	4729
853.376	4660
853.511	4577
853.645	4603
853.78	4797
853.914	4729
854.048	4656
854.183	4653
854.317	4725
854.451	4828
854.585	4653
854.72	4634
854.854	4774
854.988	4596
855.122	4679
855.256	4527
855.39	4717
855.524	4759
855.658	4736
855.792	4725
855.926	4725
856.06	4733
856.194	4771
856.327	4683
856.461	4645
856.595	4584
856.729	4660
856.862	4805
856.996	4672
857.13	4744
857.263	4755
857.397	4805
857.53	4656
857.664	4675
857.797	4759
857.931	4801
858.064	4740
858.197	4816
858.331	4653
858.464	4645
858.597	4516
858.731	4607
858.864	4672
858.997	4558
859.13	4664
859.263	4710
859.396	4733
859.529	4550
859.662	4596
859.795	4577
859.928	4675
860.061	4820
860.194	4782
860.327	4599
860.46	4592
860.592	4675
860.725	4729
860.858	4778
860.99	4634
861.123	4512
861.256	4542
861.388	4634
861.521	5463
861.653	4493
861.786	4459
861.918	4424
862.05	4478
862.183	4535
862.315	4653
862.447	4649
862.58	4573
862.712	4375
862.844	4356
862.976	4489
863.108	4440
863.24	4759
863.372	4337
863.504	4421
863.636	4409
863.768	4481
863.9	4440
864.032	4341
864.164	4413
864.296	4481
864.428	4523
864.559	4550
864.691	4542
864.823	4478
864.954	4508
865.086	4500
865.217	4470
865.349	4417
865.48	4432
865.612	4493
865.743	4653
865.875	4447
866.006	4421
866.137	4512
866.269	4493
866.4	4455
866.531	4417
866.662	4379
866.793	4413
866.924	4428
867.055	4508
867.186	4481
867.317	4455
867.448	4413
867.579	4436
867.71	4371
867.841	4398
867.972	4512
868.103	4462
868.233	4462
868.364	4478
868.495	4500
868.625	4679
868.756	4809
868.886	4599
869.017	4622
869.147	4782
869.278	4793
869.408	4653
869.539	4641
869.669	4755
869.799	4683
869.929	4778
870.06	4721
870.19	4946
870.32	4942
870.45	4949
870.58	5079
870.71	5090
870.84	5086
870.97	5006
871.1	4870
871.23	5151
871.36	5147
871.489	5029
871.619	5113
871.749	5109
871.879	5086
872.008	5181
872.138	5052
872.267	4984
872.397	4873
872.526	4866
872.656	4702
872.785	4843
872.915	4980
873.044	4987
873.173	4946
873.303	5003
873.432	4938
873.561	4972
873.69	4904
873.819	4854
873.948	4938
874.077	4812
874.206	4782
874.335	4816
874.464	4953
874.593	5003
874.722	4999
874.851	5102
874.979	5041
875.108	5045
875.237	4965
875.365	4889
875.494	4892
875.623	4961
875.751	4805
875.88	4957
876.008	4984
876.136	5033
876.265	5212
876.393	5330
876.521	5299
876.65	5212
876.778	5098
876.906	5102
877.034	5014
877.162	5060
877.29	4972
877.418	5018
877.546	5010
877.674	5033
877.802	5037
877.93	5048
878.058	4938
878.185	4870
878.313	4927
878.441	4919
878.568	4828
878.696	4892
878.824	4987
878.951	4968
879.079	5147
879.206	5273
879.333	5102
879.461	4987
879.588	5006
879.715	5143
879.842	5246
879.97	4999
880.097	4793
880.224	4721
880.351	4771
880.478	4763
880.605	4812
880.732	4774
880.859	5117
880.986	4850
881.112	4911
881.239	4809
881.366	4675
881.493	4626
881.619	4573
881.746	4649
881.872	4653
881.999	4694
882.125	4706
882.252	4809
882.378	4828
882.505	4953
882.631	4786
882.757	4679
882.883	4725
883.01	4733
883.136	4660
883.262	4641
883.388	4607
883.514	4778
883.64	4854
883.766	4824
883.892	4710
884.018	4733
884.143	4919
884.269	5006
884.395	4675
884.52	4653
884.646	4615
884.772	4618
884.897	4577
885.023	4698
885.148	4820
885.274	4843
885.399	4820
885.524	4710
885.65	4683
885.775	4706
885.9	4656
886.025	4862
886.15	4809
886.275	4714
886.4	4691
886.525	4736
886.65	4721
886.775	4683
886.9	4904
887.025	4999
887.149	4771
887.274	4694
887.399	4615
887.523	4592
887.648	4554
887.773	4599
887.897	4801
888.021	4786
888.146	4622
888.27	4752
888.395	4957
888.519	4850
888.643	4835
888.767	4877
888.891	4653
889.015	4580
889.139	4675
889.263	4615
889.387	4805
889.511	4911
889.635	4790
889.759	4702
889.883	4645
890.006	4736
890.13	4835
890.254	4637
890.377	4675
890.501	4573
890.624	4607
890.748	4656
890.871	4542
890.995	4440
891.118	4443
891.241	4523
891.364	4558
891.488	4618
891.611	4474
891.734	4531
891.857	4561
891.98	4554
892.103	4660
892.226	4584
892.349	4508
892.471	4402
892.594	4542
892.717	4588
892.839	4596
892.962	4584
893.085	4618
893.207	4599
893.33	4512
893.452	4523
893.575	4687
893.697	4584
893.819	4774
893.941	4839
894.064	4786
894.186	4580
894.308	4596
894.43	4725
894.552	4816
894.674	4763
894.796	4580
894.918	4603
895.04	4577
895.161	4649
895.283	4668
895.405	4596
895.526	4618
895.648	4702
895.769	4649
895.891	4759
896.012	4736
896.134	4706
896.255	4698
896.376	4607
896.498	4611
896.619	4672
896.74	4626
896.861	4672
896.982	4923
897.103	5075
897.224	4805
897.345	4782
897.466	4668
897.587	4729
897.708	4843
897.828	4790
897.949	4649
898.07	4592
898.19	4687
898.311	4816
898.431	4698
898.552	4744
898.672	4885
898.792	4805
898.913	4790
899.033	4634
899.153	4535
899.273	4451
899.393	4485
899.513	4558
899.633	4531
899.753	4538
899.873	4531
899.993	4584
900.113	4558
900.232	4573
900.352	4554
900.472	4504
900.591	4436
900.711	4493
900.83	4440
900.95	4641
901.069	4725
901.189	4531
901.308	4375
901.427	4337
901.546	4409
901.665	4417
901.784	4500
901.904	4394
902.023	4337
902.141	4207
902.26	4215
902.379	4280
902.498	4246
902.617	4238
902.735	4363
902.854	4417
902.973	4375
903.091	4238
903.21	4253
903.328	4314
903.446	4284
903.565	4284
903.683	4333
903.801	4287
903.919	4436
904.038	4432
904.156	4356
904.274	4390
904.392	4432
904.51	4493
904.627	4497
904.745	4565
904.863	4634
904.981	4466
905.098	4299
905.216	4417
905.334	4459
905.451	4455
905.569	4489
905.686	4569
905.803	4569
905.921	4394
906.038	4565
906.155	4459
906.272	4409
906.389	4466
906.506	4341
906.623	4360
906.74	4417
906.857	4306
906.974	4375
907.091	4565
907.208	4698
907.324	4573
907.441	4531
907.557	4306
907.674	4337
907.79	4356
907.907	4371
908.023	4443
908.139	4500
908.256	4447
908.372	4462
908.488	4447
908.604	4367
908.72	4310
908.836	4371
908.952	4363
909.068	4394
909.184	4580
909.3	4466
909.415	4573
909.531	4550
909.647	4325
909.762	4371
909.878	4322
909.993	4424
910.108	4390
910.224	4413
910.339	4516
910.454	4421
910.57	4386
910.685	4318
910.8	4634
910.915	4637
911.03	4466
911.145	4337
911.259	4367
911.374	4367
911.489	4276
911.604	4261
911.718	4188
911.833	4242
911.947	4090
912.062	4051
912.176	4230
912.291	4238
912.405	4261
912.519	4489
912.633	4523
912.748	4360
912.862	4276
912.976	4169
913.09	4093
913.204	4177
913.318	4246
913.431	4367
913.545	4379
913.659	4394
913.772	4383
913.886	4272
914	4246
914.113	4360
914.226	4474
914.34	4356
914.453	4227
914.566	4443
914.68	4341
914.793	4325
914.906	4139
915.019	4105
915.132	4116
915.245	4200
915.358	4196
915.47	4276
915.583	4306
915.696	4344
915.809	4417
915.921	4455
916.034	4272
916.146	4272
916.259	4246
916.371	4356
916.483	4367
916.595	4257
916.708	4367
916.82	4303
916.932	4363
917.044	4325
917.156	4348
917.268	4257
917.38	4268
917.491	4265
917.603	4383
917.715	4440
917.826	4474
917.938	4367
918.049	4249
918.161	4352
918.272	4550
918.384	4550
918.495	4466
918.606	4310
918.717	4230
918.828	4356
918.939	4337
919.05	4272
919.161	4306
919.272	4150
919.383	4200
919.494	4409
919.604	4622
919.715	4398
919.826	4371
919.936	4375
920.047	4516
920.157	4523
920.267	4691
920.378	4546
920.488	4512
920.598	4725
920.708	4892
920.818	4740
920.928	4748
921.038	4953
921.148	4930
921.258	4637
921.368	4580
921.477	4497
921.587	4489
921.697	4348
921.806	4588
921.916	4459
922.025	4257
922.134	4287
922.244	4238
922.353	4341
922.462	4154
922.571	4158
922.68	4002
922.789	4040
922.898	4029
923.007	3987
923.116	4078
923.224	4059
923.333	4112
923.442	4044
923.55	4010
923.659	4010
923.767	4074
923.876	3983
923.984	4135
924.092	3979
924.201	4105
924.309	4131
924.417	4158
924.525	4071
924.633	4120
924.741	5083
924.849	3949
924.956	4139
925.064	3949
925.172	3903
925.279	3979
925.387	4082
925.494	4025
925.602	4192
925.709	4181
925.816	4071
925.924	4143
926.031	4219
926.138	4181
926.245	4162
926.352	4116
926.459	4242
926.566	4310
926.673	4200
926.779	4074
926.886	4086
926.993	3979
927.099	3987
927.206	3960
927.312	3953
927.419	4067
927.525	4044
927.631	4055
927.737	3994
927.843	3926
927.95	3808
928.056	3956
928.162	3937
928.267	3998
928.373	4714
928.479	4082
928.585	3896
928.69	4013
928.796	4086
928.901	3975
929.007	3876
929.112	3983
929.218	4048
929.323	3907
929.428	3972
929.533	4143
929.638	3907
929.743	3953
929.848	4048
929.953	4006
930.058	3983
930.163	3800
930.267	3800
930.372	3949
930.477	3838
930.581	4059
930.685	3934
930.79	3903
930.894	3854
930.998	3873
931.103	4051
931.207	3751
931.311	3701
931.415	3648
931.519	3549
931.623	3557
