Data from test_V78500241_2713.txt Node
Date: Fri Mar 25 17:07:51 CST 2022
User: usil
Spectrometer: V785-0024
Trigger mode: 0
Integration Time (sec): 4.000000E-1
Scans to average: 1
Nonlinearity correction enabled: false
Boxcar width: 0
Storing dark spectrum: false
XAxis mode: Wavelengths
Number of Pixels in Spectrum: 1024
>>>>>Begin Spectral Data<<<<<
801.071	8027
801.214	8008
801.356	7909
801.499	7864
801.641	7887
801.783	7917
801.926	7967
802.068	8008
802.211	8016
802.353	8012
802.496	7864
802.638	7906
802.78	7982
802.923	7944
803.065	7826
803.208	7890
803.35	7925
803.492	8092
803.635	8248
803.777	8081
803.919	8202
804.061	8457
804.204	8130
804.346	8073
804.488	7982
804.63	8107
804.773	8058
804.915	8138
805.057	8282
805.199	8161
805.341	8248
805.483	8244
805.626	8275
805.768	8115
805.91	8210
806.052	8191
806.194	8168
806.336	8366
806.478	8088
806.62	8065
806.762	8153
806.904	8248
807.046	8393
807.188	8301
807.33	8298
807.472	8271
807.614	8180
807.756	8172
807.898	8001
808.04	7902
808.182	7951
808.324	7852
808.465	8001
808.607	8115
808.749	8096
808.891	8305
809.033	8332
809.174	8259
809.316	8111
809.458	8027
809.6	7993
809.741	8012
809.883	8119
810.025	8206
810.166	8107
810.308	8054
810.45	8001
810.591	7879
810.733	7792
810.875	7658
811.016	7563
811.158	7480
811.299	7567
811.441	7746
811.582	7731
811.724	7628
811.865	7582
812.007	7647
812.148	7601
812.29	7639
812.431	7761
812.573	7788
812.714	7959
812.855	8164
812.997	8202
813.138	8400
813.279	8229
813.421	8119
813.562	8031
813.703	7807
813.845	7708
813.986	7483
814.127	7244
814.268	7259
814.41	7168
814.551	7206
814.692	7209
814.833	7099
814.974	7080
815.115	7110
815.256	7000
815.397	6924
815.539	6840
815.68	6852
815.821	6776
815.962	6863
816.103	6814
816.244	6745
816.385	6658
816.526	6570
816.666	6509
816.807	6296
816.948	6452
817.089	6528
817.23	6490
817.371	6384
817.512	6388
817.653	6380
817.793	6327
817.934	6414
818.075	6467
818.216	6391
818.356	6384
818.497	6285
818.638	6072
818.778	6175
818.919	6140
819.06	6114
819.2	6372
819.341	6342
819.481	6331
819.622	6551
819.762	6753
819.903	6719
820.043	6604
820.184	6585
820.324	6612
820.465	6726
820.605	6711
820.746	6639
820.886	6521
821.026	6612
821.167	6738
821.307	6863
821.447	6791
821.588	6677
821.728	6551
821.868	6494
822.008	6403
822.149	6357
822.289	6372
822.429	6091
822.569	6167
822.709	6197
822.849	5931
822.99	5912
823.13	5897
823.27	5916
823.41	5832
823.55	5813
823.69	5802
823.83	5798
823.97	5638
824.11	5577
824.25	5589
824.389	5600
824.529	5592
824.669	5604
824.809	5661
824.949	5691
825.089	5676
825.228	5539
825.368	5463
825.508	5330
825.648	5337
825.787	5417
825.927	5410
826.067	5349
826.206	5307
826.346	5455
826.485	5429
826.625	5490
826.765	5600
826.904	5497
827.044	5296
827.183	5250
827.323	5174
827.462	5280
827.601	5208
827.741	5265
827.88	5280
828.02	5197
828.159	5246
828.298	5360
828.437	5436
828.577	5357
828.716	5577
828.855	5387
828.994	5159
829.134	5197
829.273	5261
829.412	5178
829.551	5235
829.69	5258
829.829	5299
829.968	5402
830.107	5296
830.246	5322
830.385	5242
830.524	5162
830.663	5143
830.802	5025
830.941	5014
831.08	4987
831.219	5075
831.357	5018
831.496	5181
831.635	4953
831.774	4904
831.913	4934
832.051	4782
832.19	4752
832.329	4862
832.467	4714
832.606	4706
832.744	4748
832.883	4771
833.022	4733
833.16	4774
833.299	4812
833.437	4866
833.576	4862
833.714	4915
833.852	4938
833.991	4961
834.129	5014
834.267	4995
834.406	4976
834.544	5010
834.682	5025
834.821	5006
834.959	5178
835.097	5052
835.235	5159
835.373	5113
835.511	5109
835.65	5105
835.788	5067
835.926	4900
836.064	4885
836.202	4987
836.34	5193
836.478	5246
836.615	5136
836.753	5208
836.891	5322
837.029	5235
837.167	5239
837.305	5216
837.443	5174
837.58	5128
837.718	5311
837.856	5231
837.993	5143
838.131	5284
838.269	5250
838.406	5235
838.544	5204
838.681	5102
838.819	5041
838.956	4942
839.094	4961
839.231	4968
839.369	5109
839.506	5417
839.643	5258
839.781	5071
839.918	5052
840.055	5136
840.193	5151
840.33	5079
840.467	5159
840.604	5220
840.742	5493
840.879	5121
841.016	5086
841.153	5121
841.29	5379
841.427	5341
841.564	5372
841.701	5379
841.838	5326
841.975	5292
842.112	5326
842.249	5143
842.385	5155
842.522	5311
842.659	5235
842.796	5174
842.933	5239
843.069	5162
843.206	5223
843.343	5322
843.479	5341
843.616	5360
843.752	5037
843.889	5071
844.025	5284
844.162	5105
844.298	5220
844.435	5105
844.571	5067
844.708	5258
844.844	5326
844.98	5364
845.117	5326
845.253	5193
845.389	5143
845.525	5147
845.661	5178
845.798	5075
845.934	5197
846.07	5109
846.206	5239
846.342	5292
846.478	5197
846.614	5033
846.75	5037
846.886	4965
847.022	5189
847.158	5067
847.294	5048
847.429	5151
847.565	5136
847.701	5364
847.837	4873
847.972	4862
848.108	4961
848.244	4972
848.379	4835
848.515	4717
848.65	4736
848.786	4725
848.921	4782
849.057	4904
849.192	4904
849.328	4835
849.463	4862
849.598	4793
849.734	4816
849.869	4767
850.004	4668
850.14	4656
850.275	4622
850.41	4512
850.545	4622
850.68	4634
850.815	4694
850.95	4679
851.085	4919
851.22	4771
851.355	4660
851.49	4637
851.625	4653
851.76	4664
851.895	4573
852.03	4580
852.165	4656
852.299	4801
852.434	4847
852.569	4797
852.703	4812
852.838	4896
852.973	4942
853.107	4953
853.242	4790
853.376	4698
853.511	4599
853.645	4691
853.78	4828
853.914	4656
854.048	4710
854.183	4691
854.317	4733
854.451	4904
854.585	4717
854.72	4637
854.854	4755
854.988	4573
855.122	4706
855.256	4558
855.39	4675
855.524	4831
855.658	4752
855.792	4702
855.926	4725
856.06	4797
856.194	4790
856.327	4729
856.461	4626
856.595	4615
856.729	4622
856.862	4797
856.996	4733
857.13	4748
857.263	4774
857.397	4797
857.53	4679
857.664	4736
857.797	4774
857.931	4828
858.064	4679
858.197	4797
858.331	4664
858.464	4611
858.597	4577
858.731	4634
858.864	4675
858.997	4630
859.13	4668
859.263	4733
859.396	4725
859.529	4592
859.662	4637
859.795	4577
859.928	4630
860.061	4744
860.194	4843
860.327	4626
860.46	4596
860.592	4763
860.725	4733
860.858	4733
860.99	4607
861.123	4538
861.256	4580
861.388	4645
861.521	5353
861.653	4512
861.786	4504
861.918	4512
862.05	4523
862.183	4580
862.315	4637
862.447	4641
862.58	4558
862.712	4417
862.844	4329
862.976	4512
863.108	4516
863.24	4793
863.372	4344
863.504	4367
863.636	4398
863.768	4535
863.9	4443
864.032	4436
864.164	4417
864.296	4500
864.428	4523
864.559	4588
864.691	4561
864.823	4516
864.954	4565
865.086	4535
865.217	4516
865.349	4443
865.48	4466
865.612	4512
865.743	4698
865.875	4497
866.006	4447
866.137	4459
866.269	4478
866.4	4519
866.531	4417
866.662	4405
866.793	4390
866.924	4390
867.055	4512
867.186	4451
867.317	4432
867.448	4421
867.579	4363
867.71	4436
867.841	4402
867.972	4462
868.103	4481
868.233	4481
868.364	4443
868.495	4546
868.625	4725
868.756	4763
868.886	4561
869.017	4599
869.147	4793
869.278	4805
869.408	4668
869.539	4622
869.669	4752
869.799	4649
869.929	4774
870.06	4748
870.19	4915
870.32	4923
870.45	4942
870.58	5025
870.71	5090
870.84	5174
870.97	4999
871.1	4927
871.23	5185
871.36	5136
871.489	5018
871.619	5083
871.749	5136
871.879	5170
872.008	5261
872.138	5067
872.267	5033
872.397	4862
872.526	4854
872.656	4736
872.785	4812
872.915	4934
873.044	5083
873.173	4968
873.303	4980
873.432	4961
873.561	4923
873.69	4915
873.819	4885
873.948	4938
874.077	4839
874.206	4786
874.335	4843
874.464	4991
874.593	5151
874.722	5010
874.851	5128
874.979	5102
875.108	5010
875.237	4885
875.365	4850
875.494	4942
875.623	4995
875.751	4854
875.88	4896
876.008	5033
876.136	5083
876.265	5235
876.393	5395
876.521	5296
876.65	5220
876.778	5220
876.906	5102
877.034	5045
877.162	5079
877.29	5006
877.418	5109
877.546	5079
877.674	5056
877.802	5067
877.93	5033
878.058	4965
878.185	4877
878.313	4980
878.441	4972
878.568	4824
878.696	4839
878.824	4984
878.951	5014
879.079	5147
879.206	5307
879.333	5060
879.461	4976
879.588	5052
879.715	5117
879.842	5258
879.97	5022
880.097	4790
880.224	4763
880.351	4831
880.478	4847
880.605	4755
880.732	4793
880.859	5064
880.986	4930
881.112	4938
881.239	4820
881.366	4679
881.493	4641
881.619	4656
881.746	4653
881.872	4694
881.999	4660
882.125	4679
882.252	4862
882.378	4843
882.505	4961
882.631	4797
882.757	4664
882.883	4786
883.01	4778
883.136	4702
883.262	4592
883.388	4641
883.514	4820
883.64	4858
883.766	4862
883.892	4668
884.018	4725
884.143	4896
884.269	5056
884.395	4694
884.52	4592
884.646	4649
884.772	4596
884.897	4611
885.023	4679
885.148	4793
885.274	4862
885.399	4831
885.524	4733
885.65	4725
885.775	4748
885.9	4706
886.025	4839
886.15	4790
886.275	4717
886.4	4645
886.525	4725
886.65	4683
886.775	4725
886.9	4915
887.025	5083
887.149	4809
887.274	4691
887.399	4626
887.523	4599
887.648	4599
887.773	4599
887.897	4782
888.021	4820
888.146	4710
888.27	4809
888.395	4949
888.519	4847
888.643	4820
888.767	4835
888.891	4698
889.015	4611
889.139	4645
889.263	4592
889.387	4790
889.511	4866
889.635	4812
889.759	4668
889.883	4683
890.006	4729
890.13	4858
890.254	4622
890.377	4660
890.501	4618
890.624	4561
890.748	4634
890.871	4493
890.995	4451
891.118	4405
891.241	4535
891.364	4588
891.488	4641
891.611	4531
891.734	4569
891.857	4607
891.98	4565
892.103	4660
892.226	4626
892.349	4516
892.471	4440
892.594	4554
892.717	4596
892.839	4573
892.962	4630
893.085	4607
893.207	4630
893.33	4489
893.452	4527
893.575	4679
893.697	4599
893.819	4790
893.941	4866
894.064	4812
894.186	4580
894.308	4569
894.43	4752
894.552	4816
894.674	4748
894.796	4550
894.918	4618
895.04	4535
895.161	4736
895.283	4691
895.405	4554
895.526	4672
895.648	4714
895.769	4710
895.891	4668
896.012	4763
896.134	4683
896.255	4733
896.376	4649
896.498	4626
896.619	4714
896.74	4664
896.861	4683
896.982	4934
897.103	5075
897.224	4847
897.345	4752
897.466	4710
897.587	4736
897.708	4862
897.828	4820
897.949	4649
898.07	4588
898.19	4637
898.311	4831
898.431	4660
898.552	4782
898.672	4866
898.792	4843
898.913	4771
899.033	4656
899.153	4538
899.273	4451
899.393	4489
899.513	4531
899.633	4512
899.753	4554
899.873	4504
899.993	4573
900.113	4550
900.232	4554
900.352	4527
900.472	4432
900.591	4428
900.711	4485
900.83	4462
900.95	4630
901.069	4675
901.189	4504
901.308	4360
901.427	4329
901.546	4371
901.665	4516
901.784	4516
901.904	4363
902.023	4386
902.141	4230
902.26	4158
902.379	4287
902.498	4242
902.617	4196
902.735	4325
902.854	4348
902.973	4405
903.091	4227
903.21	4234
903.328	4295
903.446	4230
903.565	4265
903.683	4379
903.801	4337
903.919	4451
904.038	4402
904.156	4333
904.274	4443
904.392	4424
904.51	4424
904.627	4512
904.745	4599
904.863	4645
904.981	4383
905.098	4329
905.216	4383
905.334	4417
905.451	4478
905.569	4428
905.686	4558
905.803	4588
905.921	4462
906.038	4603
906.155	4535
906.272	4405
906.389	4504
906.506	4341
906.623	4348
906.74	4405
906.857	4341
906.974	4375
907.091	4558
907.208	4698
907.324	4561
907.441	4485
907.557	4344
907.674	4402
907.79	4268
907.907	4402
908.023	4481
908.139	4470
908.256	4443
908.372	4478
908.488	4432
908.604	4344
908.72	4398
908.836	4383
908.952	4352
909.068	4432
909.184	4607
909.3	4466
909.415	4630
909.531	4550
909.647	4417
909.762	4367
909.878	4367
909.993	4440
910.108	4470
910.224	4405
910.339	4459
910.454	4379
910.57	4356
910.685	4287
910.8	4622
910.915	4618
911.03	4561
911.145	4348
911.259	4356
911.374	4360
911.489	4272
911.604	4265
911.718	4185
911.833	4223
911.947	4082
912.062	4029
912.176	4196
912.291	4265
912.405	4276
912.519	4455
912.633	4542
912.748	4379
912.862	4284
912.976	4227
913.09	4120
913.204	4139
913.318	4227
913.431	4390
913.545	4402
913.659	4474
913.772	4360
913.886	4242
914	4242
914.113	4363
914.226	4466
914.34	4344
914.453	4249
914.566	4409
914.68	4306
914.793	4295
914.906	4204
915.019	4143
915.132	4105
915.245	4188
915.358	4196
915.47	4272
915.583	4284
915.696	4303
915.809	4383
915.921	4424
916.034	4287
916.146	4230
916.259	4211
916.371	4367
916.483	4379
916.595	4295
916.708	4329
916.82	4333
916.932	4333
917.044	4348
917.156	4295
917.268	4192
917.38	4257
917.491	4310
917.603	4352
917.715	4375
917.826	4432
917.938	4394
918.049	4272
918.161	4390
918.272	4550
918.384	4512
918.495	4451
918.606	4303
918.717	4192
918.828	4352
918.939	4325
919.05	4272
919.161	4325
919.272	4135
919.383	4276
919.494	4466
919.604	4618
919.715	4447
919.826	4367
919.936	4398
920.047	4550
920.157	4538
920.267	4717
920.378	4531
920.488	4512
920.598	4721
920.708	4877
920.818	4752
920.928	4771
921.038	4984
921.148	4911
921.258	4664
921.368	4523
921.477	4481
921.587	4421
921.697	4383
921.806	4542
921.916	4436
922.025	4287
922.134	4276
922.244	4257
922.353	4325
922.462	4177
922.571	4150
922.68	4032
922.789	3937
922.898	4082
923.007	4002
923.116	4067
923.224	4048
923.333	4082
923.442	4025
923.55	3964
923.659	4051
923.767	4071
923.876	3968
923.984	4116
924.092	4051
924.201	4078
924.309	4078
924.417	4150
924.525	4051
924.633	4131
924.741	5052
924.849	3930
924.956	4120
925.064	3983
925.172	3896
925.279	4002
925.387	4055
925.494	4036
925.602	4207
925.709	4192
925.816	4055
925.924	4150
926.031	4211
926.138	4158
926.245	4207
926.352	4120
926.459	4242
926.566	4306
926.673	4169
926.779	4074
926.886	4097
926.993	3934
927.099	3941
927.206	3934
927.312	3964
927.419	4006
927.525	4032
927.631	4059
927.737	3991
927.843	3960
927.95	3835
928.056	3983
928.162	3987
928.267	4044
928.373	4645
928.479	4154
928.585	3888
928.69	4059
928.796	4124
928.901	4002
929.007	3869
929.112	4032
929.218	4002
929.323	3941
929.428	3915
929.533	4112
929.638	3888
929.743	3979
929.848	4086
929.953	3994
930.058	3903
930.163	3747
930.267	3812
930.372	3975
930.477	3835
930.581	4128
930.685	3918
930.79	3838
930.894	3922
930.998	3861
931.103	4036
931.207	3736
931.311	3713
931.415	3671
931.519	3492
931.623	3564
