Data from test_V78500241_807.txt Node
Date: Fri Mar 25 16:54:36 CST 2022
User: usil
Spectrometer: V785-0024
Trigger mode: 0
Integration Time (sec): 4.000000E-1
Scans to average: 1
Nonlinearity correction enabled: false
Boxcar width: 0
Storing dark spectrum: false
XAxis mode: Wavelengths
Number of Pixels in Spectrum: 1024
>>>>>Begin Spectral Data<<<<<
801.071	8077
801.214	7925
801.356	7906
801.499	7841
801.641	7845
801.783	7837
801.926	7913
802.068	7936
802.211	7967
802.353	7909
802.496	7818
802.638	7849
802.78	7932
802.923	7898
803.065	7845
803.208	7879
803.35	7989
803.492	8123
803.635	8221
803.777	7963
803.919	8073
804.061	8339
804.204	8172
804.346	8008
804.488	7993
804.63	8081
804.773	8001
804.915	8043
805.057	8271
805.199	8164
805.341	8259
805.483	8240
805.626	8218
805.768	8119
805.91	8168
806.052	8119
806.194	8088
806.336	8259
806.478	8058
806.62	8050
806.762	8092
806.904	8286
807.046	8389
807.188	8336
807.33	8256
807.472	8267
807.614	8149
807.756	8092
807.898	7974
808.04	7814
808.182	7875
808.324	7902
808.465	7913
808.607	7993
808.749	8046
808.891	8183
809.033	8290
809.174	8180
809.316	8081
809.458	8046
809.6	7993
809.741	8024
809.883	7970
810.025	8130
810.166	8073
810.308	8039
810.45	8100
810.591	7837
810.733	7696
810.875	7636
811.016	7476
811.158	7472
811.299	7556
811.441	7689
811.582	7658
811.724	7468
811.865	7491
812.007	7559
812.148	7510
812.29	7594
812.431	7696
812.573	7902
812.714	7959
812.855	8062
812.997	8157
813.138	8343
813.279	8172
813.421	8092
813.562	8027
813.703	7845
813.845	7738
813.986	7476
814.127	7270
814.268	7164
814.41	7164
814.551	7137
814.692	7129
814.833	6985
814.974	7050
815.115	6996
815.256	6973
815.397	6913
815.539	6920
815.68	6798
815.821	6745
815.962	6825
816.103	6779
816.244	6715
816.385	6688
816.526	6612
816.666	6502
816.807	6270
816.948	6384
817.089	6395
817.23	6403
817.371	6388
817.512	6418
817.653	6296
817.793	6407
817.934	6331
818.075	6445
818.216	6433
818.356	6395
818.497	6266
818.638	6114
818.778	6110
818.919	6167
819.06	6163
819.2	6273
819.341	6296
819.481	6342
819.622	6471
819.762	6711
819.903	6696
820.043	6593
820.184	6509
820.324	6578
820.465	6646
820.605	6688
820.746	6608
820.886	6475
821.026	6677
821.167	6612
821.307	6730
821.447	6745
821.588	6681
821.728	6540
821.868	6448
822.008	6323
822.149	6308
822.289	6327
822.429	6136
822.569	6072
822.709	6053
822.849	5908
822.99	5908
823.13	5946
823.27	5935
823.41	5722
823.55	5798
823.69	5748
823.83	5786
823.97	5676
824.11	5471
824.25	5570
824.389	5516
824.529	5646
824.669	5524
824.809	5611
824.949	5668
825.089	5573
825.228	5539
825.368	5364
825.508	5330
825.648	5387
825.787	5330
825.927	5368
826.067	5322
826.206	5341
826.346	5368
826.485	5395
826.625	5372
826.765	5573
826.904	5467
827.044	5223
827.183	5174
827.323	5162
827.462	5201
827.601	5166
827.741	5178
827.88	5178
828.02	5102
828.159	5246
828.298	5315
828.437	5299
828.577	5296
828.716	5440
828.855	5341
828.994	5143
829.134	5143
829.273	5197
829.412	5094
829.551	5121
829.69	5178
829.829	5254
829.968	5353
830.107	5246
830.246	5265
830.385	5147
830.524	5113
830.663	5083
830.802	4987
830.941	4911
831.08	4885
831.219	5018
831.357	4980
831.496	5140
831.635	4904
831.774	4873
831.913	4866
832.051	4694
832.19	4702
832.329	4812
832.467	4687
832.606	4660
832.744	4771
832.883	4717
833.022	4714
833.16	4755
833.299	4778
833.437	4809
833.576	4820
833.714	4858
833.852	4843
833.991	4866
834.129	4919
834.267	4923
834.406	4915
834.544	4953
834.682	4976
834.821	4949
834.959	5143
835.097	4942
835.235	5143
835.373	4995
835.511	5041
835.65	4995
835.788	5045
835.926	4904
836.064	4839
836.202	4904
836.34	5124
836.478	5189
836.615	5117
836.753	5166
836.891	5250
837.029	5258
837.167	5181
837.305	5155
837.443	5174
837.58	5090
837.718	5239
837.856	5227
837.993	5136
838.131	5212
838.269	5189
838.406	5143
838.544	5174
838.681	5022
838.819	4972
838.956	4896
839.094	4885
839.231	4995
839.369	5083
839.506	5452
839.643	5189
839.781	5045
839.918	4953
840.055	5094
840.193	5113
840.33	5105
840.467	5178
840.604	5189
840.742	5452
840.879	5094
841.016	5090
841.153	5128
841.29	5345
841.427	5330
841.564	5292
841.701	5337
841.838	5239
841.975	5181
842.112	5242
842.249	5147
842.385	5147
842.522	5330
842.659	5140
842.796	5151
842.933	5155
843.069	5159
843.206	5162
843.343	5254
843.479	5204
843.616	5254
843.752	5014
843.889	5025
844.025	5189
844.162	4995
844.298	5204
844.435	5075
844.571	4999
844.708	5166
844.844	5299
844.98	5288
845.117	5292
845.253	5136
845.389	5048
845.525	5117
845.661	5136
845.798	5006
845.934	5094
846.07	5033
846.206	5212
846.342	5231
846.478	5155
846.614	5025
846.75	4919
846.886	4927
847.022	5162
847.158	5018
847.294	5075
847.429	5079
847.565	5037
847.701	5284
847.837	4812
847.972	4759
848.108	4968
848.244	4930
848.379	4786
848.515	4733
848.65	4687
848.786	4748
848.921	4744
849.057	4828
849.192	4908
849.328	4786
849.463	4805
849.598	4767
849.734	4706
849.869	4660
850.004	4580
850.14	4626
850.275	4645
850.41	4546
850.545	4561
850.68	4618
850.815	4630
850.95	4611
851.085	4870
851.22	4725
851.355	4683
851.49	4592
851.625	4596
851.76	4577
851.895	4523
852.03	4523
852.165	4687
852.299	4706
852.434	4752
852.569	4729
852.703	4748
852.838	4816
852.973	4934
853.107	4854
853.242	4672
853.376	4672
853.511	4504
853.645	4592
853.78	4782
853.914	4649
854.048	4611
854.183	4679
854.317	4694
854.451	4843
854.585	4694
854.72	4634
854.854	4740
854.988	4573
855.122	4569
855.256	4516
855.39	4596
855.524	4733
855.658	4729
855.792	4675
855.926	4725
856.06	4782
856.194	4786
856.327	4641
856.461	4603
856.595	4656
856.729	4584
856.862	4778
856.996	4694
857.13	4683
857.263	4748
857.397	4786
857.53	4706
857.664	4733
857.797	4755
857.931	4774
858.064	4702
858.197	4740
858.331	4668
858.464	4599
858.597	4493
858.731	4554
858.864	4622
858.997	4603
859.13	4634
859.263	4664
859.396	4683
859.529	4538
859.662	4531
859.795	4466
859.928	4637
860.061	4755
860.194	4744
860.327	4599
860.46	4538
860.592	4679
860.725	4698
860.858	4721
860.99	4554
861.123	4497
861.256	4535
861.388	4637
861.521	5185
861.653	4455
861.786	4436
861.918	4504
862.05	4504
862.183	4519
862.315	4558
862.447	4645
862.58	4558
862.712	4409
862.844	4352
862.976	4459
863.108	4413
863.24	4733
863.372	4284
863.504	4428
863.636	4356
863.768	4508
863.9	4421
864.032	4329
864.164	4402
864.296	4493
864.428	4470
864.559	4588
864.691	4516
864.823	4538
864.954	4462
865.086	4516
865.217	4409
865.349	4413
865.48	4386
865.612	4470
865.743	4611
865.875	4493
866.006	4344
866.137	4428
866.269	4455
866.4	4432
866.531	4421
866.662	4371
866.793	4405
866.924	4367
867.055	4493
867.186	4409
867.317	4386
867.448	4363
867.579	4375
867.71	4405
867.841	4360
867.972	4432
868.103	4451
868.233	4466
868.364	4470
868.495	4470
868.625	4683
868.756	4748
868.886	4550
869.017	4611
869.147	4763
869.278	4748
869.408	4634
869.539	4611
869.669	4710
869.799	4668
869.929	4740
870.06	4675
870.19	4987
870.32	4938
870.45	4927
870.58	5045
870.71	5048
870.84	5037
870.97	4942
871.1	4904
871.23	5124
871.36	5117
871.489	5003
871.619	5052
871.749	5083
871.879	5105
872.008	5162
872.138	5064
872.267	4968
872.397	4835
872.526	4801
872.656	4698
872.785	4809
872.915	4942
873.044	5014
873.173	4930
873.303	4953
873.432	4953
873.561	4946
873.69	4824
873.819	4828
873.948	4923
874.077	4812
874.206	4717
874.335	4801
874.464	4923
874.593	5060
874.722	4965
874.851	5098
874.979	5056
875.108	4987
875.237	4900
875.365	4847
875.494	4866
875.623	4949
875.751	4778
875.88	4877
876.008	4984
876.136	5006
876.265	5235
876.393	5383
876.521	5185
876.65	5227
876.778	5094
876.906	5090
877.034	4995
877.162	5041
877.29	4942
877.418	5025
877.546	5037
877.674	5041
877.802	5003
877.93	5022
878.058	4980
878.185	4850
878.313	4923
878.441	4946
878.568	4717
878.696	4896
878.824	4980
878.951	4995
879.079	5147
879.206	5246
879.333	5048
879.461	4946
879.588	5041
879.715	5128
879.842	5201
879.97	4991
880.097	4748
880.224	4717
880.351	4835
880.478	4847
880.605	4759
880.732	4744
880.859	5067
880.986	4812
881.112	4885
881.239	4740
881.366	4645
881.493	4596
881.619	4603
881.746	4649
881.872	4668
881.999	4599
882.125	4672
882.252	4790
882.378	4812
882.505	4911
882.631	4858
882.757	4626
882.883	4714
883.01	4748
883.136	4607
883.262	4630
883.388	4622
883.514	4763
883.64	4816
883.766	4805
883.892	4641
884.018	4694
884.143	4835
884.269	5003
884.395	4687
884.52	4634
884.646	4611
884.772	4596
884.897	4565
885.023	4679
885.148	4767
885.274	4835
885.399	4767
885.524	4740
885.65	4683
885.775	4763
885.9	4668
886.025	4843
886.15	4774
886.275	4702
886.4	4626
886.525	4672
886.65	4683
886.775	4702
886.9	4908
887.025	5037
887.149	4797
887.274	4660
887.399	4527
887.523	4607
887.648	4592
887.773	4592
887.897	4725
888.021	4782
888.146	4664
888.27	4778
888.395	4881
888.519	4801
888.643	4782
888.767	4797
888.891	4683
889.015	4580
889.139	4645
889.263	4596
889.387	4748
889.511	4835
889.635	4748
889.759	4615
889.883	4618
890.006	4706
890.13	4797
890.254	4577
890.377	4664
890.501	4516
890.624	4489
890.748	4622
890.871	4565
890.995	4470
891.118	4383
891.241	4478
891.364	4527
891.488	4660
891.611	4474
891.734	4577
891.857	4580
891.98	4542
892.103	4607
892.226	4577
892.349	4523
892.471	4436
892.594	4508
892.717	4550
892.839	4550
892.962	4588
893.085	4637
893.207	4599
893.33	4466
893.452	4497
893.575	4630
893.697	4546
893.819	4748
893.941	4797
894.064	4759
894.186	4561
894.308	4577
894.43	4664
894.552	4797
894.674	4763
894.796	4538
894.918	4622
895.04	4550
895.161	4679
895.283	4622
895.405	4558
895.526	4626
895.648	4634
895.769	4691
895.891	4683
896.012	4702
896.134	4687
896.255	4603
896.376	4599
896.498	4618
896.619	4687
896.74	4584
896.861	4630
896.982	4885
897.103	5086
897.224	4767
897.345	4714
897.466	4679
897.587	4725
897.708	4877
897.828	4767
897.949	4672
898.07	4558
898.19	4637
898.311	4786
898.431	4664
898.552	4706
898.672	4793
898.792	4828
898.913	4736
899.033	4626
899.153	4516
899.273	4424
899.393	4497
899.513	4527
899.633	4535
899.753	4580
899.873	4512
899.993	4603
900.113	4584
900.232	4561
900.352	4588
900.472	4474
900.591	4383
900.711	4497
900.83	4455
900.95	4637
901.069	4687
901.189	4573
901.308	4421
901.427	4325
901.546	4360
901.665	4455
901.784	4546
901.904	4383
902.023	4398
902.141	4238
902.26	4200
902.379	4310
902.498	4249
902.617	4280
902.735	4409
902.854	4394
902.973	4409
903.091	4272
903.21	4265
903.328	4318
903.446	4303
903.565	4329
903.683	4398
903.801	4276
903.919	4455
904.038	4478
904.156	4333
904.274	4504
904.392	4398
904.51	4485
904.627	4535
904.745	4603
904.863	4626
904.981	4432
905.098	4352
905.216	4390
905.334	4478
905.451	4478
905.569	4451
905.686	4580
905.803	4611
905.921	4443
906.038	4584
906.155	4508
906.272	4421
906.389	4493
906.506	4402
906.623	4363
906.74	4428
906.857	4287
906.974	4451
907.091	4573
907.208	4729
907.324	4668
907.441	4497
907.557	4428
907.674	4386
907.79	4402
907.907	4413
908.023	4516
908.139	4497
908.256	4440
908.372	4493
908.488	4447
908.604	4360
908.72	4363
908.836	4459
908.952	4402
909.068	4478
909.184	4580
909.3	4519
909.415	4618
909.531	4580
909.647	4348
909.762	4402
909.878	4386
909.993	4489
910.108	4436
910.224	4421
910.339	4516
910.454	4432
910.57	4417
910.685	4352
910.8	4664
910.915	4615
911.03	4535
911.145	4352
911.259	4337
911.374	4405
911.489	4268
911.604	4322
911.718	4185
911.833	4211
911.947	4093
912.062	4055
912.176	4249
912.291	4280
912.405	4276
912.519	4474
912.633	4500
912.748	4386
912.862	4383
912.976	4200
913.09	4150
913.204	4196
913.318	4242
913.431	4402
913.545	4394
913.659	4497
913.772	4371
913.886	4272
914	4249
914.113	4417
914.226	4436
914.34	4432
914.453	4276
914.566	4428
914.68	4348
914.793	4348
914.906	4154
915.019	4169
915.132	4143
915.245	4204
915.358	4230
915.47	4257
915.583	4276
915.696	4341
915.809	4413
915.921	4443
916.034	4280
916.146	4322
916.259	4234
916.371	4417
916.483	4394
916.595	4291
916.708	4363
916.82	4375
916.932	4352
917.044	4367
917.156	4367
917.268	4253
917.38	4360
917.491	4303
917.603	4390
917.715	4352
917.826	4474
917.938	4348
918.049	4284
918.161	4478
918.272	4603
918.384	4561
918.495	4493
918.606	4337
918.717	4272
918.828	4341
918.939	4390
919.05	4299
919.161	4363
919.272	4124
919.383	4246
919.494	4478
919.604	4668
919.715	4474
919.826	4398
919.936	4417
920.047	4546
920.157	4527
920.267	4736
920.378	4531
920.488	4516
920.598	4721
920.708	4942
920.818	4740
920.928	4816
921.038	4957
921.148	4904
921.258	4622
921.368	4558
921.477	4527
921.587	4455
921.697	4413
921.806	4584
921.916	4402
922.025	4272
922.134	4341
922.244	4223
922.353	4341
922.462	4128
922.571	4185
922.68	4063
922.789	3994
922.898	4036
923.007	4010
923.116	4120
923.224	4071
923.333	4185
923.442	4036
923.55	4032
923.659	4055
923.767	4139
923.876	4032
923.984	4128
924.092	3991
924.201	4124
924.309	4131
924.417	4154
924.525	4147
924.633	4124
924.741	4949
924.849	3991
924.956	4188
925.064	4025
925.172	3922
925.279	4013
925.387	4078
925.494	4090
925.602	4257
925.709	4177
925.816	4112
925.924	4177
926.031	4249
926.138	4188
926.245	4253
926.352	4181
926.459	4314
926.566	4341
926.673	4196
926.779	4105
926.886	4150
926.993	4006
927.099	3991
927.206	3926
927.312	3983
927.419	4082
927.525	4082
927.631	4128
927.737	3941
927.843	3998
927.95	3865
928.056	3987
928.162	4036
928.267	4105
928.373	4656
928.479	4090
928.585	3899
928.69	4093
928.796	4112
928.901	3964
929.007	3854
929.112	4051
929.218	4002
929.323	4010
929.428	3983
929.533	4131
929.638	3926
929.743	3998
929.848	4071
929.953	3991
930.058	3953
930.163	3808
930.267	3861
930.372	3968
930.477	3831
930.581	4116
930.685	3975
930.79	3804
930.894	3899
930.998	3926
931.103	4074
931.207	3762
931.311	3698
931.415	3690
931.519	3526
931.623	3572
