Data from test_V78500241_110.txt Node
Date: Fri Mar 25 16:49:46 CST 2022
User: usil
Spectrometer: V785-0024
Trigger mode: 0
Integration Time (sec): 4.000000E-1
Scans to average: 1
Nonlinearity correction enabled: false
Boxcar width: 0
Storing dark spectrum: false
XAxis mode: Wavelengths
Number of Pixels in Spectrum: 1024
>>>>>Begin Spectral Data<<<<<
801.071	8016
801.214	8031
801.356	7909
801.499	7879
801.641	7814
801.783	7890
801.926	8001
802.068	7967
802.211	7997
802.353	7997
802.496	7913
802.638	7906
802.78	7906
802.923	7898
803.065	7887
803.208	7860
803.35	8005
803.492	8096
803.635	8134
803.777	7986
803.919	8077
804.061	8358
804.204	8081
804.346	7993
804.488	7932
804.63	8100
804.773	7974
804.915	8126
805.057	8290
805.199	8084
805.341	8199
805.483	8225
805.626	8180
805.768	8069
805.91	8126
806.052	8202
806.194	8123
806.336	8298
806.478	8084
806.62	8149
806.762	8138
806.904	8298
807.046	8385
807.188	8396
807.33	8248
807.472	8286
807.614	8187
807.756	8103
807.898	7993
808.04	7921
808.182	7959
808.324	7879
808.465	7894
808.607	8035
808.749	8145
808.891	8229
809.033	8317
809.174	8248
809.316	8088
809.458	8111
809.6	8027
809.741	8024
809.883	8069
810.025	8176
810.166	8016
810.308	8107
810.45	8016
810.591	7913
810.733	7792
810.875	7689
811.016	7559
811.158	7514
811.299	7575
811.441	7753
811.582	7765
811.724	7601
811.865	7597
812.007	7647
812.148	7662
812.29	7731
812.431	7818
812.573	7959
812.714	8020
812.855	8206
812.997	8358
813.138	8355
813.279	8199
813.421	8183
813.562	8058
813.703	7868
813.845	7807
813.986	7449
814.127	7343
814.268	7225
814.41	7266
814.551	7217
814.692	7251
814.833	7137
814.974	7190
815.115	7175
815.256	7015
815.397	6993
815.539	6966
815.68	6871
815.821	6791
815.962	6894
816.103	6814
816.244	6726
816.385	6635
816.526	6662
816.666	6536
816.807	6372
816.948	6422
817.089	6490
817.23	6532
817.371	6456
817.512	6433
817.653	6384
817.793	6422
817.934	6429
818.075	6486
818.216	6433
818.356	6433
818.497	6258
818.638	6125
818.778	6190
818.919	6155
819.06	6220
819.2	6388
819.341	6388
819.481	6391
819.622	6570
819.762	6776
819.903	6711
820.043	6658
820.184	6642
820.324	6669
820.465	6692
820.605	6688
820.746	6650
820.886	6566
821.026	6726
821.167	6726
821.307	6802
821.447	6848
821.588	6654
821.728	6608
821.868	6551
822.008	6369
822.149	6361
822.289	6410
822.429	6186
822.569	6102
822.709	6114
822.849	5973
822.99	5904
823.13	5859
823.27	5942
823.41	5847
823.55	5832
823.69	5802
823.83	5817
823.97	5646
824.11	5573
824.25	5528
824.389	5585
824.529	5577
824.669	5573
824.809	5699
824.949	5684
825.089	5646
825.228	5592
825.368	5440
825.508	5379
825.648	5376
825.787	5417
825.927	5395
826.067	5349
826.206	5258
826.346	5417
826.485	5414
826.625	5455
826.765	5482
826.904	5516
827.044	5250
827.183	5227
827.323	5155
827.462	5258
827.601	5185
827.741	5220
827.88	5292
828.02	5193
828.159	5254
828.298	5292
828.437	5417
828.577	5292
828.716	5490
828.855	5360
828.994	5223
829.134	5174
829.273	5227
829.412	5185
829.551	5162
829.69	5178
829.829	5254
829.968	5379
830.107	5334
830.246	5307
830.385	5193
830.524	5178
830.663	5090
830.802	5025
830.941	4976
831.08	4877
831.219	4976
831.357	4961
831.496	5220
831.635	4927
831.774	4858
831.913	4885
832.051	4740
832.19	4733
832.329	4839
832.467	4710
832.606	4660
832.744	4706
832.883	4691
833.022	4759
833.16	4835
833.299	4858
833.437	4847
833.576	4881
833.714	4896
833.852	4850
833.991	4900
834.129	4965
834.267	4934
834.406	4984
834.544	4980
834.682	5018
834.821	4995
834.959	5208
835.097	5010
835.235	5181
835.373	5098
835.511	5128
835.65	5022
835.788	5067
835.926	4908
836.064	4831
836.202	4942
836.34	5242
836.478	5261
836.615	5143
836.753	5280
836.891	5311
837.029	5273
837.167	5242
837.305	5204
837.443	5147
837.58	5117
837.718	5303
837.856	5208
837.993	5147
838.131	5258
838.269	5254
838.406	5189
838.544	5246
838.681	5067
838.819	5029
838.956	4904
839.094	4946
839.231	4953
839.369	5094
839.506	5452
839.643	5254
839.781	5094
839.918	5056
840.055	5132
840.193	5121
840.33	5121
840.467	5178
840.604	5216
840.742	5425
840.879	5075
841.016	5147
841.153	5128
841.29	5421
841.427	5379
841.564	5341
841.701	5360
841.838	5288
841.975	5250
842.112	5269
842.249	5147
842.385	5098
842.522	5307
842.659	5239
842.796	5140
842.933	5166
843.069	5162
843.206	5155
843.343	5288
843.479	5303
843.616	5334
843.752	5064
843.889	5045
844.025	5250
844.162	5056
844.298	5239
844.435	5064
844.571	5018
844.708	5235
844.844	5330
844.98	5318
845.117	5277
845.253	5132
845.389	5117
845.525	5220
845.661	5147
845.798	5048
845.934	5140
846.07	4991
846.206	5208
846.342	5280
846.478	5189
846.614	5041
846.75	4995
846.886	4961
847.022	5105
847.158	5098
847.294	5121
847.429	5109
847.565	5060
847.701	5318
847.837	4896
847.972	4828
848.108	5014
848.244	4987
848.379	4774
848.515	4710
848.65	4740
848.786	4763
848.921	4797
849.057	4900
849.192	4892
849.328	4797
849.463	4843
849.598	4805
849.734	4812
849.869	4702
850.004	4656
850.14	4744
850.275	4596
850.41	4546
850.545	4577
850.68	4599
850.815	4653
850.95	4615
851.085	4850
851.22	4801
851.355	4710
851.49	4630
851.625	4622
851.76	4687
851.895	4577
852.03	4565
852.165	4675
852.299	4752
852.434	4862
852.569	4733
852.703	4809
852.838	4870
852.973	4934
853.107	4927
853.242	4717
853.376	4706
853.511	4561
853.645	4618
853.78	4858
853.914	4702
854.048	4729
854.183	4668
854.317	4710
854.451	4839
854.585	4653
854.72	4683
854.854	4801
854.988	4592
855.122	4645
855.256	4523
855.39	4675
855.524	4858
855.658	4725
855.792	4668
855.926	4744
856.06	4771
856.194	4820
856.327	4691
856.461	4630
856.595	4618
856.729	4577
856.862	4759
856.996	4748
857.13	4714
857.263	4763
857.397	4839
857.53	4656
857.664	4740
857.797	4774
857.931	4812
858.064	4649
858.197	4744
858.331	4710
858.464	4588
858.597	4500
858.731	4603
858.864	4679
858.997	4573
859.13	4645
859.263	4721
859.396	4721
859.529	4580
859.662	4596
859.795	4516
859.928	4656
860.061	4759
860.194	4793
860.327	4641
860.46	4599
860.592	4683
860.725	4763
860.858	4733
860.99	4611
861.123	4542
861.256	4504
861.388	4630
861.521	5322
861.653	4508
861.786	4455
861.918	4459
862.05	4569
862.183	4577
862.315	4611
862.447	4694
862.58	4561
862.712	4428
862.844	4337
862.976	4489
863.108	4436
863.24	4866
863.372	4386
863.504	4383
863.636	4413
863.768	4508
863.9	4440
864.032	4402
864.164	4424
864.296	4504
864.428	4577
864.559	4577
864.691	4519
864.823	4512
864.954	4497
865.086	4554
865.217	4470
865.349	4478
865.48	4516
865.612	4523
865.743	4656
865.875	4470
866.006	4459
866.137	4512
866.269	4432
866.4	4413
866.531	4405
866.662	4386
866.793	4394
866.924	4432
867.055	4569
867.186	4413
867.317	4432
867.448	4383
867.579	4455
867.71	4440
867.841	4363
867.972	4474
868.103	4466
868.233	4504
868.364	4440
868.495	4531
868.625	4672
868.756	4733
868.886	4622
869.017	4580
869.147	4824
869.278	4801
869.408	4698
869.539	4687
869.669	4740
869.799	4675
869.929	4752
870.06	4790
870.19	4987
870.32	4923
870.45	4908
870.58	5025
870.71	5102
870.84	5132
870.97	4961
871.1	4896
871.23	5185
871.36	5140
871.489	5033
871.619	5086
871.749	5113
871.879	5212
872.008	5220
872.138	5105
872.267	4968
872.397	4835
872.526	4812
872.656	4759
872.785	4820
872.915	5010
873.044	5048
873.173	4980
873.303	4957
873.432	4968
873.561	4976
873.69	4889
873.819	4873
873.948	4949
874.077	4873
874.206	4786
874.335	4839
874.464	4946
874.593	5086
874.722	4976
874.851	5128
874.979	5075
875.108	5048
875.237	4908
875.365	4904
875.494	4881
875.623	4999
875.751	4843
875.88	4904
876.008	5029
876.136	5052
876.265	5212
876.393	5345
876.521	5273
876.65	5261
876.778	5242
876.906	5098
877.034	5033
877.162	5060
877.29	4995
877.418	5025
877.546	5033
877.674	5094
877.802	5064
877.93	5010
878.058	4923
878.185	4820
878.313	4991
878.441	4991
878.568	4835
878.696	4919
878.824	5014
878.951	5045
879.079	5223
879.206	5318
879.333	5067
879.461	4961
879.588	5006
879.715	5181
879.842	5246
879.97	4995
880.097	4790
880.224	4801
880.351	4828
880.478	4812
880.605	4786
880.732	4839
880.859	5121
880.986	4908
881.112	4881
881.239	4835
881.366	4660
881.493	4596
881.619	4607
881.746	4668
881.872	4687
881.999	4683
882.125	4759
882.252	4782
882.378	4885
882.505	4995
882.631	4835
882.757	4675
882.883	4782
883.01	4752
883.136	4672
883.262	4641
883.388	4603
883.514	4873
883.64	4850
883.766	4786
883.892	4653
884.018	4717
884.143	4930
884.269	5060
884.395	4691
884.52	4660
884.646	4675
884.772	4596
884.897	4588
885.023	4626
885.148	4824
885.274	4923
885.399	4828
885.524	4733
885.65	4714
885.775	4748
885.9	4748
886.025	4854
886.15	4843
886.275	4763
886.4	4706
886.525	4755
886.65	4729
886.775	4706
886.9	4908
887.025	5094
887.149	4862
887.274	4694
887.399	4592
887.523	4637
887.648	4607
887.773	4603
887.897	4755
888.021	4774
888.146	4698
888.27	4839
888.395	4991
888.519	4839
888.643	4820
888.767	4831
888.891	4710
889.015	4641
889.139	4675
889.263	4618
889.387	4793
889.511	4889
889.635	4820
889.759	4687
889.883	4645
890.006	4725
890.13	4854
890.254	4618
890.377	4706
890.501	4599
890.624	4569
890.748	4683
890.871	4470
890.995	4443
891.118	4421
891.241	4542
891.364	4493
891.488	4653
891.611	4546
891.734	4531
891.857	4618
891.98	4577
892.103	4675
892.226	4691
892.349	4569
892.471	4466
892.594	4577
892.717	4637
892.839	4615
892.962	4618
893.085	4645
893.207	4653
893.33	4455
893.452	4546
893.575	4694
893.697	4592
893.819	4824
893.941	4850
894.064	4793
894.186	4592
894.308	4611
894.43	4752
894.552	4854
894.674	4736
894.796	4561
894.918	4675
895.04	4618
895.161	4736
895.283	4645
895.405	4607
895.526	4645
895.648	4706
895.769	4755
895.891	4729
896.012	4782
896.134	4755
896.255	4675
896.376	4649
896.498	4626
896.619	4763
896.74	4634
896.861	4653
896.982	4930
897.103	5124
897.224	4881
897.345	4748
897.466	4744
897.587	4771
897.708	4885
897.828	4782
897.949	4698
898.07	4584
898.19	4717
898.311	4824
898.431	4714
898.552	4763
898.672	4873
898.792	4824
898.913	4793
899.033	4653
899.153	4550
899.273	4489
899.393	4542
899.513	4565
899.633	4531
899.753	4523
899.873	4500
899.993	4626
900.113	4588
900.232	4531
900.352	4546
900.472	4535
900.591	4462
900.711	4508
900.83	4436
900.95	4634
901.069	4702
901.189	4550
901.308	4409
901.427	4367
901.546	4383
901.665	4485
901.784	4493
901.904	4417
902.023	4352
902.141	4246
902.26	4154
902.379	4306
902.498	4253
902.617	4238
902.735	4402
902.854	4424
902.973	4360
903.091	4238
903.21	4223
903.328	4325
903.446	4276
903.565	4306
903.683	4409
903.801	4291
903.919	4413
904.038	4459
904.156	4337
904.274	4493
904.392	4440
904.51	4405
904.627	4474
904.745	4622
904.863	4641
904.981	4424
905.098	4322
905.216	4413
905.334	4440
905.451	4481
905.569	4455
905.686	4493
905.803	4554
905.921	4413
906.038	4611
906.155	4523
906.272	4421
906.389	4455
906.506	4318
906.623	4386
906.74	4379
906.857	4344
906.974	4386
907.091	4626
907.208	4683
907.324	4641
907.441	4538
907.557	4348
907.674	4383
907.79	4329
907.907	4360
908.023	4516
908.139	4508
908.256	4440
908.372	4535
908.488	4485
908.604	4405
908.72	4398
908.836	4413
908.952	4390
909.068	4451
909.184	4607
909.3	4504
909.415	4584
909.531	4588
909.647	4375
909.762	4390
909.878	4371
909.993	4455
910.108	4421
910.224	4447
910.339	4466
910.454	4417
910.57	4421
910.685	4303
910.8	4672
910.915	4603
911.03	4512
911.145	4375
911.259	4333
911.374	4352
911.489	4310
911.604	4280
911.718	4158
911.833	4200
911.947	4124
912.062	4067
912.176	4230
912.291	4306
912.405	4276
912.519	4462
912.633	4497
912.748	4466
912.862	4341
912.976	4238
913.09	4139
913.204	4188
913.318	4242
913.431	4352
913.545	4421
913.659	4394
913.772	4394
913.886	4299
914	4261
914.113	4363
914.226	4405
914.34	4443
914.453	4238
914.566	4481
914.68	4306
914.793	4280
914.906	4131
915.019	4131
915.132	4082
915.245	4169
915.358	4227
915.47	4295
915.583	4299
915.696	4360
915.809	4428
915.921	4424
916.034	4303
916.146	4287
916.259	4215
916.371	4402
916.483	4371
916.595	4284
916.708	4341
916.82	4348
916.932	4352
917.044	4348
917.156	4375
917.268	4268
917.38	4295
917.491	4295
917.603	4402
917.715	4455
917.826	4432
917.938	4386
918.049	4276
918.161	4440
918.272	4550
918.384	4558
918.495	4489
918.606	4303
918.717	4253
918.828	4413
918.939	4417
919.05	4314
919.161	4303
919.272	4147
919.383	4299
919.494	4451
919.604	4649
919.715	4455
919.826	4405
919.936	4386
920.047	4504
920.157	4466
920.267	4706
920.378	4508
920.488	4542
920.598	4710
920.708	4904
920.818	4778
920.928	4782
921.038	4987
921.148	4953
921.258	4653
921.368	4592
921.477	4504
921.587	4489
921.697	4428
921.806	4569
921.916	4481
922.025	4284
922.134	4280
922.244	4211
922.353	4352
922.462	4188
922.571	4169
922.68	3991
922.789	3987
922.898	4082
923.007	4002
923.116	4120
923.224	4109
923.333	4063
923.442	4048
923.55	4029
923.659	4067
923.767	4124
923.876	4017
923.984	4090
924.092	4040
924.201	4071
924.309	4112
924.417	4158
924.525	4078
924.633	4109
924.741	4930
924.849	3918
924.956	4135
925.064	3956
925.172	3926
925.279	3975
925.387	4032
925.494	4040
925.602	4246
925.709	4154
925.816	4067
925.924	4181
926.031	4299
926.138	4143
926.245	4227
926.352	4093
926.459	4295
926.566	4318
926.673	4173
926.779	4101
926.886	4086
926.993	4002
927.099	3934
927.206	3941
927.312	3968
927.419	4032
927.525	4002
927.631	4124
927.737	4010
927.843	3956
927.95	3857
928.056	3941
928.162	3991
928.267	4067
928.373	4615
928.479	4120
928.585	3876
928.69	4040
928.796	4093
928.901	4006
929.007	3854
929.112	4059
929.218	4044
929.323	3968
929.428	3960
929.533	4143
929.638	3934
929.743	3972
929.848	4093
929.953	3991
930.058	3937
930.163	3800
930.267	3869
930.372	4002
930.477	3831
930.581	4078
930.685	3953
930.79	3842
930.894	3903
930.998	3865
931.103	4082
931.207	3740
931.311	3743
931.415	3705
931.519	3530
931.623	3595
