Data from test_V78500241_2261.txt Node
Date: Fri Mar 25 17:04:43 CST 2022
User: usil
Spectrometer: V785-0024
Trigger mode: 0
Integration Time (sec): 4.000000E-1
Scans to average: 1
Nonlinearity correction enabled: false
Boxcar width: 0
Storing dark spectrum: false
XAxis mode: Wavelengths
Number of Pixels in Spectrum: 1024
>>>>>Begin Spectral Data<<<<<
801.071	7989
801.214	7986
801.356	7871
801.499	7826
801.641	7757
801.783	7826
801.926	7989
802.068	7940
802.211	8020
802.353	7989
802.496	7898
802.638	7868
802.78	7944
802.923	7928
803.065	7871
803.208	7837
803.35	7951
803.492	8031
803.635	8096
803.777	7982
803.919	8054
804.061	8533
804.204	8180
804.346	8069
804.488	7986
804.63	8073
804.773	7955
804.915	8092
805.057	8267
805.199	8161
805.341	8176
805.483	8279
805.626	8229
805.768	8092
805.91	8195
806.052	8248
806.194	8065
806.336	8279
806.478	8031
806.62	8103
806.762	8195
806.904	8279
807.046	8457
807.188	8298
807.33	8229
807.472	8347
807.614	8084
807.756	8161
807.898	8065
808.04	7947
808.182	7871
808.324	7913
808.465	7883
808.607	8039
808.749	8111
808.891	8161
809.033	8339
809.174	8214
809.316	8054
809.458	8054
809.6	8027
809.741	8031
809.883	8005
810.025	8111
810.166	8058
810.308	7993
810.45	8001
810.591	7833
810.733	7693
810.875	7655
811.016	7540
811.158	7426
811.299	7582
811.441	7712
811.582	7715
811.724	7533
811.865	7563
812.007	7605
812.148	7590
812.29	7590
812.431	7708
812.573	7784
812.714	7986
812.855	8138
812.997	8221
813.138	8233
813.279	8142
813.421	8058
813.562	7970
813.703	7879
813.845	7734
813.986	7468
814.127	7247
814.268	7171
814.41	7179
814.551	7164
814.692	7198
814.833	7126
814.974	7065
815.115	7126
815.256	7023
815.397	6886
815.539	6954
815.68	6795
815.821	6768
815.962	6901
816.103	6818
816.244	6707
816.385	6604
816.526	6658
816.666	6544
816.807	6342
816.948	6494
817.089	6517
817.23	6433
817.371	6338
817.512	6315
817.653	6380
817.793	6311
817.934	6395
818.075	6479
818.216	6395
818.356	6452
818.497	6292
818.638	6121
818.778	6159
818.919	6106
819.06	6106
819.2	6327
819.341	6300
819.481	6338
819.622	6509
819.762	6749
819.903	6654
820.043	6585
820.184	6582
820.324	6623
820.465	6741
820.605	6719
820.746	6566
820.886	6521
821.026	6673
821.167	6669
821.307	6776
821.447	6776
821.588	6654
821.728	6578
821.868	6464
822.008	6353
822.149	6380
822.289	6361
822.429	6155
822.569	6098
822.709	6163
822.849	5901
822.99	5889
823.13	5847
823.27	5897
823.41	5786
823.55	5775
823.69	5779
823.83	5748
823.97	5684
824.11	5562
824.25	5493
824.389	5528
824.529	5577
824.669	5532
824.809	5627
824.949	5665
825.089	5634
825.228	5539
825.368	5402
825.508	5334
825.648	5322
825.787	5387
825.927	5311
826.067	5277
826.206	5292
826.346	5368
826.485	5334
826.625	5429
826.765	5547
826.904	5520
827.044	5254
827.183	5227
827.323	5102
827.462	5231
827.601	5113
827.741	5185
827.88	5220
828.02	5090
828.159	5208
828.298	5307
828.437	5334
828.577	5250
828.716	5471
828.855	5330
828.994	5159
829.134	5140
829.273	5174
829.412	5121
829.551	5090
829.69	5174
829.829	5185
829.968	5345
830.107	5345
830.246	5254
830.385	5223
830.524	5121
830.663	5037
830.802	5018
830.941	4858
831.08	4843
831.219	4972
831.357	4923
831.496	5151
831.635	4896
831.774	4835
831.913	4854
832.051	4733
832.19	4740
832.329	4835
832.467	4672
832.606	4596
832.744	4679
832.883	4679
833.022	4733
833.16	4729
833.299	4812
833.437	4866
833.576	4809
833.714	4820
833.852	4896
833.991	4870
834.129	4946
834.267	4949
834.406	4862
834.544	4999
834.682	4927
834.821	4949
834.959	5132
835.097	4984
835.235	5181
835.373	5079
835.511	5071
835.65	5022
835.788	5018
835.926	4904
836.064	4858
836.202	4873
836.34	5128
836.478	5227
836.615	5105
836.753	5155
836.891	5280
837.029	5185
837.167	5212
837.305	5147
837.443	5124
837.58	5094
837.718	5242
837.856	5197
837.993	5113
838.131	5174
838.269	5223
838.406	5178
838.544	5231
838.681	5048
838.819	5018
838.956	4828
839.094	4858
839.231	5014
839.369	5098
839.506	5455
839.643	5242
839.781	5090
839.918	4995
840.055	5094
840.193	5124
840.33	5098
840.467	5067
840.604	5181
840.742	5440
840.879	5090
841.016	5056
841.153	5189
841.29	5349
841.427	5277
841.564	5307
841.701	5349
841.838	5254
841.975	5212
842.112	5254
842.249	5105
842.385	5102
842.522	5326
842.659	5185
842.796	5109
842.933	5166
843.069	5064
843.206	5166
843.343	5292
843.479	5212
843.616	5280
843.752	5022
843.889	5037
844.025	5189
844.162	4999
844.298	5162
844.435	5075
844.571	5090
844.708	5166
844.844	5223
844.98	5288
845.117	5273
845.253	5124
845.389	5140
845.525	5151
845.661	5121
845.798	5029
845.934	5162
846.07	5022
846.206	5197
846.342	5273
846.478	5185
846.614	4995
846.75	4965
846.886	4984
847.022	5159
847.158	5029
847.294	4999
847.429	5105
847.565	5041
847.701	5334
847.837	4858
847.972	4748
848.108	4911
848.244	4919
848.379	4755
848.515	4717
848.65	4714
848.786	4759
848.921	4740
849.057	4850
849.192	4889
849.328	4805
849.463	4831
849.598	4797
849.734	4736
849.869	4649
850.004	4630
850.14	4679
850.275	4580
850.41	4538
850.545	4596
850.68	4664
850.815	4637
850.95	4603
851.085	4831
851.22	4759
851.355	4653
851.49	4660
851.625	4565
851.76	4664
851.895	4527
852.03	4523
852.165	4679
852.299	4733
852.434	4767
852.569	4752
852.703	4740
852.838	4858
852.973	4942
853.107	4900
853.242	4698
853.376	4702
853.511	4561
853.645	4656
853.78	4771
853.914	4679
854.048	4660
854.183	4611
854.317	4702
854.451	4843
854.585	4637
854.72	4641
854.854	4767
854.988	4622
855.122	4618
855.256	4535
855.39	4645
855.524	4778
855.658	4748
855.792	4691
855.926	4729
856.06	4725
856.194	4763
856.327	4687
856.461	4596
856.595	4550
856.729	4626
856.862	4782
856.996	4645
857.13	4725
857.263	4714
857.397	4759
857.53	4634
857.664	4721
857.797	4774
857.931	4801
858.064	4691
858.197	4755
858.331	4641
858.464	4637
858.597	4504
858.731	4630
858.864	4592
858.997	4630
859.13	4649
859.263	4660
859.396	4698
859.529	4558
859.662	4603
859.795	4558
859.928	4569
860.061	4694
860.194	4752
860.327	4615
860.46	4573
860.592	4702
860.725	4729
860.858	4744
860.99	4611
861.123	4531
861.256	4500
861.388	4656
861.521	5273
861.653	4474
861.786	4405
861.918	4474
862.05	4508
862.183	4546
862.315	4592
862.447	4630
862.58	4478
862.712	4371
862.844	4310
862.976	4489
863.108	4470
863.24	4850
863.372	4325
863.504	4367
863.636	4356
863.768	4504
863.9	4428
864.032	4383
864.164	4383
864.296	4481
864.428	4569
864.559	4538
864.691	4531
864.823	4489
864.954	4481
865.086	4508
865.217	4447
865.349	4398
865.48	4481
865.612	4497
865.743	4634
865.875	4447
866.006	4409
866.137	4455
866.269	4417
866.4	4466
866.531	4436
866.662	4417
866.793	4371
866.924	4375
867.055	4485
867.186	4383
867.317	4421
867.448	4421
867.579	4402
867.71	4462
867.841	4390
867.972	4386
868.103	4497
868.233	4390
868.364	4455
868.495	4447
868.625	4645
868.756	4774
868.886	4531
869.017	4618
869.147	4752
869.278	4744
869.408	4656
869.539	4672
869.669	4675
869.799	4675
869.929	4755
870.06	4748
870.19	5014
870.32	4923
870.45	4923
870.58	4968
870.71	5098
870.84	5128
870.97	4923
871.1	4938
871.23	5117
871.36	5136
871.489	4984
871.619	5064
871.749	5151
871.879	5117
872.008	5174
872.138	5029
872.267	4896
872.397	4839
872.526	4736
872.656	4717
872.785	4793
872.915	4965
873.044	5033
873.173	4938
873.303	4965
873.432	4957
873.561	4923
873.69	4908
873.819	4854
873.948	4885
874.077	4812
874.206	4691
874.335	4809
874.464	4904
874.593	5033
874.722	4949
874.851	5109
874.979	5048
875.108	5056
875.237	4908
875.365	4835
875.494	4881
875.623	4930
875.751	4774
875.88	4900
876.008	4957
876.136	5029
876.265	5162
876.393	5261
876.521	5174
876.65	5204
876.778	5159
876.906	5022
877.034	5018
877.162	5037
877.29	5025
877.418	5022
877.546	5075
877.674	5006
877.802	5022
877.93	4965
878.058	4870
878.185	4828
878.313	4946
878.441	4953
878.568	4843
878.696	4828
878.824	4934
878.951	4957
879.079	5060
879.206	5197
879.333	5064
879.461	4946
879.588	5029
879.715	5128
879.842	5181
879.97	4938
880.097	4778
880.224	4717
880.351	4793
880.478	4790
880.605	4801
880.732	4793
880.859	5094
880.986	4938
881.112	4850
881.239	4744
881.366	4649
881.493	4611
881.619	4565
881.746	4626
881.872	4649
881.999	4634
882.125	4668
882.252	4774
882.378	4824
882.505	5010
882.631	4828
882.757	4668
882.883	4763
883.01	4698
883.136	4698
883.262	4596
883.388	4656
883.514	4778
883.64	4881
883.766	4828
883.892	4672
884.018	4725
884.143	4911
884.269	4972
884.395	4736
884.52	4634
884.646	4729
884.772	4573
884.897	4588
885.023	4687
885.148	4793
885.274	4877
885.399	4812
885.524	4736
885.65	4725
885.775	4820
885.9	4744
886.025	4892
886.15	4847
886.275	4736
886.4	4702
886.525	4752
886.65	4744
886.775	4710
886.9	4949
887.025	5071
887.149	4797
887.274	4679
887.399	4630
887.523	4653
887.648	4577
887.773	4672
887.897	4786
888.021	4828
888.146	4710
888.27	4877
888.395	4953
888.519	4809
888.643	4870
888.767	4900
888.891	4733
889.015	4615
889.139	4679
889.263	4641
889.387	4812
889.511	4896
889.635	4847
889.759	4729
889.883	4683
890.006	4740
890.13	4877
890.254	4664
890.377	4721
890.501	4592
890.624	4565
890.748	4710
890.871	4535
890.995	4497
891.118	4405
891.241	4546
891.364	4603
891.488	4706
891.611	4504
891.734	4626
891.857	4603
891.98	4618
892.103	4721
892.226	4634
892.349	4561
892.471	4405
892.594	4561
892.717	4622
892.839	4569
892.962	4622
893.085	4736
893.207	4592
893.33	4497
893.452	4554
893.575	4698
893.697	4641
893.819	4854
893.941	4862
894.064	4820
894.186	4637
894.308	4683
894.43	4786
894.552	4896
894.674	4786
894.796	4573
894.918	4622
895.04	4607
895.161	4725
895.283	4721
895.405	4611
895.526	4679
895.648	4778
895.769	4767
895.891	4721
896.012	4759
896.134	4755
896.255	4660
896.376	4649
896.498	4630
896.619	4679
896.74	4607
896.861	4668
896.982	4984
897.103	5079
897.224	4881
897.345	4793
897.466	4660
897.587	4778
897.708	4919
897.828	4816
897.949	4729
898.07	4611
898.19	4675
898.311	4782
898.431	4733
898.552	4759
898.672	4850
898.792	4816
898.913	4763
899.033	4656
899.153	4516
899.273	4462
899.393	4504
899.513	4538
899.633	4554
899.753	4565
899.873	4592
899.993	4611
900.113	4569
900.232	4584
900.352	4546
900.472	4512
900.591	4436
900.711	4451
900.83	4470
900.95	4641
901.069	4710
901.189	4603
901.308	4371
901.427	4333
901.546	4375
901.665	4489
901.784	4550
901.904	4417
902.023	4352
902.141	4238
902.26	4162
902.379	4337
902.498	4291
902.617	4310
902.735	4398
902.854	4379
902.973	4394
903.091	4230
903.21	4295
903.328	4341
903.446	4299
903.565	4242
903.683	4394
903.801	4295
903.919	4428
904.038	4421
904.156	4383
904.274	4447
904.392	4428
904.51	4459
904.627	4462
904.745	4569
904.863	4664
904.981	4470
905.098	4306
905.216	4390
905.334	4428
905.451	4485
905.569	4459
905.686	4622
905.803	4558
905.921	4474
906.038	4550
906.155	4512
906.272	4443
906.389	4459
906.506	4402
906.623	4398
906.74	4402
906.857	4318
906.974	4409
907.091	4584
907.208	4679
907.324	4615
907.441	4516
907.557	4337
907.674	4371
907.79	4348
907.907	4383
908.023	4497
908.139	4493
908.256	4474
908.372	4546
908.488	4508
908.604	4367
908.72	4352
908.836	4417
908.952	4383
909.068	4470
909.184	4523
909.3	4523
909.415	4622
909.531	4573
909.647	4337
909.762	4379
909.878	4390
909.993	4455
910.108	4436
910.224	4436
910.339	4497
910.454	4436
910.57	4379
910.685	4375
910.8	4649
910.915	4622
911.03	4508
911.145	4341
911.259	4356
911.374	4421
911.489	4280
911.604	4284
911.718	4242
911.833	4177
911.947	4093
912.062	4082
912.176	4215
912.291	4295
912.405	4261
912.519	4512
912.633	4550
912.748	4398
912.862	4344
912.976	4207
913.09	4116
913.204	4204
913.318	4287
913.431	4390
913.545	4360
913.659	4459
913.772	4398
913.886	4253
914	4276
914.113	4432
914.226	4481
914.34	4455
914.453	4249
914.566	4413
914.68	4352
914.793	4318
914.906	4135
915.019	4135
915.132	4109
915.245	4185
915.358	4272
915.47	4261
915.583	4310
915.696	4325
915.809	4405
915.921	4470
916.034	4280
916.146	4322
916.259	4215
916.371	4405
916.483	4383
916.595	4310
916.708	4348
916.82	4367
916.932	4341
917.044	4348
917.156	4375
917.268	4268
917.38	4333
917.491	4268
917.603	4337
917.715	4405
917.826	4432
917.938	4314
918.049	4268
918.161	4367
918.272	4527
918.384	4554
918.495	4432
918.606	4314
918.717	4265
918.828	4306
918.939	4402
919.05	4299
919.161	4383
919.272	4131
919.383	4249
919.494	4436
919.604	4679
919.715	4432
919.826	4375
919.936	4398
920.047	4546
920.157	4546
920.267	4729
920.378	4550
920.488	4485
920.598	4672
920.708	4862
920.818	4752
920.928	4824
921.038	4942
921.148	4938
921.258	4596
921.368	4599
921.477	4527
921.587	4497
921.697	4398
921.806	4584
921.916	4428
922.025	4310
922.134	4257
922.244	4249
922.353	4322
922.462	4173
922.571	4131
922.68	4086
922.789	4040
922.898	4029
923.007	3998
923.116	4135
923.224	4071
923.333	4074
923.442	4006
923.55	3964
923.659	4021
923.767	4143
923.876	4101
923.984	4166
924.092	3956
924.201	4086
924.309	4093
924.417	4177
924.525	4074
924.633	4105
924.741	5109
924.849	3903
924.956	4131
925.064	3968
925.172	3941
925.279	3960
925.387	4055
925.494	4040
925.602	4223
925.709	4211
925.816	4029
925.924	4147
926.031	4249
926.138	4200
926.245	4249
926.352	4166
926.459	4261
926.566	4318
926.673	4177
926.779	4109
926.886	4044
926.993	3994
927.099	3983
927.206	3972
927.312	3956
927.419	4086
927.525	4090
927.631	4078
927.737	3949
927.843	3945
927.95	3835
928.056	3979
928.162	4006
928.267	4078
928.373	4721
928.479	4116
928.585	3892
928.69	4006
928.796	4097
928.901	3998
929.007	3892
929.112	3968
929.218	3941
929.323	3987
929.428	3934
929.533	4128
929.638	3937
929.743	3987
929.848	4044
929.953	4002
930.058	3991
930.163	3778
930.267	3880
930.372	3979
930.477	3857
930.581	4131
930.685	3991
930.79	3846
930.894	3888
930.998	3918
931.103	4048
931.207	3736
931.311	3717
931.415	3679
931.519	3523
931.623	3549
