Data from test_V78500241_426.txt Node
Date: Fri Mar 25 16:51:57 CST 2022
User: usil
Spectrometer: V785-0024
Trigger mode: 0
Integration Time (sec): 4.000000E-1
Scans to average: 1
Nonlinearity correction enabled: false
Boxcar width: 0
Storing dark spectrum: false
XAxis mode: Wavelengths
Number of Pixels in Spectrum: 1024
>>>>>Begin Spectral Data<<<<<
801.071	8073
801.214	8065
801.356	7860
801.499	7913
801.641	7887
801.783	7822
801.926	8008
802.068	7913
802.211	8027
802.353	8024
802.496	7799
802.638	7852
802.78	7963
802.923	7978
803.065	7845
803.208	7894
803.35	7932
803.492	8020
803.635	8103
803.777	8058
803.919	8069
804.061	8400
804.204	8119
804.346	7986
804.488	7913
804.63	8024
804.773	8024
804.915	8145
805.057	8294
805.199	8149
805.341	8279
805.483	8275
805.626	8172
805.768	7989
805.91	8138
806.052	8218
806.194	8111
806.336	8309
806.478	8176
806.62	8073
806.762	8149
806.904	8271
807.046	8446
807.188	8320
807.33	8279
807.472	8256
807.614	8153
807.756	8187
807.898	8062
808.04	7894
808.182	7982
808.324	7959
808.465	7940
808.607	8069
808.749	8103
808.891	8176
809.033	8252
809.174	8145
809.316	8092
809.458	8069
809.6	7997
809.741	8100
809.883	8073
810.025	8134
810.166	8130
810.308	8100
810.45	8035
810.591	7902
810.733	7723
810.875	7655
811.016	7468
811.158	7544
811.299	7655
811.441	7807
811.582	7780
811.724	7643
811.865	7533
812.007	7636
812.148	7624
812.29	7651
812.431	7792
812.573	7982
812.714	8054
812.855	8206
812.997	8218
813.138	8347
813.279	8256
813.421	8176
813.562	8024
813.703	7917
813.845	7833
813.986	7518
814.127	7362
814.268	7270
814.41	7179
814.551	7110
814.692	7244
814.833	7118
814.974	7145
815.115	7095
815.256	6901
815.397	6894
815.539	6977
815.68	6806
815.821	6818
815.962	6878
816.103	6837
816.244	6749
816.385	6665
816.526	6635
816.666	6532
816.807	6331
816.948	6483
817.089	6513
817.23	6422
817.371	6426
817.512	6467
817.653	6395
817.793	6429
817.934	6437
818.075	6407
818.216	6445
818.356	6464
818.497	6289
818.638	6095
818.778	6140
818.919	6178
819.06	6182
819.2	6304
819.341	6357
819.481	6346
819.622	6509
819.762	6738
819.903	6692
820.043	6612
820.184	6570
820.324	6593
820.465	6681
820.605	6677
820.746	6604
820.886	6517
821.026	6711
821.167	6722
821.307	6791
821.447	6810
821.588	6681
821.728	6604
821.868	6490
822.008	6369
822.149	6357
822.289	6407
822.429	6155
822.569	6083
822.709	6175
822.849	5935
822.99	5931
823.13	5901
823.27	5882
823.41	5832
823.55	5790
823.69	5764
823.83	5832
823.97	5695
824.11	5558
824.25	5501
824.389	5512
824.529	5535
824.669	5528
824.809	5562
824.949	5630
825.089	5592
825.228	5551
825.368	5372
825.508	5357
825.648	5311
825.787	5398
825.927	5353
826.067	5330
826.206	5299
826.346	5395
826.485	5440
826.625	5391
826.765	5596
826.904	5429
827.044	5261
827.183	5242
827.323	5147
827.462	5273
827.601	5181
827.741	5189
827.88	5220
828.02	5124
828.159	5239
828.298	5284
828.437	5387
828.577	5303
828.716	5497
828.855	5387
828.994	5170
829.134	5201
829.273	5239
829.412	5197
829.551	5151
829.69	5208
829.829	5269
829.968	5364
830.107	5246
830.246	5273
830.385	5121
830.524	5159
830.663	5045
830.802	5010
830.941	4889
831.08	4843
831.219	4972
831.357	5029
831.496	5170
831.635	4930
831.774	4877
831.913	4896
832.051	4755
832.19	4752
832.329	4839
832.467	4729
832.606	4649
832.744	4706
832.883	4763
833.022	4660
833.16	4820
833.299	4843
833.437	4767
833.576	4828
833.714	4847
833.852	4847
833.991	4870
834.129	4949
834.267	4904
834.406	4892
834.544	5006
834.682	4984
834.821	4965
834.959	5178
835.097	4968
835.235	5102
835.373	5094
835.511	5105
835.65	5025
835.788	4984
835.926	4923
836.064	4896
836.202	4927
836.34	5166
836.478	5273
836.615	5162
836.753	5296
836.891	5231
837.029	5269
837.167	5189
837.305	5143
837.443	5166
837.58	5060
837.718	5246
837.856	5181
837.993	5155
838.131	5223
838.269	5231
838.406	5212
838.544	5170
838.681	4995
838.819	5037
838.956	4881
839.094	4892
839.231	4946
839.369	5079
839.506	5482
839.643	5269
839.781	5056
839.918	5075
840.055	5075
840.193	5128
840.33	5102
840.467	5147
840.604	5246
840.742	5459
840.879	5105
841.016	5064
841.153	5178
841.29	5387
841.427	5357
841.564	5330
841.701	5307
841.838	5254
841.975	5250
842.112	5311
842.249	5124
842.385	5113
842.522	5345
842.659	5193
842.796	5162
842.933	5227
843.069	5170
843.206	5162
843.343	5311
843.479	5254
843.616	5303
843.752	5025
843.889	5022
844.025	5181
844.162	5025
844.298	5189
844.435	5083
844.571	5064
844.708	5216
844.844	5299
844.98	5326
845.117	5296
845.253	5155
845.389	5079
845.525	5143
845.661	5143
845.798	5048
845.934	5117
846.07	5056
846.206	5159
846.342	5250
846.478	5220
846.614	5048
846.75	4987
846.886	4961
847.022	5128
847.158	5056
847.294	5067
847.429	5143
847.565	5048
847.701	5280
847.837	4816
847.972	4843
848.108	4980
848.244	4976
848.379	4812
848.515	4736
848.65	4691
848.786	4702
848.921	4778
849.057	4850
849.192	4915
849.328	4824
849.463	4801
849.598	4820
849.734	4774
849.869	4668
850.004	4634
850.14	4710
850.275	4622
850.41	4580
850.545	4573
850.68	4588
850.815	4637
850.95	4634
851.085	4809
851.22	4740
851.355	4675
851.49	4603
851.625	4653
851.76	4622
851.895	4592
852.03	4523
852.165	4615
852.299	4771
852.434	4736
852.569	4736
852.703	4763
852.838	4835
852.973	4949
853.107	4896
853.242	4740
853.376	4698
853.511	4580
853.645	4626
853.78	4793
853.914	4721
854.048	4687
854.183	4649
854.317	4710
854.451	4824
854.585	4675
854.72	4645
854.854	4786
854.988	4683
855.122	4664
855.256	4508
855.39	4664
855.524	4759
855.658	4740
855.792	4687
855.926	4721
856.06	4786
856.194	4847
856.327	4691
856.461	4611
856.595	4634
856.729	4588
856.862	4740
856.996	4710
857.13	4771
857.263	4759
857.397	4797
857.53	4641
857.664	4694
857.797	4778
857.931	4778
858.064	4683
858.197	4744
858.331	4675
858.464	4672
858.597	4516
858.731	4580
858.864	4672
858.997	4607
859.13	4634
859.263	4717
859.396	4668
859.529	4558
859.662	4618
859.795	4554
859.928	4702
860.061	4774
860.194	4767
860.327	4596
860.46	4573
860.592	4706
860.725	4748
860.858	4717
860.99	4626
861.123	4523
861.256	4481
861.388	4622
861.521	5429
861.653	4500
861.786	4440
861.918	4474
862.05	4531
862.183	4577
862.315	4611
862.447	4645
862.58	4565
862.712	4432
862.844	4329
862.976	4455
863.108	4455
863.24	4725
863.372	4352
863.504	4398
863.636	4424
863.768	4500
863.9	4459
864.032	4375
864.164	4371
864.296	4440
864.428	4531
864.559	4519
864.691	4535
864.823	4493
864.954	4523
865.086	4535
865.217	4462
865.349	4402
865.48	4443
865.612	4531
865.743	4656
865.875	4436
866.006	4424
866.137	4478
866.269	4424
866.4	4432
866.531	4485
866.662	4398
866.793	4405
866.924	4447
867.055	4489
867.186	4428
867.317	4432
867.448	4390
867.579	4390
867.71	4436
867.841	4379
867.972	4478
868.103	4451
868.233	4504
868.364	4432
868.495	4523
868.625	4675
868.756	4782
868.886	4603
869.017	4626
869.147	4812
869.278	4774
869.408	4702
869.539	4645
869.669	4721
869.799	4645
869.929	4797
870.06	4763
870.19	4999
870.32	4972
870.45	4961
870.58	4984
870.71	5128
870.84	5067
870.97	4972
871.1	4930
871.23	5113
871.36	5162
871.489	5025
871.619	5071
871.749	5075
871.879	5075
872.008	5204
872.138	5048
872.267	5010
872.397	4843
872.526	4816
872.656	4721
872.785	4820
872.915	4980
873.044	4991
873.173	4965
873.303	4972
873.432	4961
873.561	4999
873.69	4873
873.819	4847
873.948	4900
874.077	4843
874.206	4740
874.335	4790
874.464	4961
874.593	5045
874.722	4957
874.851	5090
874.979	5105
875.108	5071
875.237	4904
875.365	4866
875.494	4877
875.623	4991
875.751	4870
875.88	4862
876.008	4961
876.136	5025
876.265	5162
876.393	5322
876.521	5265
876.65	5185
876.778	5197
876.906	5094
877.034	5037
877.162	5060
877.29	5041
877.418	5071
877.546	5029
877.674	5025
877.802	5010
877.93	4999
878.058	4946
878.185	4839
878.313	4976
878.441	4927
878.568	4774
878.696	4858
878.824	4980
878.951	4961
879.079	5151
879.206	5288
879.333	5094
879.461	4976
879.588	5006
879.715	5132
879.842	5246
879.97	5014
880.097	4793
880.224	4725
880.351	4812
880.478	4839
880.605	4767
880.732	4812
880.859	5060
880.986	4885
881.112	4858
881.239	4755
881.366	4668
881.493	4607
881.619	4607
881.746	4611
881.872	4622
881.999	4645
882.125	4668
882.252	4778
882.378	4763
882.505	4927
882.631	4748
882.757	4668
882.883	4706
883.01	4744
883.136	4668
883.262	4599
883.388	4634
883.514	4805
883.64	4850
883.766	4809
883.892	4672
884.018	4710
884.143	4900
884.269	5010
884.395	4656
884.52	4664
884.646	4656
884.772	4580
884.897	4573
885.023	4714
885.148	4752
885.274	4843
885.399	4831
885.524	4736
885.65	4714
885.775	4733
885.9	4748
886.025	4858
886.15	4805
886.275	4733
886.4	4687
886.525	4744
886.65	4675
886.775	4733
886.9	4873
887.025	5029
887.149	4831
887.274	4664
887.399	4554
887.523	4569
887.648	4611
887.773	4596
887.897	4782
888.021	4744
888.146	4672
888.27	4763
888.395	4938
888.519	4778
888.643	4786
888.767	4835
888.891	4653
889.015	4577
889.139	4626
889.263	4596
889.387	4706
889.511	4858
889.635	4786
889.759	4626
889.883	4577
890.006	4702
890.13	4812
890.254	4622
890.377	4656
890.501	4558
890.624	4531
890.748	4615
890.871	4573
890.995	4428
891.118	4383
891.241	4527
891.364	4542
891.488	4637
891.611	4546
891.734	4535
891.857	4607
891.98	4584
892.103	4683
892.226	4542
892.349	4580
892.471	4405
892.594	4584
892.717	4596
892.839	4569
892.962	4656
893.085	4660
893.207	4599
893.33	4440
893.452	4527
893.575	4630
893.697	4592
893.819	4820
893.941	4843
894.064	4755
894.186	4561
894.308	4641
894.43	4748
894.552	4820
894.674	4801
894.796	4569
894.918	4622
895.04	4607
895.161	4729
895.283	4668
895.405	4626
895.526	4675
895.648	4702
895.769	4748
895.891	4740
896.012	4744
896.134	4786
896.255	4714
896.376	4664
896.498	4645
896.619	4763
896.74	4653
896.861	4698
896.982	4965
897.103	5098
897.224	4896
897.345	4790
897.466	4675
897.587	4733
897.708	4881
897.828	4824
897.949	4714
898.07	4618
898.19	4694
898.311	4820
898.431	4698
898.552	4744
898.672	4927
898.792	4805
898.913	4793
899.033	4679
899.153	4538
899.273	4493
899.393	4603
899.513	4588
899.633	4577
899.753	4634
899.873	4565
899.993	4584
900.113	4580
900.232	4664
900.352	4554
900.472	4527
900.591	4451
900.711	4527
900.83	4497
900.95	4641
901.069	4710
901.189	4554
901.308	4424
901.427	4348
901.546	4436
901.665	4508
901.784	4580
901.904	4417
902.023	4405
902.141	4215
902.26	4196
902.379	4287
902.498	4234
902.617	4280
902.735	4379
902.854	4447
902.973	4436
903.091	4261
903.21	4249
903.328	4303
903.446	4337
903.565	4299
903.683	4386
903.801	4356
903.919	4386
904.038	4409
904.156	4363
904.274	4478
904.392	4470
904.51	4447
904.627	4535
904.745	4584
904.863	4672
904.981	4478
905.098	4325
905.216	4394
905.334	4478
905.451	4497
905.569	4447
905.686	4618
905.803	4592
905.921	4462
906.038	4535
906.155	4481
906.272	4402
906.389	4508
906.506	4402
906.623	4421
906.74	4459
906.857	4363
906.974	4379
907.091	4596
907.208	4694
907.324	4653
907.441	4519
907.557	4352
907.674	4363
907.79	4360
907.907	4436
908.023	4554
908.139	4527
908.256	4485
908.372	4500
908.488	4474
908.604	4348
908.72	4379
908.836	4436
908.952	4371
909.068	4474
909.184	4596
909.3	4481
909.415	4630
909.531	4577
909.647	4436
909.762	4413
909.878	4367
909.993	4474
910.108	4424
910.224	4466
910.339	4508
910.454	4394
910.57	4386
910.685	4348
910.8	4675
910.915	4634
911.03	4554
911.145	4394
911.259	4367
911.374	4383
911.489	4322
911.604	4337
911.718	4207
911.833	4215
911.947	4105
912.062	4063
912.176	4219
912.291	4299
912.405	4306
912.519	4527
912.633	4523
912.748	4443
912.862	4363
912.976	4246
913.09	4112
913.204	4253
913.318	4257
913.431	4398
913.545	4398
913.659	4519
913.772	4390
913.886	4284
914	4227
914.113	4417
914.226	4489
914.34	4459
914.453	4280
914.566	4447
914.68	4333
914.793	4348
914.906	4215
915.019	4177
915.132	4154
915.245	4211
915.358	4284
915.47	4276
915.583	4299
915.696	4356
915.809	4424
915.921	4455
916.034	4314
916.146	4253
916.259	4249
916.371	4390
916.483	4398
916.595	4295
916.708	4394
916.82	4379
916.932	4333
917.044	4402
917.156	4371
917.268	4253
917.38	4265
917.491	4303
917.603	4329
917.715	4485
917.826	4500
917.938	4375
918.049	4276
918.161	4405
918.272	4554
918.384	4599
918.495	4542
918.606	4356
918.717	4284
918.828	4360
918.939	4413
919.05	4291
919.161	4291
919.272	4147
919.383	4265
919.494	4485
919.604	4653
919.715	4470
919.826	4386
919.936	4455
920.047	4558
920.157	4538
920.267	4733
920.378	4538
920.488	4561
920.598	4740
920.708	4915
920.818	4812
920.928	4755
921.038	5025
921.148	4987
921.258	4653
921.368	4607
921.477	4493
921.587	4481
921.697	4417
921.806	4611
921.916	4432
922.025	4318
922.134	4318
922.244	4249
922.353	4360
922.462	4188
922.571	4154
922.68	4040
922.789	4048
922.898	4086
923.007	4013
923.116	4158
923.224	4097
923.333	4086
923.442	4067
923.55	4017
923.659	4074
923.767	4120
923.876	4032
923.984	4154
924.092	4063
924.201	4120
924.309	4120
924.417	4131
924.525	4090
924.633	4109
924.741	5105
924.849	3953
924.956	4188
925.064	3960
925.172	3956
925.279	3994
925.387	4093
925.494	4097
925.602	4272
925.709	4207
925.816	4071
925.924	4158
926.031	4249
926.138	4227
926.245	4268
926.352	4188
926.459	4303
926.566	4341
926.673	4166
926.779	4112
926.886	4120
926.993	4013
927.099	4029
927.206	3956
927.312	3964
927.419	4063
927.525	4059
927.631	4135
927.737	4048
927.843	4006
927.95	3892
928.056	4002
928.162	4010
928.267	4154
928.373	4717
928.479	4143
928.585	3892
928.69	4055
928.796	4128
928.901	3983
929.007	3876
929.112	4013
929.218	4048
929.323	3934
929.428	3991
929.533	4109
929.638	3975
929.743	3960
929.848	4048
929.953	4025
930.058	3960
930.163	3781
930.267	3861
930.372	3998
930.477	3831
930.581	4128
930.685	3979
930.79	3842
930.894	3922
930.998	3892
931.103	4082
931.207	3766
931.311	3751
931.415	3701
931.519	3526
931.623	3610
