Data from test_V78500241_2711.txt Node
Date: Fri Mar 25 17:07:51 CST 2022
User: usil
Spectrometer: V785-0024
Trigger mode: 0
Integration Time (sec): 4.000000E-1
Scans to average: 1
Nonlinearity correction enabled: false
Boxcar width: 0
Storing dark spectrum: false
XAxis mode: Wavelengths
Number of Pixels in Spectrum: 1024
>>>>>Begin Spectral Data<<<<<
801.071	8008
801.214	8001
801.356	7868
801.499	7864
801.641	7807
801.783	7830
801.926	7936
802.068	7917
802.211	8043
802.353	7989
802.496	7849
802.638	7879
802.78	7909
802.923	7925
803.065	7906
803.208	7864
803.35	7959
803.492	8130
803.635	8134
803.777	8031
803.919	8145
804.061	8412
804.204	8138
804.346	8039
804.488	7986
804.63	8103
804.773	7967
804.915	8077
805.057	8320
805.199	8199
805.341	8168
805.483	8271
805.626	8149
805.768	8221
805.91	8248
806.052	8294
806.194	8100
806.336	8313
806.478	8081
806.62	8092
806.762	8103
806.904	8252
807.046	8503
807.188	8423
807.33	8320
807.472	8343
807.614	8157
807.756	8176
807.898	8062
808.04	7879
808.182	7887
808.324	7944
808.465	7959
808.607	8062
808.749	8183
808.891	8206
809.033	8317
809.174	8225
809.316	8092
809.458	8073
809.6	8069
809.741	8054
809.883	8103
810.025	8149
810.166	8073
810.308	8088
810.45	8035
810.591	7967
810.733	7784
810.875	7655
811.016	7548
811.158	7510
811.299	7658
811.441	7780
811.582	7658
811.724	7594
811.865	7552
812.007	7597
812.148	7605
812.29	7647
812.431	7681
812.573	7883
812.714	8012
812.855	8195
812.997	8233
813.138	8252
813.279	8096
813.421	8100
813.562	7951
813.703	7936
813.845	7837
813.986	7483
814.127	7236
814.268	7278
814.41	7213
814.551	7129
814.692	7171
814.833	7057
814.974	7072
815.115	7069
815.256	7004
815.397	6947
815.539	6977
815.68	6818
815.821	6783
815.962	6894
816.103	6825
816.244	6757
816.385	6608
816.526	6612
816.666	6521
816.807	6350
816.948	6437
817.089	6532
817.23	6433
817.371	6391
817.512	6372
817.653	6380
817.793	6331
817.934	6422
818.075	6475
818.216	6403
818.356	6437
818.497	6224
818.638	6144
818.778	6232
818.919	6197
819.06	6178
819.2	6327
819.341	6334
819.481	6338
819.622	6536
819.762	6722
819.903	6711
820.043	6635
820.184	6589
820.324	6563
820.465	6631
820.605	6681
820.746	6623
820.886	6589
821.026	6601
821.167	6757
821.307	6818
821.447	6783
821.588	6646
821.728	6589
821.868	6540
822.008	6372
822.149	6407
822.289	6319
822.429	6144
822.569	6064
822.709	6095
822.849	5897
822.99	5904
823.13	5916
823.27	5912
823.41	5832
823.55	5752
823.69	5764
823.83	5756
823.97	5623
824.11	5532
824.25	5512
824.389	5585
824.529	5539
824.669	5490
824.809	5642
824.949	5619
825.089	5596
825.228	5589
825.368	5425
825.508	5292
825.648	5345
825.787	5387
825.927	5417
826.067	5296
826.206	5326
826.346	5387
826.485	5383
826.625	5398
826.765	5543
826.904	5505
827.044	5265
827.183	5227
827.323	5113
827.462	5235
827.601	5128
827.741	5178
827.88	5193
828.02	5102
828.159	5235
828.298	5318
828.437	5341
828.577	5299
828.716	5448
828.855	5315
828.994	5147
829.134	5140
829.273	5201
829.412	5147
829.551	5140
829.69	5223
829.829	5239
829.968	5326
830.107	5220
830.246	5292
830.385	5208
830.524	5109
830.663	5045
830.802	4930
830.941	4858
831.08	4854
831.219	5052
831.357	5003
831.496	5170
831.635	4930
831.774	4885
831.913	4877
832.051	4733
832.19	4714
832.329	4885
832.467	4687
832.606	4637
832.744	4759
832.883	4721
833.022	4744
833.16	4771
833.299	4824
833.437	4763
833.576	4824
833.714	4911
833.852	4858
833.991	4892
834.129	4953
834.267	4942
834.406	4930
834.544	4961
834.682	4961
834.821	4942
834.959	5140
835.097	4991
835.235	5124
835.373	5052
835.511	5075
835.65	5029
835.788	4984
835.926	4923
836.064	4892
836.202	4889
836.34	5147
836.478	5208
836.615	5147
836.753	5185
836.891	5299
837.029	5284
837.167	5185
837.305	5151
837.443	5151
837.58	5128
837.718	5303
837.856	5170
837.993	5166
838.131	5204
838.269	5201
838.406	5189
838.544	5174
838.681	5010
838.819	4968
838.956	4896
839.094	4900
839.231	4987
839.369	5075
839.506	5452
839.643	5280
839.781	5033
839.918	4995
840.055	5079
840.193	5052
840.33	5124
840.467	5143
840.604	5140
840.742	5417
840.879	5083
841.016	5060
841.153	5147
841.29	5330
841.427	5307
841.564	5307
841.701	5349
841.838	5273
841.975	5261
842.112	5337
842.249	5109
842.385	5105
842.522	5303
842.659	5162
842.796	5178
842.933	5189
843.069	5197
843.206	5140
843.343	5311
843.479	5208
843.616	5322
843.752	5018
843.889	5094
844.025	5212
844.162	4987
844.298	5170
844.435	5128
844.571	5075
844.708	5227
844.844	5307
844.98	5330
845.117	5330
845.253	5105
845.389	5079
845.525	5132
845.661	5170
845.798	5037
845.934	5086
846.07	5029
846.206	5212
846.342	5296
846.478	5155
846.614	5033
846.75	4938
846.886	4980
847.022	5128
847.158	5010
847.294	5014
847.429	5090
847.565	5048
847.701	5303
847.837	4889
847.972	4793
848.108	4938
848.244	4980
848.379	4793
848.515	4717
848.65	4736
848.786	4691
848.921	4744
849.057	4843
849.192	4870
849.328	4812
849.463	4870
849.598	4812
849.734	4748
849.869	4717
850.004	4634
850.14	4637
850.275	4649
850.41	4508
850.545	4550
850.68	4592
850.815	4588
850.95	4542
851.085	4786
851.22	4736
851.355	4634
851.49	4607
851.625	4607
851.76	4637
851.895	4596
852.03	4516
852.165	4683
852.299	4736
852.434	4771
852.569	4729
852.703	4782
852.838	4820
852.973	4892
853.107	4911
853.242	4774
853.376	4649
853.511	4550
853.645	4615
853.78	4778
853.914	4679
854.048	4637
854.183	4618
854.317	4714
854.451	4831
854.585	4645
854.72	4637
854.854	4767
854.988	4694
855.122	4637
855.256	4508
855.39	4618
855.524	4752
855.658	4691
855.792	4702
855.926	4694
856.06	4725
856.194	4786
856.327	4679
856.461	4626
856.595	4668
856.729	4626
856.862	4729
856.996	4653
857.13	4721
857.263	4748
857.397	4793
857.53	4698
857.664	4721
857.797	4755
857.931	4801
858.064	4714
858.197	4698
858.331	4637
858.464	4584
858.597	4531
858.731	4611
858.864	4653
858.997	4599
859.13	4637
859.263	4702
859.396	4649
859.529	4626
859.662	4497
859.795	4527
859.928	4626
860.061	4797
860.194	4752
860.327	4622
860.46	4531
860.592	4679
860.725	4717
860.858	4721
860.99	4577
861.123	4493
861.256	4535
861.388	4615
861.521	5322
861.653	4489
861.786	4447
861.918	4459
862.05	4527
862.183	4523
862.315	4538
862.447	4637
862.58	4592
862.712	4375
862.844	4306
862.976	4428
863.108	4474
863.24	4790
863.372	4325
863.504	4398
863.636	4386
863.768	4523
863.9	4398
864.032	4360
864.164	4436
864.296	4485
864.428	4535
864.559	4546
864.691	4569
864.823	4508
864.954	4523
865.086	4470
865.217	4428
865.349	4398
865.48	4432
865.612	4512
865.743	4626
865.875	4455
866.006	4398
866.137	4440
866.269	4436
866.4	4386
866.531	4417
866.662	4375
866.793	4360
866.924	4436
867.055	4508
867.186	4447
867.317	4417
867.448	4363
867.579	4344
867.71	4390
867.841	4379
867.972	4485
868.103	4481
868.233	4421
868.364	4428
868.495	4485
868.625	4649
868.756	4755
868.886	4603
869.017	4634
869.147	4812
869.278	4801
869.408	4672
869.539	4634
869.669	4660
869.799	4691
869.929	4816
870.06	4748
870.19	4896
870.32	4892
870.45	4934
870.58	4980
870.71	5086
870.84	5132
870.97	4927
871.1	4949
871.23	5170
871.36	5132
871.489	4999
871.619	5045
871.749	5075
871.879	5113
872.008	5170
872.138	5090
872.267	5010
872.397	4858
872.526	4847
872.656	4675
872.785	4771
872.915	4927
873.044	5006
873.173	4968
873.303	4991
873.432	4949
873.561	5018
873.69	4873
873.819	4839
873.948	4866
874.077	4824
874.206	4748
874.335	4774
874.464	4927
874.593	5029
874.722	4961
874.851	5098
874.979	5010
875.108	4987
875.237	4889
875.365	4870
875.494	4835
875.623	4957
875.751	4866
875.88	4889
876.008	4999
876.136	5022
876.265	5208
876.393	5288
876.521	5265
876.65	5223
876.778	5204
876.906	5052
877.034	5010
877.162	5010
877.29	4999
877.418	5086
877.546	5052
877.674	5060
877.802	5025
877.93	5022
878.058	4930
878.185	4843
878.313	4961
878.441	4968
878.568	4812
878.696	4927
878.824	4999
878.951	4995
879.079	5113
879.206	5284
879.333	5132
879.461	4991
879.588	5006
879.715	5109
879.842	5216
879.97	5014
880.097	4793
880.224	4691
880.351	4801
880.478	4793
880.605	4805
880.732	4812
880.859	5060
880.986	4877
881.112	4896
881.239	4816
881.366	4641
881.493	4561
881.619	4626
881.746	4645
881.872	4679
881.999	4649
882.125	4733
882.252	4812
882.378	4805
882.505	4987
882.631	4809
882.757	4672
882.883	4694
883.01	4748
883.136	4637
883.262	4603
883.388	4588
883.514	4828
883.64	4877
883.766	4755
883.892	4668
884.018	4717
884.143	4858
884.269	4968
884.395	4691
884.52	4672
884.646	4679
884.772	4599
884.897	4577
885.023	4698
885.148	4793
885.274	4843
885.399	4816
885.524	4725
885.65	4694
885.775	4714
885.9	4714
886.025	4843
886.15	4763
886.275	4721
886.4	4626
886.525	4691
886.65	4683
886.775	4694
886.9	4923
887.025	5022
887.149	4805
887.274	4630
887.399	4615
887.523	4641
887.648	4531
887.773	4550
887.897	4763
888.021	4797
888.146	4729
888.27	4774
888.395	4889
888.519	4771
888.643	4824
888.767	4790
888.891	4664
889.015	4546
889.139	4675
889.263	4580
889.387	4740
889.511	4870
889.635	4774
889.759	4679
889.883	4592
890.006	4721
890.13	4812
890.254	4599
890.377	4645
890.501	4493
890.624	4531
890.748	4615
890.871	4519
890.995	4421
891.118	4405
891.241	4538
891.364	4550
891.488	4679
891.611	4459
891.734	4508
891.857	4656
891.98	4542
892.103	4672
892.226	4535
892.349	4554
892.471	4451
892.594	4565
892.717	4603
892.839	4622
892.962	4538
893.085	4660
893.207	4607
893.33	4432
893.452	4493
893.575	4683
893.697	4554
893.819	4767
893.941	4816
894.064	4759
894.186	4603
894.308	4558
894.43	4717
894.552	4862
894.674	4801
894.796	4622
894.918	4603
895.04	4596
895.161	4660
895.283	4630
895.405	4565
895.526	4634
895.648	4664
895.769	4687
895.891	4679
896.012	4759
896.134	4714
896.255	4626
896.376	4596
896.498	4649
896.619	4641
896.74	4588
896.861	4691
896.982	4908
897.103	5098
897.224	4877
897.345	4725
897.466	4641
897.587	4755
897.708	4835
897.828	4812
897.949	4630
898.07	4554
898.19	4694
898.311	4801
898.431	4698
898.552	4744
898.672	4828
898.792	4801
898.913	4805
899.033	4645
899.153	4550
899.273	4383
899.393	4466
899.513	4516
899.633	4470
899.753	4554
899.873	4493
899.993	4542
900.113	4519
900.232	4577
900.352	4558
900.472	4470
900.591	4394
900.711	4481
900.83	4447
900.95	4584
901.069	4710
901.189	4519
901.308	4360
901.427	4356
901.546	4390
901.665	4500
901.784	4554
901.904	4367
902.023	4268
902.141	4177
902.26	4143
902.379	4287
902.498	4261
902.617	4227
902.735	4375
902.854	4432
902.973	4352
903.091	4196
903.21	4215
903.328	4284
903.446	4246
903.565	4219
903.683	4329
903.801	4265
903.919	4409
904.038	4428
904.156	4306
904.274	4409
904.392	4379
904.51	4421
904.627	4481
904.745	4645
904.863	4637
904.981	4421
905.098	4303
905.216	4363
905.334	4386
905.451	4383
905.569	4436
905.686	4584
905.803	4577
905.921	4421
906.038	4538
906.155	4459
906.272	4386
906.389	4474
906.506	4390
906.623	4379
906.74	4379
906.857	4303
906.974	4379
907.091	4561
907.208	4645
907.324	4599
907.441	4561
907.557	4333
907.674	4360
907.79	4348
907.907	4367
908.023	4497
908.139	4436
908.256	4424
908.372	4512
908.488	4493
908.604	4394
908.72	4272
908.836	4383
908.952	4360
909.068	4432
909.184	4573
909.3	4432
909.415	4569
909.531	4599
909.647	4405
909.762	4363
909.878	4322
909.993	4421
910.108	4417
910.224	4428
910.339	4474
910.454	4390
910.57	4341
910.685	4303
910.8	4683
910.915	4634
911.03	4504
911.145	4325
911.259	4314
911.374	4360
911.489	4322
911.604	4265
911.718	4196
911.833	4143
911.947	4063
912.062	4029
912.176	4204
912.291	4253
912.405	4295
912.519	4523
912.633	4519
912.748	4386
912.862	4303
912.976	4211
913.09	4032
913.204	4147
913.318	4265
913.431	4402
913.545	4383
913.659	4413
913.772	4375
913.886	4253
914	4215
914.113	4367
914.226	4451
914.34	4394
914.453	4249
914.566	4428
914.68	4333
914.793	4325
914.906	4192
915.019	4097
915.132	4093
915.245	4173
915.358	4169
915.47	4242
915.583	4230
915.696	4284
915.809	4413
915.921	4409
916.034	4265
916.146	4287
916.259	4261
916.371	4390
916.483	4341
916.595	4284
916.708	4333
916.82	4306
916.932	4291
917.044	4249
917.156	4322
917.268	4219
917.38	4268
917.491	4272
917.603	4318
917.715	4447
917.826	4466
917.938	4375
918.049	4223
918.161	4394
918.272	4535
918.384	4546
918.495	4413
918.606	4371
918.717	4219
918.828	4360
918.939	4375
919.05	4246
919.161	4348
919.272	4166
919.383	4230
919.494	4500
919.604	4618
919.715	4398
919.826	4371
919.936	4398
920.047	4558
920.157	4512
920.267	4706
920.378	4519
920.488	4519
920.598	4656
920.708	4908
920.818	4782
920.928	4744
921.038	4991
921.148	4904
921.258	4656
921.368	4535
921.477	4504
921.587	4436
921.697	4360
921.806	4588
921.916	4443
922.025	4265
922.134	4272
922.244	4196
922.353	4348
922.462	4185
922.571	4169
922.68	4032
922.789	3945
922.898	4059
923.007	3972
923.116	4105
923.224	4116
923.333	4048
923.442	4021
923.55	3975
923.659	4051
923.767	4101
923.876	4006
923.984	4131
924.092	3987
924.201	4082
924.309	4082
924.417	4086
924.525	4048
924.633	4093
924.741	5056
924.849	3888
924.956	4169
925.064	3945
925.172	3918
925.279	3987
925.387	4059
925.494	4105
925.602	4234
925.709	4158
925.816	4040
925.924	4131
926.031	4234
926.138	4166
926.245	4196
926.352	4112
926.459	4268
926.566	4322
926.673	4116
926.779	4097
926.886	4090
926.993	3972
927.099	3964
927.206	3960
927.312	3968
927.419	4063
927.525	4021
927.631	4093
927.737	3991
927.843	3945
927.95	3835
928.056	3983
928.162	3975
928.267	4029
928.373	4565
928.479	4105
928.585	3861
928.69	4059
928.796	4067
928.901	3972
929.007	3816
929.112	4013
929.218	3975
929.323	3896
929.428	3953
929.533	4128
929.638	3918
929.743	3956
929.848	4013
929.953	4040
930.058	3975
930.163	3797
930.267	3827
930.372	3972
930.477	3808
930.581	4093
930.685	3994
930.79	3835
930.894	3896
930.998	3831
931.103	4048
931.207	3732
931.311	3732
931.415	3682
931.519	3511
931.623	3545
