Data from test_V78500241_154.txt Node
Date: Fri Mar 25 16:50:04 CST 2022
User: usil
Spectrometer: V785-0024
Trigger mode: 0
Integration Time (sec): 4.000000E-1
Scans to average: 1
Nonlinearity correction enabled: false
Boxcar width: 0
Storing dark spectrum: false
XAxis mode: Wavelengths
Number of Pixels in Spectrum: 1024
>>>>>Begin Spectral Data<<<<<
801.071	8020
801.214	7982
801.356	7917
801.499	7841
801.641	7803
801.783	7841
801.926	7932
802.068	7970
802.211	8054
802.353	7955
802.496	7875
802.638	7936
802.78	7921
802.923	7913
803.065	7875
803.208	7906
803.35	7967
803.492	8062
803.635	8142
803.777	8008
803.919	8062
804.061	8347
804.204	8115
804.346	8046
804.488	7940
804.63	8058
804.773	8054
804.915	8123
805.057	8237
805.199	8054
805.341	8183
805.483	8248
805.626	8149
805.768	8092
805.91	8145
806.052	8191
806.194	8111
806.336	8313
806.478	8046
806.62	8084
806.762	8145
806.904	8225
807.046	8480
807.188	8332
807.33	8332
807.472	8332
807.614	8191
807.756	8123
807.898	7974
808.04	7936
808.182	7906
808.324	7898
808.465	7921
808.607	8035
808.749	8115
808.891	8229
809.033	8305
809.174	8187
809.316	8107
809.458	8035
809.6	8069
809.741	7997
809.883	8092
810.025	8100
810.166	8077
810.308	8077
810.45	8012
810.591	7890
810.733	7803
810.875	7670
811.016	7529
811.158	7552
811.299	7620
811.441	7807
811.582	7738
811.724	7685
811.865	7601
812.007	7571
812.148	7670
812.29	7666
812.431	7765
812.573	7963
812.714	8058
812.855	8210
812.997	8332
813.138	8389
813.279	8286
813.421	8138
813.562	7997
813.703	7875
813.845	7772
813.986	7457
814.127	7350
814.268	7251
814.41	7236
814.551	7221
814.692	7244
814.833	7133
814.974	7152
815.115	7122
815.256	7004
815.397	6977
815.539	7000
815.68	6837
815.821	6776
815.962	6875
816.103	6840
816.244	6719
816.385	6646
816.526	6623
816.666	6559
816.807	6304
816.948	6475
817.089	6525
817.23	6509
817.371	6456
817.512	6422
817.653	6357
817.793	6380
817.934	6467
818.075	6475
818.216	6452
818.356	6353
818.497	6235
818.638	6159
818.778	6148
818.919	6133
819.06	6178
819.2	6350
819.341	6353
819.481	6361
819.622	6532
819.762	6837
819.903	6696
820.043	6692
820.184	6604
820.324	6627
820.465	6753
820.605	6673
820.746	6757
820.886	6555
821.026	6692
821.167	6722
821.307	6825
821.447	6791
821.588	6703
821.728	6604
821.868	6532
822.008	6327
822.149	6410
822.289	6407
822.429	6224
822.569	6129
822.709	6136
822.849	5958
822.99	5912
823.13	5927
823.27	5927
823.41	5809
823.55	5783
823.69	5802
823.83	5794
823.97	5722
824.11	5592
824.25	5558
824.389	5573
824.529	5589
824.669	5535
824.809	5665
824.949	5703
825.089	5611
825.228	5524
825.368	5395
825.508	5379
825.648	5410
825.787	5391
825.927	5406
826.067	5357
826.206	5284
826.346	5376
826.485	5433
826.625	5444
826.765	5551
826.904	5455
827.044	5288
827.183	5223
827.323	5086
827.462	5269
827.601	5178
827.741	5223
827.88	5242
828.02	5105
828.159	5216
828.298	5307
828.437	5337
828.577	5334
828.716	5554
828.855	5277
828.994	5181
829.134	5185
829.273	5208
829.412	5162
829.551	5204
829.69	5181
829.829	5280
829.968	5383
830.107	5318
830.246	5284
830.385	5113
830.524	5155
830.663	5033
830.802	5006
830.941	4870
831.08	4835
831.219	5048
831.357	4957
831.496	5147
831.635	4953
831.774	4908
831.913	4839
832.051	4729
832.19	4759
832.329	4877
832.467	4691
832.606	4615
832.744	4755
832.883	4706
833.022	4721
833.16	4824
833.299	4824
833.437	4809
833.576	4847
833.714	4854
833.852	4858
833.991	4885
834.129	4934
834.267	4946
834.406	4938
834.544	5037
834.682	4938
834.821	5033
834.959	5185
835.097	4999
835.235	5174
835.373	5071
835.511	5052
835.65	4991
835.788	4999
835.926	4923
836.064	4919
836.202	4908
836.34	5162
836.478	5296
836.615	5132
836.753	5246
836.891	5315
837.029	5303
837.167	5178
837.305	5181
837.443	5159
837.58	5067
837.718	5216
837.856	5181
837.993	5162
838.131	5261
838.269	5227
838.406	5246
838.544	5181
838.681	5060
838.819	5052
838.956	4896
839.094	4927
839.231	5037
839.369	5132
839.506	5433
839.643	5303
839.781	5064
839.918	5056
840.055	5128
840.193	5166
840.33	5124
840.467	5212
840.604	5170
840.742	5482
840.879	5105
841.016	5143
841.153	5113
841.29	5368
841.427	5364
841.564	5322
841.701	5402
841.838	5288
841.975	5277
842.112	5296
842.249	5140
842.385	5132
842.522	5345
842.659	5166
842.796	5162
842.933	5227
843.069	5143
843.206	5181
843.343	5322
843.479	5246
843.616	5299
843.752	5064
843.889	5060
844.025	5246
844.162	5006
844.298	5178
844.435	5117
844.571	5075
844.708	5239
844.844	5299
844.98	5379
845.117	5337
845.253	5181
845.389	5105
845.525	5216
845.661	5143
845.798	5033
845.934	5071
846.07	5083
846.206	5181
846.342	5212
846.478	5166
846.614	5025
846.75	4972
846.886	4934
847.022	5189
847.158	5064
847.294	5083
847.429	5113
847.565	5071
847.701	5353
847.837	4870
847.972	4824
848.108	4965
848.244	4968
848.379	4790
848.515	4755
848.65	4748
848.786	4740
848.921	4801
849.057	4858
849.192	4915
849.328	4854
849.463	4877
849.598	4843
849.734	4824
849.869	4687
850.004	4607
850.14	4656
850.275	4660
850.41	4519
850.545	4558
850.68	4630
850.815	4626
850.95	4634
851.085	4786
851.22	4782
851.355	4683
851.49	4637
851.625	4645
851.76	4653
851.895	4577
852.03	4565
852.165	4687
852.299	4710
852.434	4793
852.569	4733
852.703	4786
852.838	4839
852.973	4942
853.107	5003
853.242	4755
853.376	4702
853.511	4573
853.645	4645
853.78	4831
853.914	4694
854.048	4721
854.183	4611
854.317	4725
854.451	4870
854.585	4687
854.72	4607
854.854	4729
854.988	4599
855.122	4637
855.256	4527
855.39	4641
855.524	4812
855.658	4725
855.792	4679
855.926	4710
856.06	4786
856.194	4790
856.327	4717
856.461	4618
856.595	4660
856.729	4653
856.862	4763
856.996	4748
857.13	4782
857.263	4729
857.397	4805
857.53	4691
857.664	4733
857.797	4717
857.931	4809
858.064	4752
858.197	4778
858.331	4698
858.464	4603
858.597	4535
858.731	4611
858.864	4649
858.997	4588
859.13	4653
859.263	4714
859.396	4752
859.529	4603
859.662	4554
859.795	4527
859.928	4637
860.061	4752
860.194	4755
860.327	4630
860.46	4542
860.592	4729
860.725	4771
860.858	4714
860.99	4550
861.123	4561
861.256	4512
861.388	4660
861.521	5398
861.653	4550
861.786	4440
861.918	4428
862.05	4523
862.183	4577
862.315	4611
862.447	4660
862.58	4519
862.712	4478
862.844	4390
862.976	4481
863.108	4436
863.24	4900
863.372	4356
863.504	4409
863.636	4421
863.768	4493
863.9	4462
864.032	4348
864.164	4352
864.296	4497
864.428	4554
864.559	4554
864.691	4527
864.823	4493
864.954	4493
865.086	4516
865.217	4535
865.349	4428
865.48	4462
865.612	4493
865.743	4626
865.875	4478
866.006	4432
866.137	4485
866.269	4459
866.4	4485
866.531	4447
866.662	4402
866.793	4424
866.924	4424
867.055	4565
867.186	4516
867.317	4428
867.448	4440
867.579	4390
867.71	4440
867.841	4379
867.972	4489
868.103	4485
868.233	4436
868.364	4493
868.495	4470
868.625	4687
868.756	4797
868.886	4588
869.017	4645
869.147	4797
869.278	4801
869.408	4668
869.539	4649
869.669	4740
869.799	4637
869.929	4778
870.06	4740
870.19	4930
870.32	4889
870.45	4942
870.58	5071
870.71	5132
870.84	5140
870.97	4953
871.1	4904
871.23	5113
871.36	5060
871.489	5060
871.619	5064
871.749	5090
871.879	5128
872.008	5193
872.138	5090
872.267	5006
872.397	4885
872.526	4812
872.656	4812
872.785	4828
872.915	5006
873.044	5056
873.173	4976
873.303	4980
873.432	4946
873.561	4953
873.69	4934
873.819	4843
873.948	4934
874.077	4850
874.206	4771
874.335	4774
874.464	4946
874.593	5060
874.722	4995
874.851	5121
874.979	5109
875.108	5018
875.237	4934
875.365	4919
875.494	4949
875.623	5022
875.751	4790
875.88	4892
876.008	5006
876.136	5029
876.265	5185
876.393	5372
876.521	5280
876.65	5181
876.778	5201
876.906	5083
877.034	5079
877.162	5079
877.29	5041
877.418	5045
877.546	5083
877.674	5098
877.802	5010
877.93	5029
878.058	4957
878.185	4911
878.313	4934
878.441	4942
878.568	4816
878.696	4854
878.824	4938
878.951	4980
879.079	5166
879.206	5315
879.333	5124
879.461	4972
879.588	5037
879.715	5155
879.842	5208
879.97	5010
880.097	4778
880.224	4736
880.351	4824
880.478	4843
880.605	4801
880.732	4816
880.859	5109
880.986	4927
881.112	4957
881.239	4850
881.366	4706
881.493	4599
881.619	4554
881.746	4675
881.872	4672
881.999	4664
882.125	4702
882.252	4767
882.378	4805
882.505	4949
882.631	4812
882.757	4687
882.883	4710
883.01	4691
883.136	4656
883.262	4599
883.388	4637
883.514	4873
883.64	4904
883.766	4778
883.892	4679
884.018	4710
884.143	4900
884.269	5029
884.395	4672
884.52	4691
884.646	4611
884.772	4599
884.897	4561
885.023	4645
885.148	4774
885.274	4892
885.399	4881
885.524	4702
885.65	4740
885.775	4793
885.9	4691
886.025	4820
886.15	4820
886.275	4744
886.4	4675
886.525	4725
886.65	4706
886.775	4740
886.9	4892
887.025	5071
887.149	4839
887.274	4675
887.399	4603
887.523	4649
887.648	4611
887.773	4596
887.897	4809
888.021	4786
888.146	4687
888.27	4778
888.395	4915
888.519	4824
888.643	4885
888.767	4873
888.891	4694
889.015	4626
889.139	4668
889.263	4641
889.387	4759
889.511	4911
889.635	4835
889.759	4664
889.883	4649
890.006	4759
890.13	4835
890.254	4649
890.377	4664
890.501	4561
890.624	4546
890.748	4626
890.871	4508
890.995	4436
891.118	4394
891.241	4538
891.364	4512
891.488	4649
891.611	4497
891.734	4584
891.857	4660
891.98	4565
892.103	4660
892.226	4596
892.349	4542
892.471	4440
892.594	4554
892.717	4596
892.839	4580
892.962	4603
893.085	4656
893.207	4611
893.33	4459
893.452	4538
893.575	4675
893.697	4630
893.819	4809
893.941	4805
894.064	4801
894.186	4573
894.308	4599
894.43	4725
894.552	4858
894.674	4763
894.796	4580
894.918	4580
895.04	4622
895.161	4683
895.283	4675
895.405	4611
895.526	4645
895.648	4698
895.769	4706
895.891	4736
896.012	4793
896.134	4668
896.255	4698
896.376	4649
896.498	4622
896.619	4679
896.74	4580
896.861	4641
896.982	4904
897.103	5094
897.224	4870
897.345	4793
897.466	4687
897.587	4725
897.708	4850
897.828	4786
897.949	4679
898.07	4592
898.19	4611
898.311	4839
898.431	4710
898.552	4767
898.672	4809
898.792	4831
898.913	4763
899.033	4580
899.153	4523
899.273	4413
899.393	4500
899.513	4558
899.633	4519
899.753	4573
899.873	4493
899.993	4592
900.113	4569
900.232	4611
900.352	4554
900.472	4519
900.591	4417
900.711	4485
900.83	4421
900.95	4569
901.069	4748
901.189	4584
901.308	4394
901.427	4341
901.546	4428
901.665	4481
901.784	4504
901.904	4443
902.023	4352
902.141	4185
902.26	4188
902.379	4310
902.498	4291
902.617	4223
902.735	4440
902.854	4432
902.973	4360
903.091	4223
903.21	4242
903.328	4280
903.446	4265
903.565	4249
903.683	4413
903.801	4325
903.919	4417
904.038	4447
904.156	4352
904.274	4424
904.392	4398
904.51	4474
904.627	4478
904.745	4580
904.863	4630
904.981	4436
905.098	4299
905.216	4383
905.334	4428
905.451	4428
905.569	4470
905.686	4588
905.803	4558
905.921	4459
906.038	4523
906.155	4489
906.272	4443
906.389	4474
906.506	4421
906.623	4371
906.74	4390
906.857	4348
906.974	4363
907.091	4527
907.208	4702
907.324	4599
907.441	4542
907.557	4394
907.674	4394
907.79	4348
907.907	4398
908.023	4478
908.139	4443
908.256	4424
908.372	4500
908.488	4470
908.604	4390
908.72	4276
908.836	4409
908.952	4341
909.068	4485
909.184	4565
909.3	4500
909.415	4618
909.531	4542
909.647	4402
909.762	4405
909.878	4337
909.993	4459
910.108	4455
910.224	4394
910.339	4459
910.454	4443
910.57	4333
910.685	4306
910.8	4691
910.915	4626
911.03	4508
911.145	4337
911.259	4348
911.374	4402
911.489	4325
911.604	4276
911.718	4147
911.833	4204
911.947	4063
912.062	4071
912.176	4177
912.291	4227
912.405	4215
912.519	4466
912.633	4523
912.748	4398
912.862	4299
912.976	4154
913.09	4120
913.204	4192
913.318	4291
913.431	4417
913.545	4379
913.659	4451
913.772	4371
913.886	4303
914	4253
914.113	4409
914.226	4485
914.34	4348
914.453	4265
914.566	4398
914.68	4352
914.793	4337
914.906	4257
915.019	4185
915.132	4116
915.245	4173
915.358	4215
915.47	4295
915.583	4325
915.696	4318
915.809	4428
915.921	4436
916.034	4272
916.146	4272
916.259	4219
916.371	4383
916.483	4390
916.595	4284
916.708	4371
916.82	4371
916.932	4360
917.044	4310
917.156	4352
917.268	4276
917.38	4276
917.491	4318
917.603	4398
917.715	4455
917.826	4447
917.938	4322
918.049	4261
918.161	4432
918.272	4599
918.384	4535
918.495	4459
918.606	4333
918.717	4230
918.828	4333
918.939	4386
919.05	4242
919.161	4295
919.272	4105
919.383	4242
919.494	4493
919.604	4645
919.715	4470
919.826	4390
919.936	4402
920.047	4554
920.157	4504
920.267	4763
920.378	4546
920.488	4470
920.598	4691
920.708	4858
920.818	4778
920.928	4824
921.038	5014
921.148	4953
921.258	4656
921.368	4596
921.477	4531
921.587	4504
921.697	4405
921.806	4538
921.916	4466
922.025	4268
922.134	4234
922.244	4230
922.353	4341
922.462	4177
922.571	4166
922.68	4025
922.789	3945
922.898	4040
923.007	3987
923.116	4131
923.224	4078
923.333	4078
923.442	3972
923.55	3987
923.659	4059
923.767	4120
923.876	4048
923.984	4101
924.092	3968
924.201	4067
924.309	4109
924.417	4112
924.525	4071
924.633	4154
924.741	4904
924.849	3934
924.956	4139
925.064	3968
925.172	3911
925.279	3972
925.387	4097
925.494	4059
925.602	4238
925.709	4192
925.816	4025
925.924	4154
926.031	4272
926.138	4185
926.245	4242
926.352	4112
926.459	4272
926.566	4310
926.673	4196
926.779	4124
926.886	4067
926.993	3987
927.099	4029
927.206	3968
927.312	3945
927.419	4078
927.525	4025
927.631	4101
927.737	3994
927.843	3949
927.95	3838
928.056	3964
928.162	4051
928.267	4112
928.373	4694
928.479	4131
928.585	3876
928.69	4025
928.796	4074
928.901	4025
929.007	3831
929.112	3998
929.218	3983
929.323	3972
929.428	3972
929.533	4105
929.638	3892
929.743	3953
929.848	4036
929.953	4029
930.058	3915
930.163	3747
930.267	3876
930.372	4006
930.477	3831
930.581	4086
930.685	3987
930.79	3873
930.894	3876
930.998	3850
931.103	4074
931.207	3740
931.311	3709
931.415	3667
931.519	3534
931.623	3557
