Data from test_V78500241_1639.txt Node
Date: Fri Mar 25 17:00:23 CST 2022
User: usil
Spectrometer: V785-0024
Trigger mode: 0
Integration Time (sec): 4.000000E-1
Scans to average: 1
Nonlinearity correction enabled: false
Boxcar width: 0
Storing dark spectrum: false
XAxis mode: Wavelengths
Number of Pixels in Spectrum: 1024
>>>>>Begin Spectral Data<<<<<
801.071	7951
801.214	7944
801.356	7849
801.499	7864
801.641	7830
801.783	7788
801.926	7898
802.068	7955
802.211	7955
802.353	7993
802.496	7830
802.638	7921
802.78	7868
802.923	7879
803.065	7890
803.208	7887
803.35	7940
803.492	8043
803.635	8111
803.777	7970
803.919	8069
804.061	8423
804.204	8115
804.346	8031
804.488	7917
804.63	8035
804.773	8005
804.915	8164
805.057	8294
805.199	8142
805.341	8161
805.483	8271
805.626	8183
805.768	8180
805.91	8218
806.052	8248
806.194	8168
806.336	8282
806.478	8084
806.62	8077
806.762	8161
806.904	8240
807.046	8511
807.188	8396
807.33	8336
807.472	8362
807.614	8172
807.756	8126
807.898	7978
808.04	7932
808.182	7883
808.324	7982
808.465	7959
808.607	8100
808.749	8164
808.891	8275
809.033	8237
809.174	8180
809.316	8062
809.458	8134
809.6	8024
809.741	8050
809.883	8077
810.025	8081
810.166	8046
810.308	8020
810.45	8054
810.591	7925
810.733	7772
810.875	7681
811.016	7613
811.158	7548
811.299	7594
811.441	7780
811.582	7750
811.724	7620
811.865	7620
812.007	7632
812.148	7620
812.29	7643
812.431	7772
812.573	7970
812.714	8081
812.855	8187
812.997	8229
813.138	8355
813.279	8240
813.421	8043
813.562	8020
813.703	7856
813.845	7792
813.986	7483
814.127	7320
814.268	7217
814.41	7240
814.551	7164
814.692	7236
814.833	7160
814.974	7099
815.115	7206
815.256	7000
815.397	6935
815.539	6924
815.68	6863
815.821	6867
815.962	6901
816.103	6787
816.244	6745
816.385	6665
816.526	6593
816.666	6494
816.807	6323
816.948	6464
817.089	6509
817.23	6437
817.371	6372
817.512	6403
817.653	6399
817.793	6448
817.934	6353
818.075	6445
818.216	6441
818.356	6456
818.497	6319
818.638	6117
818.778	6144
818.919	6182
819.06	6224
819.2	6338
819.341	6338
819.481	6414
819.622	6574
819.762	6749
819.903	6707
820.043	6570
820.184	6627
820.324	6574
820.465	6734
820.605	6783
820.746	6722
820.886	6566
821.026	6654
821.167	6715
821.307	6730
821.447	6829
821.588	6711
821.728	6612
821.868	6502
822.008	6308
822.149	6353
822.289	6304
822.429	6152
822.569	6068
822.709	6148
822.849	5893
822.99	5950
823.13	5942
823.27	5927
823.41	5851
823.55	5798
823.69	5767
823.83	5794
823.97	5710
824.11	5528
824.25	5501
824.389	5592
824.529	5585
824.669	5573
824.809	5657
824.949	5657
825.089	5604
825.228	5573
825.368	5368
825.508	5368
825.648	5387
825.787	5410
825.927	5372
826.067	5318
826.206	5341
826.346	5383
826.485	5398
826.625	5421
826.765	5543
826.904	5501
827.044	5204
827.183	5201
827.323	5185
827.462	5284
827.601	5193
827.741	5162
827.88	5254
828.02	5166
828.159	5303
828.298	5288
828.437	5398
828.577	5303
828.716	5535
828.855	5353
828.994	5242
829.134	5174
829.273	5223
829.412	5136
829.551	5143
829.69	5216
829.829	5223
829.968	5444
830.107	5303
830.246	5280
830.385	5250
830.524	5136
830.663	5117
830.802	4972
830.941	4904
831.08	4911
831.219	4991
831.357	4968
831.496	5201
831.635	4953
831.774	4831
831.913	4866
832.051	4748
832.19	4809
832.329	4862
832.467	4752
832.606	4649
832.744	4771
832.883	4740
833.022	4725
833.16	4744
833.299	4812
833.437	4847
833.576	4870
833.714	4942
833.852	4850
833.991	4885
834.129	4946
834.267	4984
834.406	4930
834.544	4980
834.682	4968
834.821	5048
834.959	5201
835.097	4995
835.235	5204
835.373	5155
835.511	5105
835.65	5060
835.788	5052
835.926	4900
836.064	4923
836.202	4942
836.34	5162
836.478	5220
836.615	5178
836.753	5189
836.891	5170
837.029	5288
837.167	5204
837.305	5178
837.443	5128
837.58	5045
837.718	5277
837.856	5178
837.993	5197
838.131	5242
838.269	5208
838.406	5204
838.544	5147
838.681	5060
838.819	5029
838.956	4930
839.094	4923
839.231	4991
839.369	5048
839.506	5482
839.643	5284
839.781	5086
839.918	4991
840.055	5098
840.193	5075
840.33	5098
840.467	5174
840.604	5197
840.742	5486
840.879	5102
841.016	5121
841.153	5151
841.29	5360
841.427	5326
841.564	5345
841.701	5421
841.838	5284
841.975	5235
842.112	5273
842.249	5143
842.385	5060
842.522	5330
842.659	5159
842.796	5174
842.933	5254
843.069	5170
843.206	5151
843.343	5360
843.479	5227
843.616	5277
843.752	4999
843.889	5041
844.025	5258
844.162	5033
844.298	5178
844.435	5094
844.571	5029
844.708	5223
844.844	5280
844.98	5337
845.117	5318
845.253	5189
845.389	5098
845.525	5185
845.661	5162
845.798	5083
845.934	5159
846.07	5018
846.206	5170
846.342	5239
846.478	5197
846.614	5048
846.75	5010
846.886	4915
847.022	5178
847.158	5022
847.294	5071
847.429	5151
847.565	5086
847.701	5410
847.837	4885
847.972	4820
848.108	4904
848.244	4938
848.379	4786
848.515	4748
848.65	4759
848.786	4763
848.921	4801
849.057	4919
849.192	4889
849.328	4820
849.463	4862
849.598	4839
849.734	4759
849.869	4717
850.004	4622
850.14	4664
850.275	4607
850.41	4523
850.545	4573
850.68	4668
850.815	4656
850.95	4694
851.085	4870
851.22	4759
851.355	4660
851.49	4634
851.625	4660
851.76	4691
851.895	4554
852.03	4554
852.165	4664
852.299	4744
852.434	4767
852.569	4778
852.703	4778
852.838	4866
852.973	4934
853.107	4904
853.242	4752
853.376	4683
853.511	4538
853.645	4626
853.78	4801
853.914	4702
854.048	4683
854.183	4660
854.317	4744
854.451	4870
854.585	4714
854.72	4645
854.854	4744
854.988	4580
855.122	4645
855.256	4542
855.39	4725
855.524	4790
855.658	4733
855.792	4683
855.926	4767
856.06	4763
856.194	4771
856.327	4748
856.461	4653
856.595	4672
856.729	4634
856.862	4812
856.996	4637
857.13	4729
857.263	4714
857.397	4809
857.53	4672
857.664	4721
857.797	4740
857.931	4786
858.064	4774
858.197	4744
858.331	4660
858.464	4592
858.597	4516
858.731	4630
858.864	4664
858.997	4596
859.13	4618
859.263	4626
859.396	4717
859.529	4573
859.662	4580
859.795	4569
859.928	4672
860.061	4755
860.194	4759
860.327	4649
860.46	4611
860.592	4717
860.725	4755
860.858	4763
860.99	4603
861.123	4546
861.256	4577
861.388	4637
861.521	5250
861.653	4497
861.786	4497
861.918	4478
862.05	4538
862.183	4546
862.315	4599
862.447	4706
862.58	4519
862.712	4421
862.844	4344
862.976	4489
863.108	4508
863.24	4744
863.372	4363
863.504	4474
863.636	4413
863.768	4462
863.9	4470
864.032	4379
864.164	4447
864.296	4451
864.428	4577
864.559	4558
864.691	4584
864.823	4508
864.954	4493
865.086	4504
865.217	4474
865.349	4451
865.48	4447
865.612	4402
865.743	4611
865.875	4455
866.006	4386
866.137	4466
866.269	4474
866.4	4440
866.531	4443
866.662	4428
866.793	4409
866.924	4367
867.055	4478
867.186	4523
867.317	4428
867.448	4405
867.579	4443
867.71	4421
867.841	4421
867.972	4500
868.103	4466
868.233	4489
868.364	4485
868.495	4516
868.625	4637
868.756	4744
868.886	4592
869.017	4637
869.147	4755
869.278	4748
869.408	4641
869.539	4637
869.669	4717
869.799	4634
869.929	4774
870.06	4786
870.19	4930
870.32	4908
870.45	4957
870.58	5025
870.71	5147
870.84	5086
870.97	4968
871.1	4908
871.23	5162
871.36	5090
871.489	5006
871.619	5052
871.749	5102
871.879	5113
872.008	5162
872.138	5056
872.267	5003
872.397	4839
872.526	4801
872.656	4702
872.785	4782
872.915	5003
873.044	5056
873.173	4953
873.303	4965
873.432	4942
873.561	4942
873.69	4919
873.819	4862
873.948	4938
874.077	4831
874.206	4755
874.335	4774
874.464	4953
874.593	5056
874.722	4961
874.851	5109
874.979	5045
875.108	5037
875.237	4934
875.365	4900
875.494	4881
875.623	4984
875.751	4831
875.88	4877
876.008	4999
876.136	5045
876.265	5155
876.393	5330
876.521	5292
876.65	5201
876.778	5166
876.906	5117
877.034	4987
877.162	5010
877.29	5014
877.418	4961
877.546	5067
877.674	4984
877.802	4995
877.93	5056
878.058	4957
878.185	4881
878.313	4991
878.441	4927
878.568	4809
878.696	4911
878.824	4972
878.951	5014
879.079	5151
879.206	5307
879.333	5132
879.461	5003
879.588	4999
879.715	5170
879.842	5212
879.97	5056
880.097	4782
880.224	4774
880.351	4835
880.478	4786
880.605	4847
880.732	4786
880.859	5079
880.986	4915
881.112	4976
881.239	4816
881.366	4687
881.493	4637
881.619	4611
881.746	4675
881.872	4660
881.999	4668
882.125	4710
882.252	4805
882.378	4873
882.505	4976
882.631	4839
882.757	4717
882.883	4793
883.01	4771
883.136	4698
883.262	4668
883.388	4656
883.514	4839
883.64	4915
883.766	4843
883.892	4725
884.018	4763
884.143	4911
884.269	5033
884.395	4694
884.52	4668
884.646	4630
884.772	4603
884.897	4599
885.023	4698
885.148	4790
885.274	4930
885.399	4870
885.524	4733
885.65	4774
885.775	4778
885.9	4725
886.025	4870
886.15	4850
886.275	4755
886.4	4698
886.525	4759
886.65	4778
886.775	4740
886.9	4961
887.025	5124
887.149	4828
887.274	4702
887.399	4660
887.523	4637
887.648	4622
887.773	4626
887.897	4809
888.021	4858
888.146	4721
888.27	4850
888.395	4946
888.519	4850
888.643	4839
888.767	4854
888.891	4725
889.015	4653
889.139	4675
889.263	4645
889.387	4778
889.511	4923
889.635	4809
889.759	4702
889.883	4702
890.006	4763
890.13	4904
890.254	4634
890.377	4721
890.501	4611
890.624	4577
890.748	4698
890.871	4546
890.995	4447
891.118	4390
891.241	4550
891.364	4615
891.488	4672
891.611	4558
891.734	4611
891.857	4630
891.98	4573
892.103	4710
892.226	4630
892.349	4561
892.471	4421
892.594	4592
892.717	4607
892.839	4569
892.962	4668
893.085	4683
893.207	4626
893.33	4462
893.452	4554
893.575	4736
893.697	4645
893.819	4812
893.941	4881
894.064	4816
894.186	4611
894.308	4569
894.43	4786
894.552	4873
894.674	4759
894.796	4592
894.918	4622
895.04	4611
895.161	4771
895.283	4653
895.405	4653
895.526	4618
895.648	4752
895.769	4729
895.891	4744
896.012	4778
896.134	4752
896.255	4725
896.376	4675
896.498	4607
896.619	4744
896.74	4607
896.861	4683
896.982	4927
897.103	5151
897.224	4866
897.345	4774
897.466	4634
897.587	4759
897.708	4870
897.828	4797
897.949	4736
898.07	4558
898.19	4649
898.311	4896
898.431	4694
898.552	4752
898.672	4877
898.792	4870
898.913	4774
899.033	4706
899.153	4523
899.273	4459
899.393	4569
899.513	4546
899.633	4561
899.753	4603
899.873	4527
899.993	4622
900.113	4603
900.232	4668
900.352	4546
900.472	4535
900.591	4440
900.711	4519
900.83	4455
900.95	4664
901.069	4721
901.189	4599
901.308	4379
901.427	4356
901.546	4421
901.665	4493
901.784	4561
901.904	4398
902.023	4367
902.141	4238
902.26	4154
902.379	4303
902.498	4246
902.617	4257
902.735	4379
902.854	4398
902.973	4394
903.091	4234
903.21	4261
903.328	4310
903.446	4314
903.565	4272
903.683	4402
903.801	4291
903.919	4409
904.038	4497
904.156	4329
904.274	4398
904.392	4451
904.51	4424
904.627	4508
904.745	4592
904.863	4637
904.981	4447
905.098	4360
905.216	4375
905.334	4436
905.451	4459
905.569	4474
905.686	4554
905.803	4584
905.921	4421
906.038	4615
906.155	4466
906.272	4466
906.389	4481
906.506	4367
906.623	4383
906.74	4436
906.857	4341
906.974	4375
907.091	4558
907.208	4672
907.324	4592
907.441	4512
907.557	4390
907.674	4394
907.79	4344
907.907	4394
908.023	4550
908.139	4447
908.256	4459
908.372	4531
908.488	4466
908.604	4417
908.72	4390
908.836	4398
908.952	4394
909.068	4451
909.184	4599
909.3	4489
909.415	4588
909.531	4584
909.647	4405
909.762	4443
909.878	4352
909.993	4493
910.108	4455
910.224	4504
910.339	4424
910.454	4363
910.57	4375
910.685	4352
910.8	4672
910.915	4649
911.03	4485
911.145	4367
911.259	4341
911.374	4390
911.489	4318
911.604	4295
911.718	4207
911.833	4242
911.947	4105
912.062	4074
912.176	4211
912.291	4230
912.405	4314
912.519	4493
912.633	4523
912.748	4398
912.862	4348
912.976	4238
913.09	4169
913.204	4219
913.318	4280
913.431	4371
913.545	4360
913.659	4436
913.772	4352
913.886	4310
914	4200
914.113	4390
914.226	4481
914.34	4421
914.453	4230
914.566	4409
914.68	4352
914.793	4333
914.906	4196
915.019	4124
915.132	4082
915.245	4173
915.358	4192
915.47	4223
915.583	4272
915.696	4291
915.809	4402
915.921	4413
916.034	4280
916.146	4284
916.259	4230
916.371	4383
916.483	4405
916.595	4238
916.708	4379
916.82	4314
916.932	4333
917.044	4306
917.156	4325
917.268	4253
917.38	4303
917.491	4333
917.603	4348
917.715	4405
917.826	4462
917.938	4352
918.049	4265
918.161	4462
918.272	4580
918.384	4535
918.495	4443
918.606	4310
918.717	4227
918.828	4348
918.939	4383
919.05	4272
919.161	4367
919.272	4173
919.383	4219
919.494	4424
919.604	4660
919.715	4375
919.826	4341
919.936	4440
920.047	4531
920.157	4500
920.267	4717
920.378	4596
920.488	4516
920.598	4721
920.708	4866
920.818	4801
920.928	4748
921.038	4972
921.148	4900
921.258	4615
921.368	4599
921.477	4497
921.587	4500
921.697	4409
921.806	4596
921.916	4455
922.025	4325
922.134	4261
922.244	4215
922.353	4337
922.462	4200
922.571	4120
922.68	4044
922.789	3979
922.898	4059
923.007	3994
923.116	4086
923.224	4071
923.333	4082
923.442	4013
923.55	4002
923.659	4063
923.767	4147
923.876	4013
923.984	4105
924.092	4013
924.201	4063
924.309	4112
924.417	4181
924.525	4071
924.633	4086
924.741	4889
924.849	3964
924.956	4139
925.064	3960
925.172	3926
925.279	3972
925.387	4090
925.494	4082
925.602	4230
925.709	4234
925.816	4063
925.924	4173
926.031	4211
926.138	4223
926.245	4207
926.352	4105
926.459	4268
926.566	4390
926.673	4185
926.779	4093
926.886	4090
926.993	3998
927.099	3972
927.206	3911
927.312	3998
927.419	4082
927.525	4044
927.631	4150
927.737	3968
927.843	3956
927.95	3865
928.056	3991
928.162	4013
928.267	4097
928.373	4596
928.479	4147
928.585	3880
928.69	4017
928.796	4082
928.901	4010
929.007	3876
929.112	4010
929.218	4010
929.323	3930
929.428	3953
929.533	4097
929.638	3960
929.743	3960
929.848	4078
929.953	3994
930.058	3926
930.163	3759
930.267	3850
930.372	4036
930.477	3816
930.581	4074
930.685	3983
930.79	3835
930.894	3907
930.998	3880
931.103	4055
931.207	3732
931.311	3740
931.415	3694
931.519	3515
931.623	3576
