Data from test_V78500241_1181.txt Node
Date: Fri Mar 25 16:57:12 CST 2022
User: usil
Spectrometer: V785-0024
Trigger mode: 0
Integration Time (sec): 4.000000E-1
Scans to average: 1
Nonlinearity correction enabled: false
Boxcar width: 0
Storing dark spectrum: false
XAxis mode: Wavelengths
Number of Pixels in Spectrum: 1024
>>>>>Begin Spectral Data<<<<<
801.071	8046
801.214	8050
801.356	7902
801.499	7860
801.641	7727
801.783	7856
801.926	7993
802.068	7887
802.211	7978
802.353	7928
802.496	7807
802.638	7883
802.78	7913
802.923	7940
803.065	7898
803.208	7788
803.35	7993
803.492	8058
803.635	8183
803.777	8046
803.919	8172
804.061	8465
804.204	8115
804.346	8073
804.488	7967
804.63	8069
804.773	7986
804.915	8111
805.057	8229
805.199	8161
805.341	8233
805.483	8214
805.626	8195
805.768	8069
805.91	8153
806.052	8259
806.194	8138
806.336	8271
806.478	8157
806.62	8039
806.762	8145
806.904	8267
807.046	8450
807.188	8404
807.33	8218
807.472	8286
807.614	8073
807.756	8081
807.898	7925
808.04	7864
808.182	7887
808.324	7864
808.465	7951
808.607	8050
808.749	8096
808.891	8138
809.033	8313
809.174	8161
809.316	8077
809.458	8008
809.6	8005
809.741	8054
809.883	8016
810.025	8115
810.166	8043
810.308	7993
810.45	8100
810.591	7913
810.733	7753
810.875	7662
811.016	7590
811.158	7453
811.299	7548
811.441	7738
811.582	7655
811.724	7556
811.865	7544
812.007	7575
812.148	7548
812.29	7643
812.431	7708
812.573	7811
812.714	8027
812.855	8130
812.997	8183
813.138	8351
813.279	8199
813.421	8020
813.562	8027
813.703	7898
813.845	7746
813.986	7384
814.127	7194
814.268	7225
814.41	7164
814.551	7152
814.692	7179
814.833	7019
814.974	7091
815.115	7107
815.256	6962
815.397	6909
815.539	6943
815.68	6859
815.821	6730
815.962	6818
816.103	6798
816.244	6703
816.385	6642
816.526	6570
816.666	6441
816.807	6292
816.948	6384
817.089	6479
817.23	6467
817.371	6342
817.512	6384
817.653	6399
817.793	6384
817.934	6422
818.075	6433
818.216	6395
818.356	6456
818.497	6190
818.638	6155
818.778	6129
818.919	6098
819.06	6175
819.2	6289
819.341	6285
819.481	6380
819.622	6563
819.762	6703
819.903	6707
820.043	6616
820.184	6551
820.324	6582
820.465	6658
820.605	6631
820.746	6650
820.886	6437
821.026	6669
821.167	6654
821.307	6741
821.447	6768
821.588	6696
821.728	6570
821.868	6509
822.008	6197
822.149	6365
822.289	6338
822.429	6110
822.569	6049
822.709	6087
822.849	5942
822.99	5878
823.13	5897
823.27	5828
823.41	5783
823.55	5779
823.69	5764
823.83	5756
823.97	5611
824.11	5562
824.25	5497
824.389	5562
824.529	5524
824.669	5547
824.809	5627
824.949	5646
825.089	5615
825.228	5592
825.368	5444
825.508	5337
825.648	5322
825.787	5334
825.927	5440
826.067	5307
826.206	5273
826.346	5372
826.485	5360
826.625	5414
826.765	5547
826.904	5467
827.044	5193
827.183	5189
827.323	5117
827.462	5235
827.601	5151
827.741	5189
827.88	5269
828.02	5124
828.159	5220
828.298	5303
828.437	5372
828.577	5223
828.716	5471
828.855	5242
828.994	5174
829.134	5090
829.273	5197
829.412	5162
829.551	5136
829.69	5143
829.829	5204
829.968	5379
830.107	5235
830.246	5269
830.385	5189
830.524	5102
830.663	5041
830.802	4999
830.941	4896
831.08	4805
831.219	4934
831.357	4942
831.496	5128
831.635	4885
831.774	4824
831.913	4866
832.051	4698
832.19	4759
832.329	4812
832.467	4672
832.606	4603
832.744	4702
832.883	4691
833.022	4679
833.16	4736
833.299	4805
833.437	4839
833.576	4820
833.714	4816
833.852	4824
833.991	4896
834.129	4961
834.267	4927
834.406	4900
834.544	4968
834.682	4919
834.821	4938
834.959	5181
835.097	4999
835.235	5136
835.373	5010
835.511	5079
835.65	5018
835.788	5022
835.926	4923
836.064	4881
836.202	4896
836.34	5079
836.478	5151
836.615	5067
836.753	5242
836.891	5223
837.029	5273
837.167	5155
837.305	5185
837.443	5113
837.58	5075
837.718	5212
837.856	5155
837.993	5113
838.131	5212
838.269	5170
838.406	5155
838.544	5147
838.681	4991
838.819	4919
838.956	4843
839.094	4889
839.231	5003
839.369	5071
839.506	5425
839.643	5258
839.781	5022
839.918	5033
840.055	5098
840.193	5071
840.33	5094
840.467	5147
840.604	5174
840.742	5391
840.879	5075
841.016	5079
841.153	5136
841.29	5417
841.427	5307
841.564	5307
841.701	5341
841.838	5299
841.975	5212
842.112	5242
842.249	5155
842.385	5121
842.522	5349
842.659	5159
842.796	5056
842.933	5208
843.069	5147
843.206	5155
843.343	5318
843.479	5242
843.616	5242
843.752	5003
843.889	5064
844.025	5155
844.162	5003
844.298	5246
844.435	5052
844.571	5045
844.708	5147
844.844	5250
844.98	5326
845.117	5284
845.253	5071
845.389	5086
845.525	5136
845.661	5155
845.798	4972
845.934	5098
846.07	5067
846.206	5162
846.342	5227
846.478	5140
846.614	4987
846.75	4987
846.886	4938
847.022	5113
847.158	5037
847.294	5060
847.429	5075
847.565	5083
847.701	5337
847.837	4873
847.972	4824
848.108	4900
848.244	4927
848.379	4759
848.515	4744
848.65	4752
848.786	4759
848.921	4793
849.057	4847
849.192	4919
849.328	4717
849.463	4850
849.598	4725
849.734	4702
849.869	4626
850.004	4615
850.14	4634
850.275	4615
850.41	4508
850.545	4580
850.68	4607
850.815	4649
850.95	4596
851.085	4858
851.22	4759
851.355	4687
851.49	4599
851.625	4660
851.76	4637
851.895	4478
852.03	4527
852.165	4660
852.299	4679
852.434	4793
852.569	4759
852.703	4778
852.838	4774
852.973	4949
853.107	4873
853.242	4694
853.376	4668
853.511	4493
853.645	4637
853.78	4797
853.914	4694
854.048	4702
854.183	4607
854.317	4687
854.451	4805
854.585	4622
854.72	4641
854.854	4717
854.988	4607
855.122	4607
855.256	4565
855.39	4641
855.524	4744
855.658	4675
855.792	4675
855.926	4683
856.06	4721
856.194	4790
856.327	4645
856.461	4599
856.595	4683
856.729	4626
856.862	4721
856.996	4714
857.13	4740
857.263	4767
857.397	4782
857.53	4664
857.664	4706
857.797	4752
857.931	4683
858.064	4733
858.197	4801
858.331	4637
858.464	4580
858.597	4478
858.731	4626
858.864	4611
858.997	4577
859.13	4630
859.263	4649
859.396	4706
859.529	4584
859.662	4565
859.795	4554
859.928	4641
860.061	4744
860.194	4736
860.327	4561
860.46	4535
860.592	4672
860.725	4706
860.858	4706
860.99	4580
861.123	4504
861.256	4443
861.388	4596
861.521	5204
861.653	4443
861.786	4447
861.918	4436
862.05	4508
862.183	4546
862.315	4577
862.447	4641
862.58	4584
862.712	4405
862.844	4352
862.976	4405
863.108	4386
863.24	4854
863.372	4341
863.504	4409
863.636	4432
863.768	4474
863.9	4432
864.032	4356
864.164	4375
864.296	4428
864.428	4497
864.559	4561
864.691	4485
864.823	4485
864.954	4481
865.086	4504
865.217	4474
865.349	4409
865.48	4440
865.612	4512
865.743	4626
865.875	4466
866.006	4367
866.137	4474
866.269	4421
866.4	4432
866.531	4417
866.662	4375
866.793	4390
866.924	4398
867.055	4481
867.186	4440
867.317	4409
867.448	4325
867.579	4363
867.71	4371
867.841	4341
867.972	4478
868.103	4409
868.233	4409
868.364	4478
868.495	4531
868.625	4637
868.756	4733
868.886	4538
869.017	4668
869.147	4771
869.278	4778
869.408	4656
869.539	4603
869.669	4668
869.799	4622
869.929	4729
870.06	4721
870.19	4942
870.32	4866
870.45	4923
870.58	5041
870.71	5102
870.84	5102
870.97	4934
871.1	4870
871.23	5136
871.36	5083
871.489	4991
871.619	5060
871.749	5121
871.879	5113
872.008	5166
872.138	5045
872.267	4938
872.397	4816
872.526	4782
872.656	4706
872.785	4797
872.915	4930
873.044	4972
873.173	4915
873.303	4908
873.432	4934
873.561	5014
873.69	4858
873.819	4774
873.948	4915
874.077	4771
874.206	4740
874.335	4771
874.464	4923
874.593	4999
874.722	4919
874.851	5113
874.979	5056
875.108	5025
875.237	4930
875.365	4873
875.494	4877
875.623	4949
875.751	4793
875.88	4850
876.008	4942
876.136	4999
876.265	5147
876.393	5318
876.521	5239
876.65	5261
876.778	5193
876.906	5052
877.034	5003
877.162	5022
877.29	4999
877.418	5071
877.546	5090
877.674	5018
877.802	5041
877.93	5006
878.058	4885
878.185	4839
878.313	4957
878.441	4877
878.568	4778
878.696	4835
878.824	4892
878.951	4999
879.079	5121
879.206	5220
879.333	5075
879.461	4976
879.588	4953
879.715	5117
879.842	5193
879.97	5033
880.097	4797
880.224	4771
880.351	4824
880.478	4850
880.605	4797
880.732	4748
880.859	5086
880.986	4938
881.112	4877
881.239	4774
881.366	4622
881.493	4554
881.619	4580
881.746	4615
881.872	4626
881.999	4607
882.125	4706
882.252	4752
882.378	4805
882.505	4946
882.631	4801
882.757	4626
882.883	4721
883.01	4687
883.136	4626
883.262	4630
883.388	4596
883.514	4835
883.64	4831
883.766	4824
883.892	4653
884.018	4702
884.143	4847
884.269	4980
884.395	4634
884.52	4603
884.646	4622
884.772	4565
884.897	4577
885.023	4687
885.148	4774
885.274	4816
885.399	4828
885.524	4672
885.65	4687
885.775	4744
885.9	4656
886.025	4877
886.15	4729
886.275	4660
886.4	4641
886.525	4752
886.65	4664
886.775	4653
886.9	4911
887.025	5037
887.149	4771
887.274	4653
887.399	4596
887.523	4577
887.648	4561
887.773	4550
887.897	4759
888.021	4763
888.146	4683
888.27	4782
888.395	4870
888.519	4816
888.643	4790
888.767	4828
888.891	4664
889.015	4584
889.139	4656
889.263	4660
889.387	4786
889.511	4820
889.635	4786
889.759	4645
889.883	4664
890.006	4717
890.13	4854
890.254	4588
890.377	4694
890.501	4500
890.624	4481
890.748	4645
890.871	4527
890.995	4459
891.118	4348
891.241	4516
891.364	4558
891.488	4649
891.611	4504
891.734	4538
891.857	4611
891.98	4554
892.103	4634
892.226	4584
892.349	4550
892.471	4360
892.594	4558
892.717	4626
892.839	4584
892.962	4535
893.085	4668
893.207	4565
893.33	4447
893.452	4500
893.575	4691
893.697	4569
893.819	4767
893.941	4828
894.064	4736
894.186	4523
894.308	4550
894.43	4729
894.552	4839
894.674	4759
894.796	4527
894.918	4603
895.04	4538
895.161	4714
895.283	4649
895.405	4573
895.526	4596
895.648	4675
895.769	4687
895.891	4664
896.012	4729
896.134	4710
896.255	4698
896.376	4588
896.498	4660
896.619	4634
896.74	4653
896.861	4588
896.982	4953
897.103	5041
897.224	4797
897.345	4733
897.466	4672
897.587	4759
897.708	4877
897.828	4717
897.949	4634
898.07	4599
898.19	4637
898.311	4850
898.431	4691
898.552	4729
898.672	4824
898.792	4816
898.913	4733
899.033	4607
899.153	4493
899.273	4390
899.393	4455
899.513	4542
899.633	4531
899.753	4516
899.873	4500
899.993	4550
900.113	4527
900.232	4554
900.352	4497
900.472	4470
900.591	4341
900.711	4493
900.83	4474
900.95	4588
901.069	4698
901.189	4561
901.308	4360
901.427	4261
901.546	4363
901.665	4447
901.784	4542
901.904	4344
902.023	4280
902.141	4169
902.26	4128
902.379	4276
902.498	4280
902.617	4204
902.735	4371
902.854	4371
902.973	4375
903.091	4204
903.21	4204
903.328	4280
903.446	4325
903.565	4249
903.683	4318
903.801	4253
903.919	4398
904.038	4375
904.156	4249
904.274	4379
904.392	4413
904.51	4409
904.627	4474
904.745	4565
904.863	4596
904.981	4390
905.098	4356
905.216	4386
905.334	4405
905.451	4432
905.569	4424
905.686	4573
905.803	4558
905.921	4436
906.038	4546
906.155	4493
906.272	4409
906.389	4424
906.506	4367
906.623	4367
906.74	4390
906.857	4344
906.974	4344
907.091	4596
907.208	4675
907.324	4588
907.441	4497
907.557	4344
907.674	4303
907.79	4310
907.907	4363
908.023	4500
908.139	4493
908.256	4413
908.372	4451
908.488	4470
908.604	4306
908.72	4306
908.836	4390
908.952	4356
909.068	4413
909.184	4573
909.3	4443
909.415	4531
909.531	4531
909.647	4337
909.762	4363
909.878	4318
909.993	4417
910.108	4348
910.224	4390
910.339	4500
910.454	4371
910.57	4333
910.685	4383
910.8	4660
910.915	4573
911.03	4508
911.145	4329
911.259	4299
911.374	4356
911.489	4268
911.604	4261
911.718	4169
911.833	4204
911.947	4063
912.062	4029
912.176	4185
912.291	4188
912.405	4223
912.519	4447
912.633	4489
912.748	4394
912.862	4287
912.976	4230
913.09	4105
913.204	4200
913.318	4268
913.431	4329
913.545	4356
913.659	4440
913.772	4344
913.886	4211
914	4227
914.113	4360
914.226	4455
914.34	4375
914.453	4230
914.566	4451
914.68	4295
914.793	4306
914.906	4181
915.019	4116
915.132	4055
915.245	4143
915.358	4200
915.47	4238
915.583	4303
915.696	4284
915.809	4398
915.921	4402
916.034	4276
916.146	4268
916.259	4211
916.371	4360
916.483	4303
916.595	4272
916.708	4306
916.82	4348
916.932	4306
917.044	4341
917.156	4303
917.268	4268
917.38	4325
917.491	4295
917.603	4291
917.715	4390
917.826	4398
917.938	4306
918.049	4246
918.161	4383
918.272	4550
918.384	4485
918.495	4386
918.606	4325
918.717	4223
918.828	4322
918.939	4356
919.05	4310
919.161	4306
919.272	4143
919.383	4230
919.494	4424
919.604	4664
919.715	4417
919.826	4337
919.936	4299
920.047	4523
920.157	4519
920.267	4694
920.378	4493
920.488	4523
920.598	4740
920.708	4900
920.818	4778
920.928	4755
921.038	4946
921.148	4908
921.258	4626
921.368	4573
921.477	4489
921.587	4394
921.697	4379
921.806	4580
921.916	4405
922.025	4272
922.134	4265
922.244	4246
922.353	4322
922.462	4158
922.571	4124
922.68	4017
922.789	3975
922.898	4067
923.007	3956
923.116	4048
923.224	4051
923.333	4067
923.442	4002
923.55	3987
923.659	4029
923.767	4166
923.876	3972
923.984	4078
924.092	3991
924.201	4063
924.309	4109
924.417	4128
924.525	4055
924.633	4101
924.741	5052
924.849	3922
924.956	4131
925.064	3956
925.172	3918
925.279	3972
925.387	4055
925.494	4090
925.602	4230
925.709	4196
925.816	4006
925.924	4135
926.031	4200
926.138	4234
926.245	4185
926.352	4097
926.459	4207
926.566	4325
926.673	4105
926.779	4059
926.886	4055
926.993	4002
927.099	3941
927.206	3930
927.312	3918
927.419	3987
927.525	4006
927.631	4074
927.737	3949
927.843	3907
927.95	3869
928.056	3983
928.162	3968
928.267	4040
928.373	4672
928.479	4071
928.585	3869
928.69	3983
928.796	4055
928.901	3949
929.007	3838
929.112	4040
929.218	3956
929.323	3903
929.428	3960
929.533	4131
929.638	3918
929.743	3968
929.848	4002
929.953	3972
930.058	3903
930.163	3797
930.267	3812
930.372	3979
930.477	3770
930.581	4067
930.685	3915
930.79	3835
930.894	3884
930.998	3812
931.103	4032
931.207	3644
931.311	3717
931.415	3652
931.519	3511
931.623	3572
