Data from test_V78500241_643.txt Node
Date: Fri Mar 25 16:53:28 CST 2022
User: usil
Spectrometer: V785-0024
Trigger mode: 0
Integration Time (sec): 4.000000E-1
Scans to average: 1
Nonlinearity correction enabled: false
Boxcar width: 0
Storing dark spectrum: false
XAxis mode: Wavelengths
Number of Pixels in Spectrum: 1024
>>>>>Begin Spectral Data<<<<<
801.071	8008
801.214	8043
801.356	7871
801.499	7909
801.641	7799
801.783	7932
801.926	8096
802.068	8027
802.211	8012
802.353	8046
802.496	7921
802.638	7951
802.78	7932
802.923	7947
803.065	7837
803.208	7856
803.35	8027
803.492	8123
803.635	8275
803.777	8005
803.919	8119
804.061	8484
804.204	8172
804.346	8065
804.488	8001
804.63	8107
804.773	8119
804.915	8130
805.057	8347
805.199	8187
805.341	8233
805.483	8332
805.626	8229
805.768	8168
805.91	8256
806.052	8153
806.194	8088
806.336	8263
806.478	8073
806.62	8081
806.762	8202
806.904	8244
807.046	8503
807.188	8393
807.33	8298
807.472	8339
807.614	8221
807.756	8172
807.898	8008
808.04	7887
808.182	7906
808.324	7887
808.465	7974
808.607	8077
808.749	8130
808.891	8210
809.033	8332
809.174	8180
809.316	8084
809.458	8069
809.6	8027
809.741	8016
809.883	8054
810.025	8069
810.166	8096
810.308	8035
810.45	8039
810.591	7955
810.733	7799
810.875	7765
811.016	7559
811.158	7514
811.299	7639
811.441	7772
811.582	7727
811.724	7594
811.865	7563
812.007	7708
812.148	7651
812.29	7628
812.431	7696
812.573	7909
812.714	7986
812.855	8103
812.997	8229
813.138	8385
813.279	8313
813.421	8157
813.562	7982
813.703	7925
813.845	7822
813.986	7487
814.127	7343
814.268	7293
814.41	7244
814.551	7206
814.692	7183
814.833	7099
814.974	7061
815.115	7076
815.256	7015
815.397	6951
815.539	7042
815.68	6840
815.821	6787
815.962	6810
816.103	6840
816.244	6753
816.385	6639
816.526	6658
816.666	6471
816.807	6331
816.948	6422
817.089	6456
817.23	6494
817.371	6414
817.512	6414
817.653	6365
817.793	6429
817.934	6494
818.075	6502
818.216	6399
818.356	6418
818.497	6300
818.638	6136
818.778	6152
818.919	6186
819.06	6144
819.2	6315
819.341	6308
819.481	6350
819.622	6498
819.762	6722
819.903	6669
820.043	6547
820.184	6574
820.324	6585
820.465	6719
820.605	6635
820.746	6597
820.886	6521
821.026	6711
821.167	6749
821.307	6829
821.447	6833
821.588	6700
821.728	6525
821.868	6403
822.008	6365
822.149	6369
822.289	6372
822.429	6213
822.569	6076
822.709	6136
822.849	5920
822.99	5897
823.13	5965
823.27	5916
823.41	5836
823.55	5786
823.69	5760
823.83	5836
823.97	5688
824.11	5554
824.25	5505
824.389	5577
824.529	5581
824.669	5539
824.809	5619
824.949	5638
825.089	5676
825.228	5562
825.368	5425
825.508	5341
825.648	5372
825.787	5337
825.927	5391
826.067	5322
826.206	5258
826.346	5368
826.485	5429
826.625	5398
826.765	5619
826.904	5482
827.044	5277
827.183	5250
827.323	5159
827.462	5235
827.601	5193
827.741	5223
827.88	5231
828.02	5136
828.159	5231
828.298	5322
828.437	5360
828.577	5337
828.716	5501
828.855	5337
828.994	5204
829.134	5162
829.273	5220
829.412	5147
829.551	5212
829.69	5185
829.829	5311
829.968	5406
830.107	5299
830.246	5242
830.385	5166
830.524	5178
830.663	5090
830.802	5018
830.941	4942
831.08	4881
831.219	5029
831.357	4957
831.496	5166
831.635	4972
831.774	4900
831.913	4854
832.051	4786
832.19	4752
832.329	4843
832.467	4721
832.606	4653
832.744	4725
832.883	4717
833.022	4767
833.16	4782
833.299	4797
833.437	4824
833.576	4843
833.714	4873
833.852	4831
833.991	4904
834.129	4968
834.267	4961
834.406	4930
834.544	4980
834.682	5037
834.821	5029
834.959	5208
835.097	5041
835.235	5170
835.373	5151
835.511	5151
835.65	5052
835.788	5041
835.926	4904
836.064	4847
836.202	4934
836.34	5174
836.478	5212
836.615	5166
836.753	5231
836.891	5326
837.029	5250
837.167	5208
837.305	5178
837.443	5170
837.58	5121
837.718	5235
837.856	5201
837.993	5159
838.131	5239
838.269	5239
838.406	5239
838.544	5220
838.681	5029
838.819	5010
838.956	4923
839.094	4949
839.231	5010
839.369	5094
839.506	5414
839.643	5273
839.781	5064
839.918	5006
840.055	5056
840.193	5109
840.33	5159
840.467	5159
840.604	5166
840.742	5440
840.879	5064
841.016	5094
841.153	5185
841.29	5379
841.427	5322
841.564	5303
841.701	5341
841.838	5296
841.975	5292
842.112	5284
842.249	5170
842.385	5086
842.522	5322
842.659	5201
842.796	5162
842.933	5204
843.069	5193
843.206	5159
843.343	5311
843.479	5235
843.616	5250
843.752	5075
843.889	5048
844.025	5216
844.162	5071
844.298	5246
844.435	5105
844.571	5086
844.708	5212
844.844	5322
844.98	5368
845.117	5269
845.253	5121
845.389	5025
845.525	5159
845.661	5159
845.798	5067
845.934	5143
846.07	5048
846.206	5231
846.342	5318
846.478	5174
846.614	4995
846.75	4987
846.886	4965
847.022	5094
847.158	5067
847.294	5083
847.429	5083
847.565	5086
847.701	5303
847.837	4877
847.972	4828
848.108	4953
848.244	4938
848.379	4786
848.515	4740
848.65	4759
848.786	4748
848.921	4778
849.057	4850
849.192	4904
849.328	4797
849.463	4889
849.598	4790
849.734	4744
849.869	4672
850.004	4634
850.14	4675
850.275	4603
850.41	4538
850.545	4596
850.68	4626
850.815	4649
850.95	4592
851.085	4892
851.22	4771
851.355	4698
851.49	4637
851.625	4645
851.76	4634
851.895	4577
852.03	4550
852.165	4641
852.299	4744
852.434	4755
852.569	4759
852.703	4805
852.838	4870
852.973	4919
853.107	4942
853.242	4759
853.376	4672
853.511	4565
853.645	4679
853.78	4759
853.914	4653
854.048	4630
854.183	4649
854.317	4725
854.451	4892
854.585	4710
854.72	4637
854.854	4710
854.988	4603
855.122	4641
855.256	4542
855.39	4637
855.524	4824
855.658	4687
855.792	4702
855.926	4725
856.06	4759
856.194	4812
856.327	4683
856.461	4611
856.595	4626
856.729	4580
856.862	4771
856.996	4729
857.13	4759
857.263	4755
857.397	4839
857.53	4622
857.664	4774
857.797	4767
857.931	4793
858.064	4645
858.197	4752
858.331	4668
858.464	4645
858.597	4493
858.731	4641
858.864	4645
858.997	4603
859.13	4672
859.263	4660
859.396	4714
859.529	4592
859.662	4565
859.795	4569
859.928	4622
860.061	4782
860.194	4774
860.327	4607
860.46	4596
860.592	4729
860.725	4733
860.858	4675
860.99	4630
861.123	4519
861.256	4550
861.388	4607
861.521	5353
861.653	4451
861.786	4500
861.918	4428
862.05	4561
862.183	4538
862.315	4607
862.447	4641
862.58	4546
862.712	4371
862.844	4363
862.976	4478
863.108	4440
863.24	4850
863.372	4310
863.504	4413
863.636	4413
863.768	4504
863.9	4459
864.032	4383
864.164	4390
864.296	4474
864.428	4584
864.559	4580
864.691	4535
864.823	4523
864.954	4512
865.086	4512
865.217	4443
865.349	4455
865.48	4451
865.612	4489
865.743	4645
865.875	4527
866.006	4474
866.137	4516
866.269	4424
866.4	4421
866.531	4383
866.662	4344
866.793	4424
866.924	4428
867.055	4516
867.186	4451
867.317	4424
867.448	4363
867.579	4394
867.71	4417
867.841	4383
867.972	4470
868.103	4455
868.233	4455
868.364	4504
868.495	4481
868.625	4683
868.756	4759
868.886	4599
869.017	4634
869.147	4790
869.278	4733
869.408	4698
869.539	4672
869.669	4744
869.799	4679
869.929	4767
870.06	4717
870.19	4968
870.32	4972
870.45	4965
870.58	5010
870.71	5109
870.84	5029
870.97	4949
871.1	4930
871.23	5121
871.36	5056
871.489	5010
871.619	5121
871.749	5071
871.879	5136
872.008	5193
872.138	5041
872.267	4984
872.397	4862
872.526	4839
872.656	4691
872.785	4831
872.915	4919
873.044	4984
873.173	4942
873.303	4995
873.432	4980
873.561	4942
873.69	4854
873.819	4870
873.948	4949
874.077	4866
874.206	4816
874.335	4790
874.464	4938
874.593	5075
874.722	4946
874.851	5102
874.979	5109
875.108	5048
875.237	4957
875.365	4908
875.494	4949
875.623	4987
875.751	4824
875.88	4881
876.008	4942
876.136	5029
876.265	5216
876.393	5337
876.521	5242
876.65	5223
876.778	5162
876.906	5033
877.034	4991
877.162	5048
877.29	4987
877.418	5079
877.546	5014
877.674	5014
877.802	5010
877.93	5014
878.058	4911
878.185	4927
878.313	4946
878.441	4934
878.568	4786
878.696	4900
878.824	4995
878.951	4987
879.079	5094
879.206	5296
879.333	5143
879.461	4949
879.588	5033
879.715	5140
879.842	5223
879.97	5041
880.097	4812
880.224	4748
880.351	4793
880.478	4816
880.605	4816
880.732	4786
880.859	5052
880.986	4896
881.112	4911
881.239	4771
881.366	4656
881.493	4653
881.619	4599
881.746	4634
881.872	4603
881.999	4630
882.125	4660
882.252	4759
882.378	4801
882.505	4968
882.631	4812
882.757	4672
882.883	4687
883.01	4725
883.136	4675
883.262	4588
883.388	4641
883.514	4790
883.64	4911
883.766	4801
883.892	4694
884.018	4717
884.143	4885
884.269	5045
884.395	4660
884.52	4641
884.646	4645
884.772	4611
884.897	4603
885.023	4649
885.148	4793
885.274	4843
885.399	4816
885.524	4736
885.65	4733
885.775	4725
885.9	4706
886.025	4847
886.15	4801
886.275	4698
886.4	4653
886.525	4774
886.65	4675
886.775	4736
886.9	4915
887.025	4957
887.149	4812
887.274	4710
887.399	4569
887.523	4618
887.648	4584
887.773	4603
887.897	4805
888.021	4801
888.146	4698
888.27	4809
888.395	4843
888.519	4782
888.643	4858
888.767	4866
888.891	4668
889.015	4660
889.139	4656
889.263	4596
889.387	4759
889.511	4843
889.635	4752
889.759	4630
889.883	4675
890.006	4748
890.13	4858
890.254	4630
890.377	4702
890.501	4508
890.624	4538
890.748	4641
890.871	4500
890.995	4462
891.118	4390
891.241	4558
891.364	4618
891.488	4641
891.611	4538
891.734	4523
891.857	4645
891.98	4546
892.103	4656
892.226	4565
892.349	4519
892.471	4428
892.594	4565
892.717	4630
892.839	4546
892.962	4622
893.085	4637
893.207	4607
893.33	4466
893.452	4531
893.575	4767
893.697	4599
893.819	4797
893.941	4812
894.064	4767
894.186	4565
894.308	4592
894.43	4702
894.552	4828
894.674	4771
894.796	4546
894.918	4607
895.04	4573
895.161	4660
895.283	4698
895.405	4565
895.526	4630
895.648	4740
895.769	4679
895.891	4733
896.012	4755
896.134	4778
896.255	4649
896.376	4626
896.498	4558
896.619	4710
896.74	4615
896.861	4721
896.982	4927
897.103	5117
897.224	4858
897.345	4774
897.466	4710
897.587	4774
897.708	4904
897.828	4767
897.949	4641
898.07	4580
898.19	4618
898.311	4870
898.431	4668
898.552	4717
898.672	4812
898.792	4820
898.913	4759
899.033	4618
899.153	4550
899.273	4440
899.393	4508
899.513	4573
899.633	4466
899.753	4573
899.873	4573
899.993	4558
900.113	4512
900.232	4611
900.352	4538
900.472	4478
900.591	4428
900.711	4474
900.83	4402
900.95	4637
901.069	4714
901.189	4558
901.308	4424
901.427	4325
901.546	4360
901.665	4440
901.784	4538
901.904	4386
902.023	4322
902.141	4158
902.26	4162
902.379	4230
902.498	4276
902.617	4204
902.735	4383
902.854	4421
902.973	4356
903.091	4196
903.21	4204
903.328	4299
903.446	4253
903.565	4230
903.683	4360
903.801	4306
903.919	4383
904.038	4409
904.156	4329
904.274	4451
904.392	4428
904.51	4432
904.627	4489
904.745	4527
904.863	4622
904.981	4390
905.098	4352
905.216	4390
905.334	4481
905.451	4394
905.569	4440
905.686	4527
905.803	4577
905.921	4428
906.038	4550
906.155	4493
906.272	4386
906.389	4485
906.506	4318
906.623	4394
906.74	4402
906.857	4318
906.974	4352
907.091	4535
907.208	4687
907.324	4584
907.441	4462
907.557	4337
907.674	4310
907.79	4344
907.907	4379
908.023	4531
908.139	4500
908.256	4440
908.372	4508
908.488	4451
908.604	4329
908.72	4360
908.836	4367
908.952	4375
909.068	4428
909.184	4592
909.3	4497
909.415	4554
909.531	4500
909.647	4360
909.762	4341
909.878	4337
909.993	4405
910.108	4375
910.224	4432
910.339	4470
910.454	4417
910.57	4383
910.685	4299
910.8	4645
910.915	4607
911.03	4535
911.145	4352
911.259	4314
911.374	4356
911.489	4306
911.604	4242
911.718	4181
911.833	4257
911.947	4105
912.062	4063
912.176	4185
912.291	4204
912.405	4284
912.519	4459
912.633	4550
912.748	4386
912.862	4333
912.976	4215
913.09	4116
913.204	4154
913.318	4295
913.431	4383
913.545	4390
913.659	4413
913.772	4375
913.886	4230
914	4223
914.113	4402
914.226	4421
914.34	4375
914.453	4238
914.566	4405
914.68	4329
914.793	4322
914.906	4139
915.019	4181
915.132	4082
915.245	4169
915.358	4188
915.47	4242
915.583	4234
915.696	4314
915.809	4402
915.921	4436
916.034	4227
916.146	4242
916.259	4253
916.371	4356
916.483	4383
916.595	4246
916.708	4299
916.82	4268
916.932	4310
917.044	4303
917.156	4303
917.268	4230
917.38	4287
917.491	4257
917.603	4379
917.715	4443
917.826	4466
917.938	4371
918.049	4234
918.161	4371
918.272	4531
918.384	4497
918.495	4497
918.606	4287
918.717	4215
918.828	4287
918.939	4398
919.05	4306
919.161	4322
919.272	4128
919.383	4227
919.494	4470
919.604	4580
919.715	4443
919.826	4379
919.936	4386
920.047	4493
920.157	4466
920.267	4710
920.378	4554
920.488	4474
920.598	4725
920.708	4904
920.818	4790
920.928	4721
921.038	4889
921.148	4934
921.258	4637
921.368	4546
921.477	4512
921.587	4485
921.697	4329
921.806	4550
921.916	4394
922.025	4284
922.134	4295
922.244	4219
922.353	4325
922.462	4158
922.571	4078
922.68	3991
922.789	3979
922.898	4078
923.007	4010
923.116	4131
923.224	4063
923.333	4105
923.442	3941
923.55	3968
923.659	4029
923.767	4093
923.876	3983
923.984	4105
924.092	3953
924.201	4101
924.309	4116
924.417	4143
924.525	4063
924.633	4078
924.741	5064
924.849	3918
924.956	4143
925.064	3968
925.172	3911
925.279	3968
925.387	4097
925.494	4040
925.602	4223
925.709	4188
925.816	4025
925.924	4097
926.031	4200
926.138	4135
926.245	4253
926.352	4097
926.459	4268
926.566	4325
926.673	4139
926.779	4074
926.886	4090
926.993	4040
927.099	3960
927.206	3903
927.312	3937
927.419	4071
927.525	4002
927.631	4078
927.737	4002
927.843	3918
927.95	3846
928.056	3930
928.162	3979
928.267	4036
928.373	4683
928.479	4078
928.585	3857
928.69	4010
928.796	4063
928.901	4002
929.007	3816
929.112	3975
929.218	3987
929.323	3972
929.428	3949
929.533	4090
929.638	3903
929.743	3972
929.848	4074
929.953	4010
930.058	3918
930.163	3781
930.267	3842
930.372	3934
930.477	3816
930.581	4120
930.685	3964
930.79	3812
930.894	3880
930.998	3861
931.103	4040
931.207	3705
931.311	3720
931.415	3603
931.519	3519
931.623	3545
