Data from test_V78500241_2342.txt Node
Date: Fri Mar 25 17:05:17 CST 2022
User: usil
Spectrometer: V785-0024
Trigger mode: 0
Integration Time (sec): 4.000000E-1
Scans to average: 1
Nonlinearity correction enabled: false
Boxcar width: 0
Storing dark spectrum: false
XAxis mode: Wavelengths
Number of Pixels in Spectrum: 1024
>>>>>Begin Spectral Data<<<<<
801.071	7974
801.214	7955
801.356	7879
801.499	7841
801.641	7704
801.783	7811
801.926	7936
802.068	7932
802.211	8054
802.353	7989
802.496	7894
802.638	7845
802.78	7868
802.923	7833
803.065	7818
803.208	7871
803.35	7932
803.492	8111
803.635	8149
803.777	8008
803.919	8111
804.061	8419
804.204	8180
804.346	8069
804.488	8027
804.63	8077
804.773	8012
804.915	8130
805.057	8259
805.199	8138
805.341	8214
805.483	8221
805.626	8229
805.768	8115
805.91	8191
806.052	8244
806.194	8145
806.336	8328
806.478	8016
806.62	8058
806.762	8077
806.904	8195
807.046	8480
807.188	8347
807.33	8267
807.472	8343
807.614	8195
807.756	8103
807.898	7925
808.04	7868
808.182	7913
808.324	7864
808.465	7852
808.607	8077
808.749	8077
808.891	8221
809.033	8351
809.174	8244
809.316	8077
809.458	8134
809.6	7928
809.741	8031
809.883	8016
810.025	8035
810.166	8096
810.308	7974
810.45	8077
810.591	7837
810.733	7742
810.875	7647
811.016	7529
811.158	7445
811.299	7582
811.441	7765
811.582	7616
811.724	7525
811.865	7537
812.007	7624
812.148	7594
812.29	7628
812.431	7753
812.573	7852
812.714	8031
812.855	8100
812.997	8225
813.138	8279
813.279	8187
813.421	7997
813.562	7970
813.703	7879
813.845	7765
813.986	7460
814.127	7266
814.268	7221
814.41	7145
814.551	7217
814.692	7206
814.833	7122
814.974	7091
815.115	7099
815.256	6989
815.397	6993
815.539	6909
815.68	6768
815.821	6753
815.962	6798
816.103	6787
816.244	6707
816.385	6593
816.526	6696
816.666	6517
816.807	6300
816.948	6437
817.089	6486
817.23	6388
817.371	6361
817.512	6391
817.653	6369
817.793	6376
817.934	6353
818.075	6464
818.216	6376
818.356	6441
818.497	6270
818.638	6167
818.778	6186
818.919	6117
819.06	6155
819.2	6357
819.341	6323
819.481	6334
819.622	6528
819.762	6749
819.903	6696
820.043	6589
820.184	6547
820.324	6551
820.465	6707
820.605	6707
820.746	6612
820.886	6582
821.026	6665
821.167	6719
821.307	6814
821.447	6753
821.588	6673
821.728	6525
821.868	6502
822.008	6357
822.149	6338
822.289	6384
822.429	6175
822.569	6049
822.709	6140
822.849	5939
822.99	5920
823.13	5901
823.27	5939
823.41	5809
823.55	5748
823.69	5722
823.83	5760
823.97	5623
824.11	5562
824.25	5539
824.389	5547
824.529	5596
824.669	5543
824.809	5596
824.949	5642
825.089	5570
825.228	5516
825.368	5421
825.508	5372
825.648	5353
825.787	5452
825.927	5391
826.067	5315
826.206	5318
826.346	5387
826.485	5417
826.625	5444
826.765	5520
826.904	5535
827.044	5280
827.183	5231
827.323	5140
827.462	5269
827.601	5189
827.741	5208
827.88	5231
828.02	5117
828.159	5231
828.298	5303
828.437	5417
828.577	5277
828.716	5486
828.855	5337
828.994	5235
829.134	5147
829.273	5204
829.412	5220
829.551	5193
829.69	5181
829.829	5250
829.968	5436
830.107	5326
830.246	5288
830.385	5250
830.524	5162
830.663	5094
830.802	4972
830.941	4949
831.08	4946
831.219	5071
831.357	5033
831.496	5204
831.635	4972
831.774	4915
831.913	4889
832.051	4805
832.19	4755
832.329	4904
832.467	4729
832.606	4618
832.744	4771
832.883	4748
833.022	4729
833.16	4748
833.299	4911
833.437	4843
833.576	4831
833.714	4908
833.852	4892
833.991	4976
834.129	5033
834.267	5033
834.406	4980
834.544	5022
834.682	5056
834.821	4980
834.959	5204
835.097	5048
835.235	5189
835.373	5094
835.511	5121
835.65	5067
835.788	5064
835.926	4957
836.064	4919
836.202	4896
836.34	5239
836.478	5273
836.615	5197
836.753	5235
836.891	5261
837.029	5292
837.167	5212
837.305	5208
837.443	5185
837.58	5124
837.718	5299
837.856	5273
837.993	5181
838.131	5235
838.269	5212
838.406	5273
838.544	5242
838.681	5113
838.819	5136
838.956	4961
839.094	4915
839.231	5060
839.369	5102
839.506	5486
839.643	5284
839.781	5086
839.918	5037
840.055	5155
840.193	5155
840.33	5155
840.467	5170
840.604	5204
840.742	5406
840.879	5102
841.016	5143
841.153	5166
841.29	5429
841.427	5368
841.564	5357
841.701	5391
841.838	5303
841.975	5235
842.112	5277
842.249	5170
842.385	5105
842.522	5398
842.659	5189
842.796	5185
842.933	5178
843.069	5159
843.206	5204
843.343	5296
843.479	5303
843.616	5357
843.752	5109
843.889	5045
844.025	5284
844.162	5083
844.298	5265
844.435	5113
844.571	5064
844.708	5250
844.844	5349
844.98	5322
845.117	5345
845.253	5155
845.389	5124
845.525	5155
845.661	5189
845.798	5056
845.934	5166
846.07	5079
846.206	5250
846.342	5322
846.478	5208
846.614	5037
846.75	4999
846.886	4938
847.022	5170
847.158	5048
847.294	5075
847.429	5098
847.565	5067
847.701	5307
847.837	4866
847.972	4824
848.108	4980
848.244	4968
848.379	4767
848.515	4752
848.65	4691
848.786	4774
848.921	4790
849.057	4900
849.192	4885
849.328	4862
849.463	4839
849.598	4824
849.734	4771
849.869	4752
850.004	4706
850.14	4710
850.275	4641
850.41	4565
850.545	4561
850.68	4634
850.815	4626
850.95	4660
851.085	4805
851.22	4755
851.355	4637
851.49	4694
851.625	4687
851.76	4679
851.895	4626
852.03	4660
852.165	4668
852.299	4740
852.434	4847
852.569	4797
852.703	4774
852.838	4847
852.973	5003
853.107	4923
853.242	4759
853.376	4664
853.511	4599
853.645	4664
853.78	4812
853.914	4733
854.048	4698
854.183	4702
854.317	4744
854.451	4934
854.585	4672
854.72	4675
854.854	4805
854.988	4615
855.122	4626
855.256	4580
855.39	4729
855.524	4801
855.658	4694
855.792	4698
855.926	4736
856.06	4797
856.194	4809
856.327	4733
856.461	4653
856.595	4668
856.729	4714
856.862	4835
856.996	4710
857.13	4763
857.263	4793
857.397	4831
857.53	4691
857.664	4748
857.797	4809
857.931	4824
858.064	4736
858.197	4759
858.331	4683
858.464	4622
858.597	4535
858.731	4622
858.864	4668
858.997	4641
859.13	4656
859.263	4702
859.396	4710
859.529	4641
859.662	4573
859.795	4512
859.928	4721
860.061	4729
860.194	4797
860.327	4615
860.46	4618
860.592	4812
860.725	4797
860.858	4763
860.99	4599
861.123	4561
861.256	4565
861.388	4580
861.521	5292
861.653	4516
861.786	4493
861.918	4523
862.05	4561
862.183	4603
862.315	4649
862.447	4653
862.58	4531
862.712	4436
862.844	4367
862.976	4538
863.108	4481
863.24	4942
863.372	4379
863.504	4481
863.636	4443
863.768	4508
863.9	4451
864.032	4356
864.164	4451
864.296	4485
864.428	4634
864.559	4573
864.691	4558
864.823	4554
864.954	4512
865.086	4519
865.217	4527
865.349	4421
865.48	4489
865.612	4546
865.743	4641
865.875	4493
866.006	4470
866.137	4516
866.269	4421
866.4	4424
866.531	4443
866.662	4424
866.793	4402
866.924	4413
867.055	4500
867.186	4497
867.317	4432
867.448	4432
867.579	4409
867.71	4466
867.841	4375
867.972	4508
868.103	4516
868.233	4478
868.364	4470
868.495	4538
868.625	4664
868.756	4790
868.886	4588
869.017	4626
869.147	4759
869.278	4828
869.408	4706
869.539	4679
869.669	4725
869.799	4702
869.929	4790
870.06	4736
870.19	4953
870.32	4938
870.45	4968
870.58	5033
870.71	5102
870.84	5140
870.97	4915
871.1	4934
871.23	5105
871.36	5128
871.489	5037
871.619	5090
871.749	5113
871.879	5201
872.008	5208
872.138	5029
872.267	4957
872.397	4843
872.526	4843
872.656	4748
872.785	4805
872.915	5003
873.044	5083
873.173	4980
873.303	5006
873.432	4961
873.561	4991
873.69	4915
873.819	4847
873.948	4927
874.077	4790
874.206	4812
874.335	4835
874.464	4946
874.593	5071
874.722	4965
874.851	5117
874.979	5098
875.108	5041
875.237	4972
875.365	4866
875.494	4908
875.623	4984
875.751	4831
875.88	4908
876.008	5022
876.136	5025
876.265	5197
876.393	5334
876.521	5239
876.65	5201
876.778	5166
876.906	5090
877.034	5071
877.162	5102
877.29	5003
877.418	5105
877.546	5071
877.674	5109
877.802	5022
877.93	5033
878.058	4995
878.185	4961
878.313	5010
878.441	4980
878.568	4877
878.696	4866
878.824	5018
878.951	5018
879.079	5121
879.206	5292
879.333	5067
879.461	4987
879.588	5003
879.715	5181
879.842	5231
879.97	5033
880.097	4805
880.224	4786
880.351	4820
880.478	4809
880.605	4831
880.732	4774
880.859	5102
880.986	4881
881.112	4923
881.239	4763
881.366	4710
881.493	4626
881.619	4561
881.746	4649
881.872	4664
881.999	4675
882.125	4710
882.252	4809
882.378	4843
882.505	4961
882.631	4812
882.757	4694
882.883	4717
883.01	4733
883.136	4664
883.262	4588
883.388	4626
883.514	4858
883.64	4862
883.766	4790
883.892	4721
884.018	4698
884.143	4896
884.269	5071
884.395	4675
884.52	4641
884.646	4691
884.772	4618
884.897	4577
885.023	4660
885.148	4755
885.274	4881
885.399	4835
885.524	4736
885.65	4714
885.775	4736
885.9	4702
886.025	4858
886.15	4816
886.275	4763
886.4	4679
886.525	4740
886.65	4725
886.775	4714
886.9	4881
887.025	5060
887.149	4824
887.274	4615
887.399	4580
887.523	4637
887.648	4603
887.773	4637
887.897	4755
888.021	4816
888.146	4698
888.27	4820
888.395	4987
888.519	4759
888.643	4797
888.767	4820
888.891	4679
889.015	4615
889.139	4679
889.263	4622
889.387	4774
889.511	4889
889.635	4824
889.759	4698
889.883	4664
890.006	4710
890.13	4831
890.254	4653
890.377	4683
890.501	4531
890.624	4512
890.748	4630
890.871	4500
890.995	4455
891.118	4447
891.241	4519
891.364	4577
891.488	4641
891.611	4493
891.734	4493
891.857	4626
891.98	4592
892.103	4664
892.226	4580
892.349	4504
892.471	4405
892.594	4550
892.717	4656
892.839	4626
892.962	4645
893.085	4694
893.207	4603
893.33	4440
893.452	4535
893.575	4687
893.697	4554
893.819	4774
893.941	4805
894.064	4755
894.186	4577
894.308	4577
894.43	4702
894.552	4828
894.674	4782
894.796	4584
894.918	4607
895.04	4577
895.161	4736
895.283	4691
895.405	4641
895.526	4668
895.648	4675
895.769	4675
895.891	4744
896.012	4755
896.134	4721
896.255	4645
896.376	4607
896.498	4588
896.619	4664
896.74	4675
896.861	4687
896.982	4949
897.103	5109
897.224	4854
897.345	4767
897.466	4714
897.587	4721
897.708	4892
897.828	4759
897.949	4687
898.07	4599
898.19	4679
898.311	4858
898.431	4626
898.552	4725
898.672	4812
898.792	4816
898.913	4725
899.033	4596
899.153	4554
899.273	4443
899.393	4512
899.513	4512
899.633	4535
899.753	4523
899.873	4542
899.993	4584
900.113	4535
900.232	4618
900.352	4538
900.472	4512
900.591	4367
900.711	4535
900.83	4470
900.95	4611
901.069	4706
901.189	4523
901.308	4360
901.427	4333
901.546	4367
901.665	4493
901.784	4512
901.904	4360
902.023	4337
902.141	4169
902.26	4177
902.379	4280
902.498	4265
902.617	4261
902.735	4367
902.854	4394
902.973	4352
903.091	4242
903.21	4215
903.328	4291
903.446	4318
903.565	4253
903.683	4341
903.801	4318
903.919	4409
904.038	4390
904.156	4306
904.274	4409
904.392	4394
904.51	4440
904.627	4466
904.745	4577
904.863	4675
904.981	4440
905.098	4306
905.216	4402
905.334	4421
905.451	4436
905.569	4481
905.686	4527
905.803	4546
905.921	4413
906.038	4565
906.155	4462
906.272	4371
906.389	4459
906.506	4356
906.623	4428
906.74	4375
906.857	4284
906.974	4398
907.091	4558
907.208	4698
907.324	4645
907.441	4481
907.557	4379
907.674	4322
907.79	4306
907.907	4417
908.023	4474
908.139	4478
908.256	4413
908.372	4466
908.488	4462
908.604	4344
908.72	4318
908.836	4360
908.952	4329
909.068	4417
909.184	4538
909.3	4474
909.415	4550
909.531	4554
909.647	4348
909.762	4379
909.878	4341
909.993	4424
910.108	4447
910.224	4398
910.339	4489
910.454	4371
910.57	4363
910.685	4280
910.8	4641
910.915	4683
911.03	4504
911.145	4318
911.259	4341
911.374	4363
911.489	4325
911.604	4314
911.718	4181
911.833	4185
911.947	4105
912.062	4063
912.176	4177
912.291	4280
912.405	4249
912.519	4451
912.633	4504
912.748	4417
912.862	4303
912.976	4215
913.09	4097
913.204	4196
913.318	4284
913.431	4447
913.545	4421
913.659	4455
913.772	4371
913.886	4276
914	4234
914.113	4344
914.226	4428
914.34	4390
914.453	4215
914.566	4405
914.68	4272
914.793	4310
914.906	4162
915.019	4086
915.132	4044
915.245	4181
915.358	4242
915.47	4253
915.583	4219
915.696	4299
915.809	4394
915.921	4462
916.034	4268
916.146	4276
916.259	4268
916.371	4383
916.483	4348
916.595	4227
916.708	4314
916.82	4322
916.932	4352
917.044	4318
917.156	4375
917.268	4219
917.38	4303
917.491	4272
917.603	4325
917.715	4436
917.826	4466
917.938	4341
918.049	4253
918.161	4424
918.272	4596
918.384	4519
918.495	4466
918.606	4265
918.717	4261
918.828	4352
918.939	4367
919.05	4261
919.161	4325
919.272	4173
919.383	4242
919.494	4462
919.604	4679
919.715	4443
919.826	4325
919.936	4375
920.047	4531
920.157	4474
920.267	4702
920.378	4577
920.488	4497
920.598	4687
920.708	4889
920.818	4740
920.928	4759
921.038	4900
921.148	4938
921.258	4611
921.368	4504
921.477	4508
921.587	4508
921.697	4348
921.806	4565
921.916	4421
922.025	4246
922.134	4276
922.244	4246
922.353	4329
922.462	4188
922.571	4116
922.68	4010
922.789	4002
922.898	4036
923.007	3972
923.116	4086
923.224	4074
923.333	4067
923.442	3934
923.55	3983
923.659	4006
923.767	4105
923.876	3949
923.984	4124
924.092	3949
924.201	4074
924.309	4101
924.417	4097
924.525	4090
924.633	4101
924.741	5094
924.849	3941
924.956	4135
925.064	3941
925.172	3873
925.279	3949
925.387	4097
925.494	4063
925.602	4177
925.709	4162
925.816	4032
925.924	4150
926.031	4185
926.138	4192
926.245	4211
926.352	4116
926.459	4230
926.566	4306
926.673	4166
926.779	4093
926.886	4059
926.993	4010
927.099	3960
927.206	3934
927.312	3972
927.419	4048
927.525	4010
927.631	4082
927.737	3949
927.843	3945
927.95	3827
928.056	3960
928.162	3994
928.267	4090
928.373	4641
928.479	4147
928.585	3854
928.69	4025
928.796	4078
928.901	4002
929.007	3865
929.112	3987
929.218	3968
929.323	3975
929.428	3926
929.533	4124
929.638	3945
929.743	3953
929.848	4055
929.953	3998
930.058	3903
930.163	3755
930.267	3842
930.372	3987
930.477	3823
930.581	4086
930.685	3949
930.79	3835
930.894	3903
930.998	3812
931.103	4078
931.207	3717
931.311	3713
931.415	3641
931.519	3504
931.623	3534
