Data from test_V78500241_459.txt Node
Date: Fri Mar 25 16:52:11 CST 2022
User: usil
Spectrometer: V785-0024
Trigger mode: 0
Integration Time (sec): 4.000000E-1
Scans to average: 1
Nonlinearity correction enabled: false
Boxcar width: 0
Storing dark spectrum: false
XAxis mode: Wavelengths
Number of Pixels in Spectrum: 1024
>>>>>Begin Spectral Data<<<<<
801.071	8050
801.214	8035
801.356	7860
801.499	7925
801.641	7852
801.783	7860
801.926	8005
802.068	7974
802.211	8054
802.353	8027
802.496	7909
802.638	7902
802.78	7963
802.923	7936
803.065	7871
803.208	7875
803.35	7967
803.492	8046
803.635	8058
803.777	8012
803.919	8111
804.061	8404
804.204	8176
804.346	8043
804.488	7921
804.63	8081
804.773	7951
804.915	8153
805.057	8286
805.199	8195
805.341	8267
805.483	8286
805.626	8180
805.768	8092
805.91	8096
806.052	8187
806.194	8145
806.336	8332
806.478	8134
806.62	8062
806.762	8130
806.904	8267
807.046	8461
807.188	8286
807.33	8218
807.472	8263
807.614	8130
807.756	8100
807.898	8016
808.04	7928
808.182	7890
808.324	7936
808.465	7921
808.607	8020
808.749	8126
808.891	8183
809.033	8248
809.174	8244
809.316	8050
809.458	8027
809.6	7997
809.741	8016
809.883	8024
810.025	8107
810.166	8043
810.308	8016
810.45	7989
810.591	7887
810.733	7731
810.875	7670
811.016	7563
811.158	7586
811.299	7647
811.441	7723
811.582	7731
811.724	7609
811.865	7597
812.007	7655
812.148	7632
812.29	7616
812.431	7780
812.573	7970
812.714	8050
812.855	8191
812.997	8279
813.138	8351
813.279	8256
813.421	8206
813.562	8081
813.703	7997
813.845	7856
813.986	7529
814.127	7369
814.268	7335
814.41	7274
814.551	7225
814.692	7171
814.833	7137
814.974	7095
815.115	7107
815.256	6981
815.397	6951
815.539	6973
815.68	6867
815.821	6787
815.962	6932
816.103	6867
816.244	6719
816.385	6597
816.526	6692
816.666	6509
816.807	6277
816.948	6448
817.089	6479
817.23	6464
817.371	6403
817.512	6361
817.653	6388
817.793	6410
817.934	6414
818.075	6483
818.216	6441
818.356	6448
818.497	6251
818.638	6163
818.778	6114
818.919	6110
819.06	6148
819.2	6311
819.341	6273
819.481	6342
819.622	6551
819.762	6764
819.903	6722
820.043	6570
820.184	6555
820.324	6601
820.465	6692
820.605	6623
820.746	6635
820.886	6475
821.026	6684
821.167	6684
821.307	6848
821.447	6791
821.588	6692
821.728	6555
821.868	6494
822.008	6327
822.149	6353
822.289	6311
822.429	6152
822.569	6095
822.709	6129
822.849	5961
822.99	5931
823.13	5927
823.27	5950
823.41	5824
823.55	5794
823.69	5752
823.83	5767
823.97	5695
824.11	5562
824.25	5532
824.389	5554
824.529	5634
824.669	5501
824.809	5634
824.949	5703
825.089	5638
825.228	5589
825.368	5387
825.508	5349
825.648	5372
825.787	5383
825.927	5372
826.067	5322
826.206	5315
826.346	5395
826.485	5391
826.625	5402
826.765	5543
826.904	5478
827.044	5254
827.183	5212
827.323	5128
827.462	5254
827.601	5162
827.741	5109
827.88	5204
828.02	5136
828.159	5223
828.298	5326
828.437	5372
828.577	5258
828.716	5474
828.855	5330
828.994	5124
829.134	5132
829.273	5197
829.412	5143
829.551	5189
829.69	5147
829.829	5246
829.968	5379
830.107	5280
830.246	5280
830.385	5147
830.524	5181
830.663	5033
830.802	4976
830.941	4896
831.08	4927
831.219	4938
831.357	4987
831.496	5143
831.635	4957
831.774	4896
831.913	4816
832.051	4729
832.19	4786
832.329	4866
832.467	4706
832.606	4714
832.744	4755
832.883	4729
833.022	4740
833.16	4748
833.299	4828
833.437	4793
833.576	4793
833.714	4877
833.852	4866
833.991	4911
834.129	4942
834.267	4953
834.406	4946
834.544	4995
834.682	4976
834.821	4972
834.959	5201
835.097	5006
835.235	5098
835.373	5090
835.511	5086
835.65	5056
835.788	5014
835.926	4881
836.064	4858
836.202	4908
836.34	5117
836.478	5242
836.615	5090
836.753	5231
836.891	5265
837.029	5212
837.167	5201
837.305	5197
837.443	5140
837.58	5121
837.718	5216
837.856	5178
837.993	5162
838.131	5239
838.269	5212
838.406	5212
838.544	5170
838.681	5045
838.819	5025
838.956	4915
839.094	4915
839.231	4999
839.369	5067
839.506	5360
839.643	5299
839.781	5094
839.918	5025
840.055	5083
840.193	5109
840.33	5105
840.467	5124
840.604	5216
840.742	5455
840.879	5075
841.016	5052
841.153	5124
841.29	5311
841.427	5296
841.564	5315
841.701	5360
841.838	5258
841.975	5265
842.112	5269
842.249	5181
842.385	5105
842.522	5292
842.659	5178
842.796	5147
842.933	5220
843.069	5166
843.206	5174
843.343	5330
843.479	5250
843.616	5201
843.752	5045
843.889	5018
844.025	5220
844.162	5067
844.298	5223
844.435	5121
844.571	5102
844.708	5197
844.844	5311
844.98	5357
845.117	5296
845.253	5094
845.389	5094
845.525	5185
845.661	5132
845.798	5045
845.934	5121
846.07	5109
846.206	5208
846.342	5277
846.478	5197
846.614	5006
846.75	4919
846.886	4919
847.022	5143
847.158	4999
847.294	5098
847.429	5086
847.565	5052
847.701	5334
847.837	4862
847.972	4812
848.108	4999
848.244	4953
848.379	4778
848.515	4736
848.65	4736
848.786	4774
848.921	4752
849.057	4843
849.192	4919
849.328	4847
849.463	4816
849.598	4782
849.734	4733
849.869	4687
850.004	4634
850.14	4706
850.275	4645
850.41	4573
850.545	4546
850.68	4573
850.815	4630
850.95	4622
851.085	4866
851.22	4752
851.355	4672
851.49	4641
851.625	4637
851.76	4694
851.895	4561
852.03	4554
852.165	4660
852.299	4790
852.434	4740
852.569	4763
852.703	4744
852.838	4790
852.973	4911
853.107	4923
853.242	4755
853.376	4664
853.511	4607
853.645	4603
853.78	4805
853.914	4672
854.048	4694
854.183	4607
854.317	4698
854.451	4797
854.585	4694
854.72	4660
854.854	4778
854.988	4607
855.122	4691
855.256	4546
855.39	4653
855.524	4793
855.658	4653
855.792	4744
855.926	4729
856.06	4793
856.194	4839
856.327	4694
856.461	4641
856.595	4561
856.729	4618
856.862	4790
856.996	4706
857.13	4725
857.263	4771
857.397	4820
857.53	4683
857.664	4717
857.797	4736
857.931	4816
858.064	4698
858.197	4706
858.331	4679
858.464	4584
858.597	4535
858.731	4653
858.864	4672
858.997	4607
859.13	4683
859.263	4721
859.396	4691
859.529	4573
859.662	4550
859.795	4516
859.928	4622
860.061	4729
860.194	4759
860.327	4615
860.46	4577
860.592	4691
860.725	4736
860.858	4752
860.99	4641
861.123	4569
861.256	4569
861.388	4641
861.521	5345
861.653	4436
861.786	4424
861.918	4455
862.05	4554
862.183	4550
862.315	4599
862.447	4664
862.58	4569
862.712	4447
862.844	4348
862.976	4451
863.108	4504
863.24	4809
863.372	4371
863.504	4428
863.636	4379
863.768	4493
863.9	4478
864.032	4379
864.164	4417
864.296	4470
864.428	4527
864.559	4569
864.691	4516
864.823	4516
864.954	4508
865.086	4538
865.217	4493
865.349	4432
865.48	4440
865.612	4451
865.743	4664
865.875	4432
866.006	4363
866.137	4489
866.269	4424
866.4	4421
866.531	4413
866.662	4352
866.793	4402
866.924	4402
867.055	4497
867.186	4485
867.317	4409
867.448	4318
867.579	4394
867.71	4428
867.841	4371
867.972	4466
868.103	4462
868.233	4470
868.364	4436
868.495	4470
868.625	4656
868.756	4710
868.886	4607
869.017	4630
869.147	4805
869.278	4771
869.408	4698
869.539	4664
869.669	4710
869.799	4656
869.929	4767
870.06	4725
870.19	4972
870.32	4923
870.45	4980
870.58	5041
870.71	5090
870.84	5121
870.97	4927
871.1	4934
871.23	5185
871.36	5132
871.489	5071
871.619	5071
871.749	5045
871.879	5105
872.008	5201
872.138	5022
872.267	4957
872.397	4862
872.526	4778
872.656	4710
872.785	4797
872.915	4953
873.044	5029
873.173	4961
873.303	4961
873.432	4968
873.561	4923
873.69	4889
873.819	4915
873.948	4946
874.077	4831
874.206	4744
874.335	4774
874.464	4904
874.593	5025
874.722	4995
874.851	5105
874.979	5071
875.108	5033
875.237	4923
875.365	4904
875.494	4877
875.623	4991
875.751	4858
875.88	4927
876.008	4987
876.136	5071
876.265	5250
876.393	5341
876.521	5246
876.65	5212
876.778	5166
876.906	5060
877.034	5079
877.162	5064
877.29	5071
877.418	5067
877.546	5071
877.674	5075
877.802	5025
877.93	4972
878.058	4953
878.185	4771
878.313	4965
878.441	4911
878.568	4812
878.696	4835
878.824	4991
878.951	4995
879.079	5086
879.206	5273
879.333	5083
879.461	5003
879.588	5014
879.715	5143
879.842	5250
879.97	5025
880.097	4816
880.224	4771
880.351	4778
880.478	4809
880.605	4828
880.732	4763
880.859	5113
880.986	4896
881.112	4850
881.239	4824
881.366	4641
881.493	4569
881.619	4569
881.746	4607
881.872	4622
881.999	4691
882.125	4694
882.252	4824
882.378	4801
882.505	4995
882.631	4824
882.757	4683
882.883	4763
883.01	4801
883.136	4660
883.262	4622
883.388	4626
883.514	4839
883.64	4847
883.766	4740
883.892	4641
884.018	4771
884.143	4938
884.269	5071
884.395	4649
884.52	4660
884.646	4675
884.772	4599
884.897	4577
885.023	4664
885.148	4824
885.274	4877
885.399	4862
885.524	4706
885.65	4687
885.775	4729
885.9	4744
886.025	4881
886.15	4809
886.275	4672
886.4	4615
886.525	4721
886.65	4683
886.775	4649
886.9	4896
887.025	5060
887.149	4786
887.274	4656
887.399	4584
887.523	4626
887.648	4577
887.773	4607
887.897	4778
888.021	4831
888.146	4656
888.27	4847
888.395	4915
888.519	4820
888.643	4805
888.767	4824
888.891	4675
889.015	4584
889.139	4618
889.263	4596
889.387	4782
889.511	4889
889.635	4816
889.759	4641
889.883	4622
890.006	4706
890.13	4809
890.254	4580
890.377	4706
890.501	4519
890.624	4512
890.748	4649
890.871	4489
890.995	4470
891.118	4379
891.241	4497
891.364	4615
891.488	4664
891.611	4546
891.734	4573
891.857	4584
891.98	4558
892.103	4660
892.226	4573
892.349	4527
892.471	4440
892.594	4538
892.717	4603
892.839	4577
892.962	4611
893.085	4634
893.207	4599
893.33	4497
893.452	4531
893.575	4645
893.697	4535
893.819	4793
893.941	4835
894.064	4725
894.186	4569
894.308	4607
894.43	4729
894.552	4782
894.674	4736
894.796	4565
894.918	4569
895.04	4603
895.161	4694
895.283	4630
895.405	4596
895.526	4664
895.648	4717
895.769	4622
895.891	4683
896.012	4721
896.134	4740
896.255	4630
896.376	4672
896.498	4634
896.619	4675
896.74	4626
896.861	4672
896.982	4896
897.103	5045
897.224	4812
897.345	4736
897.466	4717
897.587	4729
897.708	4873
897.828	4790
897.949	4660
898.07	4558
898.19	4664
898.311	4839
898.431	4679
898.552	4702
898.672	4778
898.792	4816
898.913	4752
899.033	4672
899.153	4462
899.273	4402
899.393	4478
899.513	4497
899.633	4535
899.753	4523
899.873	4485
899.993	4596
900.113	4538
900.232	4607
900.352	4535
900.472	4516
900.591	4466
900.711	4474
900.83	4474
900.95	4561
901.069	4710
901.189	4580
901.308	4375
901.427	4291
901.546	4367
901.665	4462
901.784	4481
901.904	4421
902.023	4310
902.141	4173
902.26	4154
902.379	4341
902.498	4295
902.617	4227
902.735	4390
902.854	4379
902.973	4333
903.091	4238
903.21	4249
903.328	4287
903.446	4299
903.565	4284
903.683	4386
903.801	4261
903.919	4402
904.038	4413
904.156	4325
904.274	4421
904.392	4379
904.51	4440
904.627	4493
904.745	4596
904.863	4645
904.981	4398
905.098	4310
905.216	4390
905.334	4459
905.451	4447
905.569	4478
905.686	4550
905.803	4596
905.921	4432
906.038	4516
906.155	4493
906.272	4386
906.389	4413
906.506	4402
906.623	4375
906.74	4375
906.857	4291
906.974	4367
907.091	4588
907.208	4679
907.324	4599
907.441	4497
907.557	4352
907.674	4348
907.79	4341
907.907	4398
908.023	4462
908.139	4462
908.256	4481
908.372	4447
908.488	4470
908.604	4299
908.72	4303
908.836	4363
908.952	4333
909.068	4386
909.184	4561
909.3	4466
909.415	4615
909.531	4596
909.647	4424
909.762	4363
909.878	4348
909.993	4478
910.108	4470
910.224	4440
910.339	4500
910.454	4405
910.57	4379
910.685	4303
910.8	4714
910.915	4573
911.03	4489
911.145	4291
911.259	4348
911.374	4356
911.489	4261
911.604	4249
911.718	4147
911.833	4188
911.947	4074
912.062	4006
912.176	4196
912.291	4188
912.405	4242
912.519	4489
912.633	4535
912.748	4402
912.862	4333
912.976	4211
913.09	4059
913.204	4185
913.318	4246
913.431	4367
913.545	4390
913.659	4459
913.772	4348
913.886	4246
914	4265
914.113	4356
914.226	4398
914.34	4402
914.453	4268
914.566	4451
914.68	4344
914.793	4295
914.906	4112
915.019	4112
915.132	4124
915.245	4150
915.358	4227
915.47	4284
915.583	4265
915.696	4284
915.809	4432
915.921	4466
916.034	4268
916.146	4227
916.259	4227
916.371	4360
916.483	4344
916.595	4257
916.708	4318
916.82	4367
916.932	4299
917.044	4352
917.156	4371
917.268	4261
917.38	4265
917.491	4341
917.603	4360
917.715	4405
917.826	4424
917.938	4398
918.049	4207
918.161	4443
918.272	4580
918.384	4535
918.495	4421
918.606	4276
918.717	4276
918.828	4356
918.939	4386
919.05	4261
919.161	4356
919.272	4109
919.383	4185
919.494	4466
919.604	4649
919.715	4432
919.826	4367
919.936	4413
920.047	4504
920.157	4474
920.267	4706
920.378	4527
920.488	4516
920.598	4714
920.708	4919
920.818	4740
920.928	4782
921.038	4938
921.148	4919
921.258	4592
921.368	4546
921.477	4535
921.587	4512
921.697	4413
921.806	4546
921.916	4424
922.025	4337
922.134	4276
922.244	4211
922.353	4314
922.462	4169
922.571	4116
922.68	4032
922.789	3975
922.898	4063
923.007	3979
923.116	4086
923.224	4109
923.333	4082
923.442	3975
923.55	3934
923.659	4040
923.767	4112
923.876	4036
923.984	4128
924.092	3968
924.201	4032
924.309	4093
924.417	4120
924.525	4101
924.633	4124
924.741	5083
924.849	3934
924.956	4120
925.064	3930
925.172	3896
925.279	3964
925.387	4048
925.494	4059
925.602	4204
925.709	4215
925.816	4044
925.924	4181
926.031	4230
926.138	4150
926.245	4196
926.352	4135
926.459	4238
926.566	4299
926.673	4166
926.779	4059
926.886	4036
926.993	3926
927.099	3968
927.206	3937
927.312	3941
927.419	4074
927.525	4021
927.631	4128
927.737	3934
927.843	3953
927.95	3842
928.056	3964
928.162	4006
928.267	4074
928.373	4767
928.479	4097
928.585	3888
928.69	3983
928.796	4101
928.901	3964
929.007	3835
929.112	4013
929.218	4010
929.323	3918
929.428	3956
929.533	4109
929.638	3960
929.743	4017
929.848	4036
929.953	4021
930.058	3934
930.163	3740
930.267	3850
930.372	3922
930.477	3804
930.581	4082
930.685	3968
930.79	3770
930.894	3884
930.998	3873
931.103	4048
931.207	3736
931.311	3682
931.415	3663
931.519	3519
931.623	3568
