Data from test_V78500241_1992.txt Node
Date: Fri Mar 25 17:02:51 CST 2022
User: usil
Spectrometer: V785-0024
Trigger mode: 0
Integration Time (sec): 4.000000E-1
Scans to average: 1
Nonlinearity correction enabled: false
Boxcar width: 0
Storing dark spectrum: false
XAxis mode: Wavelengths
Number of Pixels in Spectrum: 1024
>>>>>Begin Spectral Data<<<<<
801.071	7993
801.214	8039
801.356	7814
801.499	7849
801.641	7761
801.783	7814
801.926	7974
802.068	7921
802.211	8005
802.353	8069
802.496	7803
802.638	7879
802.78	7875
802.923	7845
803.065	7864
803.208	7807
803.35	7925
803.492	8111
803.635	8088
803.777	8020
803.919	8145
804.061	8423
804.204	8134
804.346	8069
804.488	7974
804.63	8054
804.773	8039
804.915	8043
805.057	8252
805.199	8092
805.341	8153
805.483	8225
805.626	8195
805.768	8092
805.91	8195
806.052	8240
806.194	8092
806.336	8229
806.478	8111
806.62	8058
806.762	8103
806.904	8202
807.046	8450
807.188	8259
807.33	8309
807.472	8313
807.614	8149
807.756	8134
807.898	8024
808.04	7894
808.182	7830
808.324	7799
808.465	7906
808.607	8058
808.749	8119
808.891	8161
809.033	8290
809.174	8202
809.316	8077
809.458	8069
809.6	8001
809.741	8084
809.883	8043
810.025	8084
810.166	7986
810.308	7974
810.45	8024
810.591	7772
810.733	7750
810.875	7712
811.016	7514
811.158	7449
811.299	7525
811.441	7655
811.582	7632
811.724	7552
811.865	7529
812.007	7594
812.148	7575
812.29	7586
812.431	7723
812.573	7879
812.714	7928
812.855	8073
812.997	8229
813.138	8263
813.279	8145
813.421	8092
813.562	7925
813.703	7852
813.845	7734
813.986	7305
814.127	7259
814.268	7156
814.41	7179
814.551	7126
814.692	7175
814.833	7080
814.974	7141
815.115	7110
815.256	6981
815.397	6943
815.539	6909
815.68	6783
815.821	6795
815.962	6825
816.103	6741
816.244	6662
816.385	6597
816.526	6582
816.666	6502
816.807	6353
816.948	6445
817.089	6464
817.23	6418
817.371	6403
817.512	6376
817.653	6422
817.793	6346
817.934	6388
818.075	6391
818.216	6429
818.356	6380
818.497	6273
818.638	6133
818.778	6140
818.919	6148
819.06	6140
819.2	6327
819.341	6365
819.481	6391
819.622	6517
819.762	6757
819.903	6688
820.043	6593
820.184	6631
820.324	6555
820.465	6669
820.605	6639
820.746	6620
820.886	6544
821.026	6669
821.167	6654
821.307	6772
821.447	6764
821.588	6684
821.728	6517
821.868	6483
822.008	6376
822.149	6353
822.289	6357
822.429	6140
822.569	6060
822.709	6136
822.849	5927
822.99	5923
823.13	5866
823.27	5901
823.41	5779
823.55	5771
823.69	5790
823.83	5710
823.97	5661
824.11	5524
824.25	5512
824.389	5566
824.529	5585
824.669	5562
824.809	5653
824.949	5657
825.089	5608
825.228	5543
825.368	5357
825.508	5334
825.648	5341
825.787	5353
825.927	5349
826.067	5280
826.206	5284
826.346	5383
826.485	5357
826.625	5410
826.765	5532
826.904	5482
827.044	5265
827.183	5208
827.323	5136
827.462	5258
827.601	5143
827.741	5201
827.88	5193
828.02	5159
828.159	5227
828.298	5277
828.437	5334
828.577	5311
828.716	5444
828.855	5337
828.994	5159
829.134	5197
829.273	5151
829.412	5155
829.551	5166
829.69	5159
829.829	5220
829.968	5387
830.107	5273
830.246	5216
830.385	5174
830.524	5132
830.663	5014
830.802	4938
830.941	4870
831.08	4850
831.219	4987
831.357	4976
831.496	5147
831.635	4949
831.774	4858
831.913	4843
832.051	4729
832.19	4759
832.329	4816
832.467	4672
832.606	4588
832.744	4714
832.883	4702
833.022	4683
833.16	4778
833.299	4812
833.437	4816
833.576	4812
833.714	4843
833.852	4877
833.991	4881
834.129	4961
834.267	4904
834.406	4919
834.544	4961
834.682	4934
834.821	4987
834.959	5136
835.097	4991
835.235	5140
835.373	5060
835.511	5071
835.65	5045
835.788	5052
835.926	4866
836.064	4862
836.202	4908
836.34	5128
836.478	5193
836.615	5079
836.753	5201
836.891	5269
837.029	5235
837.167	5220
837.305	5151
837.443	5201
837.58	5102
837.718	5269
837.856	5140
837.993	5124
838.131	5235
838.269	5250
838.406	5185
838.544	5159
838.681	5033
838.819	4984
838.956	4938
839.094	4923
839.231	4892
839.369	5086
839.506	5334
839.643	5311
839.781	5052
839.918	5025
840.055	5102
840.193	5098
840.33	5105
840.467	5083
840.604	5201
840.742	5440
840.879	5086
841.016	5109
841.153	5109
841.29	5387
841.427	5357
841.564	5261
841.701	5387
841.838	5311
841.975	5166
842.112	5235
842.249	5147
842.385	5060
842.522	5318
842.659	5174
842.796	5189
842.933	5193
843.069	5159
843.206	5155
843.343	5292
843.479	5280
843.616	5246
843.752	5052
843.889	5006
844.025	5155
844.162	5029
844.298	5185
844.435	5083
844.571	5090
844.708	5178
844.844	5292
844.98	5364
845.117	5288
845.253	5109
845.389	5151
845.525	5147
845.661	5178
845.798	5075
845.934	5140
846.07	5067
846.206	5155
846.342	5303
846.478	5166
846.614	4980
846.75	4942
846.886	4919
847.022	5128
847.158	5014
847.294	5079
847.429	5075
847.565	5018
847.701	5261
847.837	4828
847.972	4786
848.108	4968
848.244	4889
848.379	4786
848.515	4771
848.65	4721
848.786	4752
848.921	4748
849.057	4870
849.192	4870
849.328	4816
849.463	4835
849.598	4816
849.734	4797
849.869	4694
850.004	4580
850.14	4721
850.275	4656
850.41	4550
850.545	4512
850.68	4626
850.815	4645
850.95	4603
851.085	4831
851.22	4744
851.355	4679
851.49	4615
851.625	4634
851.76	4656
851.895	4592
852.03	4531
852.165	4569
852.299	4668
852.434	4752
852.569	4755
852.703	4759
852.838	4839
852.973	4896
853.107	4873
853.242	4687
853.376	4649
853.511	4512
853.645	4577
853.78	4831
853.914	4687
854.048	4626
854.183	4618
854.317	4649
854.451	4854
854.585	4618
854.72	4649
854.854	4748
854.988	4527
855.122	4641
855.256	4519
855.39	4641
855.524	4725
855.658	4672
855.792	4694
855.926	4664
856.06	4755
856.194	4866
856.327	4672
856.461	4653
856.595	4584
856.729	4603
856.862	4748
856.996	4698
857.13	4702
857.263	4767
857.397	4793
857.53	4653
857.664	4668
857.797	4748
857.931	4763
858.064	4660
858.197	4740
858.331	4615
858.464	4596
858.597	4523
858.731	4599
858.864	4622
858.997	4596
859.13	4615
859.263	4668
859.396	4649
859.529	4577
859.662	4561
859.795	4508
859.928	4653
860.061	4797
860.194	4759
860.327	4588
860.46	4554
860.592	4710
860.725	4691
860.858	4717
860.99	4607
861.123	4554
861.256	4512
861.388	4611
861.521	5155
861.653	4428
861.786	4421
861.918	4428
862.05	4527
862.183	4531
862.315	4580
862.447	4637
862.58	4535
862.712	4417
862.844	4306
862.976	4466
863.108	4474
863.24	4767
863.372	4333
863.504	4432
863.636	4459
863.768	4466
863.9	4440
864.032	4325
864.164	4367
864.296	4432
864.428	4561
864.559	4558
864.691	4546
864.823	4531
864.954	4474
865.086	4451
865.217	4443
865.349	4451
865.48	4443
865.612	4478
865.743	4653
865.875	4436
866.006	4409
866.137	4466
866.269	4459
866.4	4375
866.531	4409
866.662	4386
866.793	4436
866.924	4440
867.055	4531
867.186	4424
867.317	4398
867.448	4356
867.579	4424
867.71	4394
867.841	4386
867.972	4462
868.103	4451
868.233	4474
868.364	4459
868.495	4493
868.625	4656
868.756	4748
868.886	4542
869.017	4615
869.147	4790
869.278	4801
869.408	4687
869.539	4577
869.669	4694
869.799	4664
869.929	4736
870.06	4710
870.19	4938
870.32	4938
870.45	4961
870.58	4972
870.71	5075
870.84	5098
870.97	4976
871.1	4915
871.23	5147
871.36	5113
871.489	4980
871.619	5086
871.749	5098
871.879	5132
872.008	5185
872.138	5109
872.267	5018
872.397	4831
872.526	4797
872.656	4725
872.785	4790
872.915	4961
873.044	4980
873.173	4938
873.303	4957
873.432	4938
873.561	4991
873.69	4820
873.819	4797
873.948	4930
874.077	4816
874.206	4733
874.335	4782
874.464	4949
874.593	5060
874.722	4934
874.851	5071
874.979	5029
875.108	5052
875.237	4911
875.365	4881
875.494	4911
875.623	4980
875.751	4839
875.88	4900
876.008	4953
876.136	5014
876.265	5242
876.393	5288
876.521	5242
876.65	5265
876.778	5136
876.906	4999
877.034	5052
877.162	5041
877.29	5045
877.418	5052
877.546	5029
877.674	5018
877.802	5022
877.93	4980
878.058	4881
878.185	4896
878.313	4968
878.441	4900
878.568	4797
878.696	4835
878.824	4957
878.951	4949
879.079	5113
879.206	5258
879.333	5079
879.461	4911
879.588	5014
879.715	5121
879.842	5197
879.97	5006
880.097	4809
880.224	4755
880.351	4771
880.478	4824
880.605	4744
880.732	4771
880.859	5048
880.986	4881
881.112	4946
881.239	4812
881.366	4660
881.493	4588
881.619	4577
881.746	4596
881.872	4596
881.999	4637
882.125	4653
882.252	4790
882.378	4778
882.505	4972
882.631	4793
882.757	4588
882.883	4683
883.01	4736
883.136	4717
883.262	4561
883.388	4573
883.514	4748
883.64	4866
883.766	4801
883.892	4641
884.018	4710
884.143	4854
884.269	4995
884.395	4683
884.52	4622
884.646	4645
884.772	4599
884.897	4535
885.023	4641
885.148	4744
885.274	4854
885.399	4759
885.524	4748
885.65	4668
885.775	4752
885.9	4710
886.025	4812
886.15	4812
886.275	4755
886.4	4634
886.525	4725
886.65	4675
886.775	4698
886.9	4904
887.025	5045
887.149	4793
887.274	4653
887.399	4603
887.523	4584
887.648	4622
887.773	4584
887.897	4786
888.021	4809
888.146	4733
888.27	4847
888.395	4904
888.519	4797
888.643	4778
888.767	4881
888.891	4725
889.015	4641
889.139	4687
889.263	4637
889.387	4786
889.511	4911
889.635	4847
889.759	4649
889.883	4683
890.006	4771
890.13	4850
890.254	4626
890.377	4752
890.501	4577
890.624	4561
890.748	4653
890.871	4531
890.995	4409
891.118	4424
891.241	4516
891.364	4611
891.488	4596
891.611	4508
891.734	4599
891.857	4607
891.98	4603
892.103	4687
892.226	4634
892.349	4596
892.471	4516
892.594	4584
892.717	4672
892.839	4546
892.962	4660
893.085	4694
893.207	4573
893.33	4436
893.452	4554
893.575	4664
893.697	4596
893.819	4843
893.941	4835
894.064	4801
894.186	4630
894.308	4622
894.43	4774
894.552	4843
894.674	4793
894.796	4626
894.918	4637
895.04	4596
895.161	4733
895.283	4660
895.405	4577
895.526	4672
895.648	4759
895.769	4710
895.891	4740
896.012	4774
896.134	4755
896.255	4698
896.376	4717
896.498	4668
896.619	4698
896.74	4653
896.861	4672
896.982	4961
897.103	5105
897.224	4850
897.345	4744
897.466	4725
897.587	4744
897.708	4927
897.828	4816
897.949	4683
898.07	4599
898.19	4660
898.311	4809
898.431	4729
898.552	4755
898.672	4835
898.792	4809
898.913	4782
899.033	4630
899.153	4558
899.273	4440
899.393	4527
899.513	4542
899.633	4535
899.753	4592
899.873	4516
899.993	4592
900.113	4531
900.232	4611
900.352	4569
900.472	4497
900.591	4485
900.711	4535
900.83	4474
900.95	4626
901.069	4717
901.189	4535
901.308	4379
901.427	4303
901.546	4405
901.665	4455
901.784	4497
901.904	4478
902.023	4318
902.141	4207
902.26	4204
902.379	4306
902.498	4242
902.617	4253
902.735	4394
902.854	4428
902.973	4371
903.091	4219
903.21	4230
903.328	4306
903.446	4284
903.565	4287
903.683	4363
903.801	4348
903.919	4417
904.038	4455
904.156	4383
904.274	4455
904.392	4485
904.51	4432
904.627	4538
904.745	4588
904.863	4656
904.981	4462
905.098	4352
905.216	4386
905.334	4447
905.451	4459
905.569	4478
905.686	4607
905.803	4599
905.921	4432
906.038	4577
906.155	4470
906.272	4440
906.389	4478
906.506	4428
906.623	4383
906.74	4402
906.857	4341
906.974	4405
907.091	4558
907.208	4725
907.324	4630
907.441	4535
907.557	4341
907.674	4352
907.79	4371
907.907	4428
908.023	4516
908.139	4527
908.256	4421
908.372	4516
908.488	4493
908.604	4375
908.72	4398
908.836	4417
908.952	4398
909.068	4474
909.184	4607
909.3	4527
909.415	4599
909.531	4603
909.647	4329
909.762	4375
909.878	4344
909.993	4443
910.108	4455
910.224	4447
910.339	4542
910.454	4421
910.57	4398
910.685	4322
910.8	4717
910.915	4645
911.03	4478
911.145	4375
911.259	4337
911.374	4367
911.489	4322
911.604	4276
911.718	4234
911.833	4211
911.947	4124
912.062	4086
912.176	4204
912.291	4265
912.405	4265
912.519	4512
912.633	4538
912.748	4390
912.862	4352
912.976	4211
913.09	4169
913.204	4192
913.318	4268
913.431	4398
913.545	4383
913.659	4470
913.772	4375
913.886	4280
914	4261
914.113	4417
914.226	4466
914.34	4424
914.453	4230
914.566	4440
914.68	4344
914.793	4356
914.906	4204
915.019	4162
915.132	4124
915.245	4211
915.358	4246
915.47	4268
915.583	4337
915.696	4333
915.809	4474
915.921	4481
916.034	4284
916.146	4272
916.259	4306
916.371	4390
916.483	4383
916.595	4242
916.708	4325
916.82	4344
916.932	4337
917.044	4356
917.156	4337
917.268	4253
917.38	4337
917.491	4276
917.603	4383
917.715	4466
917.826	4481
917.938	4394
918.049	4272
918.161	4409
918.272	4573
918.384	4546
918.495	4474
918.606	4314
918.717	4268
918.828	4390
918.939	4360
919.05	4295
919.161	4303
919.272	4150
919.383	4246
919.494	4470
919.604	4691
919.715	4436
919.826	4417
919.936	4409
920.047	4577
920.157	4516
920.267	4717
920.378	4550
920.488	4531
920.598	4725
920.708	4873
920.818	4763
920.928	4786
921.038	4976
921.148	4927
921.258	4645
921.368	4668
921.477	4527
921.587	4478
921.697	4417
921.806	4603
921.916	4466
922.025	4257
922.134	4318
922.244	4246
922.353	4352
922.462	4177
922.571	4143
922.68	4040
922.789	4021
922.898	4067
923.007	4006
923.116	4101
923.224	4120
923.333	4063
923.442	4025
923.55	3991
923.659	4097
923.767	4128
923.876	3987
923.984	4147
924.092	4021
924.201	4101
924.309	4131
924.417	4124
924.525	4109
924.633	4124
924.741	5056
924.849	3991
924.956	4185
925.064	3987
925.172	3941
925.279	3953
925.387	4067
925.494	4051
925.602	4234
925.709	4196
925.816	4067
925.924	4162
926.031	4227
926.138	4143
926.245	4200
926.352	4131
926.459	4325
926.566	4306
926.673	4185
926.779	4120
926.886	4101
926.993	3991
927.099	3979
927.206	3960
927.312	3937
927.419	4093
927.525	4017
927.631	4105
927.737	4010
927.843	3937
927.95	3846
928.056	3937
928.162	4006
928.267	4074
928.373	4538
928.479	4150
928.585	3892
928.69	4059
928.796	4067
928.901	3975
929.007	3880
929.112	3991
929.218	4006
929.323	3934
929.428	3979
929.533	4124
929.638	3922
929.743	3968
929.848	4021
929.953	3972
930.058	3987
930.163	3778
930.267	3842
930.372	4036
930.477	3823
930.581	4086
930.685	3979
930.79	3865
930.894	3960
930.998	3880
931.103	4051
931.207	3762
931.311	3705
931.415	3682
931.519	3591
931.623	3572
