Data from test_V78500241_1843.txt Node
Date: Fri Mar 25 17:01:48 CST 2022
User: usil
Spectrometer: V785-0024
Trigger mode: 0
Integration Time (sec): 4.000000E-1
Scans to average: 1
Nonlinearity correction enabled: false
Boxcar width: 0
Storing dark spectrum: false
XAxis mode: Wavelengths
Number of Pixels in Spectrum: 1024
>>>>>Begin Spectral Data<<<<<
801.071	8001
801.214	7940
801.356	7864
801.499	7811
801.641	7807
801.783	7837
801.926	8046
802.068	7925
802.211	7993
802.353	7913
802.496	7871
802.638	7864
802.78	7883
802.923	7909
803.065	7807
803.208	7883
803.35	7947
803.492	8073
803.635	8123
803.777	7967
803.919	8126
804.061	8381
804.204	8126
804.346	8035
804.488	7898
804.63	8157
804.773	8058
804.915	8134
805.057	8263
805.199	8134
805.341	8168
805.483	8279
805.626	8229
805.768	8103
805.91	8123
806.052	8199
806.194	8088
806.336	8263
806.478	8138
806.62	8016
806.762	8138
806.904	8237
807.046	8454
807.188	8427
807.33	8263
807.472	8279
807.614	8153
807.756	8130
807.898	8043
808.04	7894
808.182	7811
808.324	7898
808.465	7864
808.607	8001
808.749	8123
808.891	8172
809.033	8305
809.174	8168
809.316	8081
809.458	8058
809.6	8016
809.741	8043
809.883	8043
810.025	8111
810.166	8054
810.308	8027
810.45	7982
810.591	7830
810.733	7662
810.875	7719
811.016	7582
811.158	7464
811.299	7567
811.441	7693
811.582	7632
811.724	7548
811.865	7559
812.007	7578
812.148	7567
812.29	7556
812.431	7811
812.573	7947
812.714	7959
812.855	8119
812.997	8130
813.138	8301
813.279	8157
813.421	8046
813.562	7967
813.703	7811
813.845	7681
813.986	7426
814.127	7251
814.268	7194
814.41	7194
814.551	7206
814.692	7183
814.833	7107
814.974	7141
815.115	7152
815.256	6985
815.397	6954
815.539	6977
815.68	6833
815.821	6760
815.962	6837
816.103	6779
816.244	6665
816.385	6688
816.526	6635
816.666	6467
816.807	6319
816.948	6403
817.089	6441
817.23	6410
817.371	6395
817.512	6388
817.653	6407
817.793	6338
817.934	6399
818.075	6460
818.216	6395
818.356	6399
818.497	6224
818.638	6060
818.778	6106
818.919	6152
819.06	6159
819.2	6296
819.341	6365
819.481	6372
819.622	6486
819.762	6730
819.903	6646
820.043	6589
820.184	6494
820.324	6570
820.465	6703
820.605	6684
820.746	6681
820.886	6471
821.026	6608
821.167	6700
821.307	6821
821.447	6688
821.588	6734
821.728	6574
821.868	6483
822.008	6365
822.149	6361
822.289	6372
822.429	6171
822.569	6098
822.709	6079
822.849	5859
822.99	5942
823.13	5874
823.27	5935
823.41	5802
823.55	5836
823.69	5741
823.83	5790
823.97	5699
824.11	5505
824.25	5482
824.389	5570
824.529	5596
824.669	5528
824.809	5646
824.949	5634
825.089	5600
825.228	5516
825.368	5330
825.508	5307
825.648	5315
825.787	5318
825.927	5360
826.067	5303
826.206	5322
826.346	5330
826.485	5368
826.625	5315
826.765	5471
826.904	5501
827.044	5193
827.183	5178
827.323	5185
827.462	5246
827.601	5170
827.741	5185
827.88	5235
828.02	5136
828.159	5166
828.298	5280
828.437	5334
828.577	5254
828.716	5501
828.855	5353
828.994	5132
829.134	5136
829.273	5197
829.412	5143
829.551	5147
829.69	5151
829.829	5280
829.968	5292
830.107	5307
830.246	5296
830.385	5147
830.524	5185
830.663	5064
830.802	4961
830.941	4858
831.08	4866
831.219	4976
831.357	4938
831.496	5174
831.635	4896
831.774	4900
831.913	4843
832.051	4687
832.19	4729
832.329	4824
832.467	4706
832.606	4637
832.744	4710
832.883	4759
833.022	4740
833.16	4755
833.299	4786
833.437	4831
833.576	4801
833.714	4812
833.852	4870
833.991	4892
834.129	4949
834.267	4957
834.406	4923
834.544	4976
834.682	4946
834.821	4953
834.959	5124
835.097	4965
835.235	5128
835.373	5117
835.511	5083
835.65	5048
835.788	5003
835.926	4881
836.064	4812
836.202	4881
836.34	5174
836.478	5197
836.615	5147
836.753	5185
836.891	5261
837.029	5208
837.167	5132
837.305	5143
837.443	5159
837.58	5079
837.718	5197
837.856	5102
837.993	5124
838.131	5201
838.269	5181
838.406	5235
838.544	5189
838.681	5025
838.819	5052
838.956	4854
839.094	4904
839.231	4904
839.369	5083
839.506	5402
839.643	5292
839.781	5102
839.918	4987
840.055	5067
840.193	5041
840.33	5113
840.467	5071
840.604	5159
840.742	5376
840.879	5105
841.016	5037
841.153	5128
841.29	5349
841.427	5383
841.564	5311
841.701	5349
841.838	5227
841.975	5220
842.112	5250
842.249	5162
842.385	5132
842.522	5326
842.659	5166
842.796	5143
842.933	5174
843.069	5170
843.206	5166
843.343	5326
843.479	5231
843.616	5231
843.752	5022
843.889	4987
844.025	5212
844.162	4961
844.298	5246
844.435	5052
844.571	5022
844.708	5159
844.844	5261
844.98	5353
845.117	5303
845.253	5109
845.389	5079
845.525	5193
845.661	5102
845.798	5006
845.934	5071
846.07	5022
846.206	5159
846.342	5273
846.478	5147
846.614	4995
846.75	5014
846.886	4923
847.022	5136
847.158	5003
847.294	5090
847.429	5117
847.565	5010
847.701	5326
847.837	4858
847.972	4748
848.108	4915
848.244	4968
848.379	4774
848.515	4744
848.65	4725
848.786	4710
848.921	4744
849.057	4877
849.192	4942
849.328	4828
849.463	4862
849.598	4824
849.734	4782
849.869	4675
850.004	4615
850.14	4653
850.275	4645
850.41	4523
850.545	4542
850.68	4626
850.815	4611
850.95	4569
851.085	4824
851.22	4752
851.355	4641
851.49	4538
851.625	4584
851.76	4599
851.895	4577
852.03	4558
852.165	4626
852.299	4733
852.434	4767
852.569	4729
852.703	4748
852.838	4790
852.973	4953
853.107	4866
853.242	4733
853.376	4656
853.511	4527
853.645	4634
853.78	4767
853.914	4706
854.048	4660
854.183	4630
854.317	4679
854.451	4816
854.585	4630
854.72	4656
854.854	4793
854.988	4626
855.122	4611
855.256	4481
855.39	4603
855.524	4790
855.658	4725
855.792	4725
855.926	4744
856.06	4736
856.194	4771
856.327	4660
856.461	4573
856.595	4599
856.729	4622
856.862	4771
856.996	4714
857.13	4706
857.263	4740
857.397	4755
857.53	4634
857.664	4736
857.797	4717
857.931	4729
858.064	4649
858.197	4736
858.331	4664
858.464	4618
858.597	4561
858.731	4588
858.864	4626
858.997	4611
859.13	4653
859.263	4653
859.396	4691
859.529	4546
859.662	4573
859.795	4550
859.928	4618
860.061	4797
860.194	4786
860.327	4550
860.46	4573
860.592	4710
860.725	4714
860.858	4759
860.99	4565
861.123	4481
861.256	4527
861.388	4622
861.521	5357
861.653	4455
861.786	4432
861.918	4432
862.05	4481
862.183	4561
862.315	4626
862.447	4626
862.58	4531
862.712	4402
862.844	4314
862.976	4455
863.108	4398
863.24	4881
863.372	4325
863.504	4329
863.636	4417
863.768	4455
863.9	4451
864.032	4371
864.164	4405
864.296	4462
864.428	4554
864.559	4519
864.691	4489
864.823	4481
864.954	4485
865.086	4455
865.217	4447
865.349	4390
865.48	4436
865.612	4417
865.743	4588
865.875	4424
866.006	4379
866.137	4462
866.269	4459
866.4	4443
866.531	4413
866.662	4394
866.793	4398
866.924	4398
867.055	4462
867.186	4398
867.317	4394
867.448	4363
867.579	4363
867.71	4398
867.841	4352
867.972	4478
868.103	4478
868.233	4367
868.364	4432
868.495	4440
868.625	4615
868.756	4733
868.886	4596
869.017	4569
869.147	4729
869.278	4744
869.408	4637
869.539	4618
869.669	4687
869.799	4645
869.929	4733
870.06	4717
870.19	4949
870.32	4976
870.45	4915
870.58	5041
870.71	5094
870.84	5098
870.97	4942
871.1	4892
871.23	5128
871.36	5117
871.489	5010
871.619	5079
871.749	5109
871.879	5102
872.008	5181
872.138	5060
872.267	4991
872.397	4858
872.526	4812
872.656	4714
872.785	4812
872.915	5018
873.044	5022
873.173	4919
873.303	4957
873.432	5033
873.561	4953
873.69	4828
873.819	4850
873.948	4892
874.077	4805
874.206	4744
874.335	4790
874.464	4980
874.593	5090
874.722	4995
874.851	5136
874.979	5041
875.108	5109
875.237	4968
875.365	4961
875.494	4892
875.623	4972
875.751	4892
875.88	4946
876.008	4987
876.136	5102
876.265	5239
876.393	5337
876.521	5307
876.65	5261
876.778	5216
876.906	5162
877.034	5086
877.162	5079
877.29	5060
877.418	5102
877.546	5041
877.674	5071
877.802	5045
877.93	5048
878.058	4987
878.185	4930
878.313	5025
878.441	4949
878.568	4793
878.696	4900
878.824	4957
878.951	5056
879.079	5151
879.206	5311
879.333	5185
879.461	5006
879.588	5052
879.715	5113
879.842	5284
879.97	5041
880.097	4835
880.224	4767
880.351	4816
880.478	4892
880.605	4812
880.732	4786
880.859	5113
880.986	4938
881.112	4984
881.239	4862
881.366	4683
881.493	4675
881.619	4634
881.746	4664
881.872	4672
881.999	4706
882.125	4729
882.252	4793
882.378	4847
882.505	5006
882.631	4793
882.757	4725
882.883	4755
883.01	4767
883.136	4656
883.262	4626
883.388	4649
883.514	4850
883.64	4953
883.766	4812
883.892	4729
884.018	4767
884.143	4892
884.269	5064
884.395	4679
884.52	4649
884.646	4744
884.772	4565
884.897	4569
885.023	4706
885.148	4824
885.274	4923
885.399	4854
885.524	4717
885.65	4717
885.775	4778
885.9	4744
886.025	4881
886.15	4812
886.275	4759
886.4	4702
886.525	4763
886.65	4763
886.775	4710
886.9	4896
887.025	5064
887.149	4805
887.274	4634
887.399	4588
887.523	4645
887.648	4588
887.773	4580
887.897	4790
888.021	4831
888.146	4755
888.27	4843
888.395	4930
888.519	4816
888.643	4854
888.767	4866
888.891	4698
889.015	4618
889.139	4698
889.263	4694
889.387	4771
889.511	4873
889.635	4828
889.759	4668
889.883	4637
890.006	4786
890.13	4877
890.254	4603
890.377	4763
890.501	4542
890.624	4519
890.748	4656
890.871	4573
890.995	4459
891.118	4436
891.241	4504
891.364	4554
891.488	4656
891.611	4497
891.734	4554
891.857	4626
891.98	4558
892.103	4679
892.226	4603
892.349	4519
892.471	4451
892.594	4573
892.717	4618
892.839	4611
892.962	4664
893.085	4736
893.207	4618
893.33	4474
893.452	4542
893.575	4675
893.697	4611
893.819	4831
893.941	4828
894.064	4843
894.186	4603
894.308	4580
894.43	4759
894.552	4862
894.674	4763
894.796	4603
894.918	4588
895.04	4615
895.161	4744
895.283	4717
895.405	4618
895.526	4706
895.648	4691
895.769	4725
895.891	4771
896.012	4786
896.134	4767
896.255	4656
896.376	4691
896.498	4645
896.619	4698
896.74	4634
896.861	4634
896.982	4915
897.103	5086
897.224	4835
897.345	4778
897.466	4702
897.587	4767
897.708	4923
897.828	4797
897.949	4691
898.07	4603
898.19	4694
898.311	4850
898.431	4767
898.552	4793
898.672	4854
898.792	4847
898.913	4774
899.033	4615
899.153	4485
899.273	4474
899.393	4512
899.513	4550
899.633	4500
899.753	4577
899.873	4535
899.993	4615
900.113	4580
900.232	4630
900.352	4561
900.472	4512
900.591	4421
900.711	4512
900.83	4440
900.95	4656
901.069	4706
901.189	4611
901.308	4375
901.427	4379
901.546	4421
901.665	4462
901.784	4527
901.904	4390
902.023	4360
902.141	4204
902.26	4207
902.379	4360
902.498	4306
902.617	4230
902.735	4344
902.854	4443
902.973	4386
903.091	4219
903.21	4211
903.328	4337
903.446	4295
903.565	4276
903.683	4375
903.801	4344
903.919	4447
904.038	4462
904.156	4379
904.274	4462
904.392	4440
904.51	4455
904.627	4481
904.745	4634
904.863	4687
904.981	4443
905.098	4310
905.216	4383
905.334	4481
905.451	4428
905.569	4485
905.686	4561
905.803	4596
905.921	4424
906.038	4603
906.155	4497
906.272	4409
906.389	4504
906.506	4386
906.623	4421
906.74	4413
906.857	4363
906.974	4390
907.091	4626
907.208	4687
907.324	4611
907.441	4504
907.557	4352
907.674	4344
907.79	4398
907.907	4440
908.023	4531
908.139	4489
908.256	4489
908.372	4493
908.488	4466
908.604	4375
908.72	4318
908.836	4379
908.952	4409
909.068	4428
909.184	4599
909.3	4512
909.415	4607
909.531	4611
909.647	4386
909.762	4405
909.878	4363
909.993	4459
910.108	4462
910.224	4371
910.339	4508
910.454	4443
910.57	4409
910.685	4318
910.8	4653
910.915	4565
911.03	4523
911.145	4371
911.259	4375
911.374	4379
911.489	4337
911.604	4284
911.718	4200
911.833	4249
911.947	4105
912.062	4059
912.176	4272
912.291	4280
912.405	4310
912.519	4462
912.633	4550
912.748	4459
912.862	4325
912.976	4185
913.09	4162
913.204	4196
913.318	4310
913.431	4394
913.545	4379
913.659	4451
913.772	4363
913.886	4211
914	4223
914.113	4367
914.226	4447
914.34	4405
914.453	4242
914.566	4451
914.68	4299
914.793	4329
914.906	4166
915.019	4154
915.132	4109
915.245	4219
915.358	4242
915.47	4284
915.583	4287
915.696	4333
915.809	4447
915.921	4451
916.034	4287
916.146	4253
916.259	4280
916.371	4367
916.483	4383
916.595	4310
916.708	4356
916.82	4356
916.932	4265
917.044	4390
917.156	4325
917.268	4280
917.38	4344
917.491	4257
917.603	4363
917.715	4386
917.826	4402
917.938	4352
918.049	4284
918.161	4402
918.272	4542
918.384	4573
918.495	4500
918.606	4276
918.717	4223
918.828	4363
918.939	4402
919.05	4246
919.161	4299
919.272	4120
919.383	4238
919.494	4462
919.604	4687
919.715	4443
919.826	4367
919.936	4352
920.047	4580
920.157	4508
920.267	4698
920.378	4535
920.488	4554
920.598	4755
920.708	4915
920.818	4771
920.928	4767
921.038	5006
921.148	4885
921.258	4660
921.368	4577
921.477	4523
921.587	4478
921.697	4466
921.806	4554
921.916	4466
922.025	4276
922.134	4314
922.244	4291
922.353	4329
922.462	4219
922.571	4150
922.68	4059
922.789	4036
922.898	4025
923.007	3975
923.116	4093
923.224	4105
923.333	4105
923.442	4010
923.55	4002
923.659	4120
923.767	4131
923.876	3998
923.984	4166
924.092	3956
924.201	4112
924.309	4124
924.417	4135
924.525	4048
924.633	4143
924.741	5079
924.849	3941
924.956	4124
925.064	3998
925.172	3892
925.279	4017
925.387	4051
925.494	4055
925.602	4238
925.709	4166
925.816	4101
925.924	4169
926.031	4246
926.138	4177
926.245	4219
926.352	4074
926.459	4234
926.566	4310
926.673	4173
926.779	4116
926.886	4143
926.993	3987
927.099	3956
927.206	3979
927.312	3994
927.419	4040
927.525	4040
927.631	4112
927.737	4010
927.843	3941
927.95	3827
928.056	3979
928.162	4025
928.267	4025
928.373	4603
928.479	4112
928.585	3899
928.69	4051
928.796	4173
928.901	3956
929.007	3880
929.112	4036
929.218	4017
929.323	3960
929.428	3937
929.533	4105
929.638	3960
929.743	3975
929.848	4074
929.953	3975
930.058	3949
930.163	3770
930.267	3823
930.372	3907
930.477	3838
930.581	4109
930.685	3956
930.79	3800
930.894	3918
930.998	3854
931.103	4124
931.207	3736
931.311	3717
931.415	3667
931.519	3549
931.623	3549
