Data from test_V78500241_2266.txt Node
Date: Fri Mar 25 17:04:45 CST 2022
User: usil
Spectrometer: V785-0024
Trigger mode: 0
Integration Time (sec): 4.000000E-1
Scans to average: 1
Nonlinearity correction enabled: false
Boxcar width: 0
Storing dark spectrum: false
XAxis mode: Wavelengths
Number of Pixels in Spectrum: 1024
>>>>>Begin Spectral Data<<<<<
801.071	7967
801.214	7974
801.356	7906
801.499	7814
801.641	7753
801.783	7780
801.926	8001
802.068	7921
802.211	8001
802.353	7993
802.496	7849
802.638	7887
802.78	7909
802.923	7936
803.065	7852
803.208	7757
803.35	7997
803.492	8039
803.635	8130
803.777	7993
803.919	8107
804.061	8412
804.204	8103
804.346	8046
804.488	7986
804.63	8001
804.773	8016
804.915	8050
805.057	8313
805.199	8088
805.341	8225
805.483	8240
805.626	8271
805.768	8107
805.91	8176
806.052	8111
806.194	8126
806.336	8218
806.478	8153
806.62	8046
806.762	8161
806.904	8298
807.046	8423
807.188	8324
807.33	8259
807.472	8263
807.614	8134
807.756	8020
807.898	7986
808.04	7890
808.182	7879
808.324	7852
808.465	7909
808.607	8058
808.749	8168
808.891	8180
809.033	8256
809.174	8172
809.316	8012
809.458	8039
809.6	7993
809.741	8024
809.883	8065
810.025	8103
810.166	7986
810.308	8008
810.45	7967
810.591	7841
810.733	7750
810.875	7651
811.016	7506
811.158	7472
811.299	7556
811.441	7750
811.582	7662
811.724	7533
811.865	7544
812.007	7597
812.148	7613
812.29	7578
812.431	7700
812.573	7951
812.714	7932
812.855	8084
812.997	8214
813.138	8290
813.279	8134
813.421	8062
813.562	7951
813.703	7772
813.845	7696
813.986	7358
814.127	7270
814.268	7168
814.41	7160
814.551	7183
814.692	7202
814.833	7042
814.974	7129
815.115	7095
815.256	7000
815.397	6981
815.539	6901
815.68	6818
815.821	6711
815.962	6829
816.103	6776
816.244	6707
816.385	6650
816.526	6578
816.666	6517
816.807	6323
816.948	6460
817.089	6429
817.23	6388
817.371	6429
817.512	6388
817.653	6361
817.793	6361
817.934	6391
818.075	6471
818.216	6380
818.356	6395
818.497	6235
818.638	6072
818.778	6136
818.919	6171
819.06	6129
819.2	6410
819.341	6300
819.481	6292
819.622	6536
819.762	6658
819.903	6650
820.043	6642
820.184	6570
820.324	6601
820.465	6665
820.605	6734
820.746	6700
820.886	6547
821.026	6673
821.167	6722
821.307	6848
821.447	6764
821.588	6627
821.728	6551
821.868	6570
822.008	6346
822.149	6338
822.289	6304
822.429	6182
822.569	6117
822.709	6110
822.849	5908
822.99	5920
823.13	5889
823.27	5965
823.41	5764
823.55	5767
823.69	5802
823.83	5771
823.97	5646
824.11	5570
824.25	5486
824.389	5608
824.529	5532
824.669	5520
824.809	5653
824.949	5649
825.089	5653
825.228	5532
825.368	5349
825.508	5318
825.648	5376
825.787	5391
825.927	5372
826.067	5299
826.206	5292
826.346	5383
826.485	5395
826.625	5410
826.765	5611
826.904	5482
827.044	5258
827.183	5204
827.323	5143
827.462	5227
827.601	5216
827.741	5204
827.88	5212
828.02	5105
828.159	5250
828.298	5315
828.437	5322
828.577	5303
828.716	5509
828.855	5353
828.994	5242
829.134	5143
829.273	5212
829.412	5162
829.551	5128
829.69	5155
829.829	5239
829.968	5433
830.107	5337
830.246	5277
830.385	5151
830.524	5178
830.663	5109
830.802	5018
830.941	4911
831.08	4927
831.219	5075
831.357	5037
831.496	5166
831.635	4961
831.774	4885
831.913	4889
832.051	4790
832.19	4759
832.329	4854
832.467	4740
832.606	4675
832.744	4790
832.883	4786
833.022	4797
833.16	4854
833.299	4843
833.437	4809
833.576	4854
833.714	4896
833.852	4923
833.991	4908
834.129	4968
834.267	4984
834.406	4942
834.544	5003
834.682	5010
834.821	4999
834.959	5193
835.097	5025
835.235	5174
835.373	5090
835.511	5147
835.65	5067
835.788	5079
835.926	4915
836.064	4923
836.202	4965
836.34	5185
836.478	5273
836.615	5117
836.753	5223
836.891	5318
837.029	5292
837.167	5254
837.305	5212
837.443	5250
837.58	5147
837.718	5265
837.856	5258
837.993	5288
838.131	5288
838.269	5235
838.406	5174
838.544	5170
838.681	5033
838.819	5056
838.956	4911
839.094	4934
839.231	5033
839.369	5086
839.506	5452
839.643	5326
839.781	5109
839.918	5018
840.055	5067
840.193	5132
840.33	5132
840.467	5204
840.604	5246
840.742	5414
840.879	5151
841.016	5079
841.153	5201
841.29	5387
841.427	5383
841.564	5357
841.701	5406
841.838	5303
841.975	5265
842.112	5292
842.249	5170
842.385	5094
842.522	5372
842.659	5231
842.796	5170
842.933	5193
843.069	5170
843.206	5235
843.343	5307
843.479	5269
843.616	5280
843.752	5064
843.889	5025
844.025	5231
844.162	5014
844.298	5178
844.435	5132
844.571	5132
844.708	5254
844.844	5345
844.98	5395
845.117	5345
845.253	5204
845.389	5102
845.525	5178
845.661	5201
845.798	5090
845.934	5178
846.07	5071
846.206	5189
846.342	5349
846.478	5185
846.614	5064
846.75	4987
846.886	4999
847.022	5147
847.158	5083
847.294	5060
847.429	5117
847.565	5102
847.701	5326
847.837	4877
847.972	4889
848.108	4987
848.244	4942
848.379	4782
848.515	4748
848.65	4729
848.786	4759
848.921	4774
849.057	4908
849.192	4927
849.328	4866
849.463	4881
849.598	4801
849.734	4793
849.869	4729
850.004	4653
850.14	4717
850.275	4660
850.41	4535
850.545	4546
850.68	4558
850.815	4596
850.95	4717
851.085	4870
851.22	4748
851.355	4717
851.49	4622
851.625	4634
851.76	4694
851.895	4599
852.03	4538
852.165	4691
852.299	4717
852.434	4782
852.569	4763
852.703	4801
852.838	4881
852.973	4908
853.107	4908
853.242	4755
853.376	4687
853.511	4565
853.645	4641
853.78	4843
853.914	4714
854.048	4668
854.183	4649
854.317	4778
854.451	4892
854.585	4721
854.72	4660
854.854	4759
854.988	4607
855.122	4656
855.256	4584
855.39	4706
855.524	4816
855.658	4755
855.792	4729
855.926	4710
856.06	4752
856.194	4828
856.327	4736
856.461	4641
856.595	4653
856.729	4645
856.862	4786
856.996	4717
857.13	4694
857.263	4835
857.397	4866
857.53	4740
857.664	4801
857.797	4774
857.931	4801
858.064	4706
858.197	4748
858.331	4645
858.464	4630
858.597	4538
858.731	4664
858.864	4641
858.997	4630
859.13	4626
859.263	4672
859.396	4729
859.529	4565
859.662	4599
859.795	4531
859.928	4656
860.061	4805
860.194	4778
860.327	4691
860.46	4599
860.592	4736
860.725	4736
860.858	4759
860.99	4603
861.123	4542
861.256	4554
861.388	4573
861.521	5379
861.653	4558
861.786	4478
861.918	4493
862.05	4599
862.183	4569
862.315	4622
862.447	4717
862.58	4554
862.712	4360
862.844	4337
862.976	4519
863.108	4508
863.24	4911
863.372	4375
863.504	4455
863.636	4413
863.768	4523
863.9	4485
864.032	4363
864.164	4424
864.296	4470
864.428	4550
864.559	4561
864.691	4569
864.823	4538
864.954	4516
865.086	4542
865.217	4500
865.349	4493
865.48	4504
865.612	4531
865.743	4603
865.875	4489
866.006	4428
866.137	4462
866.269	4459
866.4	4470
866.531	4481
866.662	4402
866.793	4432
866.924	4432
867.055	4512
867.186	4485
867.317	4451
867.448	4379
867.579	4428
867.71	4398
867.841	4402
867.972	4470
868.103	4462
868.233	4493
868.364	4512
868.495	4527
868.625	4672
868.756	4812
868.886	4577
869.017	4641
869.147	4759
869.278	4759
869.408	4679
869.539	4706
869.669	4725
869.799	4694
869.929	4782
870.06	4748
870.19	5029
870.32	4915
870.45	4938
870.58	5064
870.71	5147
870.84	5079
870.97	4984
871.1	4911
871.23	5162
871.36	5151
871.489	5033
871.619	5136
871.749	5105
871.879	5136
872.008	5166
872.138	5083
872.267	4999
872.397	4911
872.526	4812
872.656	4763
872.785	4858
872.915	4976
873.044	5045
873.173	4968
873.303	4984
873.432	4949
873.561	4976
873.69	4923
873.819	4892
873.948	4908
874.077	4843
874.206	4812
874.335	4774
874.464	4927
874.593	5090
874.722	5006
874.851	5113
874.979	5098
875.108	5056
875.237	4885
875.365	4889
875.494	4873
875.623	4987
875.751	4847
875.88	4957
876.008	5025
876.136	5060
876.265	5223
876.393	5303
876.521	5299
876.65	5220
876.778	5193
876.906	5075
877.034	5052
877.162	5067
877.29	5014
877.418	5094
877.546	5033
877.674	5086
877.802	5048
877.93	5048
878.058	5006
878.185	4866
878.313	4927
878.441	4980
878.568	4839
878.696	4873
878.824	4953
878.951	4984
879.079	5136
879.206	5322
879.333	5143
879.461	4961
879.588	5060
879.715	5147
879.842	5250
879.97	4976
880.097	4812
880.224	4797
880.351	4793
880.478	4850
880.605	4831
880.732	4820
880.859	5075
880.986	4934
881.112	4923
881.239	4816
881.366	4706
881.493	4626
881.619	4615
881.746	4683
881.872	4618
881.999	4702
882.125	4672
882.252	4748
882.378	4843
882.505	4946
882.631	4797
882.757	4706
882.883	4740
883.01	4774
883.136	4649
883.262	4577
883.388	4649
883.514	4839
883.64	4854
883.766	4797
883.892	4641
884.018	4774
884.143	4885
884.269	5006
884.395	4683
884.52	4656
884.646	4698
884.772	4588
884.897	4588
885.023	4675
885.148	4755
885.274	4896
885.399	4835
885.524	4710
885.65	4694
885.775	4809
885.9	4752
886.025	4847
886.15	4790
886.275	4759
886.4	4622
886.525	4733
886.65	4698
886.775	4740
886.9	4949
887.025	5029
887.149	4835
887.274	4664
887.399	4599
887.523	4634
887.648	4538
887.773	4588
887.897	4733
888.021	4790
888.146	4687
888.27	4809
888.395	4915
888.519	4801
888.643	4831
888.767	4870
888.891	4706
889.015	4630
889.139	4660
889.263	4622
889.387	4767
889.511	4847
889.635	4831
889.759	4668
889.883	4615
890.006	4733
890.13	4862
890.254	4664
890.377	4706
890.501	4542
890.624	4523
890.748	4622
890.871	4577
890.995	4447
891.118	4379
891.241	4500
891.364	4535
891.488	4645
891.611	4516
891.734	4577
891.857	4611
891.98	4565
892.103	4668
892.226	4611
892.349	4508
892.471	4394
892.594	4565
892.717	4630
892.839	4603
892.962	4577
893.085	4656
893.207	4615
893.33	4478
893.452	4516
893.575	4698
893.697	4580
893.819	4824
893.941	4816
894.064	4759
894.186	4588
894.308	4573
894.43	4774
894.552	4866
894.674	4820
894.796	4538
894.918	4603
895.04	4542
895.161	4755
895.283	4675
895.405	4596
895.526	4660
895.648	4679
895.769	4706
895.891	4759
896.012	4683
896.134	4767
896.255	4687
896.376	4618
896.498	4630
896.619	4733
896.74	4615
896.861	4622
896.982	4930
897.103	5132
897.224	4816
897.345	4778
897.466	4649
897.587	4710
897.708	4870
897.828	4786
897.949	4641
898.07	4580
898.19	4656
898.311	4805
898.431	4698
898.552	4759
898.672	4797
898.792	4854
898.913	4771
899.033	4622
899.153	4504
899.273	4417
899.393	4512
899.513	4584
899.633	4500
899.753	4519
899.873	4538
899.993	4558
900.113	4558
900.232	4599
900.352	4542
900.472	4531
900.591	4413
900.711	4531
900.83	4466
900.95	4637
901.069	4694
901.189	4535
901.308	4371
901.427	4341
901.546	4367
901.665	4519
901.784	4489
901.904	4440
902.023	4325
902.141	4230
902.26	4177
902.379	4295
902.498	4223
902.617	4230
902.735	4344
902.854	4417
902.973	4337
903.091	4253
903.21	4261
903.328	4299
903.446	4284
903.565	4242
903.683	4360
903.801	4299
903.919	4405
904.038	4421
904.156	4344
904.274	4470
904.392	4413
904.51	4424
904.627	4405
904.745	4607
904.863	4615
904.981	4409
905.098	4325
905.216	4386
905.334	4447
905.451	4500
905.569	4413
905.686	4550
905.803	4565
905.921	4356
906.038	4573
906.155	4478
906.272	4409
906.389	4424
906.506	4325
906.623	4386
906.74	4360
906.857	4333
906.974	4363
907.091	4554
907.208	4733
907.324	4577
907.441	4493
907.557	4360
907.674	4348
907.79	4299
907.907	4424
908.023	4500
908.139	4470
908.256	4470
908.372	4470
908.488	4455
908.604	4379
908.72	4356
908.836	4379
908.952	4405
909.068	4424
909.184	4599
909.3	4485
909.415	4592
909.531	4527
909.647	4341
909.762	4348
909.878	4356
909.993	4413
910.108	4443
910.224	4409
910.339	4478
910.454	4402
910.57	4394
910.685	4276
910.8	4645
910.915	4588
911.03	4497
911.145	4329
911.259	4299
911.374	4390
911.489	4306
911.604	4348
911.718	4192
911.833	4204
911.947	4112
912.062	4048
912.176	4219
912.291	4230
912.405	4257
912.519	4478
912.633	4474
912.748	4379
912.862	4322
912.976	4192
913.09	4112
913.204	4204
913.318	4265
913.431	4363
913.545	4375
913.659	4409
913.772	4375
913.886	4242
914	4238
914.113	4383
914.226	4451
914.34	4417
914.453	4223
914.566	4417
914.68	4341
914.793	4314
914.906	4109
915.019	4109
915.132	4063
915.245	4234
915.358	4215
915.47	4207
915.583	4272
915.696	4333
915.809	4409
915.921	4440
916.034	4246
916.146	4306
916.259	4215
916.371	4375
916.483	4390
916.595	4238
916.708	4306
916.82	4306
916.932	4360
917.044	4287
917.156	4265
917.268	4242
917.38	4257
917.491	4238
917.603	4344
917.715	4413
917.826	4478
917.938	4344
918.049	4234
918.161	4409
918.272	4561
918.384	4519
918.495	4428
918.606	4310
918.717	4265
918.828	4333
918.939	4360
919.05	4272
919.161	4322
919.272	4131
919.383	4154
919.494	4447
919.604	4630
919.715	4428
919.826	4363
919.936	4462
920.047	4497
920.157	4462
920.267	4653
920.378	4580
920.488	4512
920.598	4687
920.708	4911
920.818	4782
920.928	4771
921.038	4938
921.148	4847
921.258	4626
921.368	4554
921.477	4470
921.587	4447
921.697	4375
921.806	4512
921.916	4493
922.025	4291
922.134	4314
922.244	4257
922.353	4337
922.462	4150
922.571	4139
922.68	4006
922.789	3987
922.898	4040
923.007	4010
923.116	4086
923.224	4067
923.333	4086
923.442	3983
923.55	3956
923.659	4021
923.767	4147
923.876	4002
923.984	4131
924.092	3968
924.201	4055
924.309	4071
924.417	4131
924.525	4067
924.633	4116
924.741	5037
924.849	3926
924.956	4124
925.064	3956
925.172	3911
925.279	3975
925.387	4074
925.494	4055
925.602	4215
925.709	4162
925.816	4093
925.924	4150
926.031	4188
926.138	4154
926.245	4185
926.352	4086
926.459	4227
926.566	4333
926.673	4135
926.779	4093
926.886	4093
926.993	3983
927.099	3941
927.206	3903
927.312	3918
927.419	4074
927.525	4017
927.631	4044
927.737	3975
927.843	3937
927.95	3884
928.056	3972
928.162	3945
928.267	4055
928.373	4675
928.479	4124
928.585	3873
928.69	4036
928.796	4048
928.901	3979
929.007	3857
929.112	4010
929.218	3991
929.323	3937
929.428	3964
929.533	4135
929.638	3850
929.743	3926
929.848	4067
929.953	3968
930.058	3934
930.163	3755
930.267	3823
930.372	3987
930.477	3804
930.581	4105
930.685	3953
930.79	3831
930.894	3888
930.998	3861
931.103	4002
931.207	3740
931.311	3686
931.415	3667
931.519	3515
931.623	3553
