Data from test_V78500241_1441.txt Node
Date: Fri Mar 25 16:59:01 CST 2022
User: usil
Spectrometer: V785-0024
Trigger mode: 0
Integration Time (sec): 4.000000E-1
Scans to average: 1
Nonlinearity correction enabled: false
Boxcar width: 0
Storing dark spectrum: false
XAxis mode: Wavelengths
Number of Pixels in Spectrum: 1024
>>>>>Begin Spectral Data<<<<<
801.071	8031
801.214	8031
801.356	7894
801.499	7833
801.641	7780
801.783	7803
801.926	7894
802.068	7928
802.211	7921
802.353	7967
802.496	7879
802.638	7871
802.78	7856
802.923	7959
803.065	7921
803.208	7852
803.35	7947
803.492	8024
803.635	8123
803.777	7936
803.919	8168
804.061	8427
804.204	8157
804.346	8039
804.488	7940
804.63	8088
804.773	7989
804.915	8088
805.057	8267
805.199	8180
805.341	8195
805.483	8214
805.626	8180
805.768	8096
805.91	8142
806.052	8221
806.194	8134
806.336	8271
806.478	8111
806.62	8027
806.762	8157
806.904	8282
807.046	8473
807.188	8324
807.33	8282
807.472	8256
807.614	8161
807.756	8115
807.898	7993
808.04	7845
808.182	7852
808.324	7925
808.465	7894
808.607	8046
808.749	8092
808.891	8180
809.033	8237
809.174	8210
809.316	8001
809.458	7997
809.6	7967
809.741	8008
809.883	8046
810.025	8069
810.166	8062
810.308	8069
810.45	7978
810.591	7849
810.733	7753
810.875	7666
811.016	7499
811.158	7540
811.299	7677
811.441	7666
811.582	7708
811.724	7609
811.865	7540
812.007	7552
812.148	7559
812.29	7666
812.431	7734
812.573	7879
812.714	7944
812.855	8100
812.997	8191
813.138	8298
813.279	8195
813.421	8176
813.562	7963
813.703	7818
813.845	7757
813.986	7407
814.127	7225
814.268	7179
814.41	7202
814.551	7118
814.692	7202
814.833	7076
814.974	7050
815.115	7091
815.256	6977
815.397	6947
815.539	6920
815.68	6810
815.821	6738
815.962	6833
816.103	6806
816.244	6696
816.385	6631
816.526	6578
816.666	6448
816.807	6247
816.948	6445
817.089	6433
817.23	6388
817.371	6441
817.512	6319
817.653	6372
817.793	6346
817.934	6448
818.075	6376
818.216	6403
818.356	6407
818.497	6232
818.638	6152
818.778	6186
818.919	6121
819.06	6201
819.2	6296
819.341	6308
819.481	6372
819.622	6494
819.762	6738
819.903	6726
820.043	6608
820.184	6608
820.324	6555
820.465	6688
820.605	6715
820.746	6662
820.886	6528
821.026	6707
821.167	6650
821.307	6772
821.447	6741
821.588	6642
821.728	6578
821.868	6486
822.008	6300
822.149	6323
822.289	6369
822.429	6057
822.569	6057
822.709	6095
822.849	5878
822.99	5916
823.13	5882
823.27	5859
823.41	5802
823.55	5783
823.69	5741
823.83	5729
823.97	5611
824.11	5501
824.25	5516
824.389	5535
824.529	5573
824.669	5543
824.809	5592
824.949	5615
825.089	5592
825.228	5524
825.368	5410
825.508	5315
825.648	5307
825.787	5360
825.927	5372
826.067	5231
826.206	5288
826.346	5406
826.485	5372
826.625	5368
826.765	5505
826.904	5448
827.044	5201
827.183	5223
827.323	5197
827.462	5250
827.601	5174
827.741	5170
827.88	5193
828.02	5079
828.159	5204
828.298	5307
828.437	5360
828.577	5277
828.716	5482
828.855	5322
828.994	5132
829.134	5121
829.273	5185
829.412	5117
829.551	5132
829.69	5170
829.829	5265
829.968	5360
830.107	5212
830.246	5242
830.385	5220
830.524	5140
830.663	5067
830.802	4980
830.941	4858
831.08	4854
831.219	4946
831.357	4942
831.496	5121
831.635	4923
831.774	4896
831.913	4866
832.051	4725
832.19	4733
832.329	4786
832.467	4641
832.606	4630
832.744	4706
832.883	4702
833.022	4672
833.16	4782
833.299	4793
833.437	4759
833.576	4812
833.714	4820
833.852	4850
833.991	4946
834.129	4942
834.267	4938
834.406	4915
834.544	4980
834.682	5025
834.821	4957
834.959	5181
835.097	4980
835.235	5128
835.373	5075
835.511	5094
835.65	4999
835.788	5006
835.926	4850
836.064	4896
836.202	4889
836.34	5128
836.478	5204
836.615	5090
836.753	5185
836.891	5318
837.029	5216
837.167	5162
837.305	5113
837.443	5117
837.58	5056
837.718	5254
837.856	5178
837.993	5052
838.131	5178
838.269	5166
838.406	5185
838.544	5212
838.681	4972
838.819	4957
838.956	4885
839.094	4885
839.231	4965
839.369	5029
839.506	5414
839.643	5280
839.781	5121
839.918	5018
840.055	5025
840.193	5098
840.33	5064
840.467	5094
840.604	5151
840.742	5364
840.879	5079
841.016	5117
841.153	5204
841.29	5364
841.427	5303
841.564	5299
841.701	5383
841.838	5246
841.975	5197
842.112	5239
842.249	5086
842.385	5075
842.522	5269
842.659	5117
842.796	5094
842.933	5227
843.069	5136
843.206	5162
843.343	5303
843.479	5227
843.616	5201
843.752	5037
843.889	4949
844.025	5223
844.162	5037
844.298	5231
844.435	5048
844.571	5014
844.708	5212
844.844	5288
844.98	5330
845.117	5277
845.253	5113
845.389	5014
845.525	5174
845.661	5098
845.798	5018
845.934	5140
846.07	5010
846.206	5132
846.342	5315
846.478	5128
846.614	4968
846.75	4942
846.886	4923
847.022	5109
847.158	4957
847.294	5045
847.429	5117
847.565	5010
847.701	5227
847.837	4870
847.972	4805
848.108	4930
848.244	4900
848.379	4771
848.515	4694
848.65	4702
848.786	4710
848.921	4801
849.057	4854
849.192	4873
849.328	4790
849.463	4862
849.598	4790
849.734	4721
849.869	4687
850.004	4615
850.14	4615
850.275	4584
850.41	4519
850.545	4519
850.68	4611
850.815	4668
850.95	4584
851.085	4816
851.22	4698
851.355	4626
851.49	4596
851.625	4618
851.76	4626
851.895	4542
852.03	4523
852.165	4668
852.299	4687
852.434	4801
852.569	4714
852.703	4771
852.838	4816
852.973	4877
853.107	4923
853.242	4706
853.376	4645
853.511	4531
853.645	4592
853.78	4771
853.914	4679
854.048	4679
854.183	4641
854.317	4656
854.451	4862
854.585	4664
854.72	4637
854.854	4790
854.988	4584
855.122	4645
855.256	4519
855.39	4645
855.524	4759
855.658	4679
855.792	4702
855.926	4672
856.06	4797
856.194	4778
856.327	4672
856.461	4599
856.595	4615
856.729	4577
856.862	4698
856.996	4706
857.13	4736
857.263	4740
857.397	4767
857.53	4626
857.664	4698
857.797	4702
857.931	4748
858.064	4706
858.197	4725
858.331	4645
858.464	4599
858.597	4500
858.731	4573
858.864	4641
858.997	4550
859.13	4656
859.263	4649
859.396	4687
859.529	4596
859.662	4531
859.795	4512
859.928	4634
860.061	4759
860.194	4752
860.327	4580
860.46	4523
860.592	4679
860.725	4721
860.858	4672
860.99	4504
861.123	4481
861.256	4497
861.388	4565
861.521	5395
861.653	4447
861.786	4424
861.918	4466
862.05	4519
862.183	4519
862.315	4546
862.447	4618
862.58	4550
862.712	4398
862.844	4318
862.976	4512
863.108	4417
863.24	4904
863.372	4360
863.504	4386
863.636	4386
863.768	4466
863.9	4451
864.032	4363
864.164	4432
864.296	4485
864.428	4546
864.559	4554
864.691	4542
864.823	4538
864.954	4481
865.086	4558
865.217	4462
865.349	4443
865.48	4443
865.612	4554
865.743	4645
865.875	4485
866.006	4443
866.137	4500
866.269	4383
866.4	4440
866.531	4428
866.662	4462
866.793	4443
866.924	4432
867.055	4531
867.186	4459
867.317	4459
867.448	4421
867.579	4481
867.71	4428
867.841	4424
867.972	4432
868.103	4512
868.233	4497
868.364	4508
868.495	4561
868.625	4706
868.756	4733
868.886	4584
869.017	4653
869.147	4797
869.278	4816
869.408	4660
869.539	4675
869.669	4820
869.799	4660
869.929	4812
870.06	4740
870.19	5018
870.32	4915
870.45	4919
870.58	5010
870.71	5132
870.84	5136
870.97	4999
871.1	4923
871.23	5223
871.36	5155
871.489	5090
871.619	5109
871.749	5090
871.879	5143
872.008	5151
872.138	5132
872.267	5022
872.397	4908
872.526	4828
872.656	4805
872.785	4843
872.915	5003
873.044	4999
873.173	5003
873.303	5003
873.432	5014
873.561	5025
873.69	4900
873.819	4934
873.948	4908
874.077	4839
874.206	4748
874.335	4793
874.464	5029
874.593	5048
874.722	4965
874.851	5162
874.979	5086
875.108	5079
875.237	4923
875.365	4896
875.494	4892
875.623	5037
875.751	4839
875.88	4877
876.008	5006
876.136	5033
876.265	5220
876.393	5383
876.521	5322
876.65	5254
876.778	5216
876.906	5079
877.034	5086
877.162	5060
877.29	5056
877.418	5094
877.546	5071
877.674	5060
877.802	5094
877.93	5079
878.058	4949
878.185	4930
878.313	4991
878.441	4980
878.568	4877
878.696	4896
878.824	5014
878.951	4999
879.079	5185
879.206	5337
879.333	5102
879.461	4972
879.588	5056
879.715	5124
879.842	5273
879.97	4999
880.097	4793
880.224	4812
880.351	4850
880.478	4820
880.605	4812
880.732	4774
880.859	5113
880.986	4930
881.112	4961
881.239	4816
881.366	4744
881.493	4668
881.619	4599
881.746	4672
881.872	4626
881.999	4641
882.125	4721
882.252	4778
882.378	4877
882.505	4999
882.631	4850
882.757	4672
882.883	4736
883.01	4793
883.136	4698
883.262	4675
883.388	4649
883.514	4850
883.64	4877
883.766	4809
883.892	4710
884.018	4733
884.143	4908
884.269	5048
884.395	4672
884.52	4580
884.646	4698
884.772	4611
884.897	4618
885.023	4649
885.148	4820
885.274	4862
885.399	4843
885.524	4687
885.65	4698
885.775	4812
885.9	4736
886.025	4870
886.15	4820
886.275	4752
886.4	4656
886.525	4725
886.65	4744
886.775	4714
886.9	4930
887.025	4972
887.149	4816
887.274	4706
887.399	4603
887.523	4618
887.648	4611
887.773	4592
887.897	4774
888.021	4858
888.146	4748
888.27	4847
888.395	4885
888.519	4824
888.643	4824
888.767	4843
888.891	4721
889.015	4603
889.139	4668
889.263	4649
889.387	4828
889.511	4904
889.635	4816
889.759	4694
889.883	4679
890.006	4733
890.13	4812
890.254	4630
890.377	4714
890.501	4474
890.624	4512
890.748	4637
890.871	4519
890.995	4466
891.118	4394
891.241	4565
891.364	4596
891.488	4649
891.611	4485
891.734	4592
891.857	4675
891.98	4558
892.103	4679
892.226	4649
892.349	4554
892.471	4413
892.594	4538
892.717	4577
892.839	4550
892.962	4626
893.085	4653
893.207	4588
893.33	4489
893.452	4554
893.575	4710
893.697	4622
893.819	4824
893.941	4862
894.064	4790
894.186	4656
894.308	4626
894.43	4748
894.552	4828
894.674	4809
894.796	4622
894.918	4611
895.04	4561
895.161	4744
895.283	4691
895.405	4607
895.526	4656
895.648	4736
895.769	4706
895.891	4733
896.012	4774
896.134	4752
896.255	4710
896.376	4596
896.498	4607
896.619	4683
896.74	4622
896.861	4679
896.982	4942
897.103	5083
897.224	4862
897.345	4736
897.466	4687
897.587	4744
897.708	4900
897.828	4820
897.949	4634
898.07	4523
898.19	4653
898.311	4877
898.431	4725
898.552	4748
898.672	4854
898.792	4740
898.913	4748
899.033	4615
899.153	4538
899.273	4455
899.393	4550
899.513	4565
899.633	4516
899.753	4538
899.873	4550
899.993	4596
900.113	4546
900.232	4626
900.352	4542
900.472	4516
900.591	4409
900.711	4535
900.83	4451
900.95	4618
901.069	4694
901.189	4550
901.308	4417
901.427	4352
901.546	4451
901.665	4462
901.784	4569
901.904	4466
902.023	4318
902.141	4204
902.26	4177
902.379	4371
902.498	4299
902.617	4215
902.735	4352
902.854	4398
902.973	4375
903.091	4268
903.21	4253
903.328	4325
903.446	4303
903.565	4303
903.683	4398
903.801	4306
903.919	4440
904.038	4481
904.156	4337
904.274	4440
904.392	4432
904.51	4428
904.627	4508
904.745	4592
904.863	4683
904.981	4432
905.098	4371
905.216	4398
905.334	4470
905.451	4504
905.569	4402
905.686	4565
905.803	4599
905.921	4440
906.038	4542
906.155	4512
906.272	4440
906.389	4478
906.506	4356
906.623	4405
906.74	4413
906.857	4306
906.974	4348
907.091	4565
907.208	4675
907.324	4558
907.441	4538
907.557	4337
907.674	4341
907.79	4348
907.907	4394
908.023	4455
908.139	4512
908.256	4447
908.372	4478
908.488	4428
908.604	4367
908.72	4344
908.836	4424
908.952	4413
909.068	4455
909.184	4546
909.3	4447
909.415	4580
909.531	4523
909.647	4367
909.762	4383
909.878	4333
909.993	4470
910.108	4432
910.224	4443
910.339	4497
910.454	4424
910.57	4348
910.685	4287
910.8	4660
910.915	4599
911.03	4478
911.145	4322
911.259	4310
911.374	4379
911.489	4314
911.604	4295
911.718	4169
911.833	4230
911.947	4086
912.062	4029
912.176	4242
912.291	4261
912.405	4249
912.519	4478
912.633	4550
912.748	4394
912.862	4322
912.976	4200
913.09	4128
913.204	4177
913.318	4276
913.431	4379
913.545	4371
913.659	4474
913.772	4375
913.886	4238
914	4257
914.113	4386
914.226	4459
914.34	4394
914.453	4249
914.566	4424
914.68	4344
914.793	4337
914.906	4101
915.019	4116
915.132	4090
915.245	4162
915.358	4188
915.47	4261
915.583	4306
915.696	4341
915.809	4398
915.921	4436
916.034	4287
916.146	4265
916.259	4249
916.371	4432
916.483	4379
916.595	4299
916.708	4402
916.82	4303
916.932	4363
917.044	4341
917.156	4344
917.268	4238
917.38	4314
917.491	4314
917.603	4402
917.715	4432
917.826	4470
917.938	4348
918.049	4227
918.161	4402
918.272	4573
918.384	4531
918.495	4474
918.606	4329
918.717	4261
918.828	4306
918.939	4356
919.05	4249
919.161	4314
919.272	4166
919.383	4246
919.494	4455
919.604	4626
919.715	4455
919.826	4367
919.936	4390
920.047	4580
920.157	4531
920.267	4729
920.378	4535
920.488	4497
920.598	4729
920.708	4843
920.818	4774
920.928	4767
921.038	4968
921.148	4877
921.258	4675
921.368	4535
921.477	4512
921.587	4485
921.697	4363
921.806	4519
921.916	4409
922.025	4287
922.134	4303
922.244	4249
922.353	4356
922.462	4211
922.571	4101
922.68	4036
922.789	3953
922.898	4055
923.007	3994
923.116	4093
923.224	4105
923.333	4051
923.442	3998
923.55	4010
923.659	4002
923.767	4135
923.876	4017
923.984	4166
924.092	3998
924.201	4086
924.309	4059
924.417	4162
924.525	4071
924.633	4143
924.741	5098
924.849	3941
924.956	4150
925.064	4002
925.172	3903
925.279	3994
925.387	4051
925.494	4071
925.602	4196
925.709	4166
925.816	4036
925.924	4112
926.031	4242
926.138	4154
926.245	4234
926.352	4086
926.459	4272
926.566	4291
926.673	4181
926.779	4071
926.886	4128
926.993	3918
927.099	3953
927.206	3907
927.312	3941
927.419	4029
927.525	4040
927.631	4025
927.737	3953
927.843	3975
927.95	3911
928.056	3949
928.162	4006
928.267	4071
928.373	4580
928.479	4093
928.585	3850
928.69	4025
928.796	4071
928.901	3907
929.007	3865
929.112	3972
929.218	4002
929.323	3949
929.428	3941
929.533	4128
929.638	3884
929.743	3968
929.848	4025
929.953	4013
930.058	3937
930.163	3819
930.267	3827
930.372	3964
930.477	3785
930.581	4082
930.685	3987
930.79	3819
930.894	3907
930.998	3857
931.103	4051
931.207	3743
931.311	3709
931.415	3698
931.519	3553
931.623	3545
