Data from test_V78500241_2797.txt Node
Date: Fri Mar 25 17:08:27 CST 2022
User: usil
Spectrometer: V785-0024
Trigger mode: 0
Integration Time (sec): 4.000000E-1
Scans to average: 1
Nonlinearity correction enabled: false
Boxcar width: 0
Storing dark spectrum: false
XAxis mode: Wavelengths
Number of Pixels in Spectrum: 1024
>>>>>Begin Spectral Data<<<<<
801.071	7982
801.214	8043
801.356	7826
801.499	7925
801.641	7765
801.783	7833
801.926	7986
802.068	7936
802.211	8020
802.353	8073
802.496	7864
802.638	7856
802.78	7906
802.923	7955
803.065	7955
803.208	7784
803.35	7967
803.492	8081
803.635	8153
803.777	8088
803.919	8077
804.061	8461
804.204	8187
804.346	7997
804.488	7955
804.63	8134
804.773	8062
804.915	8115
805.057	8237
805.199	8130
805.341	8164
805.483	8313
805.626	8237
805.768	8149
805.91	8248
806.052	8229
806.194	8157
806.336	8313
806.478	8134
806.62	8096
806.762	8134
806.904	8286
807.046	8495
807.188	8396
807.33	8328
807.472	8309
807.614	8168
807.756	8134
807.898	7986
808.04	7864
808.182	7936
808.324	7871
808.465	7864
808.607	8065
808.749	8107
808.891	8221
809.033	8347
809.174	8191
809.316	8100
809.458	8058
809.6	7974
809.741	8092
809.883	7974
810.025	8092
810.166	8065
810.308	8016
810.45	7951
810.591	7875
810.733	7731
810.875	7647
811.016	7506
811.158	7495
811.299	7647
811.441	7723
811.582	7723
811.724	7616
811.865	7571
812.007	7594
812.148	7563
812.29	7605
812.431	7753
812.573	7868
812.714	7951
812.855	8092
812.997	8180
813.138	8259
813.279	8126
813.421	8077
813.562	8031
813.703	7822
813.845	7772
813.986	7445
814.127	7282
814.268	7206
814.41	7217
814.551	7221
814.692	7206
814.833	7107
814.974	7110
815.115	7095
815.256	6916
815.397	6935
815.539	6966
815.68	6818
815.821	6798
815.962	6871
816.103	6897
816.244	6700
816.385	6654
816.526	6578
816.666	6563
816.807	6319
816.948	6448
817.089	6521
817.23	6452
817.371	6391
817.512	6391
817.653	6315
817.793	6388
817.934	6380
818.075	6471
818.216	6429
818.356	6357
818.497	6205
818.638	6133
818.778	6194
818.919	6136
819.06	6167
819.2	6308
819.341	6304
819.481	6319
819.622	6525
819.762	6711
819.903	6688
820.043	6604
820.184	6616
820.324	6597
820.465	6635
820.605	6654
820.746	6642
820.886	6517
821.026	6650
821.167	6662
821.307	6852
821.447	6802
821.588	6654
821.728	6639
821.868	6448
822.008	6311
822.149	6361
822.289	6323
822.429	6144
822.569	6079
822.709	6190
822.849	5980
822.99	6015
823.13	5942
823.27	5908
823.41	5779
823.55	5783
823.69	5790
823.83	5737
823.97	5653
824.11	5528
824.25	5528
824.389	5520
824.529	5570
824.669	5524
824.809	5676
824.949	5646
825.089	5649
825.228	5577
825.368	5410
825.508	5311
825.648	5315
825.787	5417
825.927	5414
826.067	5311
826.206	5303
826.346	5376
826.485	5368
826.625	5402
826.765	5505
826.904	5490
827.044	5284
827.183	5143
827.323	5117
827.462	5280
827.601	5231
827.741	5181
827.88	5269
828.02	5178
828.159	5235
828.298	5311
828.437	5360
828.577	5265
828.716	5383
828.855	5299
828.994	5189
829.134	5121
829.273	5174
829.412	5102
829.551	5094
829.69	5117
829.829	5204
829.968	5406
830.107	5280
830.246	5284
830.385	5185
830.524	5083
830.663	5018
830.802	4984
830.941	4889
831.08	4873
831.219	4995
831.357	4987
831.496	5201
831.635	4896
831.774	4889
831.913	4816
832.051	4706
832.19	4736
832.329	4831
832.467	4672
832.606	4580
832.744	4714
832.883	4725
833.022	4736
833.16	4740
833.299	4831
833.437	4850
833.576	4831
833.714	4835
833.852	4809
833.991	4915
834.129	4877
834.267	4938
834.406	4889
834.544	4946
834.682	4961
834.821	4953
834.959	5117
835.097	5022
835.235	5128
835.373	5071
835.511	5105
835.65	5060
835.788	5022
835.926	4881
836.064	4847
836.202	4892
836.34	5143
836.478	5258
836.615	5162
836.753	5193
836.891	5303
837.029	5288
837.167	5159
837.305	5159
837.443	5197
837.58	5090
837.718	5280
837.856	5193
837.993	5155
838.131	5223
838.269	5189
838.406	5151
838.544	5121
838.681	5006
838.819	4987
838.956	4877
839.094	4843
839.231	4938
839.369	5056
839.506	5368
839.643	5288
839.781	5045
839.918	5048
840.055	5132
840.193	5067
840.33	5109
840.467	5136
840.604	5140
840.742	5364
840.879	5067
841.016	5064
841.153	5132
841.29	5417
841.427	5341
841.564	5315
841.701	5387
841.838	5296
841.975	5254
842.112	5212
842.249	5083
842.385	5105
842.522	5376
842.659	5140
842.796	5124
842.933	5231
843.069	5094
843.206	5162
843.343	5261
843.479	5178
843.616	5261
843.752	5075
843.889	4938
844.025	5258
844.162	5003
844.298	5193
844.435	5121
844.571	5083
844.708	5132
844.844	5322
844.98	5315
845.117	5265
845.253	5181
845.389	5086
845.525	5128
845.661	5105
845.798	5025
845.934	5159
846.07	5079
846.206	5181
846.342	5277
846.478	5174
846.614	4999
846.75	4972
846.886	4965
847.022	5204
847.158	5010
847.294	5094
847.429	5151
847.565	5029
847.701	5383
847.837	4858
847.972	4835
848.108	4965
848.244	4915
848.379	4812
848.515	4721
848.65	4691
848.786	4778
848.921	4748
849.057	4839
849.192	4904
849.328	4820
849.463	4831
849.598	4812
849.734	4717
849.869	4683
850.004	4603
850.14	4649
850.275	4569
850.41	4523
850.545	4527
850.68	4592
850.815	4656
850.95	4615
851.085	4790
851.22	4752
851.355	4687
851.49	4615
851.625	4630
851.76	4596
851.895	4527
852.03	4508
852.165	4634
852.299	4694
852.434	4755
852.569	4801
852.703	4774
852.838	4854
852.973	4934
853.107	4942
853.242	4706
853.376	4691
853.511	4554
853.645	4580
853.78	4744
853.914	4683
854.048	4668
854.183	4622
854.317	4717
854.451	4850
854.585	4664
854.72	4618
854.854	4721
854.988	4565
855.122	4683
855.256	4481
855.39	4653
855.524	4767
855.658	4759
855.792	4736
855.926	4736
856.06	4721
856.194	4793
856.327	4672
856.461	4618
856.595	4660
856.729	4645
856.862	4793
856.996	4717
857.13	4721
857.263	4714
857.397	4782
857.53	4656
857.664	4702
857.797	4721
857.931	4790
858.064	4653
858.197	4752
858.331	4675
858.464	4603
858.597	4527
858.731	4603
858.864	4653
858.997	4592
859.13	4630
859.263	4710
859.396	4740
859.529	4554
859.662	4550
859.795	4497
859.928	4637
860.061	4717
860.194	4801
860.327	4596
860.46	4531
860.592	4721
860.725	4714
860.858	4668
860.99	4535
861.123	4493
861.256	4516
861.388	4649
861.521	5288
861.653	4531
861.786	4428
861.918	4512
862.05	4504
862.183	4504
862.315	4607
862.447	4634
862.58	4569
862.712	4417
862.844	4325
862.976	4443
863.108	4428
863.24	4805
863.372	4299
863.504	4443
863.636	4417
863.768	4497
863.9	4462
864.032	4379
864.164	4390
864.296	4443
864.428	4592
864.559	4550
864.691	4508
864.823	4531
864.954	4485
865.086	4497
865.217	4485
865.349	4440
865.48	4459
865.612	4489
865.743	4626
865.875	4440
866.006	4402
866.137	4432
866.269	4402
866.4	4466
866.531	4417
866.662	4356
866.793	4424
866.924	4451
867.055	4519
867.186	4481
867.317	4470
867.448	4344
867.579	4360
867.71	4356
867.841	4344
867.972	4478
868.103	4451
868.233	4436
868.364	4455
868.495	4493
868.625	4675
868.756	4782
868.886	4519
869.017	4626
869.147	4763
869.278	4774
869.408	4691
869.539	4687
869.669	4710
869.799	4668
869.929	4763
870.06	4752
870.19	4972
870.32	4915
870.45	4934
870.58	4991
870.71	5022
870.84	5052
870.97	4949
871.1	4946
871.23	5136
871.36	5105
871.489	5029
871.619	5079
871.749	5075
871.879	5102
872.008	5216
872.138	4984
872.267	5018
872.397	4824
872.526	4816
872.656	4736
872.785	4839
872.915	4987
873.044	5014
873.173	4946
873.303	4946
873.432	4999
873.561	4976
873.69	4892
873.819	4858
873.948	4915
874.077	4824
874.206	4755
874.335	4812
874.464	4957
874.593	5071
874.722	4938
874.851	5071
874.979	5029
875.108	5071
875.237	4915
875.365	4850
875.494	4889
875.623	4957
875.751	4858
875.88	4858
876.008	5018
876.136	5025
876.265	5246
876.393	5425
876.521	5204
876.65	5189
876.778	5124
876.906	5052
877.034	5094
877.162	5045
877.29	5045
877.418	5048
877.546	5045
877.674	5045
877.802	5052
877.93	5064
878.058	4946
878.185	4904
878.313	4968
878.441	4976
878.568	4831
878.696	4862
878.824	4919
878.951	4972
879.079	5094
879.206	5322
879.333	5136
879.461	4984
879.588	4984
879.715	5090
879.842	5250
879.97	5003
880.097	4740
880.224	4755
880.351	4816
880.478	4850
880.605	4828
880.732	4801
880.859	5094
880.986	4919
881.112	4953
881.239	4782
881.366	4694
881.493	4618
881.619	4554
881.746	4672
881.872	4622
881.999	4668
882.125	4683
882.252	4778
882.378	4809
882.505	4972
882.631	4809
882.757	4668
882.883	4733
883.01	4774
883.136	4675
883.262	4592
883.388	4645
883.514	4778
883.64	4889
883.766	4771
883.892	4687
884.018	4744
884.143	4892
884.269	5018
884.395	4656
884.52	4615
884.646	4721
884.772	4611
884.897	4550
885.023	4675
885.148	4782
885.274	4866
885.399	4812
885.524	4672
885.65	4771
885.775	4744
885.9	4736
886.025	4862
886.15	4774
886.275	4679
886.4	4694
886.525	4679
886.65	4698
886.775	4698
886.9	4930
887.025	5010
887.149	4835
887.274	4626
887.399	4580
887.523	4611
887.648	4569
887.773	4626
887.897	4733
888.021	4793
888.146	4687
888.27	4824
888.395	4915
888.519	4763
888.643	4805
888.767	4858
888.891	4687
889.015	4611
889.139	4660
889.263	4588
889.387	4755
889.511	4866
889.635	4812
889.759	4618
889.883	4675
890.006	4733
890.13	4892
890.254	4603
890.377	4675
890.501	4558
890.624	4535
890.748	4630
890.871	4500
890.995	4481
891.118	4363
891.241	4508
891.364	4523
891.488	4649
891.611	4474
891.734	4561
891.857	4584
891.98	4508
892.103	4618
892.226	4561
892.349	4500
892.471	4451
892.594	4516
892.717	4615
892.839	4519
892.962	4596
893.085	4691
893.207	4603
893.33	4459
893.452	4558
893.575	4672
893.697	4565
893.819	4809
893.941	4881
894.064	4801
894.186	4603
894.308	4577
894.43	4691
894.552	4820
894.674	4786
894.796	4565
894.918	4622
895.04	4573
895.161	4683
895.283	4664
895.405	4558
895.526	4626
895.648	4645
895.769	4702
895.891	4733
896.012	4710
896.134	4706
896.255	4679
896.376	4607
896.498	4592
896.619	4672
896.74	4630
896.861	4729
896.982	4968
897.103	5132
897.224	4850
897.345	4755
897.466	4634
897.587	4740
897.708	4881
897.828	4755
897.949	4717
898.07	4565
898.19	4637
898.311	4835
898.431	4691
898.552	4714
898.672	4786
898.792	4793
898.913	4740
899.033	4626
899.153	4493
899.273	4455
899.393	4535
899.513	4504
899.633	4523
899.753	4565
899.873	4512
899.993	4569
900.113	4523
900.232	4558
900.352	4580
900.472	4519
900.591	4466
900.711	4474
900.83	4421
900.95	4641
901.069	4687
901.189	4485
901.308	4363
901.427	4299
901.546	4375
901.665	4512
901.784	4489
901.904	4405
902.023	4367
902.141	4204
902.26	4188
902.379	4299
902.498	4242
902.617	4219
902.735	4402
902.854	4348
902.973	4352
903.091	4211
903.21	4223
903.328	4306
903.446	4268
903.565	4234
903.683	4352
903.801	4303
903.919	4363
904.038	4481
904.156	4314
904.274	4432
904.392	4348
904.51	4459
904.627	4474
904.745	4561
904.863	4634
904.981	4375
905.098	4268
905.216	4417
905.334	4436
905.451	4436
905.569	4436
905.686	4634
905.803	4584
905.921	4421
906.038	4577
906.155	4436
906.272	4402
906.389	4459
906.506	4356
906.623	4375
906.74	4409
906.857	4329
906.974	4405
907.091	4535
907.208	4694
907.324	4588
907.441	4500
907.557	4394
907.674	4367
907.79	4333
907.907	4409
908.023	4512
908.139	4455
908.256	4466
908.372	4497
908.488	4481
908.604	4322
908.72	4352
908.836	4432
908.952	4379
909.068	4436
909.184	4558
909.3	4455
909.415	4573
909.531	4508
909.647	4352
909.762	4341
909.878	4352
909.993	4466
910.108	4421
910.224	4440
910.339	4508
910.454	4398
910.57	4386
910.685	4306
910.8	4679
910.915	4622
911.03	4516
911.145	4322
911.259	4299
911.374	4356
911.489	4299
911.604	4287
911.718	4207
911.833	4219
911.947	4067
912.062	3983
912.176	4207
912.291	4265
912.405	4257
912.519	4440
912.633	4485
912.748	4402
912.862	4329
912.976	4227
913.09	4124
913.204	4204
913.318	4268
913.431	4402
913.545	4375
913.659	4447
913.772	4356
913.886	4200
914	4249
914.113	4367
914.226	4462
914.34	4371
914.453	4272
914.566	4428
914.68	4341
914.793	4325
914.906	4173
915.019	4177
915.132	4082
915.245	4185
915.358	4196
915.47	4230
915.583	4299
915.696	4291
915.809	4432
915.921	4390
916.034	4287
916.146	4242
916.259	4219
916.371	4333
916.483	4390
916.595	4268
916.708	4344
916.82	4325
916.932	4295
917.044	4314
917.156	4325
917.268	4246
917.38	4325
917.491	4295
917.603	4405
917.715	4443
917.826	4451
917.938	4318
918.049	4249
918.161	4413
918.272	4558
918.384	4558
918.495	4459
918.606	4344
918.717	4261
918.828	4337
918.939	4352
919.05	4280
919.161	4344
919.272	4147
919.383	4234
919.494	4470
919.604	4672
919.715	4440
919.826	4325
919.936	4455
920.047	4546
920.157	4493
920.267	4706
920.378	4588
920.488	4459
920.598	4759
920.708	4911
920.818	4759
920.928	4744
921.038	4953
921.148	4972
921.258	4653
921.368	4584
921.477	4542
921.587	4470
921.697	4413
921.806	4554
921.916	4417
922.025	4287
922.134	4314
922.244	4238
922.353	4272
922.462	4188
922.571	4135
922.68	4013
922.789	3975
922.898	4021
923.007	4032
923.116	4158
923.224	4101
923.333	4063
923.442	4048
923.55	3960
923.659	4101
923.767	4112
923.876	4048
923.984	4124
924.092	4002
924.201	4067
924.309	4116
924.417	4147
924.525	4093
924.633	4120
924.741	4896
924.849	3941
924.956	4150
925.064	3972
925.172	3896
925.279	3975
925.387	4063
925.494	4063
925.602	4215
925.709	4219
925.816	4032
925.924	4200
926.031	4272
926.138	4147
926.245	4238
926.352	4105
926.459	4276
926.566	4329
926.673	4188
926.779	4109
926.886	4059
926.993	3994
927.099	3972
927.206	3941
927.312	4002
927.419	4048
927.525	4059
927.631	4097
927.737	4021
927.843	3949
927.95	3850
928.056	3945
928.162	4017
928.267	4101
928.373	4717
928.479	4120
928.585	3876
928.69	4032
928.796	4101
928.901	3972
929.007	3850
929.112	4048
929.218	3968
929.323	3930
929.428	3937
929.533	4135
929.638	3953
929.743	4029
929.848	4059
929.953	4025
930.058	3960
930.163	3804
930.267	3857
930.372	3994
930.477	3835
930.581	4116
930.685	4006
930.79	3865
930.894	3953
930.998	3869
931.103	4044
931.207	3709
931.311	3701
931.415	3644
931.519	3507
931.623	3545
