Data from test_V78500241_1469.txt Node
Date: Fri Mar 25 16:59:12 CST 2022
User: usil
Spectrometer: V785-0024
Trigger mode: 0
Integration Time (sec): 4.000000E-1
Scans to average: 1
Nonlinearity correction enabled: false
Boxcar width: 0
Storing dark spectrum: false
XAxis mode: Wavelengths
Number of Pixels in Spectrum: 1024
>>>>>Begin Spectral Data<<<<<
801.071	8008
801.214	7974
801.356	7837
801.499	7860
801.641	7765
801.783	7757
801.926	7944
802.068	7898
802.211	8012
802.353	8001
802.496	7837
802.638	7944
802.78	7898
802.923	7925
803.065	7845
803.208	7845
803.35	7913
803.492	8069
803.635	8153
803.777	7959
803.919	8115
804.061	8427
804.204	8138
804.346	8008
804.488	7902
804.63	8027
804.773	8016
804.915	8073
805.057	8320
805.199	8149
805.341	8206
805.483	8259
805.626	8210
805.768	8115
805.91	8164
806.052	8145
806.194	8115
806.336	8282
806.478	8100
806.62	8084
806.762	8069
806.904	8256
807.046	8446
807.188	8298
807.33	8294
807.472	8267
807.614	8153
807.756	8084
807.898	7993
808.04	7837
808.182	7940
808.324	7963
808.465	7921
808.607	8103
808.749	8145
808.891	8164
809.033	8244
809.174	8187
809.316	8039
809.458	8115
809.6	7963
809.741	8016
809.883	8031
810.025	8046
810.166	8024
810.308	8046
810.45	7978
810.591	7788
810.733	7708
810.875	7628
811.016	7529
811.158	7510
811.299	7601
811.441	7742
811.582	7616
811.724	7552
811.865	7537
812.007	7613
812.148	7502
812.29	7624
812.431	7700
812.573	7864
812.714	7906
812.855	8119
812.997	8168
813.138	8298
813.279	8149
813.421	8084
813.562	7959
813.703	7845
813.845	7689
813.986	7476
814.127	7240
814.268	7198
814.41	7244
814.551	7168
814.692	7179
814.833	7091
814.974	7076
815.115	7038
815.256	6913
815.397	6897
815.539	6951
815.68	6825
815.821	6818
815.962	6840
816.103	6776
816.244	6707
816.385	6639
816.526	6578
816.666	6448
816.807	6331
816.948	6437
817.089	6445
817.23	6403
817.371	6395
817.512	6353
817.653	6422
817.793	6304
817.934	6380
818.075	6471
818.216	6414
818.356	6369
818.497	6197
818.638	6095
818.778	6129
818.919	6159
819.06	6182
819.2	6319
819.341	6308
819.481	6319
819.622	6494
819.762	6730
819.903	6692
820.043	6547
820.184	6540
820.324	6593
820.465	6722
820.605	6601
820.746	6627
820.886	6479
821.026	6574
821.167	6669
821.307	6798
821.447	6719
821.588	6722
821.728	6574
821.868	6445
822.008	6262
822.149	6308
822.289	6376
822.429	6178
822.569	6110
822.709	6057
822.849	5984
822.99	5859
823.13	5927
823.27	5885
823.41	5786
823.55	5817
823.69	5718
823.83	5767
823.97	5630
824.11	5547
824.25	5505
824.389	5535
824.529	5653
824.669	5551
824.809	5615
824.949	5638
825.089	5646
825.228	5619
825.368	5376
825.508	5368
825.648	5357
825.787	5398
825.927	5364
826.067	5318
826.206	5307
826.346	5395
826.485	5436
826.625	5421
826.765	5512
826.904	5520
827.044	5299
827.183	5269
827.323	5147
827.462	5296
827.601	5235
827.741	5250
827.88	5258
828.02	5143
828.159	5277
828.298	5303
828.437	5448
828.577	5341
828.716	5528
828.855	5307
828.994	5193
829.134	5143
829.273	5254
829.412	5170
829.551	5155
829.69	5159
829.829	5322
829.968	5372
830.107	5269
830.246	5265
830.385	5193
830.524	5155
830.663	5181
830.802	5048
830.941	4942
831.08	4984
831.219	5048
831.357	5022
831.496	5162
831.635	4961
831.774	4881
831.913	4892
832.051	4744
832.19	4778
832.329	4858
832.467	4771
832.606	4660
832.744	4771
832.883	4790
833.022	4774
833.16	4828
833.299	4831
833.437	4843
833.576	4835
833.714	4896
833.852	4919
833.991	4900
834.129	5006
834.267	4999
834.406	4934
834.544	4965
834.682	5010
834.821	5025
834.959	5178
835.097	5010
835.235	5178
835.373	5090
835.511	5143
835.65	5079
835.788	5083
835.926	4923
836.064	4854
836.202	4923
836.34	5181
836.478	5212
836.615	5155
836.753	5292
836.891	5345
837.029	5261
837.167	5292
837.305	5185
837.443	5162
837.58	5128
837.718	5288
837.856	5170
837.993	5174
838.131	5250
838.269	5220
838.406	5284
838.544	5242
838.681	5090
838.819	5052
838.956	4915
839.094	4908
839.231	5025
839.369	5083
839.506	5463
839.643	5345
839.781	5102
839.918	5041
840.055	5147
840.193	5105
840.33	5117
840.467	5121
840.604	5197
840.742	5486
840.879	5079
841.016	5128
841.153	5162
841.29	5402
841.427	5357
841.564	5402
841.701	5406
841.838	5265
841.975	5277
842.112	5280
842.249	5132
842.385	5121
842.522	5383
842.659	5197
842.796	5178
842.933	5227
843.069	5159
843.206	5155
843.343	5277
843.479	5292
843.616	5261
843.752	5052
843.889	5045
844.025	5261
844.162	5064
844.298	5201
844.435	5140
844.571	5090
844.708	5235
844.844	5318
844.98	5311
845.117	5288
845.253	5197
845.389	5109
845.525	5162
845.661	5117
845.798	5045
845.934	5128
846.07	5105
846.206	5197
846.342	5299
846.478	5170
846.614	5033
846.75	4965
846.886	4976
847.022	5193
847.158	5003
847.294	5083
847.429	5128
847.565	5109
847.701	5311
847.837	4881
847.972	4831
848.108	4999
848.244	4938
848.379	4790
848.515	4767
848.65	4759
848.786	4786
848.921	4801
849.057	4843
849.192	4949
849.328	4801
849.463	4866
849.598	4793
849.734	4767
849.869	4675
850.004	4622
850.14	4679
850.275	4637
850.41	4573
850.545	4611
850.68	4603
850.815	4630
850.95	4683
851.085	4847
851.22	4793
851.355	4710
851.49	4660
851.625	4660
851.76	4668
851.895	4626
852.03	4561
852.165	4706
852.299	4721
852.434	4801
852.569	4744
852.703	4786
852.838	4885
852.973	4949
853.107	5003
853.242	4816
853.376	4679
853.511	4580
853.645	4649
853.78	4831
853.914	4687
854.048	4653
854.183	4679
854.317	4675
854.451	4820
854.585	4694
854.72	4660
854.854	4812
854.988	4596
855.122	4679
855.256	4516
855.39	4664
855.524	4793
855.658	4767
855.792	4744
855.926	4771
856.06	4778
856.194	4816
856.327	4702
856.461	4622
856.595	4664
856.729	4626
856.862	4771
856.996	4736
857.13	4733
857.263	4763
857.397	4835
857.53	4664
857.664	4748
857.797	4748
857.931	4793
858.064	4752
858.197	4759
858.331	4683
858.464	4656
858.597	4558
858.731	4653
858.864	4660
858.997	4569
859.13	4656
859.263	4694
859.396	4729
859.529	4599
859.662	4596
859.795	4558
859.928	4729
860.061	4755
860.194	4793
860.327	4596
860.46	4569
860.592	4725
860.725	4668
860.858	4717
860.99	4611
861.123	4577
861.256	4531
861.388	4675
861.521	5444
861.653	4493
861.786	4493
861.918	4455
862.05	4546
862.183	4622
862.315	4626
862.447	4664
862.58	4603
862.712	4436
862.844	4337
862.976	4478
863.108	4500
863.24	4752
863.372	4360
863.504	4440
863.636	4443
863.768	4519
863.9	4489
864.032	4405
864.164	4489
864.296	4527
864.428	4561
864.559	4592
864.691	4538
864.823	4538
864.954	4485
865.086	4584
865.217	4451
865.349	4470
865.48	4493
865.612	4546
865.743	4653
865.875	4516
866.006	4470
866.137	4440
866.269	4443
866.4	4470
866.531	4447
866.662	4402
866.793	4424
866.924	4409
867.055	4531
867.186	4481
867.317	4428
867.448	4424
867.579	4413
867.71	4405
867.841	4367
867.972	4462
868.103	4523
868.233	4455
868.364	4481
868.495	4531
868.625	4694
868.756	4771
868.886	4584
869.017	4599
869.147	4812
869.278	4809
869.408	4664
869.539	4645
869.669	4748
869.799	4706
869.929	4797
870.06	4816
870.19	5018
870.32	4995
870.45	4934
870.58	4999
870.71	5128
870.84	5109
870.97	5010
871.1	4885
871.23	5185
871.36	5121
871.489	5048
871.619	5052
871.749	5090
871.879	5121
872.008	5166
872.138	5086
872.267	5029
872.397	4889
872.526	4835
872.656	4736
872.785	4812
872.915	4949
873.044	5045
873.173	4953
873.303	4991
873.432	4892
873.561	5018
873.69	4904
873.819	4885
873.948	4946
874.077	4873
874.206	4793
874.335	4801
874.464	4957
874.593	5060
874.722	4991
874.851	5170
874.979	5090
875.108	5075
875.237	4923
875.365	4858
875.494	4889
875.623	4984
875.751	4850
875.88	4858
876.008	4999
876.136	5045
876.265	5235
876.393	5334
876.521	5258
876.65	5246
876.778	5201
876.906	5086
877.034	5022
877.162	5071
877.29	4980
877.418	5048
877.546	5098
877.674	5071
877.802	5041
877.93	5083
878.058	4923
878.185	4889
878.313	4980
878.441	4949
878.568	4820
878.696	4885
878.824	4976
878.951	5018
879.079	5140
879.206	5311
879.333	5136
879.461	4976
879.588	5037
879.715	5124
879.842	5204
879.97	5010
880.097	4797
880.224	4702
880.351	4809
880.478	4885
880.605	4816
880.732	4771
880.859	5079
880.986	4919
881.112	4949
881.239	4824
881.366	4706
881.493	4630
881.619	4588
881.746	4637
881.872	4656
881.999	4687
882.125	4672
882.252	4790
882.378	4828
882.505	4953
882.631	4820
882.757	4698
882.883	4752
883.01	4771
883.136	4645
883.262	4645
883.388	4615
883.514	4870
883.64	4858
883.766	4824
883.892	4687
884.018	4729
884.143	4877
884.269	5067
884.395	4615
884.52	4656
884.646	4717
884.772	4588
884.897	4592
885.023	4672
885.148	4752
885.274	4866
885.399	4782
885.524	4786
885.65	4660
885.775	4774
885.9	4717
886.025	4870
886.15	4816
886.275	4740
886.4	4668
886.525	4721
886.65	4687
886.775	4672
886.9	4923
887.025	5048
887.149	4820
887.274	4698
887.399	4588
887.523	4626
887.648	4569
887.773	4634
887.897	4733
888.021	4801
888.146	4702
888.27	4862
888.395	4911
888.519	4797
888.643	4812
888.767	4835
888.891	4691
889.015	4630
889.139	4675
889.263	4622
889.387	4809
889.511	4820
889.635	4793
889.759	4649
889.883	4641
890.006	4714
890.13	4862
890.254	4664
890.377	4710
890.501	4565
890.624	4535
890.748	4641
890.871	4519
890.995	4402
891.118	4363
891.241	4485
891.364	4588
891.488	4618
891.611	4485
891.734	4523
891.857	4599
891.98	4527
892.103	4626
892.226	4645
892.349	4573
892.471	4447
892.594	4573
892.717	4596
892.839	4584
892.962	4599
893.085	4679
893.207	4656
893.33	4478
893.452	4527
893.575	4725
893.697	4588
893.819	4790
893.941	4831
894.064	4778
894.186	4554
894.308	4584
894.43	4729
894.552	4862
894.674	4683
894.796	4542
894.918	4603
895.04	4565
895.161	4733
895.283	4664
895.405	4550
895.526	4630
895.648	4717
895.769	4729
895.891	4717
896.012	4721
896.134	4740
896.255	4679
896.376	4618
896.498	4622
896.619	4645
896.74	4641
896.861	4687
896.982	4938
897.103	5083
897.224	4812
897.345	4759
897.466	4683
897.587	4714
897.708	4885
897.828	4782
897.949	4721
898.07	4592
898.19	4672
898.311	4801
898.431	4618
898.552	4740
898.672	4854
898.792	4767
898.913	4729
899.033	4649
899.153	4546
899.273	4417
899.393	4500
899.513	4542
899.633	4519
899.753	4569
899.873	4489
899.993	4565
900.113	4561
900.232	4588
900.352	4493
900.472	4550
900.591	4440
900.711	4493
900.83	4432
900.95	4599
901.069	4637
901.189	4554
901.308	4405
901.427	4322
901.546	4363
901.665	4481
901.784	4538
901.904	4356
902.023	4341
902.141	4215
902.26	4204
902.379	4314
902.498	4246
902.617	4230
902.735	4371
902.854	4375
902.973	4356
903.091	4227
903.21	4246
903.328	4329
903.446	4249
903.565	4276
903.683	4310
903.801	4318
903.919	4421
904.038	4455
904.156	4318
904.274	4451
904.392	4409
904.51	4405
904.627	4436
904.745	4592
904.863	4645
904.981	4398
905.098	4318
905.216	4375
905.334	4421
905.451	4447
905.569	4405
905.686	4580
905.803	4603
905.921	4405
906.038	4573
906.155	4516
906.272	4417
906.389	4489
906.506	4375
906.623	4356
906.74	4383
906.857	4337
906.974	4363
907.091	4508
907.208	4668
907.324	4611
907.441	4523
907.557	4356
907.674	4337
907.79	4306
907.907	4394
908.023	4440
908.139	4462
908.256	4405
908.372	4500
908.488	4409
908.604	4363
908.72	4356
908.836	4390
908.952	4390
909.068	4409
909.184	4531
909.3	4459
909.415	4653
909.531	4558
909.647	4356
909.762	4371
909.878	4325
909.993	4428
910.108	4451
910.224	4421
910.339	4489
910.454	4375
910.57	4409
910.685	4341
910.8	4641
910.915	4599
911.03	4538
911.145	4306
911.259	4398
911.374	4333
911.489	4333
911.604	4299
911.718	4188
911.833	4204
911.947	4071
912.062	4040
912.176	4196
912.291	4230
912.405	4268
912.519	4500
912.633	4523
912.748	4352
912.862	4329
912.976	4188
913.09	4105
913.204	4177
913.318	4280
913.431	4383
913.545	4337
913.659	4462
913.772	4329
913.886	4196
914	4177
914.113	4318
914.226	4462
914.34	4402
914.453	4230
914.566	4474
914.68	4284
914.793	4352
914.906	4162
915.019	4162
915.132	4112
915.245	4185
915.358	4181
915.47	4230
915.583	4295
915.696	4306
915.809	4417
915.921	4424
916.034	4246
916.146	4227
916.259	4227
916.371	4318
916.483	4356
916.595	4322
916.708	4344
916.82	4310
916.932	4280
917.044	4341
917.156	4306
917.268	4238
917.38	4344
917.491	4272
917.603	4371
917.715	4417
917.826	4432
917.938	4329
918.049	4242
918.161	4409
918.272	4508
918.384	4519
918.495	4451
918.606	4352
918.717	4268
918.828	4375
918.939	4375
919.05	4272
919.161	4322
919.272	4139
919.383	4207
919.494	4417
919.604	4649
919.715	4436
919.826	4367
919.936	4402
920.047	4542
920.157	4523
920.267	4687
920.378	4531
920.488	4474
920.598	4683
920.708	4847
920.818	4664
920.928	4736
921.038	4965
921.148	4946
921.258	4615
921.368	4577
921.477	4493
921.587	4531
921.697	4409
921.806	4535
921.916	4417
922.025	4173
922.134	4310
922.244	4223
922.353	4322
922.462	4147
922.571	4173
922.68	3987
922.789	3975
922.898	4025
923.007	3983
923.116	4101
923.224	4036
923.333	4036
923.442	3991
923.55	3968
923.659	4055
923.767	4082
923.876	3968
923.984	4097
924.092	3972
924.201	4055
924.309	4139
924.417	4082
924.525	4090
924.633	4078
924.741	5083
924.849	3903
924.956	4120
925.064	3987
925.172	3896
925.279	3949
925.387	4067
925.494	4032
925.602	4215
925.709	4177
925.816	4029
925.924	4116
926.031	4230
926.138	4143
926.245	4196
926.352	4116
926.459	4299
926.566	4310
926.673	4093
926.779	4097
926.886	4044
926.993	3968
927.099	3953
927.206	3956
927.312	3937
927.419	4055
927.525	4078
927.631	4124
927.737	3994
927.843	3899
927.95	3831
928.056	3949
928.162	3964
928.267	4093
928.373	4535
928.479	4158
928.585	3899
928.69	3960
928.796	4078
928.901	3953
929.007	3838
929.112	3960
929.218	3987
929.323	3907
929.428	3911
929.533	4074
929.638	3937
929.743	3918
929.848	4025
929.953	4002
930.058	3960
930.163	3778
930.267	3831
930.372	4013
930.477	3812
930.581	4093
930.685	3949
930.79	3812
930.894	3918
930.998	3842
931.103	4025
931.207	3720
931.311	3663
931.415	3614
931.519	3523
931.623	3553
