Data from test_V78500241_223.txt Node
Date: Fri Mar 25 16:50:33 CST 2022
User: usil
Spectrometer: V785-0024
Trigger mode: 0
Integration Time (sec): 4.000000E-1
Scans to average: 1
Nonlinearity correction enabled: false
Boxcar width: 0
Storing dark spectrum: false
XAxis mode: Wavelengths
Number of Pixels in Spectrum: 1024
>>>>>Begin Spectral Data<<<<<
801.071	8058
801.214	8027
801.356	7860
801.499	7833
801.641	7822
801.783	7890
801.926	8058
802.068	7944
802.211	8035
802.353	7989
802.496	7833
802.638	7967
802.78	7925
802.923	7940
803.065	7811
803.208	7856
803.35	8016
803.492	8111
803.635	8119
803.777	8031
803.919	8157
804.061	8377
804.204	8142
804.346	8043
804.488	7951
804.63	7993
804.773	7993
804.915	8149
805.057	8336
805.199	8138
805.341	8221
805.483	8183
805.626	8206
805.768	8092
805.91	8161
806.052	8180
806.194	8088
806.336	8366
806.478	8100
806.62	8050
806.762	8077
806.904	8172
807.046	8408
807.188	8332
807.33	8259
807.472	8370
807.614	8130
807.756	8138
807.898	7951
808.04	7909
808.182	7917
808.324	7818
808.465	7925
808.607	8039
808.749	8157
808.891	8263
809.033	8271
809.174	8199
809.316	8073
809.458	8107
809.6	7928
809.741	8046
809.883	8058
810.025	8092
810.166	8092
810.308	8081
810.45	8016
810.591	7967
810.733	7799
810.875	7685
811.016	7582
811.158	7540
811.299	7636
811.441	7715
811.582	7712
811.724	7563
811.865	7544
812.007	7620
812.148	7624
812.29	7590
812.431	7776
812.573	7822
812.714	7970
812.855	8221
812.997	8237
813.138	8358
813.279	8183
813.421	8092
813.562	7970
813.703	7868
813.845	7776
813.986	7449
814.127	7236
814.268	7190
814.41	7251
814.551	7198
814.692	7213
814.833	7099
814.974	7118
815.115	7206
815.256	7000
815.397	7019
815.539	6970
815.68	6852
815.821	6753
815.962	6894
816.103	6764
816.244	6730
816.385	6684
816.526	6639
816.666	6540
816.807	6296
816.948	6464
817.089	6502
817.23	6475
817.371	6403
817.512	6429
817.653	6399
817.793	6323
817.934	6391
818.075	6399
818.216	6456
818.356	6399
818.497	6205
818.638	6060
818.778	6155
818.919	6110
819.06	6133
819.2	6342
819.341	6289
819.481	6372
819.622	6521
819.762	6684
819.903	6711
820.043	6585
820.184	6536
820.324	6540
820.465	6719
820.605	6688
820.746	6612
820.886	6547
821.026	6642
821.167	6715
821.307	6760
821.447	6749
821.588	6646
821.728	6635
821.868	6502
822.008	6300
822.149	6384
822.289	6315
822.429	6163
822.569	6049
822.709	6095
822.849	5939
822.99	5878
823.13	5946
823.27	5897
823.41	5859
823.55	5821
823.69	5840
823.83	5840
823.97	5718
824.11	5528
824.25	5509
824.389	5570
824.529	5589
824.669	5539
824.809	5623
824.949	5680
825.089	5630
825.228	5627
825.368	5395
825.508	5383
825.648	5349
825.787	5360
825.927	5402
826.067	5330
826.206	5296
826.346	5337
826.485	5406
826.625	5425
826.765	5512
826.904	5512
827.044	5284
827.183	5220
827.323	5170
827.462	5220
827.601	5223
827.741	5208
827.88	5231
828.02	5071
828.159	5288
828.298	5299
828.437	5349
828.577	5288
828.716	5547
828.855	5360
828.994	5159
829.134	5140
829.273	5185
829.412	5197
829.551	5143
829.69	5109
829.829	5261
829.968	5417
830.107	5299
830.246	5261
830.385	5185
830.524	5117
830.663	5071
830.802	4965
830.941	4923
831.08	4934
831.219	4946
831.357	4991
831.496	5151
831.635	4942
831.774	4877
831.913	4870
832.051	4755
832.19	4778
832.329	4911
832.467	4694
832.606	4672
832.744	4767
832.883	4729
833.022	4694
833.16	4740
833.299	4850
833.437	4812
833.576	4831
833.714	4828
833.852	4870
833.991	4957
834.129	4991
834.267	4987
834.406	4934
834.544	4949
834.682	4987
834.821	4987
834.959	5147
835.097	4995
835.235	5170
835.373	5132
835.511	5159
835.65	5075
835.788	5037
835.926	4915
836.064	4877
836.202	4915
836.34	5216
836.478	5174
836.615	5147
836.753	5254
836.891	5288
837.029	5280
837.167	5204
837.305	5147
837.443	5181
837.58	5064
837.718	5284
837.856	5208
837.993	5170
838.131	5273
838.269	5212
838.406	5223
838.544	5197
838.681	5098
838.819	5075
838.956	4862
839.094	4904
839.231	5025
839.369	5067
839.506	5410
839.643	5246
839.781	5094
839.918	5014
840.055	5083
840.193	5094
840.33	5090
840.467	5132
840.604	5216
840.742	5455
840.879	5052
841.016	5143
841.153	5185
841.29	5406
841.427	5353
841.564	5296
841.701	5372
841.838	5216
841.975	5250
842.112	5288
842.249	5143
842.385	5090
842.522	5349
842.659	5170
842.796	5159
842.933	5242
843.069	5117
843.206	5105
843.343	5288
843.479	5212
843.616	5303
843.752	5071
843.889	4991
844.025	5204
844.162	5022
844.298	5201
844.435	5124
844.571	5037
844.708	5197
844.844	5299
844.98	5349
845.117	5311
845.253	5128
845.389	5162
845.525	5170
845.661	5124
845.798	5056
845.934	5147
846.07	5086
846.206	5193
846.342	5292
846.478	5170
846.614	5094
846.75	5006
846.886	4915
847.022	5094
847.158	5037
847.294	5025
847.429	5132
847.565	5090
847.701	5296
847.837	4870
847.972	4824
848.108	4980
848.244	4953
848.379	4790
848.515	4714
848.65	4725
848.786	4748
848.921	4752
849.057	4870
849.192	4915
849.328	4843
849.463	4850
849.598	4763
849.734	4816
849.869	4702
850.004	4649
850.14	4691
850.275	4588
850.41	4527
850.545	4573
850.68	4649
850.815	4626
850.95	4599
851.085	4843
851.22	4782
851.355	4668
851.49	4634
851.625	4626
851.76	4615
851.895	4603
852.03	4508
852.165	4630
852.299	4744
852.434	4824
852.569	4744
852.703	4763
852.838	4881
852.973	4908
853.107	4908
853.242	4698
853.376	4687
853.511	4527
853.645	4656
853.78	4782
853.914	4649
854.048	4649
854.183	4653
854.317	4683
854.451	4824
854.585	4710
854.72	4641
854.854	4736
854.988	4573
855.122	4611
855.256	4504
855.39	4675
855.524	4755
855.658	4782
855.792	4706
855.926	4721
856.06	4729
856.194	4828
856.327	4698
856.461	4630
856.595	4664
856.729	4672
856.862	4812
856.996	4714
857.13	4702
857.263	4790
857.397	4793
857.53	4645
857.664	4706
857.797	4797
857.931	4793
858.064	4733
858.197	4725
858.331	4618
858.464	4611
858.597	4527
858.731	4660
858.864	4637
858.997	4580
859.13	4634
859.263	4672
859.396	4733
859.529	4615
859.662	4580
859.795	4558
859.928	4660
860.061	4752
860.194	4763
860.327	4630
860.46	4577
860.592	4698
860.725	4748
860.858	4771
860.99	4592
861.123	4546
861.256	4527
861.388	4603
861.521	5315
861.653	4500
861.786	4504
861.918	4455
862.05	4493
862.183	4523
862.315	4615
862.447	4672
862.58	4565
862.712	4375
862.844	4318
862.976	4440
863.108	4455
863.24	4911
863.372	4371
863.504	4443
863.636	4367
863.768	4462
863.9	4440
864.032	4344
864.164	4428
864.296	4478
864.428	4535
864.559	4538
864.691	4531
864.823	4577
864.954	4459
865.086	4523
865.217	4459
865.349	4386
865.48	4417
865.612	4512
865.743	4637
865.875	4489
866.006	4417
866.137	4474
866.269	4421
866.4	4402
866.531	4436
866.662	4417
866.793	4409
866.924	4405
867.055	4497
867.186	4500
867.317	4432
867.448	4413
867.579	4363
867.71	4394
867.841	4352
867.972	4459
868.103	4447
868.233	4436
868.364	4554
868.495	4489
868.625	4691
868.756	4729
868.886	4542
869.017	4615
869.147	4793
869.278	4729
869.408	4656
869.539	4679
869.669	4691
869.799	4672
869.929	4771
870.06	4706
870.19	4942
870.32	4957
870.45	4930
870.58	5022
870.71	5181
870.84	5113
870.97	4984
871.1	4968
871.23	5113
871.36	5143
871.489	5052
871.619	5086
871.749	5090
871.879	5159
872.008	5181
872.138	5075
872.267	4980
872.397	4858
872.526	4805
872.656	4733
872.785	4820
872.915	4915
873.044	4999
873.173	4984
873.303	4995
873.432	4953
873.561	4911
873.69	4881
873.819	4881
873.948	4934
874.077	4896
874.206	4759
874.335	4835
874.464	4930
874.593	5060
874.722	4968
874.851	5136
874.979	5067
875.108	5048
875.237	4915
875.365	4866
875.494	4873
875.623	4972
875.751	4870
875.88	4946
876.008	4999
876.136	5045
876.265	5246
876.393	5360
876.521	5235
876.65	5235
876.778	5193
876.906	5102
877.034	5025
877.162	5109
877.29	4980
877.418	5132
877.546	5010
877.674	5018
877.802	5048
877.93	4968
878.058	4896
878.185	4908
878.313	4965
878.441	4911
878.568	4793
878.696	4892
878.824	4949
878.951	4984
879.079	5170
879.206	5261
879.333	5090
879.461	5033
879.588	4980
879.715	5136
879.842	5258
879.97	4991
880.097	4782
880.224	4729
880.351	4816
880.478	4801
880.605	4797
880.732	4778
880.859	5094
880.986	4904
881.112	4885
881.239	4782
881.366	4656
881.493	4634
881.619	4584
881.746	4710
881.872	4634
881.999	4618
882.125	4679
882.252	4809
882.378	4748
882.505	4987
882.631	4809
882.757	4687
882.883	4744
883.01	4733
883.136	4653
883.262	4611
883.388	4611
883.514	4786
883.64	4870
883.766	4786
883.892	4714
884.018	4710
884.143	4911
884.269	4987
884.395	4660
884.52	4683
884.646	4592
884.772	4588
884.897	4607
885.023	4675
885.148	4809
885.274	4831
885.399	4793
885.524	4740
885.65	4755
885.775	4767
885.9	4710
886.025	4843
886.15	4771
886.275	4755
886.4	4683
886.525	4774
886.65	4755
886.775	4721
886.9	4934
887.025	5018
887.149	4790
887.274	4706
887.399	4577
887.523	4603
887.648	4558
887.773	4615
887.897	4790
888.021	4843
888.146	4668
888.27	4782
888.395	4942
888.519	4816
888.643	4881
888.767	4797
888.891	4622
889.015	4668
889.139	4656
889.263	4634
889.387	4778
889.511	4877
889.635	4790
889.759	4653
889.883	4664
890.006	4694
890.13	4828
890.254	4618
890.377	4683
890.501	4527
890.624	4497
890.748	4645
890.871	4531
890.995	4432
891.118	4379
891.241	4500
891.364	4592
891.488	4668
891.611	4512
891.734	4542
891.857	4603
891.98	4596
892.103	4622
892.226	4626
892.349	4554
892.471	4417
892.594	4497
892.717	4588
892.839	4596
892.962	4630
893.085	4653
893.207	4630
893.33	4516
893.452	4497
893.575	4694
893.697	4584
893.819	4858
893.941	4828
894.064	4786
894.186	4603
894.308	4584
894.43	4782
894.552	4850
894.674	4774
894.796	4561
894.918	4535
895.04	4588
895.161	4736
895.283	4653
895.405	4569
895.526	4634
895.648	4717
895.769	4702
895.891	4710
896.012	4675
896.134	4755
896.255	4660
896.376	4660
896.498	4607
896.619	4725
896.74	4668
896.861	4664
896.982	4984
897.103	5117
897.224	4839
897.345	4725
897.466	4710
897.587	4782
897.708	4824
897.828	4771
897.949	4656
898.07	4630
898.19	4660
898.311	4870
898.431	4645
898.552	4786
898.672	4812
898.792	4748
898.913	4767
899.033	4626
899.153	4531
899.273	4424
899.393	4500
899.513	4558
899.633	4493
899.753	4577
899.873	4531
899.993	4596
900.113	4504
900.232	4596
900.352	4584
900.472	4470
900.591	4405
900.711	4489
900.83	4436
900.95	4596
901.069	4698
901.189	4546
901.308	4367
901.427	4322
901.546	4360
901.665	4527
901.784	4527
901.904	4417
902.023	4314
902.141	4188
902.26	4169
902.379	4333
902.498	4242
902.617	4246
902.735	4371
902.854	4398
902.973	4379
903.091	4215
903.21	4280
903.328	4318
903.446	4329
903.565	4295
903.683	4360
903.801	4329
903.919	4424
904.038	4409
904.156	4344
904.274	4451
904.392	4413
904.51	4459
904.627	4451
904.745	4607
904.863	4626
904.981	4383
905.098	4306
905.216	4322
905.334	4455
905.451	4440
905.569	4436
905.686	4577
905.803	4607
905.921	4436
906.038	4569
906.155	4504
906.272	4447
906.389	4489
906.506	4386
906.623	4383
906.74	4386
906.857	4299
906.974	4421
907.091	4596
907.208	4683
907.324	4615
907.441	4478
907.557	4379
907.674	4322
907.79	4337
907.907	4337
908.023	4466
908.139	4519
908.256	4459
908.372	4493
908.488	4474
908.604	4341
908.72	4333
908.836	4390
908.952	4344
909.068	4402
909.184	4573
909.3	4508
909.415	4577
909.531	4565
909.647	4341
909.762	4386
909.878	4375
909.993	4451
910.108	4451
910.224	4462
910.339	4497
910.454	4417
910.57	4379
910.685	4329
910.8	4672
910.915	4599
911.03	4478
911.145	4318
911.259	4341
911.374	4390
911.489	4303
911.604	4322
911.718	4200
911.833	4169
911.947	4090
912.062	4025
912.176	4207
912.291	4246
912.405	4253
912.519	4485
912.633	4504
912.748	4341
912.862	4268
912.976	4196
913.09	4074
913.204	4169
913.318	4211
913.431	4360
913.545	4398
913.659	4478
913.772	4379
913.886	4249
914	4188
914.113	4356
914.226	4462
914.34	4417
914.453	4280
914.566	4451
914.68	4352
914.793	4329
914.906	4166
915.019	4097
915.132	4074
915.245	4181
915.358	4207
915.47	4188
915.583	4310
915.696	4306
915.809	4451
915.921	4421
916.034	4261
916.146	4322
916.259	4192
916.371	4383
916.483	4363
916.595	4261
916.708	4318
916.82	4329
916.932	4367
917.044	4352
917.156	4306
917.268	4230
917.38	4303
917.491	4299
917.603	4356
917.715	4428
917.826	4413
917.938	4379
918.049	4211
918.161	4428
918.272	4561
918.384	4527
918.495	4432
918.606	4295
918.717	4249
918.828	4310
918.939	4367
919.05	4291
919.161	4295
919.272	4154
919.383	4242
919.494	4462
919.604	4668
919.715	4440
919.826	4379
919.936	4375
920.047	4535
920.157	4493
920.267	4717
920.378	4546
920.488	4516
920.598	4687
920.708	4885
920.818	4755
920.928	4790
921.038	4972
921.148	4923
921.258	4660
921.368	4561
921.477	4504
921.587	4466
921.697	4356
921.806	4569
921.916	4371
922.025	4284
922.134	4303
922.244	4253
922.353	4367
922.462	4207
922.571	4120
922.68	4029
922.789	4010
922.898	3994
923.007	3991
923.116	4071
923.224	4078
923.333	4101
923.442	3964
923.55	3979
923.659	4059
923.767	4071
923.876	4021
923.984	4109
924.092	3964
924.201	4097
924.309	4139
924.417	4150
924.525	4059
924.633	4105
924.741	5052
924.849	3926
924.956	4135
925.064	3968
925.172	3941
925.279	4002
925.387	4055
925.494	4067
925.602	4230
925.709	4219
925.816	4059
925.924	4135
926.031	4223
926.138	4162
926.245	4169
926.352	4109
926.459	4223
926.566	4337
926.673	4147
926.779	4139
926.886	4109
926.993	3949
927.099	4002
927.206	3964
927.312	3960
927.419	4078
927.525	4025
927.631	4154
927.737	3998
927.843	3937
927.95	3873
928.056	3991
928.162	3983
928.267	4097
928.373	4637
928.479	4135
928.585	3903
928.69	4059
928.796	4143
928.901	3937
929.007	3861
929.112	4055
929.218	4013
929.323	3934
929.428	3926
929.533	4090
929.638	3937
929.743	3994
929.848	4078
929.953	4010
930.058	3937
930.163	3800
930.267	3846
930.372	3956
930.477	3835
930.581	4097
930.685	3945
930.79	3842
930.894	3892
930.998	3922
931.103	4051
931.207	3732
931.311	3698
931.415	3682
931.519	3545
931.623	3584
