Data from test_V78500241_877.txt Node
Date: Fri Mar 25 16:55:06 CST 2022
User: usil
Spectrometer: V785-0024
Trigger mode: 0
Integration Time (sec): 4.000000E-1
Scans to average: 1
Nonlinearity correction enabled: false
Boxcar width: 0
Storing dark spectrum: false
XAxis mode: Wavelengths
Number of Pixels in Spectrum: 1024
>>>>>Begin Spectral Data<<<<<
801.071	8065
801.214	8100
801.356	7909
801.499	7906
801.641	7841
801.783	7826
801.926	8016
802.068	7963
802.211	7970
802.353	8016
802.496	7845
802.638	7959
802.78	7917
802.923	7909
803.065	7932
803.208	7917
803.35	8084
803.492	8164
803.635	8180
803.777	8081
803.919	8123
804.061	8423
804.204	8096
804.346	8046
804.488	8020
804.63	8214
804.773	8058
804.915	8107
805.057	8244
805.199	8115
805.341	8237
805.483	8309
805.626	8172
805.768	8157
805.91	8206
806.052	8218
806.194	8062
806.336	8290
806.478	8126
806.62	8035
806.762	8138
806.904	8301
807.046	8419
807.188	8358
807.33	8309
807.472	8377
807.614	8191
807.756	8077
807.898	8050
808.04	7898
808.182	7921
808.324	7913
808.465	7974
808.607	8073
808.749	8130
808.891	8237
809.033	8358
809.174	8240
809.316	8111
809.458	8031
809.6	7982
809.741	8065
809.883	8054
810.025	8115
810.166	8065
810.308	7993
810.45	8020
810.591	7871
810.733	7727
810.875	7689
811.016	7537
811.158	7502
811.299	7567
811.441	7674
811.582	7708
811.724	7590
811.865	7567
812.007	7616
812.148	7624
812.29	7624
812.431	7731
812.573	7887
812.714	7959
812.855	8134
812.997	8206
813.138	8355
813.279	8237
813.421	8130
813.562	8024
813.703	7883
813.845	7753
813.986	7476
814.127	7381
814.268	7263
814.41	7225
814.551	7141
814.692	7160
814.833	7027
814.974	7137
815.115	7103
815.256	6947
815.397	6943
815.539	7023
815.68	6837
815.821	6810
815.962	6833
816.103	6852
816.244	6806
816.385	6696
816.526	6677
816.666	6536
816.807	6315
816.948	6460
817.089	6525
817.23	6471
817.371	6410
817.512	6365
817.653	6422
817.793	6403
817.934	6513
818.075	6467
818.216	6429
818.356	6376
818.497	6254
818.638	6057
818.778	6125
818.919	6102
819.06	6213
819.2	6319
819.341	6262
819.481	6365
819.622	6525
819.762	6700
819.903	6692
820.043	6654
820.184	6585
820.324	6544
820.465	6665
820.605	6665
820.746	6593
820.886	6502
821.026	6726
821.167	6734
821.307	6814
821.447	6806
821.588	6719
821.728	6563
821.868	6513
822.008	6407
822.149	6399
822.289	6369
822.429	6159
822.569	6125
822.709	6087
822.849	5908
822.99	5939
823.13	5950
823.27	5996
823.41	5813
823.55	5748
823.69	5767
823.83	5863
823.97	5714
824.11	5551
824.25	5509
824.389	5604
824.529	5638
824.669	5524
824.809	5668
824.949	5680
825.089	5634
825.228	5608
825.368	5406
825.508	5345
825.648	5372
825.787	5364
825.927	5360
826.067	5334
826.206	5368
826.346	5402
826.485	5376
826.625	5391
826.765	5577
826.904	5478
827.044	5292
827.183	5216
827.323	5147
827.462	5296
827.601	5223
827.741	5216
827.88	5212
828.02	5102
828.159	5242
828.298	5303
828.437	5429
828.577	5307
828.716	5520
828.855	5330
828.994	5162
829.134	5140
829.273	5242
829.412	5147
829.551	5162
829.69	5174
829.829	5277
829.968	5357
830.107	5246
830.246	5277
830.385	5155
830.524	5140
830.663	5067
830.802	4999
830.941	4923
831.08	4889
831.219	4961
831.357	5014
831.496	5147
831.635	4919
831.774	4862
831.913	4854
832.051	4740
832.19	4778
832.329	4881
832.467	4694
832.606	4672
832.744	4725
832.883	4740
833.022	4763
833.16	4812
833.299	4839
833.437	4828
833.576	4850
833.714	4873
833.852	4942
833.991	4873
834.129	4972
834.267	5018
834.406	4911
834.544	4953
834.682	4972
834.821	4965
834.959	5124
835.097	5029
835.235	5178
835.373	5124
835.511	5105
835.65	5029
835.788	5033
835.926	4938
836.064	4892
836.202	4934
836.34	5208
836.478	5239
836.615	5117
836.753	5155
836.891	5334
837.029	5261
837.167	5197
837.305	5189
837.443	5113
837.58	5071
837.718	5223
837.856	5181
837.993	5162
838.131	5208
838.269	5242
838.406	5181
838.544	5208
838.681	5075
838.819	5018
838.956	4919
839.094	4930
839.231	4957
839.369	5132
839.506	5417
839.643	5303
839.781	5079
839.918	5041
840.055	5117
840.193	5136
840.33	5094
840.467	5189
840.604	5189
840.742	5406
840.879	5109
841.016	5147
841.153	5159
841.29	5383
841.427	5357
841.564	5315
841.701	5364
841.838	5254
841.975	5261
842.112	5353
842.249	5170
842.385	5124
842.522	5311
842.659	5151
842.796	5162
842.933	5212
843.069	5204
843.206	5193
843.343	5273
843.479	5296
843.616	5261
843.752	5060
843.889	5010
844.025	5261
844.162	4984
844.298	5189
844.435	5117
844.571	5105
844.708	5193
844.844	5307
844.98	5322
845.117	5284
845.253	5151
845.389	5094
845.525	5124
845.661	5155
845.798	5033
845.934	5147
846.07	5052
846.206	5197
846.342	5303
846.478	5185
846.614	5033
846.75	5033
846.886	4972
847.022	5132
847.158	5064
847.294	5071
847.429	5124
847.565	5064
847.701	5269
847.837	4862
847.972	4805
848.108	4923
848.244	5006
848.379	4759
848.515	4721
848.65	4733
848.786	4801
848.921	4759
849.057	4847
849.192	4881
849.328	4790
849.463	4866
849.598	4797
849.734	4786
849.869	4679
850.004	4634
850.14	4675
850.275	4573
850.41	4508
850.545	4573
850.68	4660
850.815	4641
850.95	4603
851.085	4782
851.22	4744
851.355	4664
851.49	4611
851.625	4607
851.76	4691
851.895	4550
852.03	4493
852.165	4649
852.299	4694
852.434	4778
852.569	4782
852.703	4778
852.838	4858
852.973	4896
853.107	4900
853.242	4774
853.376	4683
853.511	4535
853.645	4645
853.78	4793
853.914	4702
854.048	4675
854.183	4622
854.317	4706
854.451	4843
854.585	4664
854.72	4607
854.854	4683
854.988	4611
855.122	4641
855.256	4550
855.39	4634
855.524	4801
855.658	4698
855.792	4733
855.926	4736
856.06	4710
856.194	4801
856.327	4694
856.461	4596
856.595	4573
856.729	4607
856.862	4740
856.996	4694
857.13	4679
857.263	4767
857.397	4828
857.53	4645
857.664	4706
857.797	4748
857.931	4824
858.064	4679
858.197	4702
858.331	4637
858.464	4622
858.597	4485
858.731	4596
858.864	4664
858.997	4611
859.13	4656
859.263	4683
859.396	4698
859.529	4550
859.662	4546
859.795	4538
859.928	4596
860.061	4790
860.194	4725
860.327	4535
860.46	4546
860.592	4733
860.725	4729
860.858	4744
860.99	4615
861.123	4527
861.256	4519
861.388	4599
861.521	5284
861.653	4531
861.786	4455
861.918	4459
862.05	4519
862.183	4523
862.315	4618
862.447	4660
862.58	4546
862.712	4409
862.844	4318
862.976	4497
863.108	4405
863.24	4721
863.372	4284
863.504	4432
863.636	4390
863.768	4485
863.9	4432
864.032	4371
864.164	4394
864.296	4432
864.428	4630
864.559	4558
864.691	4558
864.823	4542
864.954	4516
865.086	4538
865.217	4440
865.349	4428
865.48	4409
865.612	4497
865.743	4615
865.875	4485
866.006	4402
866.137	4447
866.269	4440
866.4	4436
866.531	4470
866.662	4398
866.793	4363
866.924	4386
867.055	4493
867.186	4470
867.317	4379
867.448	4352
867.579	4402
867.71	4421
867.841	4379
867.972	4481
868.103	4504
868.233	4443
868.364	4466
868.495	4470
868.625	4691
868.756	4721
868.886	4546
869.017	4618
869.147	4778
869.278	4786
869.408	4626
869.539	4622
869.669	4714
869.799	4687
869.929	4714
870.06	4675
870.19	4942
870.32	4850
870.45	4984
870.58	4980
870.71	5075
870.84	5048
870.97	4930
871.1	4816
871.23	5132
871.36	5105
871.489	5075
871.619	5071
871.749	5041
871.879	5136
872.008	5189
872.138	5064
872.267	4949
872.397	4889
872.526	4805
872.656	4672
872.785	4831
872.915	4889
873.044	5041
873.173	4870
873.303	4972
873.432	4953
873.561	4942
873.69	4904
873.819	4847
873.948	4908
874.077	4778
874.206	4725
874.335	4786
874.464	4919
874.593	5045
874.722	4949
874.851	5109
874.979	5045
875.108	5056
875.237	4915
875.365	4850
875.494	4873
875.623	4961
875.751	4854
875.88	4870
876.008	4972
876.136	5075
876.265	5121
876.393	5357
876.521	5292
876.65	5254
876.778	5178
876.906	5056
877.034	4957
877.162	4927
877.29	4946
877.418	5060
877.546	5045
877.674	5045
877.802	5037
877.93	5025
878.058	4930
878.185	4889
878.313	4896
878.441	4968
878.568	4801
878.696	4839
878.824	4953
878.951	5033
879.079	5098
879.206	5330
879.333	5147
879.461	4965
879.588	4984
879.715	5124
879.842	5193
879.97	4980
880.097	4805
880.224	4721
880.351	4824
880.478	4809
880.605	4790
880.732	4816
880.859	5079
880.986	4831
881.112	4892
881.239	4790
881.366	4706
881.493	4599
881.619	4542
881.746	4653
881.872	4634
881.999	4675
882.125	4675
882.252	4809
882.378	4854
882.505	4976
882.631	4790
882.757	4660
882.883	4744
883.01	4759
883.136	4668
883.262	4554
883.388	4599
883.514	4805
883.64	4831
883.766	4805
883.892	4691
884.018	4691
884.143	4892
884.269	4987
884.395	4641
884.52	4645
884.646	4683
884.772	4596
884.897	4519
885.023	4683
885.148	4752
885.274	4900
885.399	4782
885.524	4672
885.65	4714
885.775	4694
885.9	4721
886.025	4847
886.15	4820
886.275	4679
886.4	4626
886.525	4702
886.65	4706
886.775	4717
886.9	4915
887.025	5010
887.149	4820
887.274	4630
887.399	4546
887.523	4592
887.648	4535
887.773	4584
887.897	4736
888.021	4691
888.146	4675
888.27	4767
888.395	4885
888.519	4816
888.643	4759
888.767	4847
888.891	4710
889.015	4603
889.139	4599
889.263	4611
889.387	4733
889.511	4919
889.635	4793
889.759	4618
889.883	4653
890.006	4733
890.13	4824
890.254	4634
890.377	4637
890.501	4455
890.624	4478
890.748	4668
890.871	4512
890.995	4436
891.118	4451
891.241	4500
891.364	4542
891.488	4615
891.611	4413
891.734	4497
891.857	4577
891.98	4519
892.103	4630
892.226	4561
892.349	4523
892.471	4383
892.594	4481
892.717	4588
892.839	4538
892.962	4588
893.085	4675
893.207	4607
893.33	4447
893.452	4485
893.575	4660
893.697	4584
893.819	4740
893.941	4797
894.064	4786
894.186	4538
894.308	4577
894.43	4744
894.552	4797
894.674	4752
894.796	4558
894.918	4588
895.04	4565
895.161	4706
895.283	4645
895.405	4554
895.526	4626
895.648	4626
895.769	4649
895.891	4725
896.012	4752
896.134	4717
896.255	4649
896.376	4603
896.498	4653
896.619	4592
896.74	4569
896.861	4664
896.982	4927
897.103	5029
897.224	4831
897.345	4774
897.466	4641
897.587	4710
897.708	4847
897.828	4816
897.949	4656
898.07	4565
898.19	4641
898.311	4820
898.431	4660
898.552	4733
898.672	4782
898.792	4793
898.913	4752
899.033	4565
899.153	4474
899.273	4383
899.393	4512
899.513	4497
899.633	4508
899.753	4512
899.873	4470
899.993	4603
900.113	4516
900.232	4611
900.352	4512
900.472	4485
900.591	4398
900.711	4481
900.83	4417
900.95	4607
901.069	4641
901.189	4535
901.308	4337
901.427	4284
901.546	4367
901.665	4459
901.784	4466
901.904	4360
902.023	4318
902.141	4204
902.26	4181
902.379	4303
902.498	4238
902.617	4219
902.735	4402
902.854	4341
902.973	4371
903.091	4181
903.21	4268
903.328	4268
903.446	4265
903.565	4227
903.683	4352
903.801	4249
903.919	4413
904.038	4424
904.156	4287
904.274	4413
904.392	4398
904.51	4447
904.627	4493
904.745	4611
904.863	4618
904.981	4394
905.098	4276
905.216	4348
905.334	4421
905.451	4413
905.569	4402
905.686	4580
905.803	4577
905.921	4413
906.038	4531
906.155	4466
906.272	4375
906.389	4436
906.506	4348
906.623	4363
906.74	4375
906.857	4306
906.974	4333
907.091	4542
907.208	4675
907.324	4538
907.441	4519
907.557	4325
907.674	4356
907.79	4333
907.907	4352
908.023	4504
908.139	4508
908.256	4417
908.372	4424
908.488	4413
908.604	4360
908.72	4295
908.836	4367
908.952	4356
909.068	4440
909.184	4546
909.3	4493
909.415	4569
909.531	4542
909.647	4325
909.762	4402
909.878	4341
909.993	4436
910.108	4440
910.224	4417
910.339	4485
910.454	4386
910.57	4417
910.685	4272
910.8	4664
910.915	4626
911.03	4504
911.145	4333
911.259	4329
911.374	4363
911.489	4276
911.604	4215
911.718	4166
911.833	4223
911.947	4055
912.062	4051
912.176	4173
912.291	4230
912.405	4207
912.519	4424
912.633	4516
912.748	4318
912.862	4303
912.976	4192
913.09	4090
913.204	4116
913.318	4242
913.431	4344
913.545	4386
913.659	4436
913.772	4333
913.886	4276
914	4177
914.113	4352
914.226	4436
914.34	4398
914.453	4246
914.566	4428
914.68	4291
914.793	4325
914.906	4188
915.019	4093
915.132	4051
915.245	4166
915.358	4227
915.47	4265
915.583	4238
915.696	4284
915.809	4371
915.921	4390
916.034	4249
916.146	4238
916.259	4227
916.371	4348
916.483	4318
916.595	4249
916.708	4276
916.82	4333
916.932	4268
917.044	4306
917.156	4299
917.268	4253
917.38	4272
917.491	4295
917.603	4291
917.715	4417
917.826	4402
917.938	4306
918.049	4219
918.161	4402
918.272	4561
918.384	4573
918.495	4417
918.606	4268
918.717	4219
918.828	4314
918.939	4344
919.05	4249
919.161	4325
919.272	4090
919.383	4215
919.494	4447
919.604	4592
919.715	4428
919.826	4348
919.936	4394
920.047	4497
920.157	4440
920.267	4653
920.378	4550
920.488	4554
920.598	4668
920.708	4927
920.818	4748
920.928	4748
921.038	4923
921.148	4923
921.258	4550
921.368	4577
921.477	4455
921.587	4443
921.697	4348
921.806	4519
921.916	4417
922.025	4272
922.134	4257
922.244	4219
922.353	4299
922.462	4158
922.571	4135
922.68	4002
922.789	3972
922.898	4006
923.007	3972
923.116	4105
923.224	4006
923.333	4071
923.442	3964
923.55	3983
923.659	4010
923.767	4135
923.876	3991
923.984	4124
924.092	3953
924.201	4051
924.309	4029
924.417	4109
924.525	4051
924.633	4131
924.741	4850
924.849	3903
924.956	4112
925.064	3960
925.172	3892
925.279	3907
925.387	4059
925.494	4059
925.602	4181
925.709	4154
925.816	4032
925.924	4109
926.031	4181
926.138	4128
926.245	4211
926.352	4074
926.459	4177
926.566	4268
926.673	4101
926.779	4086
926.886	4101
926.993	3987
927.099	3975
927.206	3907
927.312	3937
927.419	4044
927.525	4029
927.631	4067
927.737	3968
927.843	3911
927.95	3797
928.056	3907
928.162	3964
928.267	4078
928.373	4599
928.479	4090
928.585	3854
928.69	4013
928.796	4112
928.901	3907
929.007	3880
929.112	3991
929.218	3926
929.323	3926
929.428	3930
929.533	4078
929.638	3903
929.743	3968
929.848	4021
929.953	3983
930.058	3949
930.163	3724
930.267	3816
930.372	3998
930.477	3797
930.581	4055
930.685	3937
930.79	3797
930.894	3831
930.998	3876
931.103	4013
931.207	3690
931.311	3701
931.415	3667
931.519	3523
931.623	3504
