Data from test_V78500241_2650.txt Node
Date: Fri Mar 25 17:07:25 CST 2022
User: usil
Spectrometer: V785-0024
Trigger mode: 0
Integration Time (sec): 4.000000E-1
Scans to average: 1
Nonlinearity correction enabled: false
Boxcar width: 0
Storing dark spectrum: false
XAxis mode: Wavelengths
Number of Pixels in Spectrum: 1024
>>>>>Begin Spectral Data<<<<<
801.071	8084
801.214	8035
801.356	7887
801.499	7890
801.641	7757
801.783	7902
801.926	7944
802.068	7982
802.211	7989
802.353	8027
802.496	7898
802.638	7906
802.78	7951
802.923	7947
803.065	7849
803.208	7890
803.35	7997
803.492	8073
803.635	8084
803.777	8054
803.919	8073
804.061	8362
804.204	8153
804.346	8027
804.488	7944
804.63	8043
804.773	7940
804.915	8115
805.057	8252
805.199	8123
805.341	8214
805.483	8279
805.626	8218
805.768	8107
805.91	8176
806.052	8180
806.194	8088
806.336	8256
806.478	8081
806.62	8096
806.762	8088
806.904	8183
807.046	8404
807.188	8347
807.33	8328
807.472	8309
807.614	8172
807.756	8183
807.898	8039
808.04	7917
808.182	7887
808.324	7822
808.465	7887
808.607	8054
808.749	8111
808.891	8206
809.033	8320
809.174	8237
809.316	8035
809.458	8039
809.6	8054
809.741	8020
809.883	8008
810.025	8103
810.166	8111
810.308	7993
810.45	7947
810.591	7849
810.733	7704
810.875	7696
811.016	7518
811.158	7453
811.299	7544
811.441	7681
811.582	7658
811.724	7525
811.865	7563
812.007	7613
812.148	7506
812.29	7738
812.431	7681
812.573	7860
812.714	7940
812.855	8195
812.997	8202
813.138	8309
813.279	8123
813.421	8130
813.562	7970
813.703	7951
813.845	7757
813.986	7449
814.127	7285
814.268	7278
814.41	7194
814.551	7160
814.692	7213
814.833	7099
814.974	7149
815.115	7156
815.256	7023
815.397	6932
815.539	6905
815.68	6825
815.821	6821
815.962	6837
816.103	6821
816.244	6753
816.385	6623
816.526	6631
816.666	6589
816.807	6350
816.948	6460
817.089	6490
817.23	6437
817.371	6369
817.512	6410
817.653	6331
817.793	6346
817.934	6422
818.075	6479
818.216	6441
818.356	6384
818.497	6235
818.638	6167
818.778	6163
818.919	6133
819.06	6155
819.2	6304
819.341	6361
819.481	6319
819.622	6540
819.762	6738
819.903	6662
820.043	6585
820.184	6620
820.324	6547
820.465	6665
820.605	6692
820.746	6662
820.886	6521
821.026	6700
821.167	6760
821.307	6791
821.447	6730
821.588	6719
821.728	6635
821.868	6521
822.008	6296
822.149	6342
822.289	6384
822.429	6205
822.569	6106
822.709	6095
822.849	5882
822.99	5950
823.13	5958
823.27	5950
823.41	5775
823.55	5805
823.69	5783
823.83	5779
823.97	5707
824.11	5516
824.25	5532
824.389	5589
824.529	5566
824.669	5490
824.809	5619
824.949	5611
825.089	5638
825.228	5551
825.368	5349
825.508	5326
825.648	5318
825.787	5341
825.927	5330
826.067	5315
826.206	5318
826.346	5433
826.485	5398
826.625	5414
826.765	5478
826.904	5467
827.044	5254
827.183	5220
827.323	5132
827.462	5269
827.601	5174
827.741	5231
827.88	5265
828.02	5098
828.159	5162
828.298	5265
828.437	5372
828.577	5288
828.716	5429
828.855	5326
828.994	5155
829.134	5174
829.273	5170
829.412	5151
829.551	5094
829.69	5155
829.829	5246
829.968	5383
830.107	5334
830.246	5303
830.385	5170
830.524	5113
830.663	5064
830.802	4984
830.941	4812
831.08	4934
831.219	4972
831.357	4953
831.496	5159
831.635	4930
831.774	4862
831.913	4843
832.051	4717
832.19	4771
832.329	4847
832.467	4736
832.606	4668
832.744	4721
832.883	4710
833.022	4717
833.16	4812
833.299	4847
833.437	4877
833.576	4885
833.714	4839
833.852	4866
833.991	4911
834.129	4987
834.267	4930
834.406	4850
834.544	4949
834.682	4972
834.821	4934
834.959	5132
835.097	5014
835.235	5193
835.373	5090
835.511	5105
835.65	5022
835.788	4995
835.926	4889
836.064	4915
836.202	4942
836.34	5189
836.478	5155
836.615	5109
836.753	5162
836.891	5326
837.029	5235
837.167	5170
837.305	5132
837.443	5109
837.58	5086
837.718	5231
837.856	5231
837.993	5174
838.131	5197
838.269	5181
838.406	5189
838.544	5189
838.681	5014
838.819	4972
838.956	4881
839.094	4885
839.231	4942
839.369	5109
839.506	5402
839.643	5273
839.781	5052
839.918	5041
840.055	5033
840.193	5121
840.33	5105
840.467	5117
840.604	5151
840.742	5410
840.879	5079
841.016	5113
841.153	5121
841.29	5376
841.427	5303
841.564	5261
841.701	5345
841.838	5299
841.975	5208
842.112	5299
842.249	5189
842.385	5102
842.522	5322
842.659	5105
842.796	5128
842.933	5201
843.069	5113
843.206	5223
843.343	5280
843.479	5231
843.616	5246
843.752	5041
843.889	5067
844.025	5250
844.162	4980
844.298	5204
844.435	5090
844.571	5052
844.708	5166
844.844	5372
844.98	5292
845.117	5311
845.253	5189
845.389	5102
845.525	5128
845.661	5151
845.798	5022
845.934	5102
846.07	5041
846.206	5159
846.342	5201
846.478	5197
846.614	5041
846.75	4930
846.886	4900
847.022	5105
847.158	5056
847.294	5098
847.429	5121
847.565	5098
847.701	5345
847.837	4858
847.972	4771
848.108	4957
848.244	4972
848.379	4805
848.515	4733
848.65	4675
848.786	4721
848.921	4820
849.057	4831
849.192	4900
849.328	4820
849.463	4839
849.598	4771
849.734	4668
849.869	4664
850.004	4611
850.14	4691
850.275	4592
850.41	4500
850.545	4580
850.68	4580
850.815	4622
850.95	4615
851.085	4812
851.22	4778
851.355	4672
851.49	4588
851.625	4611
851.76	4645
851.895	4580
852.03	4512
852.165	4596
852.299	4733
852.434	4816
852.569	4733
852.703	4778
852.838	4850
852.973	4930
853.107	4892
853.242	4767
853.376	4664
853.511	4519
853.645	4554
853.78	4854
853.914	4679
854.048	4649
854.183	4672
854.317	4664
854.451	4816
854.585	4653
854.72	4588
854.854	4790
854.988	4558
855.122	4615
855.256	4523
855.39	4664
855.524	4740
855.658	4733
855.792	4683
855.926	4729
856.06	4763
856.194	4771
856.327	4675
856.461	4592
856.595	4573
856.729	4611
856.862	4771
856.996	4679
857.13	4729
857.263	4725
857.397	4759
857.53	4664
857.664	4774
857.797	4736
857.931	4767
858.064	4637
858.197	4721
858.331	4630
858.464	4626
858.597	4485
858.731	4618
858.864	4687
858.997	4516
859.13	4611
859.263	4672
859.396	4729
859.529	4554
859.662	4569
859.795	4542
859.928	4660
860.061	4721
860.194	4759
860.327	4637
860.46	4535
860.592	4698
860.725	4721
860.858	4748
860.99	4569
861.123	4508
861.256	4542
861.388	4573
861.521	5429
861.653	4474
861.786	4398
861.918	4432
862.05	4516
862.183	4561
862.315	4584
862.447	4649
862.58	4527
862.712	4405
862.844	4284
862.976	4497
863.108	4470
863.24	4729
863.372	4310
863.504	4424
863.636	4360
863.768	4478
863.9	4440
864.032	4310
864.164	4417
864.296	4455
864.428	4504
864.559	4531
864.691	4535
864.823	4535
864.954	4447
865.086	4497
865.217	4497
865.349	4428
865.48	4421
865.612	4497
865.743	4634
865.875	4417
866.006	4375
866.137	4485
866.269	4443
866.4	4413
866.531	4405
866.662	4360
866.793	4375
866.924	4394
867.055	4478
867.186	4402
867.317	4405
867.448	4398
867.579	4371
867.71	4432
867.841	4356
867.972	4478
868.103	4402
868.233	4443
868.364	4459
868.495	4459
868.625	4668
868.756	4752
868.886	4554
869.017	4660
869.147	4778
869.278	4790
869.408	4645
869.539	4611
869.669	4683
869.799	4656
869.929	4744
870.06	4733
870.19	4976
870.32	4930
870.45	4934
870.58	5006
870.71	5056
870.84	5079
870.97	4949
871.1	4889
871.23	5109
871.36	5075
871.489	5037
871.619	5075
871.749	5083
871.879	5124
872.008	5162
872.138	5079
872.267	4949
872.397	4843
872.526	4820
872.656	4668
872.785	4809
872.915	4949
873.044	5010
873.173	4930
873.303	4934
873.432	5010
873.561	4968
873.69	4885
873.819	4896
873.948	4870
874.077	4812
874.206	4736
874.335	4774
874.464	4889
874.593	5037
874.722	4957
874.851	5067
874.979	5052
875.108	5037
875.237	4908
875.365	4870
875.494	4877
875.623	4961
875.751	4854
875.88	4843
876.008	4976
876.136	5006
876.265	5136
876.393	5292
876.521	5246
876.65	5258
876.778	5121
876.906	5067
877.034	5045
877.162	5033
877.29	4984
877.418	5014
877.546	5048
877.674	5045
877.802	5083
877.93	5033
878.058	4961
878.185	4873
878.313	4999
878.441	4915
878.568	4797
878.696	4858
878.824	4961
878.951	5010
879.079	5090
879.206	5296
879.333	5109
879.461	4987
879.588	5003
879.715	5064
879.842	5250
879.97	5010
880.097	4736
880.224	4774
880.351	4755
880.478	4828
880.605	4774
880.732	4774
880.859	5014
880.986	4850
881.112	4843
881.239	4774
881.366	4622
881.493	4592
881.619	4561
881.746	4626
881.872	4641
881.999	4664
882.125	4672
882.252	4820
882.378	4828
882.505	4934
882.631	4790
882.757	4721
882.883	4774
883.01	4714
883.136	4672
883.262	4622
883.388	4630
883.514	4850
883.64	4908
883.766	4866
883.892	4744
884.018	4771
884.143	4900
884.269	5025
884.395	4687
884.52	4645
884.646	4672
884.772	4618
884.897	4561
885.023	4668
885.148	4835
885.274	4915
885.399	4797
885.524	4767
885.65	4782
885.775	4778
885.9	4782
886.025	4885
886.15	4862
886.275	4778
886.4	4653
886.525	4790
886.65	4714
886.775	4694
886.9	4919
887.025	5060
887.149	4854
887.274	4683
887.399	4626
887.523	4675
887.648	4611
887.773	4634
887.897	4793
888.021	4812
888.146	4679
888.27	4843
888.395	4942
888.519	4771
888.643	4915
888.767	4968
888.891	4717
889.015	4618
889.139	4706
889.263	4641
889.387	4812
889.511	4885
889.635	4839
889.759	4744
889.883	4683
890.006	4729
890.13	4843
890.254	4634
890.377	4725
890.501	4577
890.624	4546
890.748	4687
890.871	4538
890.995	4466
891.118	4436
891.241	4569
891.364	4637
891.488	4675
891.611	4538
891.734	4618
891.857	4607
891.98	4641
892.103	4683
892.226	4618
892.349	4584
892.471	4398
892.594	4592
892.717	4672
892.839	4592
892.962	4634
893.085	4706
893.207	4653
893.33	4550
893.452	4535
893.575	4714
893.697	4630
893.819	4850
893.941	4881
894.064	4774
894.186	4577
894.308	4607
894.43	4736
894.552	4885
894.674	4782
894.796	4573
894.918	4637
895.04	4607
895.161	4763
895.283	4679
895.405	4660
895.526	4675
895.648	4740
895.769	4706
895.891	4767
896.012	4740
896.134	4809
896.255	4733
896.376	4626
896.498	4649
896.619	4736
896.74	4630
896.861	4683
896.982	4923
897.103	5143
897.224	4831
897.345	4858
897.466	4698
897.587	4752
897.708	4889
897.828	4816
897.949	4729
898.07	4649
898.19	4634
898.311	4843
898.431	4721
898.552	4778
898.672	4797
898.792	4843
898.913	4759
899.033	4664
899.153	4561
899.273	4470
899.393	4512
899.513	4531
899.633	4573
899.753	4588
899.873	4550
899.993	4641
900.113	4573
900.232	4675
900.352	4580
900.472	4512
900.591	4402
900.711	4519
900.83	4455
900.95	4649
901.069	4729
901.189	4542
901.308	4352
901.427	4363
901.546	4462
901.665	4542
901.784	4542
901.904	4421
902.023	4409
902.141	4196
902.26	4215
902.379	4337
902.498	4257
902.617	4306
902.735	4394
902.854	4459
902.973	4352
903.091	4249
903.21	4276
903.328	4284
903.446	4310
903.565	4265
903.683	4402
903.801	4333
903.919	4428
904.038	4424
904.156	4348
904.274	4436
904.392	4466
904.51	4451
904.627	4523
904.745	4558
904.863	4679
904.981	4470
905.098	4333
905.216	4383
905.334	4489
905.451	4421
905.569	4478
905.686	4573
905.803	4641
905.921	4470
906.038	4592
906.155	4462
906.272	4413
906.389	4500
906.506	4417
906.623	4428
906.74	4409
906.857	4363
906.974	4409
907.091	4618
907.208	4706
907.324	4615
907.441	4577
907.557	4394
907.674	4390
907.79	4341
907.907	4462
908.023	4535
908.139	4558
908.256	4443
908.372	4519
908.488	4512
908.604	4375
908.72	4375
908.836	4398
908.952	4424
909.068	4470
909.184	4546
909.3	4584
909.415	4634
909.531	4573
909.647	4390
909.762	4379
909.878	4363
909.993	4497
910.108	4432
910.224	4440
910.339	4493
910.454	4447
910.57	4390
910.685	4310
910.8	4664
910.915	4634
911.03	4561
911.145	4363
911.259	4322
911.374	4421
911.489	4333
911.604	4272
911.718	4192
911.833	4238
911.947	4131
912.062	4051
912.176	4204
912.291	4268
912.405	4287
912.519	4527
912.633	4546
912.748	4383
912.862	4329
912.976	4249
913.09	4143
913.204	4246
913.318	4253
913.431	4394
913.545	4402
913.659	4459
913.772	4383
913.886	4299
914	4249
914.113	4409
914.226	4462
914.34	4402
914.453	4287
914.566	4428
914.68	4371
914.793	4318
914.906	4158
915.019	4173
915.132	4112
915.245	4200
915.358	4234
915.47	4242
915.583	4303
915.696	4344
915.809	4409
915.921	4440
916.034	4291
916.146	4249
916.259	4253
916.371	4363
916.483	4383
916.595	4299
916.708	4322
916.82	4344
916.932	4371
917.044	4344
917.156	4337
917.268	4272
917.38	4322
917.491	4246
917.603	4386
917.715	4436
917.826	4474
917.938	4367
918.049	4227
918.161	4470
918.272	4523
918.384	4558
918.495	4504
918.606	4310
918.717	4303
918.828	4329
918.939	4405
919.05	4257
919.161	4379
919.272	4207
919.383	4257
919.494	4451
919.604	4653
919.715	4432
919.826	4360
919.936	4432
920.047	4535
920.157	4538
920.267	4714
920.378	4523
920.488	4561
920.598	4771
920.708	4885
920.818	4782
920.928	4805
921.038	4968
921.148	4976
921.258	4649
921.368	4580
921.477	4565
921.587	4470
921.697	4390
921.806	4546
921.916	4440
922.025	4322
922.134	4314
922.244	4242
922.353	4318
922.462	4207
922.571	4166
922.68	3972
922.789	3994
922.898	4063
923.007	4048
923.116	4143
923.224	4051
923.333	4097
923.442	4021
923.55	3998
923.659	4055
923.767	4131
923.876	4021
923.984	4124
924.092	3987
924.201	4143
924.309	4093
924.417	4116
924.525	4093
924.633	4093
924.741	5132
924.849	3972
924.956	4147
925.064	3968
925.172	3972
925.279	3979
925.387	4120
925.494	4097
925.602	4234
925.709	4162
925.816	4082
925.924	4173
926.031	4253
926.138	4135
926.245	4238
926.352	4082
926.459	4295
926.566	4322
926.673	4109
926.779	4109
926.886	4078
926.993	3975
927.099	3987
927.206	3972
927.312	3960
927.419	4082
927.525	4078
927.631	4097
927.737	3975
927.843	3987
927.95	3873
928.056	3983
928.162	3987
928.267	4040
928.373	4565
928.479	4116
928.585	3915
928.69	4051
928.796	4067
928.901	3964
929.007	3850
929.112	4010
929.218	4044
929.323	3964
929.428	3949
929.533	4071
929.638	3930
929.743	3975
929.848	4059
929.953	4017
930.058	3953
930.163	3816
930.267	3838
930.372	3922
930.477	3865
930.581	4071
930.685	3979
930.79	3831
930.894	3892
930.998	3876
931.103	4063
931.207	3747
931.311	3705
931.415	3682
931.519	3519
931.623	3591
