Data from test_V78500241_2306.txt Node
Date: Fri Mar 25 17:05:02 CST 2022
User: usil
Spectrometer: V785-0024
Trigger mode: 0
Integration Time (sec): 4.000000E-1
Scans to average: 1
Nonlinearity correction enabled: false
Boxcar width: 0
Storing dark spectrum: false
XAxis mode: Wavelengths
Number of Pixels in Spectrum: 1024
>>>>>Begin Spectral Data<<<<<
801.071	8020
801.214	7947
801.356	7879
801.499	7860
801.641	7772
801.783	7864
801.926	7978
802.068	7940
802.211	7967
802.353	8020
802.496	7860
802.638	7917
802.78	7879
802.923	7894
803.065	7917
803.208	7902
803.35	7883
803.492	8092
803.635	8145
803.777	8096
803.919	8191
804.061	8442
804.204	8199
804.346	8088
804.488	7970
804.63	8027
804.773	8062
804.915	8180
805.057	8385
805.199	8233
805.341	8267
805.483	8317
805.626	8233
805.768	8153
805.91	8195
806.052	8225
806.194	8172
806.336	8355
806.478	8126
806.62	8069
806.762	8119
806.904	8298
807.046	8457
807.188	8393
807.33	8263
807.472	8347
807.614	8168
807.756	8252
807.898	7978
808.04	7864
808.182	7951
808.324	7906
808.465	7921
808.607	8062
808.749	8138
808.891	8252
809.033	8301
809.174	8187
809.316	8176
809.458	8020
809.6	8069
809.741	8126
809.883	8092
810.025	8096
810.166	8096
810.308	8027
810.45	8073
810.591	7875
810.733	7712
810.875	7685
811.016	7537
811.158	7510
811.299	7525
811.441	7723
811.582	7674
811.724	7643
811.865	7525
812.007	7685
812.148	7571
812.29	7662
812.431	7746
812.573	7932
812.714	8020
812.855	8176
812.997	8221
813.138	8317
813.279	8115
813.421	8081
813.562	7940
813.703	7845
813.845	7750
813.986	7449
814.127	7274
814.268	7244
814.41	7168
814.551	7221
814.692	7187
814.833	7145
814.974	7099
815.115	7114
815.256	7042
815.397	6985
815.539	7015
815.68	6840
815.821	6806
815.962	6871
816.103	6833
816.244	6730
816.385	6578
816.526	6616
816.666	6563
816.807	6323
816.948	6380
817.089	6475
817.23	6494
817.371	6414
817.512	6391
817.653	6399
817.793	6350
817.934	6433
818.075	6475
818.216	6448
818.356	6418
818.497	6300
818.638	6186
818.778	6144
818.919	6167
819.06	6186
819.2	6334
819.341	6331
819.481	6388
819.622	6563
819.762	6787
819.903	6745
820.043	6631
820.184	6570
820.324	6608
820.465	6642
820.605	6658
820.746	6719
820.886	6509
821.026	6684
821.167	6730
821.307	6810
821.447	6768
821.588	6726
821.728	6608
821.868	6490
822.008	6391
822.149	6369
822.289	6361
822.429	6205
822.569	6136
822.709	6152
822.849	5942
822.99	5935
823.13	5931
823.27	5931
823.41	5794
823.55	5775
823.69	5783
823.83	5752
823.97	5615
824.11	5524
824.25	5478
824.389	5585
824.529	5615
824.669	5539
824.809	5615
824.949	5672
825.089	5627
825.228	5570
825.368	5372
825.508	5448
825.648	5417
825.787	5421
825.927	5360
826.067	5280
826.206	5292
826.346	5341
826.485	5410
826.625	5414
826.765	5585
826.904	5482
827.044	5170
827.183	5193
827.323	5121
827.462	5212
827.601	5193
827.741	5201
827.88	5311
828.02	5143
828.159	5284
828.298	5345
828.437	5349
828.577	5277
828.716	5501
828.855	5330
828.994	5170
829.134	5109
829.273	5208
829.412	5136
829.551	5128
829.69	5147
829.829	5261
829.968	5383
830.107	5318
830.246	5311
830.385	5216
830.524	5132
830.663	5086
830.802	5029
830.941	4858
831.08	4904
831.219	5003
831.357	4980
831.496	5193
831.635	4976
831.774	4847
831.913	4816
832.051	4691
832.19	4771
832.329	4824
832.467	4683
832.606	4675
832.744	4748
832.883	4733
833.022	4714
833.16	4797
833.299	4816
833.437	4850
833.576	4854
833.714	4843
833.852	4953
833.991	4900
834.129	4961
834.267	4999
834.406	4934
834.544	4923
834.682	4980
834.821	4953
834.959	5136
835.097	5067
835.235	5132
835.373	5086
835.511	5102
835.65	5060
835.788	5006
835.926	4908
836.064	4847
836.202	4968
836.34	5170
836.478	5261
836.615	5128
836.753	5216
836.891	5318
837.029	5307
837.167	5185
837.305	5151
837.443	5140
837.58	5067
837.718	5212
837.856	5223
837.993	5189
838.131	5261
838.269	5170
838.406	5189
838.544	5151
838.681	5098
838.819	5018
838.956	4892
839.094	4919
839.231	5010
839.369	5067
839.506	5471
839.643	5280
839.781	5048
839.918	5025
840.055	5064
840.193	5117
840.33	5102
840.467	5162
840.604	5174
840.742	5410
840.879	5086
841.016	5109
841.153	5128
841.29	5387
841.427	5307
841.564	5307
841.701	5421
841.838	5288
841.975	5284
842.112	5208
842.249	5124
842.385	5147
842.522	5334
842.659	5162
842.796	5174
842.933	5151
843.069	5155
843.206	5147
843.343	5292
843.479	5261
843.616	5311
843.752	5048
843.889	5045
844.025	5250
844.162	5045
844.298	5223
844.435	5102
844.571	5045
844.708	5204
844.844	5265
844.98	5337
845.117	5322
845.253	5147
845.389	5121
845.525	5151
845.661	5193
845.798	5075
845.934	5159
846.07	5041
846.206	5147
846.342	5246
846.478	5201
846.614	5022
846.75	4984
846.886	4915
847.022	5113
847.158	4995
847.294	5064
847.429	5083
847.565	5083
847.701	5318
847.837	4850
847.972	4809
848.108	4915
848.244	4919
848.379	4809
848.515	4721
848.65	4679
848.786	4748
848.921	4767
849.057	4870
849.192	4896
849.328	4850
849.463	4839
849.598	4831
849.734	4767
849.869	4740
850.004	4599
850.14	4691
850.275	4611
850.41	4516
850.545	4554
850.68	4569
850.815	4649
850.95	4607
851.085	4839
851.22	4710
851.355	4664
851.49	4653
851.625	4618
851.76	4607
851.895	4561
852.03	4565
852.165	4611
852.299	4748
852.434	4797
852.569	4763
852.703	4797
852.838	4812
852.973	4908
853.107	4949
853.242	4683
853.376	4649
853.511	4580
853.645	4618
853.78	4824
853.914	4634
854.048	4683
854.183	4660
854.317	4702
854.451	4828
854.585	4630
854.72	4584
854.854	4698
854.988	4607
855.122	4618
855.256	4558
855.39	4649
855.524	4809
855.658	4725
855.792	4683
855.926	4733
856.06	4729
856.194	4767
856.327	4691
856.461	4615
856.595	4565
856.729	4592
856.862	4725
856.996	4710
857.13	4706
857.263	4778
857.397	4812
857.53	4691
857.664	4717
857.797	4755
857.931	4763
858.064	4683
858.197	4771
858.331	4622
858.464	4584
858.597	4527
858.731	4630
858.864	4664
858.997	4561
859.13	4664
859.263	4679
859.396	4687
859.529	4573
859.662	4561
859.795	4531
859.928	4622
860.061	4767
860.194	4759
860.327	4637
860.46	4542
860.592	4679
860.725	4725
860.858	4694
860.99	4554
861.123	4519
861.256	4497
861.388	4622
861.521	5227
861.653	4481
861.786	4455
861.918	4474
862.05	4546
862.183	4561
862.315	4588
862.447	4607
862.58	4565
862.712	4379
862.844	4341
862.976	4508
863.108	4462
863.24	4866
863.372	4310
863.504	4440
863.636	4379
863.768	4481
863.9	4421
864.032	4375
864.164	4421
864.296	4474
864.428	4527
864.559	4592
864.691	4546
864.823	4554
864.954	4538
865.086	4523
865.217	4436
865.349	4417
865.48	4386
865.612	4485
865.743	4656
865.875	4447
866.006	4432
866.137	4478
866.269	4451
866.4	4424
866.531	4455
866.662	4363
866.793	4421
866.924	4424
867.055	4455
867.186	4440
867.317	4409
867.448	4375
867.579	4383
867.71	4383
867.841	4333
867.972	4424
868.103	4474
868.233	4512
868.364	4402
868.495	4523
868.625	4649
868.756	4736
868.886	4538
869.017	4622
869.147	4748
869.278	4778
869.408	4672
869.539	4637
869.669	4744
869.799	4714
869.929	4771
870.06	4767
870.19	4976
870.32	4900
870.45	4904
870.58	5022
870.71	5048
870.84	5102
870.97	4961
871.1	4885
871.23	5155
871.36	5132
871.489	5025
871.619	5086
871.749	5090
871.879	5109
872.008	5185
872.138	5075
872.267	4984
872.397	4850
872.526	4782
872.656	4691
872.785	4820
872.915	4957
873.044	5067
873.173	4911
873.303	4961
873.432	4953
873.561	4972
873.69	4870
873.819	4873
873.948	4904
874.077	4752
874.206	4793
874.335	4816
874.464	4862
874.593	5071
874.722	4968
874.851	5098
874.979	5105
875.108	4999
875.237	4858
875.365	4885
875.494	4862
875.623	4961
875.751	4873
875.88	4885
876.008	4930
876.136	5033
876.265	5204
876.393	5334
876.521	5269
876.65	5231
876.778	5170
876.906	5064
877.034	5003
877.162	5052
877.29	5014
877.418	5029
877.546	5064
877.674	5029
877.802	5022
877.93	5033
878.058	4923
878.185	4866
878.313	4930
878.441	4968
878.568	4824
878.696	4870
878.824	4927
878.951	5048
879.079	5094
879.206	5326
879.333	5071
879.461	5033
879.588	5003
879.715	5098
879.842	5231
879.97	5045
880.097	4809
880.224	4740
880.351	4774
880.478	4881
880.605	4805
880.732	4797
880.859	5132
880.986	4896
881.112	4968
881.239	4759
881.366	4653
881.493	4580
881.619	4569
881.746	4637
881.872	4615
881.999	4656
882.125	4721
882.252	4809
882.378	4774
882.505	4946
882.631	4801
882.757	4649
882.883	4759
883.01	4733
883.136	4683
883.262	4611
883.388	4634
883.514	4850
883.64	4843
883.766	4748
883.892	4653
884.018	4698
884.143	4843
884.269	5014
884.395	4717
884.52	4649
884.646	4637
884.772	4584
884.897	4618
885.023	4641
885.148	4782
885.274	4885
885.399	4835
885.524	4672
885.65	4721
885.775	4744
885.9	4645
886.025	4873
886.15	4717
886.275	4702
886.4	4656
886.525	4748
886.65	4729
886.775	4698
886.9	4892
887.025	5014
887.149	4820
887.274	4675
887.399	4577
887.523	4569
887.648	4573
887.773	4607
887.897	4782
888.021	4717
888.146	4675
888.27	4847
888.395	4892
888.519	4778
888.643	4809
888.767	4850
888.891	4668
889.015	4630
889.139	4660
889.263	4596
889.387	4771
889.511	4854
889.635	4771
889.759	4641
889.883	4649
890.006	4706
890.13	4831
890.254	4618
890.377	4622
890.501	4535
890.624	4527
890.748	4637
890.871	4462
890.995	4428
891.118	4363
891.241	4550
891.364	4535
891.488	4637
891.611	4474
891.734	4500
891.857	4565
891.98	4535
892.103	4641
892.226	4603
892.349	4527
892.471	4413
892.594	4542
892.717	4558
892.839	4497
892.962	4611
893.085	4637
893.207	4592
893.33	4474
893.452	4546
893.575	4622
893.697	4550
893.819	4797
893.941	4858
894.064	4736
894.186	4561
894.308	4573
894.43	4733
894.552	4805
894.674	4740
894.796	4573
894.918	4588
895.04	4565
895.161	4687
895.283	4615
895.405	4596
895.526	4618
895.648	4664
895.769	4649
895.891	4706
896.012	4714
896.134	4710
896.255	4664
896.376	4607
896.498	4615
896.619	4706
896.74	4637
896.861	4691
896.982	4923
897.103	5041
897.224	4873
897.345	4740
897.466	4691
897.587	4710
897.708	4831
897.828	4774
897.949	4672
898.07	4561
898.19	4599
898.311	4782
898.431	4656
898.552	4710
898.672	4797
898.792	4816
898.913	4725
899.033	4622
899.153	4531
899.273	4390
899.393	4508
899.513	4531
899.633	4546
899.753	4580
899.873	4455
899.993	4584
900.113	4546
900.232	4607
900.352	4504
900.472	4523
900.591	4402
900.711	4504
900.83	4440
900.95	4630
901.069	4691
901.189	4546
901.308	4329
901.427	4318
901.546	4379
901.665	4459
901.784	4497
901.904	4371
902.023	4314
902.141	4200
902.26	4173
902.379	4303
902.498	4234
902.617	4249
902.735	4356
902.854	4371
902.973	4356
903.091	4223
903.21	4219
903.328	4272
903.446	4276
903.565	4249
903.683	4341
903.801	4268
903.919	4367
904.038	4413
904.156	4291
904.274	4451
904.392	4405
904.51	4424
904.627	4436
904.745	4592
904.863	4599
904.981	4398
905.098	4265
905.216	4360
905.334	4398
905.451	4417
905.569	4436
905.686	4558
905.803	4603
905.921	4375
906.038	4538
906.155	4451
906.272	4428
906.389	4470
906.506	4352
906.623	4409
906.74	4405
906.857	4363
906.974	4383
907.091	4599
907.208	4656
907.324	4561
907.441	4523
907.557	4341
907.674	4329
907.79	4329
907.907	4367
908.023	4531
908.139	4535
908.256	4451
908.372	4451
908.488	4413
908.604	4325
908.72	4341
908.836	4367
908.952	4371
909.068	4443
909.184	4550
909.3	4478
909.415	4531
909.531	4535
909.647	4337
909.762	4421
909.878	4333
909.993	4424
910.108	4402
910.224	4375
910.339	4470
910.454	4383
910.57	4379
910.685	4360
910.8	4592
910.915	4592
911.03	4519
911.145	4329
911.259	4325
911.374	4356
911.489	4287
911.604	4310
911.718	4173
911.833	4166
911.947	4109
912.062	4006
912.176	4196
912.291	4268
912.405	4257
912.519	4489
912.633	4470
912.748	4386
912.862	4314
912.976	4200
913.09	4105
913.204	4188
913.318	4242
913.431	4375
913.545	4371
913.659	4451
913.772	4367
913.886	4185
914	4246
914.113	4329
914.226	4424
914.34	4375
914.453	4227
914.566	4440
914.68	4287
914.793	4325
914.906	4185
915.019	4131
915.132	4116
915.245	4173
915.358	4173
915.47	4154
915.583	4234
915.696	4306
915.809	4360
915.921	4383
916.034	4242
916.146	4261
916.259	4268
916.371	4402
916.483	4341
916.595	4242
916.708	4344
916.82	4318
916.932	4310
917.044	4295
917.156	4314
917.268	4287
917.38	4257
917.491	4287
917.603	4337
917.715	4462
917.826	4459
917.938	4367
918.049	4242
918.161	4390
918.272	4561
918.384	4546
918.495	4466
918.606	4295
918.717	4192
918.828	4356
918.939	4356
919.05	4246
919.161	4276
919.272	4147
919.383	4261
919.494	4462
919.604	4584
919.715	4459
919.826	4344
919.936	4379
920.047	4519
920.157	4470
920.267	4691
920.378	4512
920.488	4470
920.598	4694
920.708	4835
920.818	4748
920.928	4729
921.038	4919
921.148	4877
921.258	4588
921.368	4542
921.477	4504
921.587	4462
921.697	4356
921.806	4504
921.916	4466
922.025	4257
922.134	4238
922.244	4204
922.353	4333
922.462	4135
922.571	4090
922.68	3998
922.789	3975
922.898	4010
923.007	4010
923.116	4097
923.224	4128
923.333	4086
923.442	3998
923.55	3945
923.659	4010
923.767	4097
923.876	4002
923.984	4147
924.092	3968
924.201	4074
924.309	4105
924.417	4154
924.525	4074
924.633	4078
924.741	5025
924.849	3930
924.956	4101
925.064	3975
925.172	3907
925.279	3945
925.387	4036
925.494	4048
925.602	4192
925.709	4177
925.816	4021
925.924	4162
926.031	4253
926.138	4166
926.245	4211
926.352	4124
926.459	4227
926.566	4268
926.673	4143
926.779	4105
926.886	4071
926.993	3979
927.099	4002
927.206	3915
927.312	3987
927.419	3998
927.525	4048
927.631	4029
927.737	3991
927.843	3949
927.95	3846
928.056	3964
928.162	3960
928.267	4071
928.373	4694
928.479	4131
928.585	3873
928.69	4025
928.796	4059
928.901	3918
929.007	3861
929.112	3994
929.218	3926
929.323	3911
929.428	3926
929.533	4090
929.638	3865
929.743	3964
929.848	4044
929.953	4040
930.058	3941
930.163	3759
930.267	3808
930.372	3994
930.477	3835
930.581	4093
930.685	3979
930.79	3823
930.894	3873
930.998	3831
931.103	3998
931.207	3709
931.311	3660
931.415	3682
931.519	3534
931.623	3530
