Data from test_V78500241_2001.txt Node
Date: Fri Mar 25 17:02:54 CST 2022
User: usil
Spectrometer: V785-0024
Trigger mode: 0
Integration Time (sec): 4.000000E-1
Scans to average: 1
Nonlinearity correction enabled: false
Boxcar width: 0
Storing dark spectrum: false
XAxis mode: Wavelengths
Number of Pixels in Spectrum: 1024
>>>>>Begin Spectral Data<<<<<
801.071	8016
801.214	7967
801.356	7856
801.499	7875
801.641	7792
801.783	7833
801.926	7959
802.068	7947
802.211	7989
802.353	7963
802.496	7826
802.638	7826
802.78	7792
802.923	7871
803.065	7803
803.208	7799
803.35	7936
803.492	8039
803.635	8081
803.777	8005
803.919	8081
804.061	8404
804.204	8138
804.346	8084
804.488	8024
804.63	8134
804.773	7997
804.915	8058
805.057	8229
805.199	8153
805.341	8153
805.483	8180
805.626	8168
805.768	8115
805.91	8271
806.052	8263
806.194	8187
806.336	8218
806.478	8134
806.62	8024
806.762	8107
806.904	8259
807.046	8488
807.188	8332
807.33	8389
807.472	8275
807.614	8096
807.756	8100
807.898	7940
808.04	7894
808.182	7879
808.324	7860
808.465	7879
808.607	8024
808.749	8096
808.891	8195
809.033	8275
809.174	8153
809.316	8103
809.458	8039
809.6	7989
809.741	8031
809.883	8065
810.025	8058
810.166	8035
810.308	8001
810.45	8005
810.591	7856
810.733	7761
810.875	7651
811.016	7495
811.158	7457
811.299	7529
811.441	7719
811.582	7670
811.724	7582
811.865	7468
812.007	7639
812.148	7662
812.29	7597
812.431	7776
812.573	7875
812.714	7951
812.855	8111
812.997	8218
813.138	8298
813.279	8168
813.421	8077
813.562	7944
813.703	7807
813.845	7769
813.986	7411
814.127	7209
814.268	7221
814.41	7255
814.551	7149
814.692	7209
814.833	7076
814.974	7053
815.115	7133
815.256	6993
815.397	6973
815.539	6970
815.68	6802
815.821	6768
815.962	6890
816.103	6810
816.244	6711
816.385	6601
816.526	6578
816.666	6456
816.807	6220
816.948	6448
817.089	6467
817.23	6369
817.371	6357
817.512	6369
817.653	6346
817.793	6376
817.934	6502
818.075	6479
818.216	6448
818.356	6403
818.497	6224
818.638	6121
818.778	6186
818.919	6117
819.06	6148
819.2	6350
819.341	6338
819.481	6372
819.622	6517
819.762	6738
819.903	6711
820.043	6601
820.184	6517
820.324	6627
820.465	6646
820.605	6703
820.746	6703
820.886	6490
821.026	6662
821.167	6673
821.307	6818
821.447	6783
821.588	6658
821.728	6612
821.868	6479
822.008	6277
822.149	6338
822.289	6426
822.429	6144
822.569	6053
822.709	6117
822.849	5904
822.99	5844
823.13	5927
823.27	5889
823.41	5779
823.55	5783
823.69	5764
823.83	5783
823.97	5653
824.11	5505
824.25	5493
824.389	5573
824.529	5585
824.669	5509
824.809	5657
824.949	5604
825.089	5611
825.228	5554
825.368	5360
825.508	5311
825.648	5379
825.787	5372
825.927	5364
826.067	5315
826.206	5261
826.346	5383
826.485	5421
826.625	5379
826.765	5493
826.904	5501
827.044	5242
827.183	5162
827.323	5140
827.462	5223
827.601	5201
827.741	5197
827.88	5208
828.02	5086
828.159	5296
828.298	5269
828.437	5341
828.577	5269
828.716	5463
828.855	5337
828.994	5147
829.134	5128
829.273	5155
829.412	5162
829.551	5140
829.69	5166
829.829	5216
829.968	5311
830.107	5288
830.246	5269
830.385	5124
830.524	5117
830.663	5075
830.802	4965
830.941	4873
831.08	4904
831.219	4957
831.357	4961
831.496	5181
831.635	4980
831.774	4866
831.913	4847
832.051	4778
832.19	4710
832.329	4850
832.467	4679
832.606	4607
832.744	4729
832.883	4710
833.022	4733
833.16	4763
833.299	4786
833.437	4790
833.576	4850
833.714	4828
833.852	4843
833.991	4908
834.129	4949
834.267	4991
834.406	4854
834.544	4961
834.682	4972
834.821	4968
834.959	5128
835.097	4984
835.235	5117
835.373	5060
835.511	5128
835.65	4980
835.788	5022
835.926	4908
836.064	4873
836.202	4934
836.34	5117
836.478	5162
836.615	5151
836.753	5242
836.891	5288
837.029	5239
837.167	5174
837.305	5155
837.443	5124
837.58	5117
837.718	5269
837.856	5193
837.993	5178
838.131	5239
838.269	5227
838.406	5189
838.544	5124
838.681	5010
838.819	5018
838.956	4889
839.094	4896
839.231	4987
839.369	5006
839.506	5406
839.643	5269
839.781	5056
839.918	5060
840.055	5083
840.193	5105
840.33	5064
840.467	5132
840.604	5166
840.742	5395
840.879	5079
841.016	5071
841.153	5136
841.29	5379
841.427	5318
841.564	5303
841.701	5391
841.838	5315
841.975	5250
842.112	5231
842.249	5140
842.385	5102
842.522	5280
842.659	5178
842.796	5166
842.933	5216
843.069	5147
843.206	5121
843.343	5296
843.479	5258
843.616	5269
843.752	4991
843.889	5003
844.025	5197
844.162	5067
844.298	5181
844.435	5041
844.571	5109
844.708	5170
844.844	5322
844.98	5326
845.117	5322
845.253	5174
845.389	5117
845.525	5174
845.661	5140
845.798	5037
845.934	5094
846.07	5014
846.206	5166
846.342	5239
846.478	5162
846.614	5033
846.75	4976
846.886	4900
847.022	5155
847.158	4999
847.294	5041
847.429	5083
847.565	5041
847.701	5296
847.837	4843
847.972	4831
848.108	4938
848.244	4946
848.379	4752
848.515	4660
848.65	4721
848.786	4736
848.921	4774
849.057	4824
849.192	4877
849.328	4786
849.463	4809
849.598	4786
849.734	4744
849.869	4702
850.004	4611
850.14	4668
850.275	4637
850.41	4516
850.545	4523
850.68	4615
850.815	4565
850.95	4634
851.085	4782
851.22	4717
851.355	4702
851.49	4630
851.625	4637
851.76	4599
851.895	4580
852.03	4512
852.165	4645
852.299	4691
852.434	4733
852.569	4706
852.703	4812
852.838	4858
852.973	4896
853.107	4885
853.242	4725
853.376	4656
853.511	4546
853.645	4626
853.78	4786
853.914	4675
854.048	4675
854.183	4660
854.317	4672
854.451	4866
854.585	4691
854.72	4664
854.854	4752
854.988	4577
855.122	4634
855.256	4550
855.39	4653
855.524	4774
855.658	4698
855.792	4683
855.926	4733
856.06	4733
856.194	4809
856.327	4714
856.461	4561
856.595	4649
856.729	4577
856.862	4725
856.996	4744
857.13	4744
857.263	4706
857.397	4797
857.53	4653
857.664	4717
857.797	4786
857.931	4767
858.064	4679
858.197	4702
858.331	4664
858.464	4565
858.597	4512
858.731	4634
858.864	4687
858.997	4542
859.13	4645
859.263	4645
859.396	4649
859.529	4561
859.662	4573
859.795	4531
859.928	4618
860.061	4786
860.194	4740
860.327	4618
860.46	4523
860.592	4725
860.725	4702
860.858	4679
860.99	4554
861.123	4546
861.256	4565
861.388	4607
861.521	5124
861.653	4489
861.786	4478
861.918	4455
862.05	4519
862.183	4580
862.315	4588
862.447	4649
862.58	4538
862.712	4367
862.844	4337
862.976	4466
863.108	4443
863.24	4774
863.372	4325
863.504	4436
863.636	4436
863.768	4481
863.9	4443
864.032	4337
864.164	4417
864.296	4500
864.428	4523
864.559	4546
864.691	4485
864.823	4527
864.954	4478
865.086	4481
865.217	4443
865.349	4417
865.48	4421
865.612	4474
865.743	4634
865.875	4466
866.006	4428
866.137	4447
866.269	4451
866.4	4421
866.531	4413
866.662	4371
866.793	4405
866.924	4440
867.055	4535
867.186	4436
867.317	4379
867.448	4375
867.579	4360
867.71	4409
867.841	4314
867.972	4474
868.103	4447
868.233	4489
868.364	4421
868.495	4470
868.625	4607
868.756	4763
868.886	4611
869.017	4592
869.147	4702
869.278	4797
869.408	4687
869.539	4622
869.669	4710
869.799	4645
869.929	4763
870.06	4752
870.19	4972
870.32	4873
870.45	4949
870.58	5006
870.71	5124
870.84	5064
870.97	4919
871.1	4870
871.23	5136
871.36	5109
871.489	5067
871.619	5037
871.749	5079
871.879	5079
872.008	5204
872.138	5105
872.267	4984
872.397	4885
872.526	4778
872.656	4710
872.785	4774
872.915	4934
873.044	5048
873.173	4923
873.303	4961
873.432	4961
873.561	4949
873.69	4866
873.819	4843
873.948	4908
874.077	4782
874.206	4706
874.335	4797
874.464	4873
874.593	5071
874.722	4934
874.851	5105
874.979	5033
875.108	5048
875.237	4934
875.365	4870
875.494	4904
875.623	4965
875.751	4824
875.88	4877
876.008	4911
876.136	5014
876.265	5216
876.393	5337
876.521	5239
876.65	5212
876.778	5166
876.906	5041
877.034	5048
877.162	5018
877.29	4965
877.418	5018
877.546	5033
877.674	5041
877.802	5014
877.93	4999
878.058	4953
878.185	4858
878.313	4923
878.441	4961
878.568	4793
878.696	4873
878.824	4953
878.951	4991
879.079	5109
879.206	5292
879.333	5079
879.461	4957
879.588	4949
879.715	5162
879.842	5220
879.97	4987
880.097	4805
880.224	4698
880.351	4839
880.478	4816
880.605	4786
880.732	4816
880.859	5094
880.986	4904
881.112	4904
881.239	4812
881.366	4687
881.493	4584
881.619	4618
881.746	4607
881.872	4664
881.999	4630
882.125	4656
882.252	4782
882.378	4843
882.505	5025
882.631	4763
882.757	4649
882.883	4702
883.01	4710
883.136	4706
883.262	4573
883.388	4626
883.514	4774
883.64	4854
883.766	4778
883.892	4630
884.018	4710
884.143	4816
884.269	4949
884.395	4607
884.52	4641
884.646	4622
884.772	4573
884.897	4535
885.023	4660
885.148	4748
885.274	4835
885.399	4831
885.524	4733
885.65	4706
885.775	4763
885.9	4706
886.025	4866
886.15	4759
886.275	4656
886.4	4645
886.525	4729
886.65	4653
886.775	4725
886.9	4919
887.025	5067
887.149	4812
887.274	4618
887.399	4550
887.523	4592
887.648	4546
887.773	4592
887.897	4736
888.021	4786
888.146	4714
888.27	4797
888.395	4904
888.519	4786
888.643	4828
888.767	4797
888.891	4679
889.015	4584
889.139	4626
889.263	4565
889.387	4774
889.511	4885
889.635	4774
889.759	4641
889.883	4653
890.006	4736
890.13	4812
890.254	4599
890.377	4649
890.501	4497
890.624	4523
890.748	4577
890.871	4508
890.995	4417
891.118	4386
891.241	4493
891.364	4516
891.488	4626
891.611	4516
891.734	4542
891.857	4603
891.98	4535
892.103	4679
892.226	4569
892.349	4516
892.471	4398
892.594	4531
892.717	4580
892.839	4550
892.962	4611
893.085	4698
893.207	4569
893.33	4497
893.452	4516
893.575	4653
893.697	4577
893.819	4767
893.941	4873
894.064	4755
894.186	4535
894.308	4527
894.43	4729
894.552	4797
894.674	4683
894.796	4516
894.918	4538
895.04	4641
895.161	4672
895.283	4675
895.405	4580
895.526	4653
895.648	4656
895.769	4668
895.891	4710
896.012	4714
896.134	4698
896.255	4653
896.376	4588
896.498	4561
896.619	4649
896.74	4592
896.861	4573
896.982	4873
897.103	5045
897.224	4824
897.345	4710
897.466	4630
897.587	4748
897.708	4831
897.828	4740
897.949	4626
898.07	4569
898.19	4645
898.311	4828
898.431	4656
898.552	4694
898.672	4847
898.792	4759
898.913	4691
899.033	4618
899.153	4478
899.273	4417
899.393	4436
899.513	4519
899.633	4470
899.753	4523
899.873	4554
899.993	4596
900.113	4516
900.232	4577
900.352	4558
900.472	4470
900.591	4421
900.711	4474
900.83	4451
900.95	4618
901.069	4683
901.189	4573
901.308	4363
901.427	4337
901.546	4383
901.665	4485
901.784	4481
901.904	4440
902.023	4356
902.141	4204
902.26	4223
902.379	4363
902.498	4303
902.617	4276
902.735	4402
902.854	4432
902.973	4383
903.091	4211
903.21	4272
903.328	4310
903.446	4291
903.565	4261
903.683	4398
903.801	4344
903.919	4413
904.038	4485
904.156	4363
904.274	4535
904.392	4440
904.51	4470
904.627	4538
904.745	4615
904.863	4672
904.981	4424
905.098	4386
905.216	4421
905.334	4504
905.451	4440
905.569	4542
905.686	4558
905.803	4618
905.921	4451
906.038	4573
906.155	4478
906.272	4447
906.389	4500
906.506	4409
906.623	4402
906.74	4436
906.857	4341
906.974	4394
907.091	4584
907.208	4717
907.324	4645
907.441	4485
907.557	4405
907.674	4367
907.79	4333
907.907	4413
908.023	4466
908.139	4508
908.256	4504
908.372	4554
908.488	4493
908.604	4394
908.72	4329
908.836	4417
908.952	4398
909.068	4459
909.184	4607
909.3	4527
909.415	4656
909.531	4622
909.647	4383
909.762	4413
909.878	4409
909.993	4462
910.108	4417
910.224	4455
910.339	4489
910.454	4417
910.57	4341
910.685	4325
910.8	4683
910.915	4653
911.03	4538
911.145	4390
911.259	4367
911.374	4417
911.489	4303
911.604	4322
911.718	4192
911.833	4219
911.947	4105
912.062	4067
912.176	4223
912.291	4314
912.405	4318
912.519	4481
912.633	4546
912.748	4367
912.862	4344
912.976	4227
913.09	4139
913.204	4188
913.318	4219
913.431	4390
913.545	4443
913.659	4447
913.772	4379
913.886	4287
914	4265
914.113	4405
914.226	4470
914.34	4394
914.453	4291
914.566	4493
914.68	4360
914.793	4356
914.906	4188
915.019	4162
915.132	4162
915.245	4200
915.358	4268
915.47	4219
915.583	4303
915.696	4325
915.809	4436
915.921	4451
916.034	4306
916.146	4261
916.259	4268
916.371	4405
916.483	4344
916.595	4310
916.708	4360
916.82	4379
916.932	4291
917.044	4348
917.156	4341
917.268	4306
917.38	4329
917.491	4310
917.603	4417
917.715	4455
917.826	4443
917.938	4371
918.049	4261
918.161	4421
918.272	4584
918.384	4580
918.495	4447
918.606	4295
918.717	4287
918.828	4333
918.939	4405
919.05	4344
919.161	4409
919.272	4200
919.383	4234
919.494	4470
919.604	4622
919.715	4481
919.826	4386
919.936	4409
920.047	4554
920.157	4493
920.267	4717
920.378	4561
920.488	4535
920.598	4736
920.708	4896
920.818	4805
920.928	4790
921.038	4942
921.148	4995
921.258	4660
921.368	4599
921.477	4474
921.587	4470
921.697	4375
921.806	4558
921.916	4470
922.025	4295
922.134	4306
922.244	4276
922.353	4367
922.462	4230
922.571	4188
922.68	4090
922.789	3994
922.898	4036
923.007	3998
923.116	4116
923.224	4093
923.333	4078
923.442	3960
923.55	4010
923.659	4059
923.767	4169
923.876	4021
923.984	4147
924.092	4013
924.201	4086
924.309	4147
924.417	4135
924.525	4139
924.633	4124
924.741	5041
924.849	3937
924.956	4120
925.064	3987
925.172	3934
925.279	3998
925.387	4055
925.494	4097
925.602	4257
925.709	4230
925.816	4086
925.924	4135
926.031	4291
926.138	4200
926.245	4249
926.352	4078
926.459	4314
926.566	4314
926.673	4166
926.779	4150
926.886	4051
926.993	4021
927.099	4025
927.206	4029
927.312	3991
927.419	4093
927.525	4063
927.631	4105
927.737	3934
927.843	3972
927.95	3888
928.056	4021
928.162	3968
928.267	4040
928.373	4630
928.479	4162
928.585	3865
928.69	4105
928.796	4086
928.901	3987
929.007	3854
929.112	4067
929.218	4006
929.323	3934
929.428	3964
929.533	4097
929.638	3968
929.743	3994
929.848	4059
929.953	4017
930.058	3960
930.163	3800
930.267	3850
930.372	3994
930.477	3823
930.581	4082
930.685	3979
930.79	3816
930.894	3918
930.998	3884
931.103	4029
931.207	3740
931.311	3679
931.415	3705
931.519	3553
931.623	3576
