Data from test_V78500241_359.txt Node
Date: Fri Mar 25 16:51:29 CST 2022
User: usil
Spectrometer: V785-0024
Trigger mode: 0
Integration Time (sec): 4.000000E-1
Scans to average: 1
Nonlinearity correction enabled: false
Boxcar width: 0
Storing dark spectrum: false
XAxis mode: Wavelengths
Number of Pixels in Spectrum: 1024
>>>>>Begin Spectral Data<<<<<
801.071	8107
801.214	8107
801.356	7898
801.499	7989
801.641	7845
801.783	7811
801.926	8005
802.068	8008
802.211	8027
802.353	8065
802.496	7871
802.638	7951
802.78	7955
802.923	7955
803.065	7940
803.208	7909
803.35	8008
803.492	8096
803.635	8111
803.777	8012
803.919	8172
804.061	8476
804.204	8214
804.346	8062
804.488	7997
804.63	8142
804.773	8088
804.915	8225
805.057	8275
805.199	8244
805.341	8218
805.483	8282
805.626	8195
805.768	8103
805.91	8187
806.052	8252
806.194	8134
806.336	8275
806.478	8225
806.62	8103
806.762	8271
806.904	8358
807.046	8545
807.188	8324
807.33	8355
807.472	8358
807.614	8225
807.756	8195
807.898	8027
808.04	7913
808.182	8016
808.324	8001
808.465	8012
808.607	8134
808.749	8218
808.891	8324
809.033	8248
809.174	8305
809.316	8096
809.458	8142
809.6	8043
809.741	8039
809.883	8069
810.025	8199
810.166	8126
810.308	8081
810.45	8031
810.591	7890
810.733	7780
810.875	7696
811.016	7552
811.158	7525
811.299	7628
811.441	7925
811.582	7734
811.724	7609
811.865	7594
812.007	7670
812.148	7723
812.29	7689
812.431	7723
812.573	7955
812.714	8058
812.855	8176
812.997	8286
813.138	8343
813.279	8294
813.421	8221
813.562	8054
813.703	7993
813.845	7814
813.986	7472
814.127	7316
814.268	7278
814.41	7266
814.551	7198
814.692	7190
814.833	7122
814.974	7129
815.115	7156
815.256	7008
815.397	6939
815.539	7015
815.68	6821
815.821	6829
815.962	6966
816.103	6856
816.244	6745
816.385	6635
816.526	6658
816.666	6559
816.807	6357
816.948	6445
817.089	6498
817.23	6479
817.371	6391
817.512	6384
817.653	6407
817.793	6357
817.934	6380
818.075	6475
818.216	6513
818.356	6369
818.497	6308
818.638	6140
818.778	6163
818.919	6163
819.06	6197
819.2	6395
819.341	6334
819.481	6414
819.622	6506
819.762	6749
819.903	6760
820.043	6662
820.184	6623
820.324	6582
820.465	6711
820.605	6707
820.746	6631
820.886	6475
821.026	6768
821.167	6791
821.307	6844
821.447	6772
821.588	6738
821.728	6589
821.868	6528
822.008	6296
822.149	6448
822.289	6369
822.429	6201
822.569	6106
822.709	6190
822.849	5923
822.99	5855
823.13	5969
823.27	5897
823.41	5756
823.55	5844
823.69	5824
823.83	5840
823.97	5729
824.11	5547
824.25	5562
824.389	5562
824.529	5619
824.669	5562
824.809	5653
824.949	5680
825.089	5657
825.228	5600
825.368	5448
825.508	5387
825.648	5368
825.787	5425
825.927	5357
826.067	5387
826.206	5337
826.346	5402
826.485	5360
826.625	5406
826.765	5562
826.904	5501
827.044	5216
827.183	5261
827.323	5185
827.462	5284
827.601	5159
827.741	5239
827.88	5189
828.02	5113
828.159	5296
828.298	5337
828.437	5398
828.577	5280
828.716	5516
828.855	5307
828.994	5189
829.134	5159
829.273	5231
829.412	5174
829.551	5151
829.69	5178
829.829	5269
829.968	5444
830.107	5288
830.246	5315
830.385	5220
830.524	5204
830.663	5064
830.802	4999
830.941	4923
831.08	4885
831.219	5029
831.357	4965
831.496	5162
831.635	4980
831.774	4892
831.913	4942
832.051	4759
832.19	4774
832.329	4847
832.467	4752
832.606	4698
832.744	4752
832.883	4740
833.022	4782
833.16	4755
833.299	4839
833.437	4854
833.576	4889
833.714	4850
833.852	4881
833.991	4892
834.129	4991
834.267	4965
834.406	4980
834.544	4987
834.682	5010
834.821	4991
834.959	5204
835.097	5018
835.235	5193
835.373	5132
835.511	5060
835.65	4999
835.788	5056
835.926	4934
836.064	4889
836.202	4946
836.34	5208
836.478	5254
836.615	5193
836.753	5227
836.891	5318
837.029	5227
837.167	5231
837.305	5159
837.443	5178
837.58	5102
837.718	5265
837.856	5216
837.993	5185
838.131	5216
838.269	5273
838.406	5250
838.544	5273
838.681	5083
838.819	5056
838.956	4908
839.094	4957
839.231	5045
839.369	5113
839.506	5528
839.643	5239
839.781	5079
839.918	5022
840.055	5128
840.193	5113
840.33	5166
840.467	5140
840.604	5212
840.742	5448
840.879	5147
841.016	5159
841.153	5185
841.29	5383
841.427	5360
841.564	5398
841.701	5402
841.838	5246
841.975	5299
842.112	5345
842.249	5178
842.385	5105
842.522	5387
842.659	5197
842.796	5178
842.933	5258
843.069	5151
843.206	5178
843.343	5337
843.479	5231
843.616	5292
843.752	5041
843.889	5045
844.025	5258
844.162	5025
844.298	5227
844.435	5102
844.571	5124
844.708	5216
844.844	5284
844.98	5280
845.117	5284
845.253	5178
845.389	5064
845.525	5201
845.661	5181
845.798	5105
845.934	5140
846.07	5109
846.206	5235
846.342	5307
846.478	5170
846.614	5071
846.75	4999
846.886	4946
847.022	5159
847.158	4987
847.294	5094
847.429	5052
847.565	5083
847.701	5357
847.837	4889
847.972	4786
848.108	4976
848.244	4980
848.379	4812
848.515	4710
848.65	4721
848.786	4771
848.921	4771
849.057	4873
849.192	4900
849.328	4820
849.463	4862
849.598	4763
849.734	4767
849.869	4679
850.004	4630
850.14	4714
850.275	4599
850.41	4569
850.545	4603
850.68	4588
850.815	4672
850.95	4660
851.085	4866
851.22	4736
851.355	4645
851.49	4607
851.625	4698
851.76	4698
851.895	4558
852.03	4592
852.165	4679
852.299	4740
852.434	4744
852.569	4759
852.703	4790
852.838	4858
852.973	4930
853.107	4930
853.242	4759
853.376	4645
853.511	4550
853.645	4603
853.78	4831
853.914	4698
854.048	4702
854.183	4607
854.317	4736
854.451	4850
854.585	4675
854.72	4698
854.854	4736
854.988	4561
855.122	4599
855.256	4538
855.39	4649
855.524	4759
855.658	4717
855.792	4725
855.926	4740
856.06	4767
856.194	4820
856.327	4687
856.461	4641
856.595	4634
856.729	4603
856.862	4786
856.996	4748
857.13	4702
857.263	4714
857.397	4778
857.53	4706
857.664	4717
857.797	4733
857.931	4812
858.064	4736
858.197	4793
858.331	4656
858.464	4653
858.597	4516
858.731	4592
858.864	4660
858.997	4603
859.13	4683
859.263	4679
859.396	4744
859.529	4599
859.662	4603
859.795	4542
859.928	4626
860.061	4740
860.194	4774
860.327	4573
860.46	4584
860.592	4733
860.725	4717
860.858	4694
860.99	4596
861.123	4512
861.256	4523
861.388	4599
861.521	5280
861.653	4531
861.786	4470
861.918	4478
862.05	4516
862.183	4558
862.315	4615
862.447	4668
862.58	4573
862.712	4394
862.844	4341
862.976	4489
863.108	4474
863.24	4801
863.372	4352
863.504	4417
863.636	4413
863.768	4474
863.9	4443
864.032	4383
864.164	4413
864.296	4481
864.428	4554
864.559	4546
864.691	4550
864.823	4531
864.954	4512
865.086	4485
865.217	4497
865.349	4428
865.48	4470
865.612	4527
865.743	4626
865.875	4447
866.006	4447
866.137	4519
866.269	4440
866.4	4447
866.531	4478
866.662	4421
866.793	4371
866.924	4428
867.055	4516
867.186	4447
867.317	4447
867.448	4386
867.579	4421
867.71	4436
867.841	4417
867.972	4481
868.103	4436
868.233	4451
868.364	4478
868.495	4546
868.625	4664
868.756	4748
868.886	4607
869.017	4645
869.147	4793
869.278	4763
869.408	4710
869.539	4611
869.669	4774
869.799	4691
869.929	4740
870.06	4729
870.19	4908
870.32	4980
870.45	4942
870.58	5041
870.71	5060
870.84	5128
870.97	4953
871.1	4953
871.23	5147
871.36	5121
871.489	5010
871.619	5102
871.749	5098
871.879	5151
872.008	5124
872.138	5079
872.267	4976
872.397	4885
872.526	4835
872.656	4721
872.785	4793
872.915	5033
873.044	5014
873.173	5003
873.303	4968
873.432	4946
873.561	4976
873.69	4866
873.819	4866
873.948	4968
874.077	4847
874.206	4767
874.335	4839
874.464	5010
874.593	5121
874.722	4942
874.851	5060
874.979	5075
875.108	5014
875.237	4885
875.365	4873
875.494	4908
875.623	5006
875.751	4847
875.88	4896
876.008	5029
876.136	5025
876.265	5185
876.393	5357
876.521	5311
876.65	5223
876.778	5208
876.906	5105
877.034	5018
877.162	5067
877.29	5018
877.418	5090
877.546	5064
877.674	5064
877.802	5029
877.93	4984
878.058	4946
878.185	4870
878.313	4949
878.441	5014
878.568	4831
878.696	4862
878.824	4949
878.951	5102
879.079	5132
879.206	5277
879.333	5109
879.461	4949
879.588	5003
879.715	5132
879.842	5181
879.97	5033
880.097	4809
880.224	4733
880.351	4839
880.478	4854
880.605	4805
880.732	4847
880.859	5060
880.986	4923
881.112	4961
881.239	4858
881.366	4721
881.493	4630
881.619	4592
881.746	4637
881.872	4634
881.999	4675
882.125	4740
882.252	4771
882.378	4824
882.505	4980
882.631	4793
882.757	4626
882.883	4736
883.01	4767
883.136	4694
883.262	4645
883.388	4592
883.514	4809
883.64	4862
883.766	4744
883.892	4683
884.018	4744
884.143	4870
884.269	5022
884.395	4687
884.52	4649
884.646	4698
884.772	4603
884.897	4565
885.023	4649
885.148	4763
885.274	4892
885.399	4828
885.524	4710
885.65	4683
885.775	4778
885.9	4683
886.025	4831
886.15	4774
886.275	4664
886.4	4717
886.525	4729
886.65	4675
886.775	4668
886.9	4873
887.025	5045
887.149	4831
887.274	4675
887.399	4599
887.523	4573
887.648	4577
887.773	4596
887.897	4778
888.021	4801
888.146	4706
888.27	4809
888.395	4953
888.519	4820
888.643	4801
888.767	4797
888.891	4626
889.015	4596
889.139	4630
889.263	4596
889.387	4790
889.511	4866
889.635	4847
889.759	4630
889.883	4672
890.006	4729
890.13	4820
890.254	4588
890.377	4664
890.501	4561
890.624	4561
890.748	4626
890.871	4508
890.995	4413
891.118	4363
891.241	4500
891.364	4527
891.488	4656
891.611	4508
891.734	4554
891.857	4584
891.98	4565
892.103	4694
892.226	4603
892.349	4542
892.471	4455
892.594	4565
892.717	4634
892.839	4569
892.962	4580
893.085	4675
893.207	4588
893.33	4402
893.452	4531
893.575	4691
893.697	4615
893.819	4805
893.941	4831
894.064	4782
894.186	4615
894.308	4584
894.43	4721
894.552	4820
894.674	4721
894.796	4527
894.918	4615
895.04	4561
895.161	4706
895.283	4687
895.405	4569
895.526	4622
895.648	4710
895.769	4687
895.891	4698
896.012	4691
896.134	4763
896.255	4672
896.376	4641
896.498	4626
896.619	4645
896.74	4584
896.861	4672
896.982	4911
897.103	5105
897.224	4812
897.345	4679
897.466	4691
897.587	4729
897.708	4900
897.828	4824
897.949	4660
898.07	4641
898.19	4675
898.311	4809
898.431	4706
898.552	4736
898.672	4843
898.792	4847
898.913	4763
899.033	4668
899.153	4523
899.273	4451
899.393	4516
899.513	4485
899.633	4554
899.753	4580
899.873	4550
899.993	4637
900.113	4558
900.232	4641
900.352	4565
900.472	4455
900.591	4402
900.711	4561
900.83	4451
900.95	4622
901.069	4698
901.189	4603
901.308	4318
901.427	4280
901.546	4394
901.665	4478
901.784	4577
901.904	4447
902.023	4352
902.141	4215
902.26	4188
902.379	4295
902.498	4253
902.617	4227
902.735	4363
902.854	4402
902.973	4325
903.091	4181
903.21	4257
903.328	4284
903.446	4280
903.565	4249
903.683	4341
903.801	4284
903.919	4394
904.038	4447
904.156	4337
904.274	4432
904.392	4394
904.51	4470
904.627	4474
904.745	4546
904.863	4599
904.981	4447
905.098	4322
905.216	4367
905.334	4417
905.451	4424
905.569	4474
905.686	4554
905.803	4569
905.921	4413
906.038	4550
906.155	4478
906.272	4421
906.389	4478
906.506	4356
906.623	4356
906.74	4424
906.857	4344
906.974	4371
907.091	4596
907.208	4710
907.324	4615
907.441	4519
907.557	4363
907.674	4398
907.79	4348
907.907	4375
908.023	4481
908.139	4508
908.256	4443
908.372	4504
908.488	4478
908.604	4363
908.72	4352
908.836	4459
908.952	4367
909.068	4481
909.184	4603
909.3	4497
909.415	4592
909.531	4538
909.647	4383
909.762	4390
909.878	4318
909.993	4413
910.108	4383
910.224	4462
910.339	4516
910.454	4424
910.57	4409
910.685	4314
910.8	4710
910.915	4622
911.03	4504
911.145	4322
911.259	4344
911.374	4413
911.489	4333
911.604	4299
911.718	4200
911.833	4200
911.947	4048
912.062	4063
912.176	4249
912.291	4276
912.405	4253
912.519	4489
912.633	4527
912.748	4398
912.862	4379
912.976	4215
913.09	4101
913.204	4188
913.318	4287
913.431	4363
913.545	4348
913.659	4466
913.772	4375
913.886	4219
914	4249
914.113	4386
914.226	4394
914.34	4344
914.453	4223
914.566	4451
914.68	4329
914.793	4314
914.906	4131
915.019	4090
915.132	4120
915.245	4196
915.358	4234
915.47	4246
915.583	4261
915.696	4299
915.809	4417
915.921	4375
916.034	4246
916.146	4257
916.259	4219
916.371	4405
916.483	4379
916.595	4276
916.708	4295
916.82	4325
916.932	4325
917.044	4356
917.156	4314
917.268	4173
917.38	4318
917.491	4268
917.603	4337
917.715	4371
917.826	4451
917.938	4344
918.049	4284
918.161	4348
918.272	4569
918.384	4580
918.495	4440
918.606	4318
918.717	4268
918.828	4344
918.939	4421
919.05	4295
919.161	4306
919.272	4143
919.383	4223
919.494	4451
919.604	4641
919.715	4447
919.826	4356
919.936	4379
920.047	4546
920.157	4508
920.267	4740
920.378	4569
920.488	4497
920.598	4668
920.708	4862
920.818	4801
920.928	4736
921.038	4923
921.148	4900
921.258	4611
921.368	4569
921.477	4512
921.587	4455
921.697	4405
921.806	4531
921.916	4466
922.025	4272
922.134	4287
922.244	4253
922.353	4363
922.462	4173
922.571	4147
922.68	4017
922.789	4017
922.898	4029
923.007	4006
923.116	4090
923.224	4063
923.333	4071
923.442	3991
923.55	4017
923.659	4036
923.767	4090
923.876	3983
923.984	4150
924.092	4006
924.201	4055
924.309	4147
924.417	4147
924.525	4067
924.633	4090
924.741	4889
924.849	3911
924.956	4074
925.064	4010
925.172	3880
925.279	3975
925.387	3998
925.494	4067
925.602	4253
925.709	4185
925.816	4025
925.924	4143
926.031	4207
926.138	4162
926.245	4249
926.352	4109
926.459	4280
926.566	4299
926.673	4158
926.779	4112
926.886	4105
926.993	3972
927.099	3972
927.206	3953
927.312	3926
927.419	4036
927.525	4036
927.631	4116
927.737	3949
927.843	3941
927.95	3873
928.056	3975
928.162	4017
928.267	4090
928.373	4717
928.479	4143
928.585	3865
928.69	4036
928.796	4063
928.901	3953
929.007	3880
929.112	3975
929.218	3949
929.323	3941
929.428	3960
929.533	4097
929.638	3911
929.743	3968
929.848	4071
929.953	3964
930.058	3903
930.163	3838
930.267	3842
930.372	3949
930.477	3793
930.581	4074
930.685	3964
930.79	3823
930.894	3880
930.998	3873
931.103	4044
931.207	3720
931.311	3724
931.415	3671
931.519	3500
931.623	3553
