Data from test_V78500241_1749.txt Node
Date: Fri Mar 25 17:01:09 CST 2022
User: usil
Spectrometer: V785-0024
Trigger mode: 0
Integration Time (sec): 4.000000E-1
Scans to average: 1
Nonlinearity correction enabled: false
Boxcar width: 0
Storing dark spectrum: false
XAxis mode: Wavelengths
Number of Pixels in Spectrum: 1024
>>>>>Begin Spectral Data<<<<<
801.071	7978
801.214	7871
801.356	7879
801.499	7841
801.641	7780
801.783	7826
801.926	7967
802.068	7894
802.211	8001
802.353	7989
802.496	7788
802.638	7814
802.78	7814
802.923	7959
803.065	7879
803.208	7811
803.35	7890
803.492	8035
803.635	8107
803.777	7955
803.919	8046
804.061	8461
804.204	8096
804.346	8058
804.488	7894
804.63	8024
804.773	8039
804.915	8145
805.057	8248
805.199	8172
805.341	8161
805.483	8233
805.626	8195
805.768	8111
805.91	8168
806.052	8233
806.194	8069
806.336	8298
806.478	8077
806.62	8027
806.762	8142
806.904	8267
807.046	8492
807.188	8324
807.33	8305
807.472	8355
807.614	8176
807.756	8107
807.898	8012
808.04	7890
808.182	7887
808.324	7845
808.465	7875
808.607	8043
808.749	8077
808.891	8142
809.033	8271
809.174	8199
809.316	8043
809.458	8092
809.6	7947
809.741	8001
809.883	8039
810.025	8092
810.166	8054
810.308	8012
810.45	7974
810.591	7871
810.733	7636
810.875	7677
811.016	7487
811.158	7438
811.299	7552
811.441	7753
811.582	7628
811.724	7537
811.865	7518
812.007	7544
812.148	7601
812.29	7609
812.431	7780
812.573	7883
812.714	7982
812.855	8161
812.997	8199
813.138	8419
813.279	8138
813.421	8039
813.562	7967
813.703	7814
813.845	7757
813.986	7441
814.127	7228
814.268	7168
814.41	7183
814.551	7175
814.692	7240
814.833	7110
814.974	7114
815.115	7088
815.256	7000
815.397	6932
815.539	6966
815.68	6802
815.821	6760
815.962	6787
816.103	6818
816.244	6722
816.385	6612
816.526	6593
816.666	6448
816.807	6319
816.948	6361
817.089	6471
817.23	6448
817.371	6311
817.512	6369
817.653	6365
817.793	6323
817.934	6342
818.075	6418
818.216	6418
818.356	6426
818.497	6289
818.638	6121
818.778	6152
818.919	6140
819.06	6106
819.2	6323
819.341	6327
819.481	6388
819.622	6544
819.762	6757
819.903	6711
820.043	6517
820.184	6536
820.324	6574
820.465	6650
820.605	6612
820.746	6585
820.886	6486
821.026	6597
821.167	6700
821.307	6787
821.447	6783
821.588	6669
821.728	6582
821.868	6460
822.008	6357
822.149	6391
822.289	6361
822.429	6136
822.569	6072
822.709	6121
822.849	5942
822.99	5901
823.13	5882
823.27	5870
823.41	5790
823.55	5764
823.69	5813
823.83	5821
823.97	5710
824.11	5532
824.25	5524
824.389	5535
824.529	5570
824.669	5535
824.809	5676
824.949	5653
825.089	5566
825.228	5528
825.368	5391
825.508	5357
825.648	5379
825.787	5379
825.927	5334
826.067	5307
826.206	5288
826.346	5402
826.485	5402
826.625	5459
826.765	5581
826.904	5467
827.044	5299
827.183	5216
827.323	5170
827.462	5254
827.601	5212
827.741	5242
827.88	5254
828.02	5121
828.159	5254
828.298	5330
828.437	5330
828.577	5330
828.716	5509
828.855	5337
828.994	5220
829.134	5162
829.273	5261
829.412	5201
829.551	5140
829.69	5181
829.829	5254
829.968	5421
830.107	5277
830.246	5315
830.385	5204
830.524	5166
830.663	5128
830.802	5048
830.941	4904
831.08	4892
831.219	4984
831.357	4995
831.496	5197
831.635	4965
831.774	4850
831.913	4885
832.051	4771
832.19	4790
832.329	4911
832.467	4672
832.606	4679
832.744	4721
832.883	4782
833.022	4733
833.16	4835
833.299	4824
833.437	4877
833.576	4820
833.714	4915
833.852	4930
833.991	4934
834.129	5010
834.267	5022
834.406	4942
834.544	5006
834.682	5022
834.821	5010
834.959	5132
835.097	5025
835.235	5189
835.373	5124
835.511	5083
835.65	5052
835.788	5056
835.926	4904
836.064	4919
836.202	4900
836.34	5193
836.478	5250
836.615	5140
836.753	5246
836.891	5315
837.029	5265
837.167	5254
837.305	5155
837.443	5151
837.58	5094
837.718	5280
837.856	5231
837.993	5227
838.131	5296
838.269	5216
838.406	5235
838.544	5216
838.681	5064
838.819	5048
838.956	4904
839.094	4900
839.231	5041
839.369	5098
839.506	5417
839.643	5254
839.781	5098
839.918	5079
840.055	5094
840.193	5197
840.33	5094
840.467	5162
840.604	5204
840.742	5474
840.879	5121
841.016	5113
841.153	5155
841.29	5410
841.427	5360
841.564	5334
841.701	5292
841.838	5303
841.975	5246
842.112	5318
842.249	5185
842.385	5128
842.522	5318
842.659	5147
842.796	5185
842.933	5193
843.069	5143
843.206	5216
843.343	5402
843.479	5258
843.616	5280
843.752	5067
843.889	5014
844.025	5193
844.162	5022
844.298	5216
844.435	5109
844.571	5022
844.708	5216
844.844	5303
844.98	5383
845.117	5284
845.253	5197
845.389	5086
845.525	5155
845.661	5143
845.798	5014
845.934	5128
846.07	5037
846.206	5231
846.342	5269
846.478	5212
846.614	5060
846.75	4991
846.886	4915
847.022	5208
847.158	5064
847.294	5109
847.429	5075
847.565	5136
847.701	5372
847.837	4889
847.972	4873
848.108	4942
848.244	4995
848.379	4805
848.515	4729
848.65	4729
848.786	4778
848.921	4733
849.057	4919
849.192	4942
849.328	4805
849.463	4908
849.598	4812
849.734	4797
849.869	4733
850.004	4691
850.14	4698
850.275	4679
850.41	4584
850.545	4546
850.68	4618
850.815	4687
850.95	4645
851.085	4904
851.22	4755
851.355	4706
851.49	4664
851.625	4664
851.76	4694
851.895	4561
852.03	4546
852.165	4672
852.299	4763
852.434	4828
852.569	4767
852.703	4801
852.838	4877
852.973	4930
853.107	4870
853.242	4767
853.376	4679
853.511	4611
853.645	4622
853.78	4805
853.914	4706
854.048	4687
854.183	4702
854.317	4710
854.451	4900
854.585	4694
854.72	4672
854.854	4694
854.988	4656
855.122	4634
855.256	4588
855.39	4664
855.524	4786
855.658	4729
855.792	4717
855.926	4767
856.06	4786
856.194	4809
856.327	4729
856.461	4637
856.595	4637
856.729	4656
856.862	4759
856.996	4706
857.13	4706
857.263	4771
857.397	4843
857.53	4653
857.664	4725
857.797	4744
857.931	4748
858.064	4717
858.197	4771
858.331	4679
858.464	4656
858.597	4588
858.731	4634
858.864	4679
858.997	4637
859.13	4683
859.263	4710
859.396	4679
859.529	4596
859.662	4561
859.795	4542
859.928	4649
860.061	4790
860.194	4797
860.327	4660
860.46	4592
860.592	4725
860.725	4778
860.858	4786
860.99	4580
861.123	4481
861.256	4535
861.388	4653
861.521	5337
861.653	4500
861.786	4440
861.918	4516
862.05	4550
862.183	4542
862.315	4664
862.447	4660
862.58	4558
862.712	4424
862.844	4341
862.976	4474
863.108	4440
863.24	4911
863.372	4371
863.504	4485
863.636	4409
863.768	4512
863.9	4436
864.032	4398
864.164	4459
864.296	4516
864.428	4561
864.559	4584
864.691	4577
864.823	4592
864.954	4481
865.086	4504
865.217	4474
865.349	4390
865.48	4474
865.612	4500
865.743	4637
865.875	4451
866.006	4432
866.137	4462
866.269	4421
866.4	4447
866.531	4443
866.662	4440
866.793	4405
866.924	4489
867.055	4470
867.186	4500
867.317	4459
867.448	4375
867.579	4436
867.71	4413
867.841	4409
867.972	4523
868.103	4493
868.233	4459
868.364	4478
868.495	4455
868.625	4687
868.756	4774
868.886	4538
869.017	4641
869.147	4797
869.278	4759
869.408	4668
869.539	4637
869.669	4714
869.799	4649
869.929	4797
870.06	4786
870.19	4987
870.32	4900
870.45	4980
870.58	5018
870.71	5136
870.84	5128
870.97	4972
871.1	4904
871.23	5162
871.36	5098
871.489	5056
871.619	5029
871.749	5117
871.879	5113
872.008	5212
872.138	5067
872.267	4999
872.397	4919
872.526	4809
872.656	4755
872.785	4847
872.915	4930
873.044	5056
873.173	4953
873.303	4934
873.432	4980
873.561	4991
873.69	4889
873.819	4938
873.948	4904
874.077	4835
874.206	4782
874.335	4812
874.464	4976
874.593	5041
874.722	4972
874.851	5121
874.979	5083
875.108	5014
875.237	4938
875.365	4927
875.494	4904
875.623	4949
875.751	4820
875.88	4930
876.008	4972
876.136	5064
876.265	5231
876.393	5337
876.521	5296
876.65	5296
876.778	5140
876.906	5151
877.034	4980
877.162	5048
877.29	4999
877.418	5094
877.546	5079
877.674	5094
877.802	5029
877.93	5067
878.058	4957
878.185	4908
878.313	5029
878.441	4980
878.568	4786
878.696	4873
878.824	4919
878.951	4995
879.079	5155
879.206	5292
879.333	5102
879.461	4965
879.588	4991
879.715	5121
879.842	5265
879.97	5029
880.097	4828
880.224	4801
880.351	4790
880.478	4835
880.605	4805
880.732	4782
880.859	5094
880.986	4942
881.112	4919
881.239	4778
881.366	4675
881.493	4607
881.619	4599
881.746	4664
881.872	4645
881.999	4668
882.125	4733
882.252	4824
882.378	4816
882.505	4961
882.631	4805
882.757	4691
882.883	4679
883.01	4733
883.136	4725
883.262	4634
883.388	4679
883.514	4809
883.64	4908
883.766	4816
883.892	4694
884.018	4740
884.143	4900
884.269	5025
884.395	4698
884.52	4577
884.646	4675
884.772	4637
884.897	4599
885.023	4706
885.148	4790
885.274	4862
885.399	4839
885.524	4748
885.65	4725
885.775	4733
885.9	4752
886.025	4930
886.15	4854
886.275	4790
886.4	4660
886.525	4759
886.65	4698
886.775	4694
886.9	4904
887.025	5067
887.149	4858
887.274	4649
887.399	4596
887.523	4596
887.648	4592
887.773	4649
887.897	4767
888.021	4809
888.146	4710
888.27	4805
888.395	4900
888.519	4786
888.643	4801
888.767	4866
888.891	4706
889.015	4561
889.139	4660
889.263	4622
889.387	4782
889.511	4862
889.635	4793
889.759	4645
889.883	4679
890.006	4748
890.13	4843
890.254	4626
890.377	4649
890.501	4561
890.624	4580
890.748	4603
890.871	4584
890.995	4478
891.118	4455
891.241	4523
891.364	4512
891.488	4645
891.611	4531
891.734	4577
891.857	4584
891.98	4542
892.103	4668
892.226	4611
892.349	4500
892.471	4470
892.594	4558
892.717	4596
892.839	4554
892.962	4615
893.085	4672
893.207	4577
893.33	4462
893.452	4519
893.575	4706
893.697	4603
893.819	4793
893.941	4843
894.064	4797
894.186	4637
894.308	4516
894.43	4733
894.552	4820
894.674	4771
894.796	4546
894.918	4622
895.04	4546
895.161	4710
895.283	4683
895.405	4565
895.526	4630
895.648	4698
895.769	4710
895.891	4733
896.012	4786
896.134	4717
896.255	4717
896.376	4618
896.498	4626
896.619	4698
896.74	4660
896.861	4660
896.982	4934
897.103	5033
897.224	4843
897.345	4778
897.466	4634
897.587	4710
897.708	4843
897.828	4767
897.949	4683
898.07	4535
898.19	4618
898.311	4854
898.431	4717
898.552	4714
898.672	4782
898.792	4843
898.913	4721
899.033	4615
899.153	4516
899.273	4474
899.393	4523
899.513	4504
899.633	4527
899.753	4538
899.873	4489
899.993	4653
900.113	4508
900.232	4615
900.352	4550
900.472	4508
900.591	4375
900.711	4523
900.83	4421
900.95	4542
901.069	4687
901.189	4538
901.308	4352
901.427	4306
901.546	4409
901.665	4440
901.784	4546
901.904	4398
902.023	4341
902.141	4196
902.26	4185
902.379	4314
902.498	4188
902.617	4211
902.735	4390
902.854	4409
902.973	4325
903.091	4238
903.21	4211
903.328	4333
903.446	4238
903.565	4280
903.683	4314
903.801	4280
903.919	4383
904.038	4462
904.156	4314
904.274	4443
904.392	4398
904.51	4421
904.627	4474
904.745	4630
904.863	4653
904.981	4421
905.098	4314
905.216	4424
905.334	4474
905.451	4470
905.569	4489
905.686	4611
905.803	4615
905.921	4409
906.038	4573
906.155	4512
906.272	4421
906.389	4508
906.506	4348
906.623	4424
906.74	4413
906.857	4360
906.974	4402
907.091	4584
907.208	4687
907.324	4592
907.441	4546
907.557	4398
907.674	4394
907.79	4371
907.907	4417
908.023	4519
908.139	4527
908.256	4451
908.372	4512
908.488	4478
908.604	4402
908.72	4363
908.836	4398
908.952	4390
909.068	4462
909.184	4634
909.3	4519
909.415	4577
909.531	4580
909.647	4402
909.762	4402
909.878	4367
909.993	4478
910.108	4424
910.224	4470
910.339	4512
910.454	4428
910.57	4405
910.685	4360
910.8	4733
910.915	4656
911.03	4535
911.145	4371
911.259	4383
911.374	4390
911.489	4322
911.604	4341
911.718	4192
911.833	4299
911.947	4135
912.062	4078
912.176	4238
912.291	4272
912.405	4314
912.519	4493
912.633	4546
912.748	4421
912.862	4337
912.976	4276
913.09	4143
913.204	4200
913.318	4246
913.431	4428
913.545	4421
913.659	4516
913.772	4436
913.886	4303
914	4303
914.113	4417
914.226	4497
914.34	4451
914.453	4306
914.566	4531
914.68	4344
914.793	4329
914.906	4192
915.019	4173
915.132	4139
915.245	4234
915.358	4261
915.47	4322
915.583	4268
915.696	4383
915.809	4443
915.921	4443
916.034	4272
916.146	4303
916.259	4268
916.371	4413
916.483	4375
916.595	4344
916.708	4371
916.82	4394
916.932	4367
917.044	4303
917.156	4379
917.268	4341
917.38	4356
917.491	4284
917.603	4379
917.715	4421
917.826	4478
917.938	4356
918.049	4253
918.161	4409
918.272	4588
918.384	4565
918.495	4474
918.606	4329
918.717	4207
918.828	4394
918.939	4443
919.05	4284
919.161	4348
919.272	4177
919.383	4284
919.494	4497
919.604	4630
919.715	4497
919.826	4371
919.936	4432
920.047	4497
920.157	4542
920.267	4702
920.378	4603
920.488	4508
920.598	4774
920.708	4949
920.818	4824
920.928	4797
921.038	4953
921.148	4980
921.258	4637
921.368	4577
921.477	4485
921.587	4470
921.697	4409
921.806	4554
921.916	4504
922.025	4287
922.134	4348
922.244	4268
922.353	4341
922.462	4188
922.571	4143
922.68	4040
922.789	4025
922.898	4048
923.007	4021
923.116	4105
923.224	4120
923.333	4150
923.442	4044
923.55	4013
923.659	4051
923.767	4105
923.876	4048
923.984	4154
924.092	4101
924.201	4135
924.309	4166
924.417	4109
924.525	4101
924.633	4120
924.741	4927
924.849	3968
924.956	4215
925.064	4006
925.172	3945
925.279	4013
925.387	4071
925.494	4090
925.602	4249
925.709	4268
925.816	4128
925.924	4207
926.031	4253
926.138	4234
926.245	4261
926.352	4120
926.459	4280
926.566	4348
926.673	4173
926.779	4131
926.886	4116
926.993	4010
927.099	3960
927.206	3949
927.312	3983
927.419	4101
927.525	4090
927.631	4124
927.737	4002
927.843	3945
927.95	3854
928.056	3983
928.162	4002
928.267	4063
928.373	4710
928.479	4219
928.585	3930
928.69	4086
928.796	4074
928.901	3975
929.007	3846
929.112	4032
929.218	3983
929.323	3987
929.428	4013
929.533	4128
929.638	3941
929.743	3941
929.848	4059
929.953	4017
930.058	3941
930.163	3812
930.267	3876
930.372	4010
930.477	3892
930.581	4109
930.685	3987
930.79	3854
930.894	3907
930.998	3865
931.103	4029
931.207	3728
931.311	3724
931.415	3709
931.519	3515
931.623	3572
