Data from test_V78500241_2066.txt Node
Date: Fri Mar 25 17:03:21 CST 2022
User: usil
Spectrometer: V785-0024
Trigger mode: 0
Integration Time (sec): 4.000000E-1
Scans to average: 1
Nonlinearity correction enabled: false
Boxcar width: 0
Storing dark spectrum: false
XAxis mode: Wavelengths
Number of Pixels in Spectrum: 1024
>>>>>Begin Spectral Data<<<<<
801.071	8005
801.214	7974
801.356	7909
801.499	7822
801.641	7799
801.783	7780
801.926	7944
802.068	7894
802.211	7974
802.353	7951
802.496	7833
802.638	7963
802.78	7833
802.923	7925
803.065	7845
803.208	7803
803.35	7970
803.492	8031
803.635	8084
803.777	8084
803.919	8123
804.061	8465
804.204	8107
804.346	8058
804.488	7970
804.63	8100
804.773	7974
804.915	8043
805.057	8259
805.199	8130
805.341	8187
805.483	8267
805.626	8199
805.768	8123
805.91	8176
806.052	8153
806.194	8126
806.336	8282
806.478	8119
806.62	8046
806.762	8145
806.904	8221
807.046	8396
807.188	8381
807.33	8294
807.472	8366
807.614	8138
807.756	8161
807.898	8012
808.04	7921
808.182	7860
808.324	7837
808.465	7978
808.607	8039
808.749	8119
808.891	8153
809.033	8309
809.174	8176
809.316	8130
809.458	8073
809.6	7978
809.741	7978
809.883	8008
810.025	8103
810.166	7963
810.308	8054
810.45	8012
810.591	7807
810.733	7780
810.875	7575
811.016	7487
811.158	7419
811.299	7537
811.441	7738
811.582	7601
811.724	7559
811.865	7578
812.007	7571
812.148	7548
812.29	7594
812.431	7742
812.573	7887
812.714	7947
812.855	8123
812.997	8225
813.138	8187
813.279	8191
813.421	8046
813.562	7978
813.703	7837
813.845	7757
813.986	7426
814.127	7247
814.268	7160
814.41	7149
814.551	7175
814.692	7251
814.833	7031
814.974	7129
815.115	7050
815.256	6947
815.397	6890
815.539	6947
815.68	6783
815.821	6734
815.962	6878
816.103	6798
816.244	6688
816.385	6658
816.526	6559
816.666	6509
816.807	6346
816.948	6448
817.089	6441
817.23	6433
817.371	6395
817.512	6334
817.653	6338
817.793	6372
817.934	6467
818.075	6479
818.216	6429
818.356	6365
818.497	6270
818.638	6190
818.778	6175
818.919	6148
819.06	6117
819.2	6334
819.341	6334
819.481	6369
819.622	6547
819.762	6711
819.903	6696
820.043	6559
820.184	6544
820.324	6620
820.465	6654
820.605	6707
820.746	6646
820.886	6506
821.026	6582
821.167	6707
821.307	6760
821.447	6757
821.588	6707
821.728	6506
821.868	6471
822.008	6296
822.149	6426
822.289	6334
822.429	6140
822.569	6083
822.709	6121
822.849	5958
822.99	5908
823.13	5931
823.27	5885
823.41	5813
823.55	5767
823.69	5760
823.83	5748
823.97	5665
824.11	5551
824.25	5493
824.389	5516
824.529	5554
824.669	5524
824.809	5623
824.949	5665
825.089	5619
825.228	5516
825.368	5383
825.508	5288
825.648	5318
825.787	5341
825.927	5349
826.067	5258
826.206	5261
826.346	5372
826.485	5383
826.625	5417
826.765	5524
826.904	5486
827.044	5288
827.183	5181
827.323	5140
827.462	5204
827.601	5223
827.741	5166
827.88	5155
828.02	5067
828.159	5166
828.298	5277
828.437	5357
828.577	5334
828.716	5433
828.855	5360
828.994	5155
829.134	5121
829.273	5181
829.412	5136
829.551	5105
829.69	5136
829.829	5227
829.968	5353
830.107	5273
830.246	5288
830.385	5151
830.524	5124
830.663	5052
830.802	4972
830.941	4915
831.08	4900
831.219	4980
831.357	4949
831.496	5181
831.635	4915
831.774	4797
831.913	4862
832.051	4710
832.19	4733
832.329	4820
832.467	4694
832.606	4641
832.744	4691
832.883	4672
833.022	4649
833.16	4706
833.299	4786
833.437	4812
833.576	4839
833.714	4850
833.852	4850
833.991	4843
834.129	4953
834.267	4927
834.406	4904
834.544	4972
834.682	4980
834.821	4968
834.959	5155
835.097	4949
835.235	5128
835.373	5132
835.511	5090
835.65	5018
835.788	5045
835.926	4904
836.064	4892
836.202	4911
836.34	5189
836.478	5231
836.615	5147
836.753	5193
836.891	5265
837.029	5235
837.167	5208
837.305	5136
837.443	5147
837.58	5067
837.718	5315
837.856	5166
837.993	5151
838.131	5231
838.269	5254
838.406	5204
838.544	5162
838.681	5098
838.819	5048
838.956	4927
839.094	4915
839.231	4991
839.369	5071
839.506	5421
839.643	5353
839.781	5075
839.918	5022
840.055	5098
840.193	5117
840.33	5121
840.467	5151
840.604	5189
840.742	5459
840.879	5098
841.016	5140
841.153	5174
841.29	5444
841.427	5353
841.564	5372
841.701	5341
841.838	5330
841.975	5254
842.112	5315
842.249	5178
842.385	5178
842.522	5417
842.659	5265
842.796	5170
842.933	5197
843.069	5193
843.206	5239
843.343	5311
843.479	5261
843.616	5326
843.752	5105
843.889	5098
844.025	5318
844.162	5102
844.298	5227
844.435	5102
844.571	5140
844.708	5220
844.844	5288
844.98	5360
845.117	5376
845.253	5162
845.389	5124
845.525	5231
845.661	5193
845.798	5064
845.934	5140
846.07	5071
846.206	5235
846.342	5277
846.478	5220
846.614	5022
846.75	5041
846.886	4999
847.022	5159
847.158	5048
847.294	5109
847.429	5147
847.565	5067
847.701	5357
847.837	4900
847.972	4885
848.108	5018
848.244	4919
848.379	4835
848.515	4793
848.65	4763
848.786	4790
848.921	4790
849.057	4923
849.192	4911
849.328	4835
849.463	4839
849.598	4847
849.734	4816
849.869	4725
850.004	4664
850.14	4721
850.275	4649
850.41	4592
850.545	4603
850.68	4656
850.815	4641
850.95	4649
851.085	4877
851.22	4740
851.355	4668
851.49	4656
851.625	4630
851.76	4710
851.895	4599
852.03	4592
852.165	4729
852.299	4755
852.434	4839
852.569	4748
852.703	4809
852.838	4809
852.973	4919
853.107	4976
853.242	4759
853.376	4683
853.511	4554
853.645	4660
853.78	4835
853.914	4706
854.048	4729
854.183	4672
854.317	4812
854.451	4858
854.585	4755
854.72	4702
854.854	4759
854.988	4573
855.122	4698
855.256	4584
855.39	4729
855.524	4809
855.658	4782
855.792	4710
855.926	4752
856.06	4801
856.194	4847
856.327	4740
856.461	4641
856.595	4615
856.729	4637
856.862	4801
856.996	4721
857.13	4740
857.263	4801
857.397	4801
857.53	4649
857.664	4767
857.797	4706
857.931	4801
858.064	4714
858.197	4809
858.331	4649
858.464	4653
858.597	4519
858.731	4668
858.864	4675
858.997	4577
859.13	4641
859.263	4687
859.396	4748
859.529	4588
859.662	4577
859.795	4584
859.928	4672
860.061	4809
860.194	4755
860.327	4649
860.46	4603
860.592	4767
860.725	4767
860.858	4797
860.99	4630
861.123	4577
861.256	4561
861.388	4630
861.521	5258
861.653	4493
861.786	4497
861.918	4489
862.05	4565
862.183	4584
862.315	4596
862.447	4706
862.58	4588
862.712	4432
862.844	4360
862.976	4466
863.108	4512
863.24	4786
863.372	4356
863.504	4455
863.636	4417
863.768	4497
863.9	4440
864.032	4363
864.164	4447
864.296	4485
864.428	4538
864.559	4599
864.691	4573
864.823	4584
864.954	4531
865.086	4558
865.217	4497
865.349	4455
865.48	4462
865.612	4470
865.743	4725
865.875	4500
866.006	4443
866.137	4493
866.269	4512
866.4	4462
866.531	4455
866.662	4413
866.793	4443
866.924	4451
867.055	4523
867.186	4489
867.317	4466
867.448	4417
867.579	4424
867.71	4383
867.841	4394
867.972	4489
868.103	4497
868.233	4497
868.364	4508
868.495	4516
868.625	4679
868.756	4717
868.886	4573
869.017	4626
869.147	4801
869.278	4812
869.408	4683
869.539	4694
869.669	4744
869.799	4637
869.929	4793
870.06	4729
870.19	4953
870.32	4961
870.45	4938
870.58	5018
870.71	5113
870.84	5113
870.97	4919
871.1	4942
871.23	5121
871.36	5136
871.489	5048
871.619	5102
871.749	5166
871.879	5189
872.008	5208
872.138	5071
872.267	4953
872.397	4858
872.526	4828
872.656	4767
872.785	4816
872.915	4961
873.044	5037
873.173	4930
873.303	5025
873.432	4965
873.561	4965
873.69	4877
873.819	4892
873.948	4949
874.077	4873
874.206	4771
874.335	4771
874.464	4961
874.593	5098
874.722	5022
874.851	5132
874.979	5086
875.108	4999
875.237	4946
875.365	4908
875.494	4889
875.623	5014
875.751	4816
875.88	4900
876.008	5018
876.136	5037
876.265	5231
876.393	5398
876.521	5242
876.65	5265
876.778	5212
876.906	5060
877.034	5029
877.162	5079
877.29	5014
877.418	5105
877.546	5041
877.674	5102
877.802	5094
877.93	5029
878.058	4972
878.185	4881
878.313	4946
878.441	4968
878.568	4820
878.696	4877
878.824	4972
878.951	5048
879.079	5159
879.206	5322
879.333	5109
879.461	5025
879.588	5022
879.715	5166
879.842	5258
879.97	5033
880.097	4820
880.224	4771
880.351	4835
880.478	4843
880.605	4797
880.732	4805
880.859	5132
880.986	4915
881.112	4946
881.239	4786
881.366	4706
881.493	4611
881.619	4577
881.746	4630
881.872	4679
881.999	4694
882.125	4683
882.252	4736
882.378	4793
882.505	4900
882.631	4881
882.757	4694
882.883	4744
883.01	4721
883.136	4694
883.262	4645
883.388	4649
883.514	4866
883.64	4889
883.766	4809
883.892	4694
884.018	4725
884.143	4889
884.269	5037
884.395	4714
884.52	4687
884.646	4603
884.772	4618
884.897	4615
885.023	4675
885.148	4790
885.274	4904
885.399	4790
885.524	4714
885.65	4721
885.775	4782
885.9	4687
886.025	4908
886.15	4843
886.275	4786
886.4	4675
886.525	4733
886.65	4706
886.775	4698
886.9	4896
887.025	5079
887.149	4824
887.274	4645
887.399	4641
887.523	4649
887.648	4611
887.773	4592
887.897	4771
888.021	4843
888.146	4679
888.27	4778
888.395	4877
888.519	4782
888.643	4820
888.767	4843
888.891	4736
889.015	4599
889.139	4668
889.263	4596
889.387	4820
889.511	4862
889.635	4843
889.759	4634
889.883	4706
890.006	4744
890.13	4843
890.254	4634
890.377	4733
890.501	4535
890.624	4569
890.748	4641
890.871	4519
890.995	4466
891.118	4379
891.241	4489
891.364	4542
891.488	4653
891.611	4519
891.734	4542
891.857	4630
891.98	4603
892.103	4660
892.226	4603
892.349	4542
892.471	4470
892.594	4561
892.717	4615
892.839	4580
892.962	4569
893.085	4683
893.207	4618
893.33	4485
893.452	4546
893.575	4660
893.697	4630
893.819	4801
893.941	4793
894.064	4786
894.186	4592
894.308	4565
894.43	4752
894.552	4862
894.674	4755
894.796	4512
894.918	4645
895.04	4558
895.161	4714
895.283	4687
895.405	4561
895.526	4641
895.648	4740
895.769	4668
895.891	4748
896.012	4729
896.134	4736
896.255	4687
896.376	4668
896.498	4675
896.619	4714
896.74	4641
896.861	4691
896.982	4946
897.103	5094
897.224	4797
897.345	4729
897.466	4672
897.587	4759
897.708	4843
897.828	4763
897.949	4717
898.07	4577
898.19	4637
898.311	4801
898.431	4706
898.552	4744
898.672	4831
898.792	4793
898.913	4748
899.033	4660
899.153	4546
899.273	4443
899.393	4527
899.513	4508
899.633	4554
899.753	4470
899.873	4466
899.993	4558
900.113	4535
900.232	4656
900.352	4546
900.472	4489
900.591	4432
900.711	4531
900.83	4440
900.95	4664
901.069	4698
901.189	4535
901.308	4409
901.427	4303
901.546	4379
901.665	4485
901.784	4493
901.904	4428
902.023	4329
902.141	4158
902.26	4185
902.379	4322
902.498	4265
902.617	4257
902.735	4344
902.854	4413
902.973	4352
903.091	4215
903.21	4211
903.328	4287
903.446	4280
903.565	4268
903.683	4341
903.801	4268
903.919	4405
904.038	4436
904.156	4272
904.274	4432
904.392	4424
904.51	4390
904.627	4459
904.745	4573
904.863	4660
904.981	4394
905.098	4306
905.216	4363
905.334	4436
905.451	4462
905.569	4447
905.686	4573
905.803	4561
905.921	4440
906.038	4558
906.155	4466
906.272	4436
906.389	4497
906.506	4341
906.623	4356
906.74	4371
906.857	4344
906.974	4375
907.091	4615
907.208	4668
907.324	4596
907.441	4516
907.557	4405
907.674	4383
907.79	4344
907.907	4432
908.023	4451
908.139	4531
908.256	4451
908.372	4440
908.488	4402
908.604	4329
908.72	4329
908.836	4356
908.952	4344
909.068	4432
909.184	4538
909.3	4478
909.415	4630
909.531	4519
909.647	4390
909.762	4367
909.878	4363
909.993	4436
910.108	4409
910.224	4443
910.339	4546
910.454	4398
910.57	4360
910.685	4314
910.8	4664
910.915	4615
911.03	4542
911.145	4352
911.259	4367
911.374	4440
911.489	4379
911.604	4325
911.718	4185
911.833	4234
911.947	4101
912.062	4048
912.176	4227
912.291	4306
912.405	4314
912.519	4542
912.633	4554
912.748	4409
912.862	4337
912.976	4211
913.09	4090
913.204	4234
913.318	4295
913.431	4405
913.545	4398
913.659	4455
913.772	4421
913.886	4238
914	4261
914.113	4413
914.226	4470
914.34	4462
914.453	4257
914.566	4512
914.68	4344
914.793	4386
914.906	4166
915.019	4124
915.132	4147
915.245	4265
915.358	4230
915.47	4268
915.583	4287
915.696	4367
915.809	4443
915.921	4459
916.034	4272
916.146	4284
916.259	4261
916.371	4443
916.483	4386
916.595	4287
916.708	4371
916.82	4405
916.932	4360
917.044	4363
917.156	4379
917.268	4261
917.38	4325
917.491	4325
917.603	4417
917.715	4462
917.826	4470
917.938	4390
918.049	4291
918.161	4466
918.272	4622
918.384	4580
918.495	4516
918.606	4325
918.717	4314
918.828	4348
918.939	4451
919.05	4303
919.161	4356
919.272	4131
919.383	4291
919.494	4474
919.604	4645
919.715	4493
919.826	4383
919.936	4436
920.047	4588
920.157	4577
920.267	4710
920.378	4603
920.488	4527
920.598	4782
920.708	4946
920.818	4824
920.928	4793
921.038	4972
921.148	4961
921.258	4748
921.368	4588
921.477	4531
921.587	4504
921.697	4402
921.806	4561
921.916	4440
922.025	4303
922.134	4284
922.244	4227
922.353	4314
922.462	4223
922.571	4204
922.68	4059
922.789	4021
922.898	4074
923.007	4029
923.116	4143
923.224	4051
923.333	4135
923.442	4032
923.55	4017
923.659	4086
923.767	4154
923.876	4048
923.984	4158
924.092	4051
924.201	4109
924.309	4173
924.417	4143
924.525	4120
924.633	4128
924.741	5094
924.849	3956
924.956	4147
925.064	3972
925.172	3922
925.279	3975
925.387	4074
925.494	4128
925.602	4276
925.709	4230
925.816	4063
925.924	4181
926.031	4284
926.138	4215
926.245	4265
926.352	4090
926.459	4249
926.566	4360
926.673	4204
926.779	4105
926.886	4109
926.993	4078
927.099	4044
927.206	3991
927.312	4017
927.419	4131
927.525	4044
927.631	4143
927.737	3991
927.843	3991
927.95	3896
928.056	4032
928.162	4032
928.267	4097
928.373	4603
928.479	4177
928.585	3907
928.69	4067
928.796	4124
928.901	4006
929.007	3911
929.112	4006
929.218	4013
929.323	4006
929.428	3964
929.533	4162
929.638	3960
929.743	3975
929.848	4063
929.953	4010
930.058	3926
930.163	3838
930.267	3823
930.372	4048
930.477	3842
930.581	4131
930.685	3991
930.79	3854
930.894	3941
930.998	3880
931.103	4048
931.207	3747
931.311	3751
931.415	3698
931.519	3568
931.623	3595
