Data from test_V78500241_520.txt Node
Date: Fri Mar 25 16:52:37 CST 2022
User: usil
Spectrometer: V785-0024
Trigger mode: 0
Integration Time (sec): 4.000000E-1
Scans to average: 1
Nonlinearity correction enabled: false
Boxcar width: 0
Storing dark spectrum: false
XAxis mode: Wavelengths
Number of Pixels in Spectrum: 1024
>>>>>Begin Spectral Data<<<<<
801.071	8031
801.214	8012
801.356	7822
801.499	7784
801.641	7772
801.783	7875
801.926	8054
802.068	7974
802.211	8005
802.353	7951
802.496	7864
802.638	7993
802.78	7875
802.923	7917
803.065	7769
803.208	7860
803.35	7940
803.492	8035
803.635	8168
803.777	7993
803.919	8191
804.061	8427
804.204	8172
804.346	8027
804.488	7932
804.63	8043
804.773	7967
804.915	7997
805.057	8252
805.199	8142
805.341	8164
805.483	8301
805.626	8191
805.768	8039
805.91	8172
806.052	8180
806.194	8054
806.336	8259
806.478	8081
806.62	8069
806.762	8096
806.904	8279
807.046	8434
807.188	8271
807.33	8176
807.472	8259
807.614	8237
807.756	8123
807.898	8016
808.04	7818
808.182	7921
808.324	7959
808.465	7913
808.607	8012
808.749	8103
808.891	8229
809.033	8309
809.174	8157
809.316	8027
809.458	7989
809.6	7978
809.741	8058
809.883	8016
810.025	8046
810.166	8119
810.308	7978
810.45	7997
810.591	7833
810.733	7727
810.875	7624
811.016	7571
811.158	7472
811.299	7578
811.441	7769
811.582	7693
811.724	7613
811.865	7518
812.007	7628
812.148	7540
812.29	7620
812.431	7788
812.573	7818
812.714	7974
812.855	8191
812.997	8298
813.138	8393
813.279	8214
813.421	8168
813.562	8065
813.703	7936
813.845	7776
813.986	7472
814.127	7305
814.268	7320
814.41	7179
814.551	7175
814.692	7152
814.833	7019
814.974	7110
815.115	7065
815.256	6901
815.397	6947
815.539	6920
815.68	6867
815.821	6806
815.962	6886
816.103	6890
816.244	6738
816.385	6669
816.526	6604
816.666	6513
816.807	6311
816.948	6418
817.089	6460
817.23	6471
817.371	6304
817.512	6334
817.653	6372
817.793	6353
817.934	6418
818.075	6429
818.216	6388
818.356	6384
818.497	6262
818.638	6114
818.778	6209
818.919	6232
819.06	6121
819.2	6277
819.341	6334
819.481	6369
819.622	6475
819.762	6722
819.903	6688
820.043	6521
820.184	6540
820.324	6631
820.465	6707
820.605	6589
820.746	6563
820.886	6467
821.026	6574
821.167	6696
821.307	6768
821.447	6745
821.588	6620
821.728	6551
821.868	6456
822.008	6292
822.149	6376
822.289	6346
822.429	6110
822.569	6064
822.709	6038
822.849	5908
822.99	5840
823.13	5958
823.27	5904
823.41	5809
823.55	5737
823.69	5748
823.83	5786
823.97	5668
824.11	5509
824.25	5520
824.389	5543
824.529	5543
824.669	5524
824.809	5592
824.949	5672
825.089	5646
825.228	5627
825.368	5391
825.508	5296
825.648	5360
825.787	5368
825.927	5337
826.067	5277
826.206	5280
826.346	5410
826.485	5383
826.625	5402
826.765	5539
826.904	5467
827.044	5227
827.183	5174
827.323	5143
827.462	5258
827.601	5197
827.741	5159
827.88	5235
828.02	5079
828.159	5227
828.298	5284
828.437	5349
828.577	5284
828.716	5459
828.855	5349
828.994	5166
829.134	5132
829.273	5185
829.412	5113
829.551	5102
829.69	5174
829.829	5216
829.968	5368
830.107	5292
830.246	5280
830.385	5178
830.524	5162
830.663	5052
830.802	5006
830.941	4866
831.08	4870
831.219	4961
831.357	5018
831.496	5170
831.635	4938
831.774	4862
831.913	4812
832.051	4694
832.19	4733
832.329	4831
832.467	4691
832.606	4653
832.744	4736
832.883	4733
833.022	4714
833.16	4793
833.299	4820
833.437	4805
833.576	4752
833.714	4839
833.852	4923
833.991	4850
834.129	4919
834.267	4934
834.406	4927
834.544	4980
834.682	4961
834.821	4995
834.959	5136
835.097	4995
835.235	5136
835.373	5056
835.511	5052
835.65	5003
835.788	5018
835.926	4919
836.064	4866
836.202	4930
836.34	5109
836.478	5197
836.615	5121
836.753	5220
836.891	5284
837.029	5208
837.167	5216
837.305	5181
837.443	5132
837.58	5064
837.718	5223
837.856	5170
837.993	5181
838.131	5223
838.269	5151
838.406	5220
838.544	5094
838.681	5045
838.819	4968
838.956	4889
839.094	4946
839.231	4987
839.369	5056
839.506	5398
839.643	5246
839.781	5094
839.918	5037
840.055	5143
840.193	5105
840.33	5056
840.467	5155
840.604	5162
840.742	5406
840.879	5033
841.016	5113
841.153	5143
841.29	5387
841.427	5353
841.564	5296
841.701	5318
841.838	5258
841.975	5254
842.112	5242
842.249	5140
842.385	5117
842.522	5292
842.659	5178
842.796	5204
842.933	5212
843.069	5201
843.206	5155
843.343	5299
843.479	5242
843.616	5299
843.752	5052
843.889	4995
844.025	5212
844.162	5029
844.298	5231
844.435	5064
844.571	5022
844.708	5193
844.844	5307
844.98	5364
845.117	5250
845.253	5155
845.389	5056
845.525	5162
845.661	5151
845.798	5010
845.934	5166
846.07	5067
846.206	5174
846.342	5296
846.478	5174
846.614	5029
846.75	5025
846.886	4930
847.022	5174
847.158	5014
847.294	5025
847.429	5124
847.565	5052
847.701	5315
847.837	4824
847.972	4820
848.108	4953
848.244	4965
848.379	4790
848.515	4736
848.65	4790
848.786	4736
848.921	4801
849.057	4850
849.192	4866
849.328	4835
849.463	4820
849.598	4809
849.734	4782
849.869	4691
850.004	4645
850.14	4660
850.275	4592
850.41	4565
850.545	4611
850.68	4561
850.815	4611
850.95	4618
851.085	4854
851.22	4710
851.355	4645
851.49	4653
851.625	4603
851.76	4653
851.895	4569
852.03	4542
852.165	4649
852.299	4729
852.434	4759
852.569	4748
852.703	4717
852.838	4793
852.973	4953
853.107	4934
853.242	4725
853.376	4706
853.511	4542
853.645	4592
853.78	4809
853.914	4698
854.048	4683
854.183	4588
854.317	4679
854.451	4790
854.585	4694
854.72	4569
854.854	4793
854.988	4584
855.122	4630
855.256	4512
855.39	4641
855.524	4725
855.658	4767
855.792	4717
855.926	4702
856.06	4759
856.194	4835
856.327	4729
856.461	4596
856.595	4580
856.729	4584
856.862	4740
856.996	4675
857.13	4706
857.263	4786
857.397	4740
857.53	4634
857.664	4740
857.797	4721
857.931	4759
858.064	4694
858.197	4744
858.331	4664
858.464	4599
858.597	4519
858.731	4637
858.864	4691
858.997	4569
859.13	4714
859.263	4660
859.396	4721
859.529	4599
859.662	4516
859.795	4577
859.928	4626
860.061	4733
860.194	4790
860.327	4615
860.46	4561
860.592	4687
860.725	4691
860.858	4763
860.99	4603
861.123	4596
861.256	4554
861.388	4588
861.521	5410
861.653	4508
861.786	4455
861.918	4447
862.05	4535
862.183	4565
862.315	4573
862.447	4656
862.58	4618
862.712	4409
862.844	4352
862.976	4474
863.108	4478
863.24	4839
863.372	4329
863.504	4474
863.636	4394
863.768	4462
863.9	4447
864.032	4379
864.164	4402
864.296	4542
864.428	4535
864.559	4584
864.691	4523
864.823	4531
864.954	4493
865.086	4542
865.217	4440
865.349	4386
865.48	4436
865.612	4459
865.743	4592
865.875	4470
866.006	4413
866.137	4481
866.269	4443
866.4	4432
866.531	4436
866.662	4360
866.793	4390
866.924	4421
867.055	4500
867.186	4455
867.317	4402
867.448	4363
867.579	4413
867.71	4413
867.841	4409
867.972	4485
868.103	4462
868.233	4405
868.364	4436
868.495	4493
868.625	4702
868.756	4786
868.886	4542
869.017	4603
869.147	4778
869.278	4744
869.408	4672
869.539	4653
869.669	4706
869.799	4675
869.929	4763
870.06	4774
870.19	5006
870.32	4889
870.45	4968
870.58	5052
870.71	5132
870.84	5094
870.97	4965
871.1	4919
871.23	5155
871.36	5151
871.489	5056
871.619	5071
871.749	5117
871.879	5151
872.008	5105
872.138	4953
872.267	4949
872.397	4801
872.526	4831
872.656	4706
872.785	4828
872.915	4949
873.044	5006
873.173	4965
873.303	4961
873.432	4949
873.561	4953
873.69	4850
873.819	4843
873.948	4911
874.077	4771
874.206	4755
874.335	4755
874.464	4896
874.593	5014
874.722	4965
874.851	5109
874.979	5075
875.108	5056
875.237	4927
875.365	4915
875.494	4866
875.623	4995
875.751	4839
875.88	4892
876.008	5025
876.136	5029
876.265	5208
876.393	5261
876.521	5189
876.65	5269
876.778	5181
876.906	5086
877.034	4968
877.162	5086
877.29	4984
877.418	5075
877.546	5037
877.674	5056
877.802	5010
877.93	4995
878.058	4930
878.185	4847
878.313	4938
878.441	4927
878.568	4835
878.696	4961
878.824	4991
878.951	5037
879.079	5075
879.206	5307
879.333	5121
879.461	5010
879.588	4980
879.715	5147
879.842	5201
879.97	5025
880.097	4759
880.224	4736
880.351	4790
880.478	4816
880.605	4801
880.732	4835
880.859	5086
880.986	4908
881.112	4915
881.239	4797
881.366	4618
881.493	4584
881.619	4565
881.746	4626
881.872	4660
881.999	4615
882.125	4721
882.252	4759
882.378	4850
882.505	4927
882.631	4801
882.757	4660
882.883	4694
883.01	4744
883.136	4668
883.262	4577
883.388	4584
883.514	4835
883.64	4843
883.766	4786
883.892	4649
884.018	4721
884.143	4942
884.269	4980
884.395	4626
884.52	4630
884.646	4622
884.772	4584
884.897	4519
885.023	4706
885.148	4771
885.274	4892
885.399	4809
885.524	4736
885.65	4706
885.775	4748
885.9	4702
886.025	4877
886.15	4835
886.275	4694
886.4	4698
886.525	4771
886.65	4706
886.775	4653
886.9	4957
887.025	5079
887.149	4839
887.274	4683
887.399	4626
887.523	4622
887.648	4596
887.773	4519
887.897	4763
888.021	4778
888.146	4645
888.27	4843
888.395	4927
888.519	4790
888.643	4774
888.767	4835
888.891	4691
889.015	4645
889.139	4702
889.263	4622
889.387	4744
889.511	4858
889.635	4782
889.759	4561
889.883	4706
890.006	4698
890.13	4915
890.254	4615
890.377	4653
890.501	4565
890.624	4497
890.748	4634
890.871	4481
890.995	4413
891.118	4363
891.241	4519
891.364	4512
891.488	4622
891.611	4523
891.734	4577
891.857	4618
891.98	4588
892.103	4672
892.226	4618
892.349	4508
892.471	4428
892.594	4558
892.717	4615
892.839	4558
892.962	4611
893.085	4618
893.207	4664
893.33	4428
893.452	4535
893.575	4656
893.697	4592
893.819	4725
893.941	4866
894.064	4729
894.186	4580
894.308	4592
894.43	4752
894.552	4786
894.674	4755
894.796	4535
894.918	4611
895.04	4577
895.161	4702
895.283	4664
895.405	4596
895.526	4630
895.648	4710
895.769	4710
895.891	4679
896.012	4744
896.134	4721
896.255	4714
896.376	4664
896.498	4596
896.619	4664
896.74	4599
896.861	4672
896.982	4946
897.103	5056
897.224	4805
897.345	4729
897.466	4675
897.587	4748
897.708	4835
897.828	4767
897.949	4694
898.07	4512
898.19	4645
898.311	4835
898.431	4664
898.552	4755
898.672	4816
898.792	4820
898.913	4771
899.033	4645
899.153	4538
899.273	4413
899.393	4535
899.513	4516
899.633	4565
899.753	4542
899.873	4508
899.993	4565
900.113	4500
900.232	4569
900.352	4508
900.472	4478
900.591	4447
900.711	4538
900.83	4440
900.95	4630
901.069	4672
901.189	4519
901.308	4314
901.427	4337
901.546	4383
901.665	4470
901.784	4504
901.904	4409
902.023	4325
902.141	4173
902.26	4147
902.379	4333
902.498	4257
902.617	4192
902.735	4405
902.854	4405
902.973	4348
903.091	4207
903.21	4234
903.328	4280
903.446	4265
903.565	4223
903.683	4341
903.801	4238
903.919	4398
904.038	4462
904.156	4344
904.274	4440
904.392	4367
904.51	4470
904.627	4504
904.745	4607
904.863	4615
904.981	4371
905.098	4314
905.216	4348
905.334	4428
905.451	4436
905.569	4455
905.686	4535
905.803	4546
905.921	4352
906.038	4527
906.155	4504
906.272	4379
906.389	4481
906.506	4379
906.623	4379
906.74	4405
906.857	4291
906.974	4386
907.091	4516
907.208	4656
907.324	4611
907.441	4538
907.557	4363
907.674	4360
907.79	4295
907.907	4402
908.023	4508
908.139	4497
908.256	4462
908.372	4466
908.488	4447
908.604	4386
908.72	4348
908.836	4371
908.952	4363
909.068	4451
909.184	4641
909.3	4447
909.415	4630
909.531	4561
909.647	4352
909.762	4375
909.878	4356
909.993	4443
910.108	4424
910.224	4466
910.339	4523
910.454	4402
910.57	4398
910.685	4329
910.8	4634
910.915	4611
911.03	4489
911.145	4314
911.259	4325
911.374	4402
911.489	4299
911.604	4261
911.718	4227
911.833	4200
911.947	4074
912.062	4029
912.176	4211
912.291	4257
912.405	4249
912.519	4527
912.633	4542
912.748	4360
912.862	4314
912.976	4192
913.09	4116
913.204	4211
913.318	4253
913.431	4367
913.545	4371
913.659	4443
913.772	4352
913.886	4234
914	4219
914.113	4367
914.226	4443
914.34	4402
914.453	4299
914.566	4443
914.68	4318
914.793	4322
914.906	4185
915.019	4128
915.132	4120
915.245	4173
915.358	4207
915.47	4234
915.583	4314
915.696	4314
915.809	4398
915.921	4447
916.034	4314
916.146	4249
916.259	4219
916.371	4379
916.483	4341
916.595	4257
916.708	4348
916.82	4363
916.932	4322
917.044	4287
917.156	4284
917.268	4219
917.38	4306
917.491	4257
917.603	4318
917.715	4447
917.826	4474
917.938	4325
918.049	4238
918.161	4367
918.272	4561
918.384	4538
918.495	4455
918.606	4295
918.717	4207
918.828	4367
918.939	4386
919.05	4242
919.161	4303
919.272	4154
919.383	4272
919.494	4424
919.604	4641
919.715	4462
919.826	4337
919.936	4394
920.047	4550
920.157	4523
920.267	4668
920.378	4512
920.488	4504
920.598	4702
920.708	4828
920.818	4763
920.928	4771
921.038	4980
921.148	4927
921.258	4626
921.368	4588
921.477	4466
921.587	4466
921.697	4375
921.806	4516
921.916	4447
922.025	4295
922.134	4280
922.244	4230
922.353	4306
922.462	4196
922.571	4116
922.68	4017
922.789	3983
922.898	4036
923.007	4017
923.116	4090
923.224	4078
923.333	4071
923.442	4017
923.55	3994
923.659	4055
923.767	4116
923.876	4025
923.984	4135
924.092	3983
924.201	4093
924.309	4078
924.417	4173
924.525	4063
924.633	4086
924.741	5037
924.849	3922
924.956	4116
925.064	3987
925.172	3918
925.279	3953
925.387	4078
925.494	4071
925.602	4196
925.709	4219
925.816	4055
925.924	4154
926.031	4276
926.138	4120
926.245	4242
926.352	4086
926.459	4242
926.566	4306
926.673	4150
926.779	4067
926.886	4063
926.993	3945
927.099	3956
927.206	3922
927.312	3983
927.419	4036
927.525	4044
927.631	4112
927.737	3926
927.843	3937
927.95	3819
928.056	3922
928.162	4006
928.267	4048
928.373	4672
928.479	4128
928.585	3922
928.69	4048
928.796	4063
928.901	3953
929.007	3835
929.112	4002
929.218	4010
929.323	3964
929.428	3918
929.533	4116
929.638	3918
929.743	3956
929.848	4044
929.953	3991
930.058	3918
930.163	3854
930.267	3812
930.372	3979
930.477	3854
930.581	4128
930.685	3949
930.79	3800
930.894	3857
930.998	3865
931.103	4071
931.207	3701
931.311	3717
931.415	3682
931.519	3507
931.623	3576
