Data from test_V78500241_2719.txt Node
Date: Fri Mar 25 17:07:54 CST 2022
User: usil
Spectrometer: V785-0024
Trigger mode: 0
Integration Time (sec): 4.000000E-1
Scans to average: 1
Nonlinearity correction enabled: false
Boxcar width: 0
Storing dark spectrum: false
XAxis mode: Wavelengths
Number of Pixels in Spectrum: 1024
>>>>>Begin Spectral Data<<<<<
801.071	8020
801.214	7970
801.356	7883
801.499	7852
801.641	7795
801.783	7822
801.926	7947
802.068	7951
802.211	8001
802.353	8005
802.496	7860
802.638	7906
802.78	7902
802.923	7856
803.065	7868
803.208	7856
803.35	7963
803.492	8130
803.635	8176
803.777	8043
803.919	8100
804.061	8480
804.204	8130
804.346	8062
804.488	8024
804.63	8058
804.773	8005
804.915	8107
805.057	8267
805.199	8183
805.341	8206
805.483	8275
805.626	8229
805.768	8126
805.91	8252
806.052	8195
806.194	8081
806.336	8324
806.478	8088
806.62	8058
806.762	8111
806.904	8298
807.046	8507
807.188	8400
807.33	8358
807.472	8324
807.614	8176
807.756	8202
807.898	8016
808.04	7837
808.182	7909
808.324	7906
808.465	7913
808.607	8069
808.749	8157
808.891	8168
809.033	8358
809.174	8294
809.316	8130
809.458	8069
809.6	8012
809.741	8058
809.883	8016
810.025	8111
810.166	8077
810.308	8039
810.45	8008
810.591	7845
810.733	7753
810.875	7658
811.016	7537
811.158	7472
811.299	7658
811.441	7826
811.582	7769
811.724	7578
811.865	7544
812.007	7540
812.148	7575
812.29	7689
812.431	7753
812.573	7883
812.714	8012
812.855	8183
812.997	8191
813.138	8229
813.279	8233
813.421	8210
813.562	7986
813.703	7902
813.845	7826
813.986	7518
814.127	7251
814.268	7217
814.41	7183
814.551	7126
814.692	7202
814.833	7069
814.974	7164
815.115	7095
815.256	6924
815.397	6901
815.539	6970
815.68	6791
815.821	6760
815.962	6913
816.103	6814
816.244	6757
816.385	6623
816.526	6604
816.666	6509
816.807	6304
816.948	6448
817.089	6494
817.23	6426
817.371	6346
817.512	6346
817.653	6410
817.793	6414
817.934	6464
818.075	6372
818.216	6429
818.356	6414
818.497	6232
818.638	6098
818.778	6144
818.919	6117
819.06	6209
819.2	6372
819.341	6315
819.481	6361
819.622	6486
819.762	6703
819.903	6677
820.043	6623
820.184	6574
820.324	6574
820.465	6749
820.605	6703
820.746	6593
820.886	6555
821.026	6631
821.167	6703
821.307	6764
821.447	6783
821.588	6688
821.728	6620
821.868	6479
822.008	6315
822.149	6319
822.289	6407
822.429	6133
822.569	6091
822.709	6098
822.849	5946
822.99	5939
823.13	5912
823.27	5904
823.41	5805
823.55	5802
823.69	5729
823.83	5790
823.97	5638
824.11	5570
824.25	5528
824.389	5524
824.529	5600
824.669	5528
824.809	5623
824.949	5684
825.089	5596
825.228	5589
825.368	5353
825.508	5353
825.648	5357
825.787	5353
825.927	5372
826.067	5296
826.206	5288
826.346	5357
826.485	5379
826.625	5410
826.765	5532
826.904	5482
827.044	5261
827.183	5174
827.323	5132
827.462	5265
827.601	5201
827.741	5197
827.88	5216
828.02	5113
828.159	5246
828.298	5322
828.437	5357
828.577	5239
828.716	5474
828.855	5330
828.994	5132
829.134	5121
829.273	5201
829.412	5121
829.551	5132
829.69	5208
829.829	5239
829.968	5406
830.107	5258
830.246	5303
830.385	5220
830.524	5113
830.663	5022
830.802	4999
830.941	4889
831.08	4843
831.219	5003
831.357	4965
831.496	5136
831.635	4976
831.774	4839
831.913	4850
832.051	4736
832.19	4748
832.329	4900
832.467	4683
832.606	4660
832.744	4744
832.883	4740
833.022	4714
833.16	4786
833.299	4771
833.437	4839
833.576	4793
833.714	4828
833.852	4850
833.991	4892
834.129	4908
834.267	4949
834.406	4908
834.544	4930
834.682	4991
834.821	4968
834.959	5147
835.097	4949
835.235	5102
835.373	5052
835.511	5132
835.65	5033
835.788	4980
835.926	4919
836.064	4881
836.202	4866
836.34	5151
836.478	5269
836.615	5147
836.753	5208
836.891	5254
837.029	5239
837.167	5197
837.305	5109
837.443	5113
837.58	5109
837.718	5239
837.856	5162
837.993	5121
838.131	5227
838.269	5147
838.406	5162
838.544	5174
838.681	5025
838.819	5003
838.956	4900
839.094	4919
839.231	4904
839.369	5048
839.506	5360
839.643	5296
839.781	5090
839.918	5029
840.055	5105
840.193	5098
840.33	5124
840.467	5113
840.604	5193
840.742	5452
840.879	5029
841.016	5048
841.153	5147
841.29	5398
841.427	5318
841.564	5322
841.701	5292
841.838	5242
841.975	5204
842.112	5284
842.249	5075
842.385	5060
842.522	5387
842.659	5159
842.796	5143
842.933	5193
843.069	5132
843.206	5178
843.343	5307
843.479	5174
843.616	5239
843.752	4984
843.889	4953
844.025	5178
844.162	5018
844.298	5185
844.435	5094
844.571	5056
844.708	5216
844.844	5334
844.98	5307
845.117	5254
845.253	5098
845.389	5060
845.525	5147
845.661	5174
845.798	5018
845.934	5132
846.07	5045
846.206	5231
846.342	5273
846.478	5185
846.614	4968
846.75	4976
846.886	4953
847.022	5090
847.158	5056
847.294	5056
847.429	5128
847.565	5075
847.701	5337
847.837	4866
847.972	4854
848.108	4953
848.244	4896
848.379	4725
848.515	4752
848.65	4740
848.786	4725
848.921	4793
849.057	4831
849.192	4881
849.328	4820
849.463	4828
849.598	4736
849.734	4752
849.869	4679
850.004	4637
850.14	4660
850.275	4573
850.41	4512
850.545	4588
850.68	4596
850.815	4634
850.95	4645
851.085	4782
851.22	4729
851.355	4603
851.49	4603
851.625	4573
851.76	4611
851.895	4558
852.03	4508
852.165	4649
852.299	4714
852.434	4759
852.569	4752
852.703	4755
852.838	4881
852.973	4904
853.107	4915
853.242	4771
853.376	4660
853.511	4554
853.645	4622
853.78	4835
853.914	4664
854.048	4675
854.183	4630
854.317	4675
854.451	4858
854.585	4687
854.72	4714
854.854	4736
854.988	4588
855.122	4569
855.256	4538
855.39	4641
855.524	4786
855.658	4714
855.792	4687
855.926	4672
856.06	4675
856.194	4786
856.327	4710
856.461	4599
856.595	4596
856.729	4618
856.862	4736
856.996	4725
857.13	4714
857.263	4771
857.397	4790
857.53	4615
857.664	4744
857.797	4752
857.931	4733
858.064	4683
858.197	4786
858.331	4622
858.464	4584
858.597	4561
858.731	4611
858.864	4626
858.997	4645
859.13	4653
859.263	4660
859.396	4687
859.529	4580
859.662	4588
859.795	4561
859.928	4569
860.061	4744
860.194	4721
860.327	4580
860.46	4573
860.592	4717
860.725	4698
860.858	4698
860.99	4577
861.123	4546
861.256	4516
861.388	4599
861.521	5292
861.653	4493
861.786	4470
861.918	4432
862.05	4512
862.183	4535
862.315	4622
862.447	4615
862.58	4577
862.712	4413
862.844	4310
862.976	4516
863.108	4398
863.24	4801
863.372	4428
863.504	4344
863.636	4379
863.768	4447
863.9	4417
864.032	4405
864.164	4367
864.296	4462
864.428	4561
864.559	4546
864.691	4527
864.823	4554
864.954	4508
865.086	4538
865.217	4485
865.349	4455
865.48	4478
865.612	4493
865.743	4622
865.875	4489
866.006	4432
866.137	4447
866.269	4436
866.4	4402
866.531	4424
866.662	4371
866.793	4405
866.924	4390
867.055	4516
867.186	4405
867.317	4459
867.448	4367
867.579	4394
867.71	4360
867.841	4390
867.972	4474
868.103	4440
868.233	4451
868.364	4451
868.495	4481
868.625	4611
868.756	4714
868.886	4573
869.017	4611
869.147	4755
869.278	4774
869.408	4687
869.539	4630
869.669	4729
869.799	4698
869.929	4740
870.06	4786
870.19	4957
870.32	4942
870.45	4892
870.58	4999
870.71	5094
870.84	5067
870.97	4987
871.1	4850
871.23	5124
871.36	5117
871.489	5056
871.619	5094
871.749	5075
871.879	5113
872.008	5170
872.138	5121
872.267	5003
872.397	4858
872.526	4786
872.656	4752
872.785	4828
872.915	4965
873.044	5014
873.173	4904
873.303	4976
873.432	4961
873.561	4953
873.69	4877
873.819	4904
873.948	4908
874.077	4820
874.206	4809
874.335	4805
874.464	4919
874.593	5056
874.722	4961
874.851	5075
874.979	5060
875.108	5048
875.237	4953
875.365	4873
875.494	4892
875.623	4999
875.751	4877
875.88	4877
876.008	4946
876.136	5033
876.265	5159
876.393	5387
876.521	5250
876.65	5292
876.778	5178
876.906	5094
877.034	5064
877.162	5033
877.29	5010
877.418	5102
877.546	5033
877.674	5033
877.802	5037
877.93	5052
878.058	4934
878.185	4866
878.313	5010
878.441	4965
878.568	4805
878.696	4900
878.824	4885
878.951	4938
879.079	5117
879.206	5273
879.333	5121
879.461	4946
879.588	4987
879.715	5136
879.842	5223
879.97	4984
880.097	4774
880.224	4752
880.351	4854
880.478	4828
880.605	4793
880.732	4786
880.859	5083
880.986	4873
881.112	4908
881.239	4771
881.366	4725
881.493	4611
881.619	4603
881.746	4634
881.872	4702
881.999	4660
882.125	4691
882.252	4786
882.378	4812
882.505	4942
882.631	4767
882.757	4679
882.883	4744
883.01	4698
883.136	4622
883.262	4615
883.388	4626
883.514	4790
883.64	4858
883.766	4820
883.892	4729
884.018	4771
884.143	4881
884.269	5006
884.395	4611
884.52	4645
884.646	4649
884.772	4569
884.897	4573
885.023	4694
885.148	4721
885.274	4854
885.399	4854
885.524	4710
885.65	4645
885.775	4748
885.9	4702
886.025	4854
886.15	4828
886.275	4729
886.4	4615
886.525	4725
886.65	4641
886.775	4683
886.9	4862
887.025	5022
887.149	4816
887.274	4668
887.399	4550
887.523	4577
887.648	4550
887.773	4573
887.897	4759
888.021	4771
888.146	4630
888.27	4793
888.395	4839
888.519	4767
888.643	4816
888.767	4805
888.891	4714
889.015	4607
889.139	4649
889.263	4603
889.387	4740
889.511	4828
889.635	4790
889.759	4645
889.883	4607
890.006	4744
890.13	4866
890.254	4679
890.377	4702
890.501	4519
890.624	4500
890.748	4599
890.871	4489
890.995	4455
891.118	4409
891.241	4535
891.364	4512
891.488	4622
891.611	4500
891.734	4542
891.857	4565
891.98	4573
892.103	4694
892.226	4596
892.349	4508
892.471	4390
892.594	4531
892.717	4603
892.839	4580
892.962	4573
893.085	4687
893.207	4630
893.33	4409
893.452	4512
893.575	4664
893.697	4550
893.819	4748
893.941	4820
894.064	4759
894.186	4546
894.308	4554
894.43	4725
894.552	4828
894.674	4778
894.796	4493
894.918	4584
895.04	4634
895.161	4733
895.283	4630
895.405	4634
895.526	4584
895.648	4717
895.769	4645
895.891	4729
896.012	4691
896.134	4706
896.255	4675
896.376	4607
896.498	4611
896.619	4694
896.74	4634
896.861	4603
896.982	4930
897.103	5071
897.224	4850
897.345	4763
897.466	4694
897.587	4736
897.708	4862
897.828	4778
897.949	4687
898.07	4599
898.19	4660
898.311	4816
898.431	4675
898.552	4729
898.672	4831
898.792	4820
898.913	4725
899.033	4634
899.153	4516
899.273	4394
899.393	4470
899.513	4504
899.633	4497
899.753	4554
899.873	4504
899.993	4649
900.113	4504
900.232	4554
900.352	4599
900.472	4489
900.591	4394
900.711	4504
900.83	4481
900.95	4603
901.069	4672
901.189	4542
901.308	4356
901.427	4306
901.546	4375
901.665	4466
901.784	4531
901.904	4417
902.023	4303
902.141	4211
902.26	4200
902.379	4299
902.498	4261
902.617	4238
902.735	4367
902.854	4360
902.973	4367
903.091	4211
903.21	4185
903.328	4341
903.446	4318
903.565	4246
903.683	4371
903.801	4306
903.919	4367
904.038	4440
904.156	4295
904.274	4417
904.392	4413
904.51	4424
904.627	4455
904.745	4542
904.863	4653
904.981	4360
905.098	4276
905.216	4367
905.334	4402
905.451	4398
905.569	4451
905.686	4573
905.803	4531
905.921	4402
906.038	4554
906.155	4508
906.272	4440
906.389	4436
906.506	4356
906.623	4398
906.74	4375
906.857	4257
906.974	4344
907.091	4561
907.208	4714
907.324	4573
907.441	4489
907.557	4329
907.674	4314
907.79	4329
907.907	4390
908.023	4481
908.139	4443
908.256	4421
908.372	4485
908.488	4481
908.604	4329
908.72	4318
908.836	4363
908.952	4386
909.068	4474
909.184	4554
909.3	4459
909.415	4599
909.531	4546
909.647	4390
909.762	4325
909.878	4341
909.993	4371
910.108	4424
910.224	4371
910.339	4516
910.454	4424
910.57	4356
910.685	4310
910.8	4672
910.915	4637
911.03	4481
911.145	4306
911.259	4284
911.374	4337
911.489	4322
911.604	4276
911.718	4177
911.833	4238
911.947	4131
912.062	4006
912.176	4204
912.291	4261
912.405	4287
912.519	4508
912.633	4466
912.748	4314
912.862	4306
912.976	4227
913.09	4090
913.204	4150
913.318	4287
913.431	4371
913.545	4390
913.659	4455
913.772	4352
913.886	4272
914	4196
914.113	4375
914.226	4417
914.34	4405
914.453	4246
914.566	4443
914.68	4280
914.793	4333
914.906	4147
915.019	4173
915.132	4112
915.245	4192
915.358	4276
915.47	4238
915.583	4257
915.696	4287
915.809	4409
915.921	4394
916.034	4280
916.146	4272
916.259	4230
916.371	4337
916.483	4333
916.595	4268
916.708	4322
916.82	4344
916.932	4352
917.044	4325
917.156	4310
917.268	4204
917.38	4333
917.491	4238
917.603	4333
917.715	4363
917.826	4470
917.938	4329
918.049	4261
918.161	4421
918.272	4531
918.384	4573
918.495	4432
918.606	4322
918.717	4242
918.828	4337
918.939	4363
919.05	4253
919.161	4352
919.272	4200
919.383	4188
919.494	4421
919.604	4664
919.715	4436
919.826	4341
919.936	4424
920.047	4527
920.157	4512
920.267	4637
920.378	4508
920.488	4523
920.598	4698
920.708	4873
920.818	4729
920.928	4755
921.038	4938
921.148	4892
921.258	4649
921.368	4584
921.477	4512
921.587	4432
921.697	4394
921.806	4561
921.916	4424
922.025	4265
922.134	4272
922.244	4242
922.353	4337
922.462	4181
922.571	4124
922.68	4010
922.789	3987
922.898	4048
923.007	3998
923.116	4074
923.224	4063
923.333	4067
923.442	3941
923.55	3975
923.659	4017
923.767	4116
923.876	3972
923.984	4078
924.092	4048
924.201	4048
924.309	4074
924.417	4143
924.525	4040
924.633	4101
924.741	5033
924.849	3934
924.956	4120
925.064	3915
925.172	3926
925.279	3953
925.387	4029
925.494	4082
925.602	4246
925.709	4219
925.816	4006
925.924	4135
926.031	4227
926.138	4139
926.245	4200
926.352	4105
926.459	4268
926.566	4284
926.673	4162
926.779	4048
926.886	4051
926.993	4006
927.099	3949
927.206	3949
927.312	3937
927.419	4040
927.525	4029
927.631	4105
927.737	3945
927.843	3937
927.95	3812
928.056	3930
928.162	3941
928.267	4067
928.373	4561
928.479	4074
928.585	3869
928.69	4010
928.796	4090
928.901	3964
929.007	3823
929.112	4006
929.218	3998
929.323	3972
929.428	3941
929.533	4109
929.638	3907
929.743	3945
929.848	4055
929.953	3998
930.058	3903
930.163	3705
930.267	3823
930.372	3991
930.477	3838
930.581	4109
930.685	3941
930.79	3812
930.894	3899
930.998	3861
931.103	4036
931.207	3747
931.311	3705
931.415	3686
931.519	3519
931.623	3557
