Data from test_V78500241_239.txt Node
Date: Fri Mar 25 16:50:39 CST 2022
User: usil
Spectrometer: V785-0024
Trigger mode: 0
Integration Time (sec): 4.000000E-1
Scans to average: 1
Nonlinearity correction enabled: false
Boxcar width: 0
Storing dark spectrum: false
XAxis mode: Wavelengths
Number of Pixels in Spectrum: 1024
>>>>>Begin Spectral Data<<<<<
801.071	8039
801.214	8016
801.356	7856
801.499	7849
801.641	7765
801.783	7822
801.926	7967
802.068	7868
802.211	7982
802.353	7989
802.496	7845
802.638	7902
802.78	7845
802.923	7913
803.065	7856
803.208	7875
803.35	7974
803.492	8119
803.635	8134
803.777	8081
803.919	8069
804.061	8400
804.204	8107
804.346	8050
804.488	7944
804.63	8119
804.773	7978
804.915	8084
805.057	8259
805.199	8149
805.341	8119
805.483	8248
805.626	8187
805.768	8081
805.91	8199
806.052	8259
806.194	8107
806.336	8275
806.478	8096
806.62	7967
806.762	8058
806.904	8267
807.046	8393
807.188	8305
807.33	8309
807.472	8301
807.614	8100
807.756	8145
807.898	7970
808.04	7871
808.182	7860
808.324	7894
808.465	7875
808.607	8069
808.749	8126
808.891	8263
809.033	8298
809.174	8187
809.316	8050
809.458	8016
809.6	7967
809.741	8020
809.883	8035
810.025	8115
810.166	8005
810.308	8020
810.45	8016
810.591	7845
810.733	7776
810.875	7636
811.016	7571
811.158	7483
811.299	7559
811.441	7731
811.582	7624
811.724	7529
811.865	7597
812.007	7616
812.148	7594
812.29	7597
812.431	7753
812.573	7841
812.714	7928
812.855	8180
812.997	8210
813.138	8313
813.279	8233
813.421	8134
813.562	7974
813.703	7822
813.845	7708
813.986	7472
814.127	7274
814.268	7202
814.41	7183
814.551	7198
814.692	7183
814.833	7088
814.974	7126
815.115	7164
815.256	6932
815.397	6913
815.539	6916
815.68	6818
815.821	6757
815.962	6837
816.103	6760
816.244	6726
816.385	6623
816.526	6681
816.666	6517
816.807	6281
816.948	6414
817.089	6521
817.23	6475
817.371	6372
817.512	6361
817.653	6380
817.793	6384
817.934	6327
818.075	6483
818.216	6452
818.356	6395
818.497	6205
818.638	6152
818.778	6106
818.919	6133
819.06	6167
819.2	6331
819.341	6296
819.481	6369
819.622	6483
819.762	6692
819.903	6696
820.043	6635
820.184	6593
820.324	6597
820.465	6688
820.605	6681
820.746	6589
820.886	6483
821.026	6681
821.167	6703
821.307	6806
821.447	6764
821.588	6681
821.728	6574
821.868	6475
822.008	6350
822.149	6338
822.289	6308
822.429	6110
822.569	6087
822.709	6155
822.849	5935
822.99	5904
823.13	5939
823.27	5923
823.41	5783
823.55	5741
823.69	5767
823.83	5771
823.97	5627
824.11	5547
824.25	5543
824.389	5570
824.529	5532
824.669	5505
824.809	5646
824.949	5676
825.089	5623
825.228	5535
825.368	5414
825.508	5299
825.648	5353
825.787	5391
825.927	5440
826.067	5265
826.206	5292
826.346	5315
826.485	5387
826.625	5417
826.765	5543
826.904	5429
827.044	5223
827.183	5185
827.323	5109
827.462	5254
827.601	5155
827.741	5193
827.88	5212
828.02	5105
828.159	5299
828.298	5299
828.437	5376
828.577	5337
828.716	5524
828.855	5341
828.994	5197
829.134	5151
829.273	5159
829.412	5159
829.551	5166
829.69	5166
829.829	5269
829.968	5387
830.107	5284
830.246	5288
830.385	5189
830.524	5105
830.663	5102
830.802	5018
830.941	4896
831.08	4965
831.219	4953
831.357	4965
831.496	5151
831.635	4923
831.774	4850
831.913	4816
832.051	4744
832.19	4740
832.329	4839
832.467	4717
832.606	4656
832.744	4679
832.883	4710
833.022	4733
833.16	4820
833.299	4812
833.437	4831
833.576	4820
833.714	4828
833.852	4828
833.991	4885
834.129	4938
834.267	4949
834.406	4889
834.544	4999
834.682	4923
834.821	4984
834.959	5132
835.097	4980
835.235	5193
835.373	5102
835.511	5143
835.65	5052
835.788	5060
835.926	4870
836.064	4896
836.202	4900
836.34	5174
836.478	5204
836.615	5105
836.753	5223
836.891	5288
837.029	5277
837.167	5189
837.305	5155
837.443	5140
837.58	5098
837.718	5193
837.856	5151
837.993	5197
838.131	5277
838.269	5220
838.406	5235
838.544	5170
838.681	5041
838.819	4991
838.956	4972
839.094	4953
839.231	4953
839.369	5045
839.506	5391
839.643	5280
839.781	5086
839.918	4999
840.055	5094
840.193	5086
840.33	5109
840.467	5132
840.604	5174
840.742	5478
840.879	5064
841.016	5079
841.153	5128
841.29	5417
841.427	5337
841.564	5322
841.701	5364
841.838	5269
841.975	5212
842.112	5239
842.249	5147
842.385	5041
842.522	5288
842.659	5166
842.796	5162
842.933	5250
843.069	5140
843.206	5136
843.343	5299
843.479	5201
843.616	5227
843.752	5079
843.889	5067
844.025	5201
844.162	5022
844.298	5220
844.435	5128
844.571	5048
844.708	5208
844.844	5318
844.98	5391
845.117	5284
845.253	5102
845.389	5117
845.525	5132
845.661	5109
845.798	5029
845.934	5098
846.07	5056
846.206	5250
846.342	5284
846.478	5155
846.614	4987
846.75	4972
846.886	4953
847.022	5155
847.158	5010
847.294	5067
847.429	5079
847.565	5018
847.701	5337
847.837	4854
847.972	4816
848.108	4972
848.244	4953
848.379	4771
848.515	4706
848.65	4683
848.786	4721
848.921	4771
849.057	4881
849.192	4900
849.328	4812
849.463	4847
849.598	4786
849.734	4767
849.869	4710
850.004	4641
850.14	4649
850.275	4630
850.41	4497
850.545	4565
850.68	4603
850.815	4645
850.95	4664
851.085	4873
851.22	4729
851.355	4622
851.49	4634
851.625	4656
851.76	4702
851.895	4478
852.03	4550
852.165	4656
852.299	4725
852.434	4782
852.569	4752
852.703	4736
852.838	4885
852.973	4896
853.107	4892
853.242	4736
853.376	4660
853.511	4569
853.645	4592
853.78	4801
853.914	4714
854.048	4725
854.183	4641
854.317	4683
854.451	4866
854.585	4660
854.72	4637
854.854	4698
854.988	4596
855.122	4637
855.256	4508
855.39	4649
855.524	4778
855.658	4683
855.792	4710
855.926	4725
856.06	4774
856.194	4809
856.327	4714
856.461	4603
856.595	4634
856.729	4656
856.862	4759
856.996	4687
857.13	4725
857.263	4786
857.397	4835
857.53	4683
857.664	4759
857.797	4725
857.931	4744
858.064	4729
858.197	4733
858.331	4668
858.464	4637
858.597	4546
858.731	4618
858.864	4645
858.997	4599
859.13	4599
859.263	4660
859.396	4702
859.529	4569
859.662	4615
859.795	4546
859.928	4615
860.061	4767
860.194	4771
860.327	4573
860.46	4550
860.592	4672
860.725	4755
860.858	4691
860.99	4580
861.123	4500
861.256	4561
861.388	4634
861.521	5395
861.653	4474
861.786	4417
861.918	4462
862.05	4516
862.183	4554
862.315	4618
862.447	4645
862.58	4500
862.712	4417
862.844	4337
862.976	4512
863.108	4417
863.24	4866
863.372	4310
863.504	4440
863.636	4417
863.768	4531
863.9	4447
864.032	4322
864.164	4417
864.296	4455
864.428	4542
864.559	4561
864.691	4531
864.823	4523
864.954	4523
865.086	4538
865.217	4474
865.349	4440
865.48	4489
865.612	4481
865.743	4630
865.875	4459
866.006	4474
866.137	4447
866.269	4432
866.4	4421
866.531	4455
866.662	4394
866.793	4409
866.924	4394
867.055	4489
867.186	4447
867.317	4390
867.448	4360
867.579	4363
867.71	4405
867.841	4314
867.972	4470
868.103	4443
868.233	4428
868.364	4459
868.495	4459
868.625	4634
868.756	4736
868.886	4569
869.017	4615
869.147	4759
869.278	4763
869.408	4717
869.539	4656
869.669	4683
869.799	4694
869.929	4740
870.06	4748
870.19	4949
870.32	4938
870.45	4911
870.58	5006
870.71	5079
870.84	5159
870.97	4915
871.1	4881
871.23	5109
871.36	5159
871.489	4980
871.619	5048
871.749	5109
871.879	5147
872.008	5193
872.138	5052
872.267	4965
872.397	4850
872.526	4824
872.656	4733
872.785	4793
872.915	4995
873.044	5003
873.173	4942
873.303	4923
873.432	4949
873.561	4930
873.69	4870
873.819	4828
873.948	4923
874.077	4816
874.206	4736
874.335	4786
874.464	4896
874.593	5105
874.722	4923
874.851	5094
874.979	5064
875.108	5052
875.237	4881
875.365	4866
875.494	4923
875.623	4984
875.751	4797
875.88	4862
876.008	4965
876.136	5006
876.265	5212
876.393	5299
876.521	5269
876.65	5265
876.778	5166
876.906	5064
877.034	5029
877.162	5022
877.29	4987
877.418	5067
877.546	5022
877.674	4999
877.802	5045
877.93	4999
878.058	4923
878.185	4873
878.313	4938
878.441	4957
878.568	4801
878.696	4885
878.824	4968
878.951	5048
879.079	5117
879.206	5311
879.333	5128
879.461	4965
879.588	5037
879.715	5132
879.842	5231
879.97	5018
880.097	4820
880.224	4786
880.351	4824
880.478	4870
880.605	4812
880.732	4831
880.859	5121
880.986	4927
881.112	4930
881.239	4850
881.366	4717
881.493	4649
881.619	4664
881.746	4649
881.872	4656
881.999	4691
882.125	4706
882.252	4812
882.378	4816
882.505	4984
882.631	4858
882.757	4710
882.883	4824
883.01	4790
883.136	4687
883.262	4645
883.388	4637
883.514	4862
883.64	4927
883.766	4847
883.892	4748
884.018	4767
884.143	4892
884.269	5037
884.395	4736
884.52	4649
884.646	4698
884.772	4645
884.897	4649
885.023	4717
885.148	4839
885.274	4915
885.399	4831
885.524	4755
885.65	4717
885.775	4748
885.9	4771
886.025	4892
886.15	4847
886.275	4744
886.4	4649
886.525	4767
886.65	4725
886.775	4733
886.9	4987
887.025	5098
887.149	4831
887.274	4710
887.399	4603
887.523	4653
887.648	4649
887.773	4622
887.897	4862
888.021	4854
888.146	4729
888.27	4847
888.395	4949
888.519	4866
888.643	4824
888.767	4816
888.891	4706
889.015	4675
889.139	4683
889.263	4679
889.387	4839
889.511	4908
889.635	4843
889.759	4675
889.883	4706
890.006	4767
890.13	4900
890.254	4687
890.377	4736
890.501	4573
890.624	4561
890.748	4668
890.871	4565
890.995	4519
891.118	4428
891.241	4573
891.364	4611
891.488	4653
891.611	4531
891.734	4599
891.857	4649
891.98	4573
892.103	4687
892.226	4641
892.349	4523
892.471	4470
892.594	4626
892.717	4615
892.839	4672
892.962	4687
893.085	4691
893.207	4626
893.33	4535
893.452	4531
893.575	4710
893.697	4626
893.819	4843
893.941	4900
894.064	4847
894.186	4622
894.308	4603
894.43	4782
894.552	4877
894.674	4759
894.796	4580
894.918	4649
895.04	4649
895.161	4717
895.283	4649
895.405	4641
895.526	4653
895.648	4740
895.769	4714
895.891	4759
896.012	4763
896.134	4755
896.255	4672
896.376	4668
896.498	4656
896.619	4672
896.74	4599
896.861	4660
896.982	4968
897.103	5159
897.224	4847
897.345	4824
897.466	4656
897.587	4759
897.708	4881
897.828	4755
897.949	4717
898.07	4656
898.19	4649
898.311	4862
898.431	4714
898.552	4763
898.672	4870
898.792	4858
898.913	4771
899.033	4698
899.153	4542
899.273	4413
899.393	4531
899.513	4584
899.633	4527
899.753	4573
899.873	4569
899.993	4630
900.113	4523
900.232	4649
900.352	4611
900.472	4542
900.591	4459
900.711	4500
900.83	4493
900.95	4679
901.069	4729
901.189	4561
901.308	4413
901.427	4409
901.546	4421
901.665	4554
901.784	4535
901.904	4424
902.023	4356
902.141	4215
902.26	4242
902.379	4310
902.498	4253
902.617	4219
902.735	4440
902.854	4447
902.973	4394
903.091	4291
903.21	4219
903.328	4344
903.446	4322
903.565	4322
903.683	4398
903.801	4310
903.919	4451
904.038	4481
904.156	4306
904.274	4443
904.392	4409
904.51	4470
904.627	4485
904.745	4615
904.863	4687
904.981	4409
905.098	4341
905.216	4363
905.334	4436
905.451	4462
905.569	4462
905.686	4630
905.803	4656
905.921	4424
906.038	4618
906.155	4489
906.272	4428
906.389	4512
906.506	4409
906.623	4421
906.74	4413
906.857	4360
906.974	4447
907.091	4664
907.208	4729
907.324	4656
907.441	4489
907.557	4402
907.674	4379
907.79	4344
907.907	4481
908.023	4500
908.139	4538
908.256	4485
908.372	4561
908.488	4500
908.604	4424
908.72	4371
908.836	4436
908.952	4398
909.068	4459
909.184	4634
909.3	4569
909.415	4607
909.531	4603
909.647	4428
909.762	4451
909.878	4402
909.993	4470
910.108	4500
910.224	4481
910.339	4523
910.454	4443
910.57	4398
910.685	4322
910.8	4698
910.915	4630
911.03	4497
911.145	4337
911.259	4299
911.374	4398
911.489	4303
911.604	4337
911.718	4188
911.833	4215
911.947	4120
912.062	4071
912.176	4261
912.291	4284
912.405	4329
912.519	4504
912.633	4577
912.748	4413
912.862	4329
912.976	4276
913.09	4128
913.204	4253
913.318	4295
913.431	4413
913.545	4421
913.659	4462
913.772	4402
913.886	4325
914	4284
914.113	4398
914.226	4440
914.34	4371
914.453	4299
914.566	4489
914.68	4409
914.793	4363
914.906	4177
915.019	4215
915.132	4154
915.245	4261
915.358	4227
915.47	4249
915.583	4284
915.696	4303
915.809	4497
915.921	4478
916.034	4215
916.146	4246
916.259	4287
916.371	4383
916.483	4371
916.595	4291
916.708	4379
916.82	4348
916.932	4367
917.044	4383
917.156	4344
917.268	4242
917.38	4322
917.491	4325
917.603	4413
917.715	4489
917.826	4481
917.938	4424
918.049	4268
918.161	4383
918.272	4538
918.384	4519
918.495	4523
918.606	4333
918.717	4261
918.828	4371
918.939	4451
919.05	4272
919.161	4398
919.272	4116
919.383	4253
919.494	4398
919.604	4645
919.715	4478
919.826	4390
919.936	4436
920.047	4531
920.157	4500
920.267	4733
920.378	4630
920.488	4531
920.598	4714
920.708	4900
920.818	4755
920.928	4835
921.038	4949
921.148	4984
921.258	4672
921.368	4599
921.477	4531
921.587	4504
921.697	4386
921.806	4565
921.916	4474
922.025	4299
922.134	4272
922.244	4249
922.353	4344
922.462	4223
922.571	4166
922.68	4029
922.789	3975
922.898	4078
923.007	4040
923.116	4090
923.224	4097
923.333	4120
923.442	4010
923.55	3983
923.659	4074
923.767	4139
923.876	4036
923.984	4128
924.092	3998
924.201	4120
924.309	4067
924.417	4147
924.525	4051
924.633	4135
924.741	5094
924.849	3964
924.956	4139
925.064	3987
925.172	3903
925.279	4032
925.387	4074
925.494	4105
925.602	4238
925.709	4211
925.816	4086
925.924	4158
926.031	4219
926.138	4188
926.245	4238
926.352	4128
926.459	4310
926.566	4322
926.673	4181
926.779	4143
926.886	4154
926.993	4002
927.099	4036
927.206	3956
927.312	3934
927.419	4097
927.525	4101
927.631	4169
927.737	4032
927.843	3915
927.95	3846
928.056	4002
928.162	4074
928.267	4082
928.373	4630
928.479	4109
928.585	3899
928.69	4025
928.796	4086
928.901	3994
929.007	3869
929.112	4048
929.218	3987
929.323	3991
929.428	4002
929.533	4150
929.638	3911
929.743	4010
929.848	4078
929.953	4040
930.058	3960
930.163	3770
930.267	3785
930.372	4017
930.477	3846
930.581	4105
930.685	3960
930.79	3850
930.894	3922
930.998	3903
931.103	4032
931.207	3770
931.311	3698
931.415	3728
931.519	3557
931.623	3572
