Data from test_V78500241_100.txt Node
Date: Fri Mar 25 16:49:41 CST 2022
User: usil
Spectrometer: V785-0024
Trigger mode: 0
Integration Time (sec): 4.000000E-1
Scans to average: 1
Nonlinearity correction enabled: false
Boxcar width: 0
Storing dark spectrum: false
XAxis mode: Wavelengths
Number of Pixels in Spectrum: 1024
>>>>>Begin Spectral Data<<<<<
801.071	8069
801.214	8077
801.356	8005
801.499	7917
801.641	7909
801.783	7928
801.926	8050
802.068	8073
802.211	8100
802.353	8039
802.496	7909
802.638	7955
802.78	7989
802.923	7982
803.065	8020
803.208	7970
803.35	8024
803.492	8050
803.635	8096
803.777	7993
803.919	7982
804.061	8415
804.204	8153
804.346	8058
804.488	7967
804.63	8138
804.773	8031
804.915	8050
805.057	8294
805.199	8145
805.341	8252
805.483	8271
805.626	8233
805.768	8130
805.91	8225
806.052	8233
806.194	8065
806.336	8294
806.478	8134
806.62	8191
806.762	8237
806.904	8377
807.046	8511
807.188	8317
807.33	8305
807.472	8374
807.614	8153
807.756	8157
807.898	8065
808.04	7936
808.182	7841
808.324	7917
808.465	7936
808.607	8058
808.749	8153
808.891	8221
809.033	8351
809.174	8218
809.316	8046
809.458	8103
809.6	8100
809.741	8088
809.883	8111
810.025	8187
810.166	8210
810.308	8005
810.45	8062
810.591	7909
810.733	7894
810.875	7674
811.016	7525
811.158	7525
811.299	7651
811.441	7788
811.582	7818
811.724	7700
811.865	7624
812.007	7727
812.148	7757
812.29	7700
812.431	7826
812.573	7974
812.714	8024
812.855	8218
812.997	8332
813.138	8377
813.279	8263
813.421	8210
813.562	8119
813.703	7951
813.845	7761
813.986	7514
814.127	7305
814.268	7312
814.41	7270
814.551	7228
814.692	7285
814.833	7217
814.974	7179
815.115	7190
815.256	7023
815.397	6985
815.539	7012
815.68	6875
815.821	6791
815.962	6878
816.103	6924
816.244	6730
816.385	6707
816.526	6692
816.666	6593
816.807	6429
816.948	6532
817.089	6559
817.23	6490
817.371	6426
817.512	6448
817.653	6407
817.793	6422
817.934	6448
818.075	6513
818.216	6525
818.356	6460
818.497	6323
818.638	6190
818.778	6266
818.919	6140
819.06	6197
819.2	6418
819.341	6388
819.481	6429
819.622	6593
819.762	6798
819.903	6692
820.043	6700
820.184	6627
820.324	6627
820.465	6749
820.605	6738
820.746	6703
820.886	6502
821.026	6703
821.167	6764
821.307	6863
821.447	6844
821.588	6700
821.728	6639
821.868	6601
822.008	6365
822.149	6388
822.289	6448
822.429	6270
822.569	6106
822.709	6152
822.849	5920
822.99	5954
823.13	6007
823.27	5961
823.41	5912
823.55	5832
823.69	5866
823.83	5824
823.97	5707
824.11	5611
824.25	5558
824.389	5627
824.529	5630
824.669	5566
824.809	5668
824.949	5752
825.089	5657
825.228	5619
825.368	5459
825.508	5402
825.648	5402
825.787	5455
825.927	5406
826.067	5368
826.206	5296
826.346	5398
826.485	5429
826.625	5402
826.765	5589
826.904	5497
827.044	5330
827.183	5258
827.323	5197
827.462	5277
827.601	5220
827.741	5261
827.88	5326
828.02	5189
828.159	5246
828.298	5322
828.437	5364
828.577	5280
828.716	5570
828.855	5326
828.994	5162
829.134	5143
829.273	5261
829.412	5269
829.551	5132
829.69	5193
829.829	5284
829.968	5463
830.107	5341
830.246	5250
830.385	5250
830.524	5159
830.663	5143
830.802	5006
830.941	4961
831.08	4862
831.219	5041
831.357	4984
831.496	5201
831.635	4987
831.774	4885
831.913	4908
832.051	4778
832.19	4809
832.329	4862
832.467	4683
832.606	4698
832.744	4801
832.883	4744
833.022	4725
833.16	4847
833.299	4919
833.437	4843
833.576	4904
833.714	4930
833.852	4885
833.991	4965
834.129	4991
834.267	4965
834.406	4953
834.544	5010
834.682	5022
834.821	5025
834.959	5178
835.097	5033
835.235	5185
835.373	5155
835.511	5140
835.65	5098
835.788	5075
835.926	4938
836.064	4889
836.202	4968
836.34	5212
836.478	5265
836.615	5185
836.753	5284
836.891	5318
837.029	5284
837.167	5235
837.305	5189
837.443	5147
837.58	5132
837.718	5277
837.856	5296
837.993	5170
838.131	5311
838.269	5227
838.406	5178
838.544	5239
838.681	5067
838.819	5025
838.956	4942
839.094	4927
839.231	5006
839.369	5071
839.506	5501
839.643	5322
839.781	5109
839.918	5083
840.055	5170
840.193	5170
840.33	5159
840.467	5204
840.604	5246
840.742	5459
840.879	5121
841.016	5132
841.153	5212
841.29	5402
841.427	5349
841.564	5414
841.701	5395
841.838	5376
841.975	5280
842.112	5299
842.249	5178
842.385	5185
842.522	5372
842.659	5223
842.796	5216
842.933	5242
843.069	5193
843.206	5201
843.343	5322
843.479	5284
843.616	5334
843.752	5052
843.889	5090
844.025	5261
844.162	5018
844.298	5227
844.435	5132
844.571	5102
844.708	5208
844.844	5334
844.98	5379
845.117	5345
845.253	5155
845.389	5067
845.525	5212
845.661	5197
845.798	5105
845.934	5189
846.07	5121
846.206	5189
846.342	5318
846.478	5166
846.614	5052
846.75	5006
846.886	4965
847.022	5140
847.158	5079
847.294	5102
847.429	5143
847.565	5067
847.701	5296
847.837	4896
847.972	4843
848.108	4991
848.244	4946
848.379	4839
848.515	4790
848.65	4790
848.786	4752
848.921	4812
849.057	4889
849.192	4953
849.328	4843
849.463	4858
849.598	4809
849.734	4812
849.869	4668
850.004	4618
850.14	4729
850.275	4653
850.41	4516
850.545	4603
850.68	4615
850.815	4668
850.95	4672
851.085	4908
851.22	4786
851.355	4668
851.49	4626
851.625	4645
851.76	4653
851.895	4618
852.03	4580
852.165	4675
852.299	4778
852.434	4835
852.569	4759
852.703	4805
852.838	4892
852.973	4938
853.107	4987
853.242	4790
853.376	4672
853.511	4546
853.645	4649
853.78	4866
853.914	4752
854.048	4664
854.183	4694
854.317	4771
854.451	4809
854.585	4736
854.72	4679
854.854	4797
854.988	4691
855.122	4675
855.256	4531
855.39	4683
855.524	4847
855.658	4755
855.792	4733
855.926	4740
856.06	4786
856.194	4820
856.327	4740
856.461	4717
856.595	4656
856.729	4660
856.862	4816
856.996	4748
857.13	4733
857.263	4786
857.397	4805
857.53	4706
857.664	4736
857.797	4752
857.931	4801
858.064	4706
858.197	4782
858.331	4691
858.464	4656
858.597	4577
858.731	4649
858.864	4672
858.997	4649
859.13	4694
859.263	4725
859.396	4714
859.529	4630
859.662	4626
859.795	4546
859.928	4672
860.061	4782
860.194	4778
860.327	4653
860.46	4649
860.592	4752
860.725	4790
860.858	4729
860.99	4592
861.123	4546
861.256	4542
861.388	4615
861.521	5284
861.653	4542
861.786	4478
861.918	4462
862.05	4527
862.183	4565
862.315	4649
862.447	4725
862.58	4577
862.712	4436
862.844	4360
862.976	4500
863.108	4474
863.24	4881
863.372	4314
863.504	4417
863.636	4443
863.768	4489
863.9	4428
864.032	4398
864.164	4413
864.296	4523
864.428	4596
864.559	4599
864.691	4580
864.823	4508
864.954	4542
865.086	4565
865.217	4512
865.349	4409
865.48	4519
865.612	4504
865.743	4645
865.875	4462
866.006	4466
866.137	4497
866.269	4443
866.4	4459
866.531	4466
866.662	4436
866.793	4443
866.924	4428
867.055	4550
867.186	4497
867.317	4451
867.448	4413
867.579	4428
867.71	4386
867.841	4394
867.972	4481
868.103	4493
868.233	4516
868.364	4459
868.495	4508
868.625	4733
868.756	4793
868.886	4611
869.017	4653
869.147	4809
869.278	4835
869.408	4645
869.539	4702
869.669	4771
869.799	4725
869.929	4820
870.06	4771
870.19	4976
870.32	4934
870.45	4946
870.58	5052
870.71	5128
870.84	5147
870.97	4987
871.1	4961
871.23	5132
871.36	5121
871.489	5045
871.619	5132
871.749	5136
871.879	5140
872.008	5208
872.138	5113
872.267	4957
872.397	4934
872.526	4831
872.656	4767
872.785	4801
872.915	5006
873.044	5105
873.173	5041
873.303	4987
873.432	5006
873.561	5010
873.69	4904
873.819	4877
873.948	4930
874.077	4843
874.206	4812
874.335	4850
874.464	4942
874.593	5086
874.722	4942
874.851	5117
874.979	5071
875.108	5086
875.237	4961
875.365	4915
875.494	4923
875.623	5041
875.751	4858
875.88	4923
876.008	4987
876.136	5048
876.265	5246
876.393	5383
876.521	5235
876.65	5239
876.778	5140
876.906	5071
877.034	5117
877.162	5067
877.29	5018
877.418	5056
877.546	4984
877.674	5048
877.802	5025
877.93	5006
878.058	4915
878.185	4968
878.313	4984
878.441	4968
878.568	4854
878.696	4927
878.824	4911
878.951	4987
879.079	5124
879.206	5379
879.333	5143
879.461	4995
879.588	5029
879.715	5143
879.842	5288
879.97	5079
880.097	4839
880.224	4725
880.351	4835
880.478	4824
880.605	4854
880.732	4862
880.859	5117
880.986	4870
881.112	4927
881.239	4824
881.366	4626
881.493	4645
881.619	4584
881.746	4675
881.872	4645
881.999	4698
882.125	4710
882.252	4767
882.378	4858
882.505	4995
882.631	4911
882.757	4691
882.883	4759
883.01	4778
883.136	4679
883.262	4611
883.388	4634
883.514	4877
883.64	4930
883.766	4854
883.892	4725
884.018	4714
884.143	4927
884.269	4999
884.395	4740
884.52	4634
884.646	4645
884.772	4618
884.897	4569
885.023	4645
885.148	4790
885.274	4896
885.399	4843
885.524	4744
885.65	4729
885.775	4740
885.9	4736
886.025	4877
886.15	4881
886.275	4755
886.4	4645
886.525	4714
886.65	4729
886.775	4736
886.9	4911
887.025	5075
887.149	4847
887.274	4683
887.399	4565
887.523	4618
887.648	4634
887.773	4607
887.897	4793
888.021	4805
888.146	4710
888.27	4820
888.395	4949
888.519	4805
888.643	4839
888.767	4904
888.891	4702
889.015	4607
889.139	4683
889.263	4611
889.387	4790
889.511	4919
889.635	4790
889.759	4687
889.883	4668
890.006	4771
890.13	4820
890.254	4634
890.377	4717
890.501	4550
890.624	4542
890.748	4672
890.871	4558
890.995	4489
891.118	4424
891.241	4538
891.364	4550
891.488	4744
891.611	4542
891.734	4546
891.857	4630
891.98	4588
892.103	4691
892.226	4622
892.349	4516
892.471	4466
892.594	4592
892.717	4611
892.839	4588
892.962	4645
893.085	4691
893.207	4626
893.33	4485
893.452	4516
893.575	4683
893.697	4596
893.819	4854
893.941	4824
894.064	4782
894.186	4592
894.308	4577
894.43	4797
894.552	4824
894.674	4801
894.796	4611
894.918	4626
895.04	4603
895.161	4771
895.283	4687
895.405	4630
895.526	4656
895.648	4752
895.769	4706
895.891	4740
896.012	4755
896.134	4748
896.255	4691
896.376	4702
896.498	4611
896.619	4771
896.74	4649
896.861	4736
896.982	4968
897.103	5094
897.224	4870
897.345	4782
897.466	4683
897.587	4763
897.708	4896
897.828	4816
897.949	4706
898.07	4634
898.19	4691
898.311	4911
898.431	4698
898.552	4740
898.672	4862
898.792	4816
898.913	4771
899.033	4622
899.153	4504
899.273	4405
899.393	4497
899.513	4558
899.633	4573
899.753	4573
899.873	4561
899.993	4622
900.113	4569
900.232	4649
900.352	4596
900.472	4466
900.591	4394
900.711	4485
900.83	4440
900.95	4622
901.069	4714
901.189	4558
901.308	4344
901.427	4356
901.546	4424
901.665	4516
901.784	4508
901.904	4432
902.023	4318
902.141	4185
902.26	4154
902.379	4337
902.498	4303
902.617	4242
902.735	4394
902.854	4424
902.973	4402
903.091	4223
903.21	4265
903.328	4299
903.446	4341
903.565	4246
903.683	4363
903.801	4318
903.919	4428
904.038	4466
904.156	4367
904.274	4455
904.392	4440
904.51	4485
904.627	4466
904.745	4542
904.863	4664
904.981	4455
905.098	4356
905.216	4348
905.334	4417
905.451	4443
905.569	4466
905.686	4569
905.803	4584
905.921	4417
906.038	4588
906.155	4493
906.272	4424
906.389	4470
906.506	4375
906.623	4398
906.74	4443
906.857	4318
906.974	4394
907.091	4622
907.208	4683
907.324	4649
907.441	4527
907.557	4375
907.674	4375
907.79	4394
907.907	4417
908.023	4485
908.139	4508
908.256	4455
908.372	4512
908.488	4497
908.604	4371
908.72	4367
908.836	4413
908.952	4348
909.068	4527
909.184	4565
909.3	4523
909.415	4577
909.531	4542
909.647	4356
909.762	4417
909.878	4375
909.993	4455
910.108	4462
910.224	4432
910.339	4542
910.454	4402
910.57	4413
910.685	4348
910.8	4664
910.915	4580
911.03	4546
911.145	4348
911.259	4394
911.374	4367
911.489	4363
911.604	4314
911.718	4173
911.833	4215
911.947	4101
912.062	4082
912.176	4280
912.291	4257
912.405	4344
912.519	4497
912.633	4531
912.748	4417
912.862	4325
912.976	4291
913.09	4116
913.204	4204
913.318	4295
913.431	4390
913.545	4421
913.659	4459
913.772	4379
913.886	4261
914	4200
914.113	4390
914.226	4424
914.34	4402
914.453	4299
914.566	4443
914.68	4341
914.793	4341
914.906	4211
915.019	4090
915.132	4093
915.245	4173
915.358	4249
915.47	4238
915.583	4299
915.696	4314
915.809	4462
915.921	4424
916.034	4322
916.146	4318
916.259	4253
916.371	4394
916.483	4348
916.595	4272
916.708	4314
916.82	4318
916.932	4459
917.044	4356
917.156	4398
917.268	4219
917.38	4287
917.491	4329
917.603	4390
917.715	4421
917.826	4459
917.938	4360
918.049	4219
918.161	4462
918.272	4573
918.384	4569
918.495	4470
918.606	4322
918.717	4272
918.828	4371
918.939	4413
919.05	4310
919.161	4337
919.272	4131
919.383	4257
919.494	4462
919.604	4660
919.715	4447
919.826	4383
919.936	4413
920.047	4561
920.157	4550
920.267	4702
920.378	4535
920.488	4523
920.598	4763
920.708	4930
920.818	4831
920.928	4763
921.038	4968
921.148	4949
921.258	4641
921.368	4573
921.477	4558
921.587	4481
921.697	4398
921.806	4588
921.916	4497
922.025	4333
922.134	4295
922.244	4246
922.353	4329
922.462	4192
922.571	4188
922.68	4029
922.789	4010
922.898	4067
923.007	4013
923.116	4135
923.224	4101
923.333	4082
923.442	4002
923.55	3956
923.659	4044
923.767	4109
923.876	4017
923.984	4124
924.092	4029
924.201	4071
924.309	4109
924.417	4112
924.525	4071
924.633	4116
924.741	4873
924.849	3941
924.956	4147
925.064	3953
925.172	3937
925.279	3987
925.387	4097
925.494	4067
925.602	4204
925.709	4230
925.816	4074
925.924	4173
926.031	4238
926.138	4246
926.245	4223
926.352	4090
926.459	4276
926.566	4310
926.673	4135
926.779	4112
926.886	4120
926.993	3968
927.099	3994
927.206	3956
927.312	3956
927.419	4112
927.525	4082
927.631	4124
927.737	4017
927.843	3975
927.95	3880
928.056	4002
928.162	4006
928.267	4044
928.373	4679
928.479	4162
928.585	3892
928.69	4051
928.796	4105
928.901	3979
929.007	3869
929.112	3987
929.218	3975
929.323	3987
929.428	3964
929.533	4124
929.638	3911
929.743	3987
929.848	4059
929.953	4044
930.058	3987
930.163	3774
930.267	3888
930.372	3994
930.477	3827
930.581	4090
930.685	3987
930.79	3846
930.894	3911
930.998	3880
931.103	4044
931.207	3717
931.311	3717
931.415	3713
931.519	3557
931.623	3606
