Data from test_V78500241_117.txt Node
Date: Fri Mar 25 16:49:48 CST 2022
User: usil
Spectrometer: V785-0024
Trigger mode: 0
Integration Time (sec): 4.000000E-1
Scans to average: 1
Nonlinearity correction enabled: false
Boxcar width: 0
Storing dark spectrum: false
XAxis mode: Wavelengths
Number of Pixels in Spectrum: 1024
>>>>>Begin Spectral Data<<<<<
801.071	8016
801.214	8020
801.356	7883
801.499	7913
801.641	7841
801.783	7875
801.926	7997
802.068	7967
802.211	7978
802.353	8005
802.496	7879
802.638	7909
802.78	7894
802.923	7986
803.065	7947
803.208	7868
803.35	7959
803.492	8043
803.635	8100
803.777	7970
803.919	8073
804.061	8400
804.204	8050
804.346	7978
804.488	7947
804.63	8126
804.773	7986
804.915	8069
805.057	8301
805.199	8138
805.341	8187
805.483	8256
805.626	8187
805.768	8065
805.91	8168
806.052	8157
806.194	8134
806.336	8259
806.478	8172
806.62	8035
806.762	8130
806.904	8305
807.046	8381
807.188	8389
807.33	8290
807.472	8332
807.614	8153
807.756	8050
807.898	7959
808.04	7913
808.182	7921
808.324	7845
808.465	7871
808.607	8024
808.749	8008
808.891	8214
809.033	8286
809.174	8195
809.316	8050
809.458	8020
809.6	7940
809.741	8138
809.883	8020
810.025	8081
810.166	8077
810.308	8077
810.45	8020
810.591	7894
810.733	7757
810.875	7704
811.016	7620
811.158	7533
811.299	7658
811.441	7677
811.582	7742
811.724	7632
811.865	7552
812.007	7620
812.148	7609
812.29	7746
812.431	7807
812.573	7936
812.714	8046
812.855	8218
812.997	8332
813.138	8427
813.279	8240
813.421	8221
813.562	8035
813.703	7936
813.845	7753
813.986	7445
814.127	7305
814.268	7274
814.41	7213
814.551	7179
814.692	7228
814.833	7190
814.974	7137
815.115	7206
815.256	7034
815.397	6947
815.539	7004
815.68	6875
815.821	6795
815.962	6852
816.103	6802
816.244	6757
816.385	6658
816.526	6669
816.666	6559
816.807	6391
816.948	6414
817.089	6601
817.23	6498
817.371	6483
817.512	6388
817.653	6380
817.793	6365
817.934	6433
818.075	6498
818.216	6433
818.356	6448
818.497	6281
818.638	6152
818.778	6159
818.919	6167
819.06	6095
819.2	6308
819.341	6365
819.481	6388
819.622	6570
819.762	6814
819.903	6665
820.043	6570
820.184	6608
820.324	6612
820.465	6760
820.605	6669
820.746	6700
820.886	6517
821.026	6719
821.167	6707
821.307	6818
821.447	6825
821.588	6738
821.728	6612
821.868	6544
822.008	6300
822.149	6361
822.289	6388
822.429	6205
822.569	6095
822.709	6190
822.849	5965
822.99	5916
823.13	5992
823.27	5954
823.41	5824
823.55	5745
823.69	5798
823.83	5836
823.97	5691
824.11	5596
824.25	5570
824.389	5547
824.529	5627
824.669	5562
824.809	5642
824.949	5619
825.089	5604
825.228	5619
825.368	5417
825.508	5341
825.648	5353
825.787	5391
825.927	5398
826.067	5280
826.206	5349
826.346	5357
826.485	5436
826.625	5436
826.765	5543
826.904	5535
827.044	5284
827.183	5250
827.323	5170
827.462	5296
827.601	5166
827.741	5155
827.88	5242
828.02	5147
828.159	5231
828.298	5322
828.437	5417
828.577	5280
828.716	5543
828.855	5357
828.994	5201
829.134	5216
829.273	5216
829.412	5121
829.551	5159
829.69	5204
829.829	5235
829.968	5376
830.107	5280
830.246	5299
830.385	5216
830.524	5185
830.663	5113
830.802	5018
830.941	4839
831.08	4873
831.219	5006
831.357	5056
831.496	5155
831.635	4972
831.774	4881
831.913	4877
832.051	4763
832.19	4748
832.329	4866
832.467	4664
832.606	4672
832.744	4714
832.883	4744
833.022	4725
833.16	4828
833.299	4835
833.437	4858
833.576	4831
833.714	4938
833.852	4850
833.991	4877
834.129	4904
834.267	5018
834.406	4961
834.544	5014
834.682	4995
834.821	4980
834.959	5140
835.097	4987
835.235	5174
835.373	5094
835.511	5052
835.65	4980
835.788	5006
835.926	4927
836.064	4896
836.202	4919
836.34	5181
836.478	5246
836.615	5132
836.753	5178
836.891	5349
837.029	5277
837.167	5227
837.305	5162
837.443	5166
837.58	5124
837.718	5250
837.856	5197
837.993	5193
838.131	5296
838.269	5242
838.406	5185
838.544	5174
838.681	5018
838.819	5029
838.956	4904
839.094	4934
839.231	4999
839.369	5067
839.506	5471
839.643	5280
839.781	5079
839.918	5037
840.055	5086
840.193	5105
840.33	5140
840.467	5155
840.604	5166
840.742	5452
840.879	5170
841.016	5075
841.153	5162
841.29	5379
841.427	5379
841.564	5341
841.701	5280
841.838	5311
841.975	5220
842.112	5311
842.249	5181
842.385	5075
842.522	5376
842.659	5162
842.796	5216
842.933	5208
843.069	5162
843.206	5132
843.343	5345
843.479	5254
843.616	5242
843.752	5098
843.889	5048
844.025	5242
844.162	5014
844.298	5246
844.435	5121
844.571	5029
844.708	5193
844.844	5292
844.98	5406
845.117	5322
845.253	5136
845.389	5094
845.525	5193
845.661	5174
845.798	4999
845.934	5189
846.07	5037
846.206	5140
846.342	5318
846.478	5220
846.614	5018
846.75	4949
846.886	4965
847.022	5155
847.158	5060
847.294	5060
847.429	5124
847.565	5060
847.701	5322
847.837	4809
847.972	4797
848.108	4999
848.244	4972
848.379	4805
848.515	4763
848.65	4744
848.786	4774
848.921	4816
849.057	4858
849.192	4904
849.328	4824
849.463	4862
849.598	4774
849.734	4767
849.869	4706
850.004	4615
850.14	4618
850.275	4599
850.41	4546
850.545	4599
850.68	4634
850.815	4615
850.95	4630
851.085	4850
851.22	4748
851.355	4675
851.49	4599
851.625	4691
851.76	4660
851.895	4596
852.03	4596
852.165	4630
852.299	4778
852.434	4801
852.569	4816
852.703	4759
852.838	4843
852.973	4968
853.107	4972
853.242	4714
853.376	4691
853.511	4561
853.645	4660
853.78	4763
853.914	4710
854.048	4694
854.183	4675
854.317	4736
854.451	4828
854.585	4694
854.72	4675
854.854	4748
854.988	4664
855.122	4630
855.256	4478
855.39	4698
855.524	4831
855.658	4725
855.792	4725
855.926	4778
856.06	4778
856.194	4805
856.327	4714
856.461	4653
856.595	4664
856.729	4668
856.862	4782
856.996	4687
857.13	4706
857.263	4778
857.397	4774
857.53	4645
857.664	4733
857.797	4733
857.931	4778
858.064	4725
858.197	4740
858.331	4626
858.464	4645
858.597	4523
858.731	4672
858.864	4641
858.997	4634
859.13	4679
859.263	4683
859.396	4710
859.529	4618
859.662	4565
859.795	4584
859.928	4675
860.061	4767
860.194	4759
860.327	4615
860.46	4554
860.592	4736
860.725	4714
860.858	4744
860.99	4630
861.123	4546
861.256	4561
861.388	4626
861.521	5414
861.653	4470
861.786	4470
861.918	4497
862.05	4523
862.183	4626
862.315	4580
862.447	4694
862.58	4577
862.712	4398
862.844	4310
862.976	4508
863.108	4508
863.24	4896
863.372	4348
863.504	4421
863.636	4417
863.768	4519
863.9	4413
864.032	4367
864.164	4428
864.296	4489
864.428	4550
864.559	4542
864.691	4588
864.823	4561
864.954	4504
865.086	4516
865.217	4497
865.349	4489
865.48	4462
865.612	4523
865.743	4714
865.875	4474
866.006	4436
866.137	4428
866.269	4440
866.4	4470
866.531	4440
866.662	4398
866.793	4421
866.924	4466
867.055	4542
867.186	4466
867.317	4466
867.448	4371
867.579	4383
867.71	4383
867.841	4390
867.972	4440
868.103	4493
868.233	4485
868.364	4466
868.495	4497
868.625	4641
868.756	4790
868.886	4599
869.017	4603
869.147	4771
869.278	4767
869.408	4668
869.539	4653
869.669	4702
869.799	4637
869.929	4812
870.06	4733
870.19	4927
870.32	4949
870.45	4957
870.58	5037
870.71	5090
870.84	5109
870.97	4953
871.1	4919
871.23	5128
871.36	5075
871.489	5056
871.619	5086
871.749	5079
871.879	5155
872.008	5162
872.138	5067
872.267	5025
872.397	4820
872.526	4828
872.656	4714
872.785	4831
872.915	4968
873.044	5075
873.173	4949
873.303	4949
873.432	4946
873.561	4946
873.69	4870
873.819	4870
873.948	4911
874.077	4824
874.206	4771
874.335	4816
874.464	4911
874.593	5052
874.722	4946
874.851	5140
874.979	5060
875.108	5048
875.237	4927
875.365	4873
875.494	4881
875.623	4991
875.751	4854
875.88	4839
876.008	5006
876.136	5022
876.265	5166
876.393	5341
876.521	5296
876.65	5208
876.778	5239
876.906	5113
877.034	5071
877.162	5083
877.29	4987
877.418	5090
877.546	5105
877.674	5075
877.802	5060
877.93	5033
878.058	4957
878.185	4930
878.313	5033
878.441	5037
878.568	4793
878.696	4930
878.824	5029
878.951	5083
879.079	5189
879.206	5337
879.333	5162
879.461	5041
879.588	5029
879.715	5181
879.842	5273
879.97	5075
880.097	4873
880.224	4824
880.351	4873
880.478	4896
880.605	4854
880.732	4843
880.859	5136
880.986	4953
881.112	4942
881.239	4816
881.366	4740
881.493	4675
881.619	4710
881.746	4717
881.872	4729
881.999	4725
882.125	4778
882.252	4862
882.378	4896
882.505	5014
882.631	4847
882.757	4736
882.883	4812
883.01	4778
883.136	4767
883.262	4675
883.388	4672
883.514	4877
883.64	4930
883.766	4862
883.892	4733
884.018	4797
884.143	4892
884.269	5090
884.395	4721
884.52	4691
884.646	4725
884.772	4641
884.897	4611
885.023	4733
885.148	4801
885.274	4904
885.399	4949
885.524	4786
885.65	4782
885.775	4824
885.9	4793
886.025	4942
886.15	4866
886.275	4835
886.4	4717
886.525	4816
886.65	4714
886.775	4748
886.9	4957
887.025	5128
887.149	4850
887.274	4717
887.399	4664
887.523	4649
887.648	4679
887.773	4637
887.897	4839
888.021	4816
888.146	4668
888.27	4870
888.395	4980
888.519	4839
888.643	4828
888.767	4862
888.891	4786
889.015	4679
889.139	4733
889.263	4714
889.387	4824
889.511	4915
889.635	4839
889.759	4683
889.883	4767
890.006	4797
890.13	4870
890.254	4664
890.377	4774
890.501	4664
890.624	4603
890.748	4672
890.871	4561
890.995	4470
891.118	4443
891.241	4630
891.364	4607
891.488	4710
891.611	4538
891.734	4592
891.857	4645
891.98	4645
892.103	4710
892.226	4649
892.349	4561
892.471	4474
892.594	4615
892.717	4672
892.839	4622
892.962	4649
893.085	4767
893.207	4626
893.33	4504
893.452	4618
893.575	4702
893.697	4687
893.819	4797
893.941	4877
894.064	4824
894.186	4618
894.308	4592
894.43	4793
894.552	4870
894.674	4820
894.796	4668
894.918	4618
895.04	4615
895.161	4725
895.283	4733
895.405	4630
895.526	4645
895.648	4752
895.769	4694
895.891	4740
896.012	4786
896.134	4771
896.255	4755
896.376	4630
896.498	4702
896.619	4752
896.74	4664
896.861	4729
896.982	4968
897.103	5143
897.224	4889
897.345	4793
897.466	4733
897.587	4759
897.708	4923
897.828	4843
897.949	4691
898.07	4645
898.19	4683
898.311	4881
898.431	4702
898.552	4797
898.672	4870
898.792	4889
898.913	4793
899.033	4687
899.153	4573
899.273	4527
899.393	4542
899.513	4580
899.633	4531
899.753	4626
899.873	4573
899.993	4656
900.113	4569
900.232	4603
900.352	4641
900.472	4523
900.591	4459
900.711	4523
900.83	4478
900.95	4649
901.069	4729
901.189	4615
901.308	4447
901.427	4402
901.546	4413
901.665	4462
901.784	4577
901.904	4455
902.023	4390
902.141	4230
902.26	4207
902.379	4325
902.498	4272
902.617	4314
902.735	4424
902.854	4424
902.973	4432
903.091	4265
903.21	4303
903.328	4341
903.446	4314
903.565	4272
903.683	4402
903.801	4318
903.919	4462
904.038	4481
904.156	4360
904.274	4512
904.392	4470
904.51	4470
904.627	4512
904.745	4622
904.863	4694
904.981	4436
905.098	4352
905.216	4405
905.334	4424
905.451	4493
905.569	4451
905.686	4592
905.803	4634
905.921	4478
906.038	4577
906.155	4516
906.272	4470
906.389	4516
906.506	4371
906.623	4451
906.74	4466
906.857	4363
906.974	4394
907.091	4584
907.208	4748
907.324	4668
907.441	4580
907.557	4390
907.674	4398
907.79	4394
907.907	4451
908.023	4516
908.139	4504
908.256	4459
908.372	4558
908.488	4516
908.604	4402
908.72	4337
908.836	4455
908.952	4383
909.068	4500
909.184	4626
909.3	4542
909.415	4607
909.531	4546
909.647	4402
909.762	4398
909.878	4405
909.993	4485
910.108	4436
910.224	4481
910.339	4500
910.454	4440
910.57	4379
910.685	4329
910.8	4660
910.915	4679
911.03	4500
911.145	4344
911.259	4371
911.374	4451
911.489	4333
911.604	4360
911.718	4207
911.833	4234
911.947	4120
912.062	4074
912.176	4215
912.291	4246
912.405	4295
912.519	4523
912.633	4554
912.748	4417
912.862	4333
912.976	4306
913.09	4173
913.204	4219
913.318	4287
913.431	4413
913.545	4413
913.659	4489
913.772	4428
913.886	4322
914	4303
914.113	4424
914.226	4451
914.34	4436
914.453	4276
914.566	4459
914.68	4360
914.793	4375
914.906	4185
915.019	4211
915.132	4143
915.245	4223
915.358	4261
915.47	4314
915.583	4287
915.696	4371
915.809	4440
915.921	4500
916.034	4310
916.146	4272
916.259	4227
916.371	4375
916.483	4409
916.595	4337
916.708	4390
916.82	4375
916.932	4352
917.044	4409
917.156	4306
917.268	4284
917.38	4253
917.491	4341
917.603	4356
917.715	4474
917.826	4516
917.938	4424
918.049	4318
918.161	4413
918.272	4577
918.384	4542
918.495	4504
918.606	4322
918.717	4257
918.828	4394
918.939	4421
919.05	4322
919.161	4394
919.272	4169
919.383	4261
919.494	4481
919.604	4679
919.715	4500
919.826	4417
919.936	4447
920.047	4558
920.157	4538
920.267	4755
920.378	4618
920.488	4538
920.598	4740
920.708	4957
920.818	4797
920.928	4752
921.038	4999
921.148	4942
921.258	4687
921.368	4573
921.477	4527
921.587	4542
921.697	4402
921.806	4603
921.916	4500
922.025	4295
922.134	4291
922.244	4265
922.353	4386
922.462	4192
922.571	4204
922.68	4025
922.789	4010
922.898	4044
923.007	3987
923.116	4192
923.224	4120
923.333	4116
923.442	4048
923.55	4059
923.659	4055
923.767	4158
923.876	4067
923.984	4181
924.092	4032
924.201	4078
924.309	4158
924.417	4173
924.525	4048
924.633	4154
924.741	4942
924.849	3975
924.956	4196
925.064	4013
925.172	3972
925.279	3968
925.387	4093
925.494	4082
925.602	4230
925.709	4215
925.816	4078
925.924	4185
926.031	4261
926.138	4211
926.245	4280
926.352	4166
926.459	4268
926.566	4322
926.673	4196
926.779	4131
926.886	4124
926.993	4006
927.099	3991
927.206	3972
927.312	3964
927.419	4074
927.525	4044
927.631	4150
927.737	3960
927.843	3968
927.95	3865
928.056	4006
928.162	4036
928.267	4055
928.373	4664
928.479	4131
928.585	3888
928.69	4101
928.796	4185
928.901	4010
929.007	3899
929.112	4040
929.218	4036
929.323	3994
929.428	4010
929.533	4185
929.638	3937
929.743	4013
929.848	4101
929.953	4032
930.058	3998
930.163	3854
930.267	3857
930.372	4025
930.477	3869
930.581	4112
930.685	3941
930.79	3823
930.894	3907
930.998	3854
931.103	4074
931.207	3743
931.311	3755
931.415	3713
931.519	3519
931.623	3591
