Data from test_V78500241_1479.txt Node
Date: Fri Mar 25 16:59:17 CST 2022
User: usil
Spectrometer: V785-0024
Trigger mode: 0
Integration Time (sec): 4.000000E-1
Scans to average: 1
Nonlinearity correction enabled: false
Boxcar width: 0
Storing dark spectrum: false
XAxis mode: Wavelengths
Number of Pixels in Spectrum: 1024
>>>>>Begin Spectral Data<<<<<
801.071	7982
801.214	8016
801.356	7841
801.499	7803
801.641	7788
801.783	7860
801.926	7898
802.068	7967
802.211	7982
802.353	7932
802.496	7928
802.638	7917
802.78	7967
802.923	7947
803.065	7883
803.208	7833
803.35	7890
803.492	8012
803.635	8107
803.777	8046
803.919	8103
804.061	8434
804.204	8126
804.346	7993
804.488	8024
804.63	8073
804.773	8024
804.915	8062
805.057	8271
805.199	8218
805.341	8161
805.483	8305
805.626	8221
805.768	8138
805.91	8221
806.052	8218
806.194	8058
806.336	8233
806.478	8134
806.62	7986
806.762	8130
806.904	8286
807.046	8530
807.188	8415
807.33	8252
807.472	8279
807.614	8202
807.756	8119
807.898	7982
808.04	7898
808.182	7951
808.324	7921
808.465	7913
808.607	8123
808.749	8096
808.891	8187
809.033	8275
809.174	8218
809.316	7993
809.458	8062
809.6	7978
809.741	8111
809.883	8020
810.025	8103
810.166	8126
810.308	8024
810.45	7982
810.591	7909
810.733	7681
810.875	7624
811.016	7449
811.158	7533
811.299	7590
811.441	7693
811.582	7689
811.724	7605
811.865	7533
812.007	7537
812.148	7575
812.29	7662
812.431	7780
812.573	7845
812.714	7947
812.855	8126
812.997	8168
813.138	8282
813.279	8180
813.421	8058
813.562	7921
813.703	7864
813.845	7738
813.986	7369
814.127	7270
814.268	7175
814.41	7206
814.551	7129
814.692	7164
814.833	7088
814.974	7072
815.115	7088
815.256	6966
815.397	6932
815.539	6989
815.68	6856
815.821	6760
815.962	6833
816.103	6848
816.244	6696
816.385	6612
816.526	6574
816.666	6475
816.807	6285
816.948	6388
817.089	6456
817.23	6441
817.371	6372
817.512	6426
817.653	6380
817.793	6350
817.934	6384
818.075	6441
818.216	6437
818.356	6422
818.497	6247
818.638	6110
818.778	6178
818.919	6136
819.06	6133
819.2	6323
819.341	6369
819.481	6395
819.622	6521
819.762	6734
819.903	6700
820.043	6597
820.184	6555
820.324	6566
820.465	6623
820.605	6620
820.746	6635
820.886	6498
821.026	6639
821.167	6658
821.307	6783
821.447	6768
821.588	6669
821.728	6521
821.868	6521
822.008	6334
822.149	6334
822.289	6376
822.429	6136
822.569	6041
822.709	6117
822.849	5969
822.99	5908
823.13	5942
823.27	5920
823.41	5790
823.55	5783
823.69	5745
823.83	5832
823.97	5596
824.11	5497
824.25	5497
824.389	5554
824.529	5573
824.669	5501
824.809	5665
824.949	5630
825.089	5611
825.228	5532
825.368	5372
825.508	5322
825.648	5341
825.787	5334
825.927	5391
826.067	5288
826.206	5315
826.346	5353
826.485	5353
826.625	5406
826.765	5505
826.904	5478
827.044	5284
827.183	5208
827.323	5121
827.462	5284
827.601	5113
827.741	5147
827.88	5128
828.02	5067
828.159	5239
828.298	5242
828.437	5345
828.577	5273
828.716	5463
828.855	5315
828.994	5181
829.134	5143
829.273	5170
829.412	5113
829.551	5098
829.69	5124
829.829	5239
829.968	5360
830.107	5296
830.246	5269
830.385	5178
830.524	5140
830.663	5045
830.802	4946
830.941	4870
831.08	4908
831.219	4984
831.357	4934
831.496	5143
831.635	4873
831.774	4790
831.913	4873
832.051	4706
832.19	4721
832.329	4847
832.467	4687
832.606	4645
832.744	4668
832.883	4687
833.022	4664
833.16	4767
833.299	4828
833.437	4839
833.576	4843
833.714	4843
833.852	4870
833.991	4862
834.129	4991
834.267	4946
834.406	4911
834.544	4942
834.682	4995
834.821	4949
834.959	5128
835.097	4980
835.235	5117
835.373	5071
835.511	5124
835.65	4999
835.788	5037
835.926	4889
836.064	4816
836.202	4915
836.34	5170
836.478	5239
836.615	5143
836.753	5254
836.891	5277
837.029	5258
837.167	5162
837.305	5136
837.443	5132
837.58	5098
837.718	5227
837.856	5140
837.993	5102
838.131	5239
838.269	5220
838.406	5208
838.544	5121
838.681	5052
838.819	5010
838.956	4866
839.094	4930
839.231	4930
839.369	5056
839.506	5349
839.643	5269
839.781	5033
839.918	4976
840.055	5079
840.193	5060
840.33	5090
840.467	5094
840.604	5185
840.742	5421
840.879	5079
841.016	5067
841.153	5136
841.29	5341
841.427	5296
841.564	5330
841.701	5357
841.838	5288
841.975	5189
842.112	5227
842.249	5132
842.385	5094
842.522	5292
842.659	5185
842.796	5143
842.933	5185
843.069	5159
843.206	5147
843.343	5273
843.479	5242
843.616	5261
843.752	5003
843.889	4980
844.025	5208
844.162	5003
844.298	5201
844.435	5128
844.571	5045
844.708	5181
844.844	5227
844.98	5303
845.117	5307
845.253	5155
845.389	5037
845.525	5178
845.661	5147
845.798	4995
845.934	5124
846.07	5033
846.206	5151
846.342	5250
846.478	5151
846.614	5010
846.75	4942
846.886	4915
847.022	5124
847.158	5025
847.294	5052
847.429	5121
847.565	5090
847.701	5326
847.837	4862
847.972	4771
848.108	4911
848.244	4938
848.379	4801
848.515	4733
848.65	4698
848.786	4767
848.921	4797
849.057	4835
849.192	4923
849.328	4797
849.463	4847
849.598	4801
849.734	4729
849.869	4694
850.004	4577
850.14	4672
850.275	4607
850.41	4531
850.545	4512
850.68	4565
850.815	4550
850.95	4630
851.085	4843
851.22	4740
851.355	4664
851.49	4580
851.625	4611
851.76	4588
851.895	4466
852.03	4497
852.165	4637
852.299	4729
852.434	4793
852.569	4752
852.703	4748
852.838	4812
852.973	4911
853.107	4911
853.242	4736
853.376	4653
853.511	4531
853.645	4618
853.78	4793
853.914	4679
854.048	4656
854.183	4634
854.317	4710
854.451	4816
854.585	4683
854.72	4596
854.854	4759
854.988	4573
855.122	4649
855.256	4481
855.39	4645
855.524	4774
855.658	4733
855.792	4714
855.926	4740
856.06	4729
856.194	4748
856.327	4710
856.461	4573
856.595	4615
856.729	4580
856.862	4733
856.996	4725
857.13	4767
857.263	4752
857.397	4759
857.53	4668
857.664	4729
857.797	4755
857.931	4752
858.064	4691
858.197	4717
858.331	4637
858.464	4588
858.597	4519
858.731	4599
858.864	4637
858.997	4546
859.13	4615
859.263	4664
859.396	4649
859.529	4565
859.662	4550
859.795	4542
859.928	4599
860.061	4782
860.194	4763
860.327	4569
860.46	4573
860.592	4679
860.725	4736
860.858	4714
860.99	4573
861.123	4527
861.256	4527
861.388	4569
861.521	5410
861.653	4516
861.786	4455
861.918	4424
862.05	4523
862.183	4489
862.315	4584
862.447	4660
862.58	4573
862.712	4428
862.844	4329
862.976	4481
863.108	4405
863.24	4752
863.372	4318
863.504	4436
863.636	4394
863.768	4455
863.9	4424
864.032	4375
864.164	4367
864.296	4478
864.428	4558
864.559	4565
864.691	4497
864.823	4493
864.954	4535
865.086	4481
865.217	4451
865.349	4474
865.48	4481
865.612	4508
865.743	4561
865.875	4455
866.006	4424
866.137	4440
866.269	4428
866.4	4398
866.531	4436
866.662	4360
866.793	4371
866.924	4447
867.055	4516
867.186	4409
867.317	4417
867.448	4379
867.579	4363
867.71	4360
867.841	4329
867.972	4470
868.103	4485
868.233	4455
868.364	4398
868.495	4470
868.625	4679
868.756	4786
868.886	4558
869.017	4618
869.147	4740
869.278	4748
869.408	4641
869.539	4641
869.669	4729
869.799	4687
869.929	4771
870.06	4721
870.19	4942
870.32	4911
870.45	4953
870.58	5014
870.71	5098
870.84	5159
870.97	4953
871.1	4900
871.23	5102
871.36	5117
871.489	5003
871.619	5006
871.749	5079
871.879	5132
872.008	5212
872.138	5048
872.267	4965
872.397	4843
872.526	4801
872.656	4691
872.785	4824
872.915	4904
873.044	4999
873.173	4919
873.303	4919
873.432	4980
873.561	4976
873.69	4820
873.819	4892
873.948	4919
874.077	4816
874.206	4729
874.335	4744
874.464	4946
874.593	5064
874.722	4953
874.851	5056
874.979	5045
875.108	5045
875.237	4870
875.365	4900
875.494	4870
875.623	4946
875.751	4786
875.88	4889
876.008	4980
876.136	5029
876.265	5124
876.393	5349
876.521	5250
876.65	5185
876.778	5136
876.906	5045
877.034	4980
877.162	5064
877.29	4965
877.418	5022
877.546	5033
877.674	5022
877.802	5010
877.93	5022
878.058	4839
878.185	4835
878.313	4972
878.441	4915
878.568	4759
878.696	4881
878.824	4987
878.951	4946
879.079	5147
879.206	5265
879.333	5083
879.461	5029
879.588	4991
879.715	5162
879.842	5201
879.97	5037
880.097	4782
880.224	4664
880.351	4816
880.478	4805
880.605	4759
880.732	4721
880.859	5090
880.986	4915
881.112	4942
881.239	4774
881.366	4687
881.493	4607
881.619	4615
881.746	4637
881.872	4634
881.999	4649
882.125	4656
882.252	4812
882.378	4797
882.505	5003
882.631	4812
882.757	4653
882.883	4694
883.01	4679
883.136	4649
883.262	4588
883.388	4607
883.514	4828
883.64	4809
883.766	4831
883.892	4618
884.018	4744
884.143	4889
884.269	5003
884.395	4668
884.52	4641
884.646	4656
884.772	4554
884.897	4558
885.023	4645
885.148	4736
885.274	4824
885.399	4786
885.524	4675
885.65	4729
885.775	4725
885.9	4687
886.025	4843
886.15	4763
886.275	4740
886.4	4641
886.525	4721
886.65	4675
886.775	4679
886.9	4850
887.025	4995
887.149	4763
887.274	4672
887.399	4542
887.523	4584
887.648	4554
887.773	4630
887.897	4771
888.021	4755
888.146	4683
888.27	4805
888.395	4923
888.519	4755
888.643	4835
888.767	4850
888.891	4687
889.015	4603
889.139	4637
889.263	4584
889.387	4759
889.511	4843
889.635	4797
889.759	4599
889.883	4675
890.006	4698
890.13	4862
890.254	4569
890.377	4702
890.501	4535
890.624	4489
890.748	4618
890.871	4546
890.995	4398
891.118	4436
891.241	4478
891.364	4519
891.488	4603
891.611	4462
891.734	4519
891.857	4607
891.98	4546
892.103	4622
892.226	4527
892.349	4546
892.471	4409
892.594	4561
892.717	4546
892.839	4573
892.962	4603
893.085	4672
893.207	4607
893.33	4451
893.452	4504
893.575	4660
893.697	4535
893.819	4752
893.941	4809
894.064	4778
894.186	4565
894.308	4565
894.43	4675
894.552	4793
894.674	4740
894.796	4569
894.918	4558
895.04	4565
895.161	4664
895.283	4588
895.405	4550
895.526	4660
895.648	4691
895.769	4664
895.891	4698
896.012	4691
896.134	4687
896.255	4645
896.376	4634
896.498	4611
896.619	4660
896.74	4637
896.861	4645
896.982	4927
897.103	5048
897.224	4820
897.345	4763
897.466	4649
897.587	4687
897.708	4850
897.828	4771
897.949	4664
898.07	4573
898.19	4580
898.311	4782
898.431	4675
898.552	4702
898.672	4778
898.792	4820
898.913	4721
899.033	4596
899.153	4500
899.273	4390
899.393	4500
899.513	4504
899.633	4508
899.753	4516
899.873	4512
899.993	4573
900.113	4478
900.232	4577
900.352	4580
900.472	4527
900.591	4421
900.711	4466
900.83	4424
900.95	4626
901.069	4698
901.189	4558
901.308	4371
901.427	4344
901.546	4383
901.665	4485
901.784	4500
901.904	4379
902.023	4280
902.141	4120
902.26	4131
902.379	4295
902.498	4230
902.617	4211
902.735	4360
902.854	4379
902.973	4322
903.091	4177
903.21	4223
903.328	4280
903.446	4272
903.565	4268
903.683	4325
903.801	4295
903.919	4367
904.038	4447
904.156	4261
904.274	4405
904.392	4363
904.51	4466
904.627	4466
904.745	4542
904.863	4626
904.981	4379
905.098	4268
905.216	4371
905.334	4383
905.451	4398
905.569	4409
905.686	4561
905.803	4561
905.921	4443
906.038	4561
906.155	4470
906.272	4367
906.389	4481
906.506	4299
906.623	4371
906.74	4417
906.857	4310
906.974	4383
907.091	4546
907.208	4672
907.324	4573
907.441	4466
907.557	4344
907.674	4356
907.79	4303
907.907	4363
908.023	4451
908.139	4424
908.256	4405
908.372	4508
908.488	4447
908.604	4322
908.72	4367
908.836	4402
908.952	4436
909.068	4360
909.184	4523
909.3	4436
909.415	4550
909.531	4550
909.647	4310
909.762	4329
909.878	4318
909.993	4443
910.108	4394
910.224	4421
910.339	4466
910.454	4398
910.57	4348
910.685	4322
910.8	4580
910.915	4577
911.03	4485
911.145	4306
911.259	4333
911.374	4363
911.489	4291
911.604	4242
911.718	4124
911.833	4158
911.947	4044
912.062	4055
912.176	4230
912.291	4242
912.405	4249
912.519	4421
912.633	4504
912.748	4367
912.862	4265
912.976	4173
913.09	4071
913.204	4154
913.318	4185
913.431	4344
913.545	4356
913.659	4443
913.772	4405
913.886	4215
914	4219
914.113	4379
914.226	4428
914.34	4360
914.453	4238
914.566	4424
914.68	4284
914.793	4310
914.906	4128
915.019	4131
915.132	4025
915.245	4154
915.358	4196
915.47	4207
915.583	4265
915.696	4287
915.809	4344
915.921	4436
916.034	4246
916.146	4215
916.259	4200
916.371	4363
916.483	4337
916.595	4215
916.708	4322
916.82	4303
916.932	4363
917.044	4322
917.156	4325
917.268	4261
917.38	4265
917.491	4219
917.603	4295
917.715	4421
917.826	4424
917.938	4337
918.049	4261
918.161	4386
918.272	4573
918.384	4512
918.495	4470
918.606	4314
918.717	4204
918.828	4333
918.939	4367
919.05	4265
919.161	4325
919.272	4116
919.383	4227
919.494	4398
919.604	4603
919.715	4417
919.826	4367
919.936	4386
920.047	4527
920.157	4478
920.267	4706
920.378	4500
920.488	4474
920.598	4691
920.708	4881
920.818	4752
920.928	4721
921.038	4889
921.148	4873
921.258	4668
921.368	4580
921.477	4443
921.587	4417
921.697	4363
921.806	4519
921.916	4390
922.025	4295
922.134	4246
922.244	4215
922.353	4360
922.462	4154
922.571	4131
922.68	4029
922.789	4017
922.898	4032
923.007	3972
923.116	4063
923.224	4109
923.333	4067
923.442	3987
923.55	3956
923.659	4032
923.767	4101
923.876	4040
923.984	4147
924.092	3994
924.201	4090
924.309	4128
924.417	4166
924.525	4128
924.633	4147
924.741	5060
924.849	3941
924.956	4128
925.064	3953
925.172	3922
925.279	3941
925.387	4071
925.494	4071
925.602	4192
925.709	4207
925.816	4082
925.924	4177
926.031	4227
926.138	4234
926.245	4268
926.352	4128
926.459	4291
926.566	4322
926.673	4227
926.779	4078
926.886	4207
926.993	3975
927.099	3983
927.206	3903
927.312	4006
927.419	4097
927.525	4032
927.631	4147
927.737	4025
927.843	3987
927.95	3873
928.056	3983
928.162	4048
928.267	4147
928.373	4592
928.479	4139
928.585	3911
928.69	4032
928.796	4105
928.901	3998
929.007	3861
929.112	4059
929.218	3983
929.323	3941
929.428	3979
929.533	4112
929.638	3945
929.743	3983
929.848	4048
929.953	4055
930.058	3960
930.163	3797
930.267	3869
930.372	4029
930.477	3854
930.581	4135
930.685	3964
930.79	3869
930.894	3930
930.998	3930
931.103	4067
931.207	3770
931.311	3736
931.415	3732
931.519	3576
931.623	3584
