Data from test_V78500241_1900.txt Node
Date: Fri Mar 25 17:02:12 CST 2022
User: usil
Spectrometer: V785-0024
Trigger mode: 0
Integration Time (sec): 4.000000E-1
Scans to average: 1
Nonlinearity correction enabled: false
Boxcar width: 0
Storing dark spectrum: false
XAxis mode: Wavelengths
Number of Pixels in Spectrum: 1024
>>>>>Begin Spectral Data<<<<<
801.071	8016
801.214	7993
801.356	7856
801.499	7833
801.641	7803
801.783	7814
801.926	7982
802.068	7925
802.211	7974
802.353	8035
802.496	7928
802.638	7833
802.78	7963
802.923	7909
803.065	7947
803.208	7868
803.35	7898
803.492	8050
803.635	8111
803.777	8046
803.919	8092
804.061	8492
804.204	8161
804.346	8073
804.488	7989
804.63	8103
804.773	8012
804.915	8069
805.057	8301
805.199	8149
805.341	8229
805.483	8282
805.626	8195
805.768	8210
805.91	8225
806.052	8252
806.194	8065
806.336	8309
806.478	8123
806.62	8043
806.762	8069
806.904	8275
807.046	8438
807.188	8366
807.33	8313
807.472	8290
807.614	8164
807.756	8126
807.898	8024
808.04	7947
808.182	7890
808.324	7864
808.465	7925
808.607	8062
808.749	8046
808.891	8199
809.033	8271
809.174	8252
809.316	8031
809.458	8043
809.6	8077
809.741	7986
809.883	8054
810.025	8130
810.166	8005
810.308	8027
810.45	8020
810.591	7833
810.733	7769
810.875	7715
811.016	7514
811.158	7521
811.299	7533
811.441	7753
811.582	7655
811.724	7586
811.865	7529
812.007	7616
812.148	7628
812.29	7620
812.431	7738
812.573	7879
812.714	7970
812.855	8164
812.997	8161
813.138	8279
813.279	8221
813.421	8073
813.562	7970
813.703	7765
813.845	7734
813.986	7411
814.127	7259
814.268	7221
814.41	7213
814.551	7183
814.692	7240
814.833	7103
814.974	7168
815.115	7171
815.256	6977
815.397	6897
815.539	6894
815.68	6810
815.821	6772
815.962	6806
816.103	6787
816.244	6650
816.385	6582
816.526	6635
816.666	6540
816.807	6311
816.948	6403
817.089	6528
817.23	6407
817.371	6403
817.512	6410
817.653	6380
817.793	6327
817.934	6380
818.075	6422
818.216	6479
818.356	6471
818.497	6254
818.638	6026
818.778	6140
818.919	6194
819.06	6186
819.2	6353
819.341	6273
819.481	6323
819.622	6593
819.762	6738
819.903	6715
820.043	6570
820.184	6544
820.324	6601
820.465	6730
820.605	6722
820.746	6616
820.886	6566
821.026	6642
821.167	6700
821.307	6745
821.447	6779
821.588	6677
821.728	6677
821.868	6574
822.008	6292
822.149	6403
822.289	6308
822.429	6175
822.569	6121
822.709	6129
822.849	5893
822.99	5931
823.13	5901
823.27	5897
823.41	5794
823.55	5767
823.69	5760
823.83	5752
823.97	5642
824.11	5543
824.25	5501
824.389	5570
824.529	5562
824.669	5524
824.809	5649
824.949	5680
825.089	5665
825.228	5532
825.368	5341
825.508	5372
825.648	5364
825.787	5364
825.927	5376
826.067	5269
826.206	5273
826.346	5357
826.485	5455
826.625	5402
826.765	5577
826.904	5436
827.044	5250
827.183	5178
827.323	5128
827.462	5246
827.601	5132
827.741	5208
827.88	5185
828.02	5105
828.159	5212
828.298	5307
828.437	5345
828.577	5299
828.716	5493
828.855	5326
828.994	5227
829.134	5151
829.273	5166
829.412	5170
829.551	5090
829.69	5181
829.829	5288
829.968	5387
830.107	5307
830.246	5322
830.385	5178
830.524	5124
830.663	5029
830.802	4976
830.941	4908
831.08	4854
831.219	5022
831.357	4946
831.496	5136
831.635	4896
831.774	4870
831.913	4828
832.051	4698
832.19	4752
832.329	4858
832.467	4694
832.606	4660
832.744	4717
832.883	4656
833.022	4733
833.16	4767
833.299	4870
833.437	4809
833.576	4816
833.714	4763
833.852	4900
833.991	4873
834.129	4968
834.267	4919
834.406	4915
834.544	4953
834.682	4965
834.821	4938
834.959	5181
835.097	5006
835.235	5132
835.373	5025
835.511	5048
835.65	5048
835.788	4995
835.926	4866
836.064	4870
836.202	4896
836.34	5128
836.478	5193
836.615	5162
836.753	5239
836.891	5280
837.029	5250
837.167	5181
837.305	5197
837.443	5128
837.58	5094
837.718	5242
837.856	5197
837.993	5102
838.131	5201
838.269	5246
838.406	5227
838.544	5170
838.681	4976
838.819	4999
838.956	4949
839.094	4896
839.231	5006
839.369	5037
839.506	5429
839.643	5231
839.781	5105
839.918	5018
840.055	5102
840.193	5079
840.33	5079
840.467	5147
840.604	5128
840.742	5425
840.879	5102
841.016	5136
841.153	5140
841.29	5372
841.427	5315
841.564	5284
841.701	5292
841.838	5220
841.975	5254
842.112	5311
842.249	5162
842.385	5086
842.522	5357
842.659	5208
842.796	5136
842.933	5220
843.069	5086
843.206	5132
843.343	5277
843.479	5250
843.616	5239
843.752	5010
843.889	4995
844.025	5185
844.162	4995
844.298	5227
844.435	5067
844.571	5067
844.708	5166
844.844	5280
844.98	5337
845.117	5250
845.253	5155
845.389	5090
845.525	5170
845.661	5185
845.798	5014
845.934	5113
846.07	5014
846.206	5193
846.342	5277
846.478	5189
846.614	5041
846.75	4942
846.886	4892
847.022	5136
847.158	5033
847.294	5124
847.429	5048
847.565	5075
847.701	5349
847.837	4843
847.972	4816
848.108	4965
848.244	4919
848.379	4858
848.515	4774
848.65	4698
848.786	4740
848.921	4733
849.057	4908
849.192	4908
849.328	4790
849.463	4816
849.598	4755
849.734	4790
849.869	4653
850.004	4626
850.14	4626
850.275	4607
850.41	4558
850.545	4531
850.68	4580
850.815	4622
850.95	4656
851.085	4847
851.22	4721
851.355	4672
851.49	4672
851.625	4660
851.76	4637
851.895	4538
852.03	4561
852.165	4630
852.299	4748
852.434	4786
852.569	4729
852.703	4717
852.838	4812
852.973	4923
853.107	4923
853.242	4702
853.376	4668
853.511	4550
853.645	4645
853.78	4752
853.914	4634
854.048	4706
854.183	4634
854.317	4683
854.451	4843
854.585	4702
854.72	4607
854.854	4748
854.988	4611
855.122	4656
855.256	4546
855.39	4679
855.524	4797
855.658	4721
855.792	4675
855.926	4763
856.06	4752
856.194	4797
856.327	4702
856.461	4584
856.595	4599
856.729	4634
856.862	4755
856.996	4664
857.13	4675
857.263	4740
857.397	4774
857.53	4656
857.664	4691
857.797	4763
857.931	4805
858.064	4706
858.197	4755
858.331	4656
858.464	4550
858.597	4478
858.731	4596
858.864	4634
858.997	4565
859.13	4660
859.263	4634
859.396	4653
859.529	4580
859.662	4546
859.795	4558
859.928	4599
860.061	4748
860.194	4778
860.327	4615
860.46	4554
860.592	4729
860.725	4698
860.858	4691
860.99	4592
861.123	4516
861.256	4550
861.388	4656
861.521	5391
861.653	4493
861.786	4428
861.918	4455
862.05	4535
862.183	4561
862.315	4599
862.447	4664
862.58	4535
862.712	4383
862.844	4306
862.976	4470
863.108	4474
863.24	4752
863.372	4337
863.504	4413
863.636	4413
863.768	4447
863.9	4459
864.032	4352
864.164	4363
864.296	4478
864.428	4550
864.559	4512
864.691	4527
864.823	4493
864.954	4470
865.086	4462
865.217	4485
865.349	4390
865.48	4428
865.612	4478
865.743	4626
865.875	4489
866.006	4466
866.137	4497
866.269	4402
866.4	4440
866.531	4462
866.662	4383
866.793	4386
866.924	4394
867.055	4481
867.186	4466
867.317	4447
867.448	4341
867.579	4390
867.71	4424
867.841	4394
867.972	4455
868.103	4512
868.233	4398
868.364	4451
868.495	4527
868.625	4656
868.756	4740
868.886	4607
869.017	4622
869.147	4759
869.278	4710
869.408	4668
869.539	4615
869.669	4706
869.799	4626
869.929	4744
870.06	4736
870.19	4908
870.32	4896
870.45	4923
870.58	5033
870.71	5075
870.84	5094
870.97	4889
871.1	4847
871.23	5105
871.36	5140
871.489	4968
871.619	5064
871.749	5117
871.879	5166
872.008	5151
872.138	5052
872.267	5006
872.397	4862
872.526	4755
872.656	4729
872.785	4824
872.915	4961
873.044	5045
873.173	4923
873.303	4953
873.432	4953
873.561	4965
873.69	4843
873.819	4892
873.948	4904
874.077	4824
874.206	4771
874.335	4801
874.464	4934
874.593	5025
874.722	4930
874.851	5113
874.979	5090
875.108	5083
875.237	4904
875.365	4854
875.494	4870
875.623	4953
875.751	4820
875.88	4915
876.008	4930
876.136	4987
876.265	5155
876.393	5318
876.521	5250
876.65	5231
876.778	5109
876.906	5105
877.034	5010
877.162	5041
877.29	4972
877.418	5075
877.546	5083
877.674	5018
877.802	5003
877.93	5029
878.058	4923
878.185	4892
878.313	4976
878.441	4968
878.568	4801
878.696	4850
878.824	4976
878.951	4999
879.079	5121
879.206	5254
879.333	5117
879.461	4991
879.588	4995
879.715	5170
879.842	5235
879.97	5014
880.097	4790
880.224	4710
880.351	4790
880.478	4793
880.605	4782
880.732	4801
880.859	5083
880.986	4896
881.112	4923
881.239	4767
881.366	4645
881.493	4603
881.619	4558
881.746	4634
881.872	4672
881.999	4649
882.125	4698
882.252	4748
882.378	4839
882.505	4927
882.631	4824
882.757	4653
882.883	4748
883.01	4698
883.136	4649
883.262	4641
883.388	4596
883.514	4850
883.64	4862
883.766	4752
883.892	4725
884.018	4710
884.143	4858
884.269	5045
884.395	4702
884.52	4615
884.646	4626
884.772	4607
884.897	4550
885.023	4637
885.148	4767
885.274	4839
885.399	4752
885.524	4721
885.65	4740
885.775	4759
885.9	4714
886.025	4828
886.15	4733
886.275	4714
886.4	4687
886.525	4687
886.65	4641
886.775	4691
886.9	4934
887.025	5048
887.149	4782
887.274	4637
887.399	4599
887.523	4622
887.648	4561
887.773	4573
887.897	4755
888.021	4801
888.146	4683
888.27	4824
888.395	4896
888.519	4767
888.643	4828
888.767	4847
888.891	4660
889.015	4596
889.139	4634
889.263	4622
889.387	4717
889.511	4839
889.635	4778
889.759	4630
889.883	4645
890.006	4729
890.13	4862
890.254	4630
890.377	4691
890.501	4519
890.624	4504
890.748	4603
890.871	4538
890.995	4497
891.118	4371
891.241	4531
891.364	4584
891.488	4611
891.611	4470
891.734	4599
891.857	4596
891.98	4527
892.103	4618
892.226	4615
892.349	4493
892.471	4375
892.594	4592
892.717	4561
892.839	4558
892.962	4584
893.085	4660
893.207	4592
893.33	4447
893.452	4489
893.575	4679
893.697	4531
893.819	4786
893.941	4828
894.064	4759
894.186	4519
894.308	4535
894.43	4736
894.552	4812
894.674	4755
894.796	4550
894.918	4573
895.04	4607
895.161	4687
895.283	4694
895.405	4561
895.526	4626
895.648	4679
895.769	4748
895.891	4721
896.012	4679
896.134	4782
896.255	4656
896.376	4649
896.498	4607
896.619	4687
896.74	4611
896.861	4622
896.982	4881
897.103	5064
897.224	4828
897.345	4729
897.466	4683
897.587	4694
897.708	4870
897.828	4778
897.949	4694
898.07	4584
898.19	4664
898.311	4824
898.431	4698
898.552	4717
898.672	4790
898.792	4824
898.913	4755
899.033	4653
899.153	4508
899.273	4459
899.393	4462
899.513	4493
899.633	4493
899.753	4504
899.873	4474
899.993	4558
900.113	4516
900.232	4596
900.352	4516
900.472	4459
900.591	4394
900.711	4466
900.83	4417
900.95	4603
901.069	4675
901.189	4546
901.308	4337
901.427	4337
901.546	4337
901.665	4519
901.784	4508
901.904	4386
902.023	4383
902.141	4166
902.26	4158
902.379	4291
902.498	4261
902.617	4223
902.735	4310
902.854	4424
902.973	4348
903.091	4188
903.21	4227
903.328	4268
903.446	4291
903.565	4215
903.683	4318
903.801	4291
903.919	4390
904.038	4443
904.156	4310
904.274	4440
904.392	4405
904.51	4424
904.627	4523
904.745	4554
904.863	4611
904.981	4428
905.098	4318
905.216	4325
905.334	4390
905.451	4440
905.569	4462
905.686	4512
905.803	4588
905.921	4394
906.038	4580
906.155	4462
906.272	4379
906.389	4481
906.506	4322
906.623	4398
906.74	4383
906.857	4291
906.974	4371
907.091	4558
907.208	4717
907.324	4588
907.441	4558
907.557	4360
907.674	4383
907.79	4341
907.907	4394
908.023	4481
908.139	4508
908.256	4421
908.372	4481
908.488	4409
908.604	4341
908.72	4310
908.836	4413
908.952	4413
909.068	4402
909.184	4504
909.3	4466
909.415	4588
909.531	4531
909.647	4363
909.762	4375
909.878	4337
909.993	4451
910.108	4383
910.224	4440
910.339	4497
910.454	4360
910.57	4356
910.685	4333
910.8	4577
910.915	4542
911.03	4497
911.145	4333
911.259	4318
911.374	4329
911.489	4284
911.604	4295
911.718	4177
911.833	4200
911.947	4078
912.062	4021
912.176	4246
912.291	4265
912.405	4242
912.519	4466
912.633	4500
912.748	4344
912.862	4287
912.976	4173
913.09	4067
913.204	4166
913.318	4257
913.431	4375
913.545	4337
913.659	4447
913.772	4344
913.886	4230
914	4204
914.113	4398
914.226	4440
914.34	4386
914.453	4234
914.566	4386
914.68	4303
914.793	4348
914.906	4150
915.019	4169
915.132	4101
915.245	4185
915.358	4215
915.47	4246
915.583	4249
915.696	4295
915.809	4409
915.921	4421
916.034	4257
916.146	4246
916.259	4230
916.371	4398
916.483	4371
916.595	4249
916.708	4329
916.82	4333
916.932	4337
917.044	4310
917.156	4299
917.268	4219
917.38	4234
917.491	4230
917.603	4322
917.715	4386
917.826	4386
917.938	4325
918.049	4238
918.161	4402
918.272	4550
918.384	4531
918.495	4470
918.606	4299
918.717	4230
918.828	4341
918.939	4329
919.05	4253
919.161	4329
919.272	4192
919.383	4211
919.494	4447
919.604	4580
919.715	4436
919.826	4333
919.936	4421
920.047	4542
920.157	4489
920.267	4664
920.378	4577
920.488	4516
920.598	4656
920.708	4877
920.818	4748
920.928	4744
921.038	4927
921.148	4908
921.258	4573
921.368	4565
921.477	4478
921.587	4462
921.697	4405
921.806	4535
921.916	4432
922.025	4234
922.134	4284
922.244	4204
922.353	4314
922.462	4185
922.571	4147
922.68	3979
922.789	3956
922.898	3998
923.007	4013
923.116	4086
923.224	4051
923.333	4101
923.442	4006
923.55	3941
923.659	4051
923.767	4086
923.876	3998
923.984	4139
924.092	3956
924.201	4071
924.309	4051
924.417	4124
924.525	4032
924.633	4059
924.741	5045
924.849	3888
924.956	4139
925.064	3945
925.172	3907
925.279	3945
925.387	4036
925.494	4010
925.602	4219
925.709	4181
925.816	4101
925.924	4131
926.031	4207
926.138	4166
926.245	4158
926.352	4105
926.459	4276
926.566	4299
926.673	4147
926.779	4101
926.886	4078
926.993	4006
927.099	3945
927.206	3953
927.312	3926
927.419	4090
927.525	4006
927.631	4086
927.737	3979
927.843	3934
927.95	3854
928.056	3926
928.162	3953
928.267	4048
928.373	4577
928.479	4109
928.585	3896
928.69	4017
928.796	4021
928.901	4006
929.007	3835
929.112	4021
929.218	3956
929.323	3937
929.428	3911
929.533	4162
929.638	3869
929.743	3968
929.848	4002
929.953	3987
930.058	3896
930.163	3785
930.267	3816
930.372	3934
930.477	3816
930.581	4017
930.685	3956
930.79	3812
930.894	3896
930.998	3861
931.103	4044
931.207	3732
931.311	3679
931.415	3663
931.519	3492
931.623	3542
