Data from test_V78500241_2150.txt Node
Date: Fri Mar 25 17:03:57 CST 2022
User: usil
Spectrometer: V785-0024
Trigger mode: 0
Integration Time (sec): 4.000000E-1
Scans to average: 1
Nonlinearity correction enabled: false
Boxcar width: 0
Storing dark spectrum: false
XAxis mode: Wavelengths
Number of Pixels in Spectrum: 1024
>>>>>Begin Spectral Data<<<<<
801.071	7959
801.214	8001
801.356	7875
801.499	7902
801.641	7765
801.783	7814
801.926	7921
802.068	7852
802.211	7928
802.353	7993
802.496	7845
802.638	7811
802.78	7894
802.923	7898
803.065	7845
803.208	7864
803.35	7944
803.492	8062
803.635	8157
803.777	8107
803.919	8096
804.061	8423
804.204	8172
804.346	8073
804.488	7947
804.63	8043
804.773	8016
804.915	8050
805.057	8377
805.199	8168
805.341	8107
805.483	8221
805.626	8221
805.768	8149
805.91	8199
806.052	8229
806.194	8096
806.336	8267
806.478	8126
806.62	8058
806.762	8111
806.904	8244
807.046	8408
807.188	8358
807.33	8294
807.472	8252
807.614	8202
807.756	8149
807.898	7974
808.04	7925
808.182	7913
808.324	7864
808.465	7921
808.607	8092
808.749	8123
808.891	8195
809.033	8263
809.174	8233
809.316	8142
809.458	8058
809.6	8001
809.741	8054
809.883	8001
810.025	8130
810.166	8039
810.308	7993
810.45	7989
810.591	7879
810.733	7830
810.875	7708
811.016	7559
811.158	7434
811.299	7540
811.441	7712
811.582	7636
811.724	7518
811.865	7434
812.007	7624
812.148	7597
812.29	7594
812.431	7712
812.573	7860
812.714	8008
812.855	8100
812.997	8240
813.138	8256
813.279	8119
813.421	8077
813.562	7909
813.703	7833
813.845	7753
813.986	7419
814.127	7213
814.268	7228
814.41	7202
814.551	7129
814.692	7270
814.833	7088
814.974	7091
815.115	7076
815.256	7008
815.397	6932
815.539	6951
815.68	6783
815.821	6753
815.962	6859
816.103	6840
816.244	6741
816.385	6536
816.526	6635
816.666	6513
816.807	6327
816.948	6517
817.089	6464
817.23	6471
817.371	6334
817.512	6433
817.653	6380
817.793	6353
817.934	6388
818.075	6388
818.216	6441
818.356	6391
818.497	6273
818.638	6098
818.778	6148
818.919	6194
819.06	6190
819.2	6308
819.341	6315
819.481	6266
819.622	6502
819.762	6707
819.903	6707
820.043	6585
820.184	6574
820.324	6582
820.465	6711
820.605	6639
820.746	6608
820.886	6506
821.026	6646
821.167	6738
821.307	6779
821.447	6741
821.588	6688
821.728	6559
821.868	6456
822.008	6369
822.149	6315
822.289	6365
822.429	6152
822.569	6140
822.709	6095
822.849	5885
822.99	5874
823.13	5920
823.27	5908
823.41	5813
823.55	5817
823.69	5775
823.83	5771
823.97	5695
824.11	5532
824.25	5516
824.389	5520
824.529	5600
824.669	5512
824.809	5627
824.949	5672
825.089	5634
825.228	5535
825.368	5364
825.508	5311
825.648	5368
825.787	5357
825.927	5387
826.067	5345
826.206	5280
826.346	5410
826.485	5387
826.625	5406
826.765	5535
826.904	5520
827.044	5204
827.183	5201
827.323	5159
827.462	5254
827.601	5132
827.741	5189
827.88	5181
828.02	5083
828.159	5223
828.298	5269
828.437	5360
828.577	5288
828.716	5497
828.855	5334
828.994	5162
829.134	5162
829.273	5140
829.412	5132
829.551	5094
829.69	5181
829.829	5254
829.968	5353
830.107	5288
830.246	5235
830.385	5159
830.524	5162
830.663	5010
830.802	4946
830.941	4862
831.08	4919
831.219	4991
831.357	5010
831.496	5151
831.635	4877
831.774	4927
831.913	4831
832.051	4744
832.19	4755
832.329	4805
832.467	4744
832.606	4588
832.744	4717
832.883	4706
833.022	4763
833.16	4763
833.299	4820
833.437	4805
833.576	4850
833.714	4809
833.852	4816
833.991	4885
834.129	4938
834.267	4957
834.406	4942
834.544	4991
834.682	4976
834.821	5006
834.959	5117
835.097	4987
835.235	5143
835.373	5060
835.511	5109
835.65	5033
835.788	4999
835.926	4862
836.064	4927
836.202	4923
836.34	5140
836.478	5216
836.615	5113
836.753	5166
836.891	5269
837.029	5284
837.167	5143
837.305	5162
837.443	5140
837.58	5056
837.718	5258
837.856	5136
837.993	5151
838.131	5265
838.269	5231
838.406	5155
838.544	5181
838.681	5045
838.819	5014
838.956	4858
839.094	4896
839.231	4949
839.369	5060
839.506	5402
839.643	5258
839.781	5060
839.918	5037
840.055	5064
840.193	5041
840.33	5105
840.467	5136
840.604	5170
840.742	5421
840.879	5094
841.016	5105
841.153	5105
841.29	5364
841.427	5315
841.564	5322
841.701	5345
841.838	5250
841.975	5220
842.112	5254
842.249	5124
842.385	5094
842.522	5273
842.659	5159
842.796	5136
842.933	5162
843.069	5121
843.206	5109
843.343	5318
843.479	5220
843.616	5277
843.752	5033
843.889	5029
844.025	5242
844.162	4999
844.298	5189
844.435	5052
844.571	5045
844.708	5166
844.844	5315
844.98	5330
845.117	5326
845.253	5121
845.389	5083
845.525	5155
845.661	5121
845.798	5041
845.934	5155
846.07	5086
846.206	5181
846.342	5246
846.478	5181
846.614	5033
846.75	4995
846.886	4957
847.022	5094
847.158	5003
847.294	5064
847.429	5071
847.565	5102
847.701	5296
847.837	4839
847.972	4793
848.108	4934
848.244	4946
848.379	4778
848.515	4790
848.65	4672
848.786	4717
848.921	4748
849.057	4866
849.192	4961
849.328	4835
849.463	4843
849.598	4771
849.734	4694
849.869	4694
850.004	4691
850.14	4649
850.275	4641
850.41	4558
850.545	4565
850.68	4618
850.815	4535
850.95	4569
851.085	4828
851.22	4748
851.355	4653
851.49	4637
851.625	4599
851.76	4630
851.895	4588
852.03	4531
852.165	4637
852.299	4698
852.434	4801
852.569	4771
852.703	4839
852.838	4793
852.973	4942
853.107	4889
853.242	4729
853.376	4664
853.511	4538
853.645	4660
853.78	4759
853.914	4679
854.048	4710
854.183	4645
854.317	4660
854.451	4847
854.585	4668
854.72	4603
854.854	4763
854.988	4554
855.122	4603
855.256	4516
855.39	4599
855.524	4763
855.658	4683
855.792	4683
855.926	4698
856.06	4752
856.194	4767
856.327	4660
856.461	4603
856.595	4599
856.729	4577
856.862	4698
856.996	4721
857.13	4691
857.263	4748
857.397	4767
857.53	4687
857.664	4691
857.797	4755
857.931	4752
858.064	4714
858.197	4744
858.331	4637
858.464	4592
858.597	4523
858.731	4630
858.864	4694
858.997	4569
859.13	4702
859.263	4694
859.396	4691
859.529	4561
859.662	4558
859.795	4577
859.928	4599
860.061	4744
860.194	4748
860.327	4573
860.46	4573
860.592	4733
860.725	4694
860.858	4733
860.99	4546
861.123	4485
861.256	4569
861.388	4603
861.521	5429
861.653	4519
861.786	4474
861.918	4481
862.05	4527
862.183	4504
862.315	4550
862.447	4679
862.58	4519
862.712	4443
862.844	4337
862.976	4481
863.108	4459
863.24	4793
863.372	4318
863.504	4424
863.636	4417
863.768	4470
863.9	4497
864.032	4386
864.164	4402
864.296	4466
864.428	4565
864.559	4584
864.691	4497
864.823	4554
864.954	4504
865.086	4497
865.217	4428
865.349	4440
865.48	4485
865.612	4481
865.743	4634
865.875	4497
866.006	4413
866.137	4424
866.269	4432
866.4	4413
866.531	4443
866.662	4375
866.793	4402
866.924	4447
867.055	4523
867.186	4405
867.317	4432
867.448	4356
867.579	4352
867.71	4367
867.841	4386
867.972	4478
868.103	4451
868.233	4417
868.364	4436
868.495	4481
868.625	4645
868.756	4786
868.886	4531
869.017	4645
869.147	4793
869.278	4763
869.408	4618
869.539	4622
869.669	4675
869.799	4641
869.929	4725
870.06	4744
870.19	4987
870.32	4885
870.45	4923
870.58	4987
870.71	5060
870.84	5090
870.97	4942
871.1	4870
871.23	5117
871.36	5109
871.489	5018
871.619	5014
871.749	5079
871.879	5136
872.008	5162
872.138	5052
872.267	5022
872.397	4805
872.526	4782
872.656	4706
872.785	4801
872.915	5014
873.044	4984
873.173	4942
873.303	4938
873.432	4908
873.561	4968
873.69	4889
873.819	4805
873.948	4873
874.077	4858
874.206	4771
874.335	4843
874.464	4904
874.593	5056
874.722	4980
874.851	5067
874.979	5071
875.108	5006
875.237	4915
875.365	4870
875.494	4900
875.623	4976
875.751	4824
875.88	4835
876.008	4991
876.136	5048
876.265	5204
876.393	5349
876.521	5201
876.65	5220
876.778	5155
876.906	5037
877.034	5041
877.162	5022
877.29	4995
877.418	5029
877.546	5003
877.674	5018
877.802	5022
877.93	4965
878.058	4900
878.185	4908
878.313	4930
878.441	4946
878.568	4752
878.696	4915
878.824	4949
878.951	4987
879.079	5136
879.206	5296
879.333	5113
879.461	5018
879.588	4999
879.715	5109
879.842	5242
879.97	4995
880.097	4767
880.224	4691
880.351	4801
880.478	4866
880.605	4824
880.732	4797
880.859	5064
880.986	4919
881.112	4923
881.239	4740
881.366	4656
881.493	4615
881.619	4588
881.746	4611
881.872	4626
881.999	4660
882.125	4668
882.252	4831
882.378	4763
882.505	4953
882.631	4812
882.757	4736
882.883	4698
883.01	4748
883.136	4649
883.262	4573
883.388	4656
883.514	4847
883.64	4847
883.766	4763
883.892	4691
884.018	4733
884.143	4870
884.269	5006
884.395	4637
884.52	4630
884.646	4599
884.772	4630
884.897	4542
885.023	4645
885.148	4717
885.274	4835
885.399	4786
885.524	4698
885.65	4694
885.775	4771
885.9	4702
886.025	4850
886.15	4752
886.275	4717
886.4	4645
886.525	4721
886.65	4683
886.775	4637
886.9	4892
887.025	5037
887.149	4843
887.274	4660
887.399	4546
887.523	4508
887.648	4558
887.773	4538
887.897	4702
888.021	4793
888.146	4687
888.27	4843
888.395	4942
888.519	4835
888.643	4824
888.767	4809
888.891	4645
889.015	4580
889.139	4656
889.263	4577
889.387	4755
889.511	4820
889.635	4774
889.759	4630
889.883	4634
890.006	4729
890.13	4801
890.254	4615
890.377	4706
890.501	4569
890.624	4504
890.748	4656
890.871	4466
890.995	4440
891.118	4405
891.241	4508
891.364	4558
891.488	4611
891.611	4474
891.734	4542
891.857	4607
891.98	4523
892.103	4683
892.226	4634
892.349	4512
892.471	4421
892.594	4550
892.717	4588
892.839	4558
892.962	4569
893.085	4668
893.207	4603
893.33	4455
893.452	4573
893.575	4653
893.697	4596
893.819	4809
893.941	4824
894.064	4790
894.186	4538
894.308	4558
894.43	4755
894.552	4862
894.674	4710
894.796	4531
894.918	4596
895.04	4584
895.161	4714
895.283	4687
895.405	4580
895.526	4672
895.648	4691
895.769	4672
895.891	4706
896.012	4759
896.134	4687
896.255	4717
896.376	4649
896.498	4599
896.619	4691
896.74	4630
896.861	4649
896.982	4927
897.103	5025
897.224	4850
897.345	4733
897.466	4615
897.587	4740
897.708	4816
897.828	4809
897.949	4714
898.07	4630
898.19	4630
898.311	4866
898.431	4675
898.552	4755
898.672	4820
898.792	4778
898.913	4729
899.033	4653
899.153	4489
899.273	4402
899.393	4493
899.513	4500
899.633	4523
899.753	4527
899.873	4535
899.993	4580
900.113	4558
900.232	4580
900.352	4584
900.472	4531
900.591	4421
900.711	4497
900.83	4470
900.95	4565
901.069	4656
901.189	4542
901.308	4383
901.427	4276
901.546	4352
901.665	4447
901.784	4481
901.904	4318
902.023	4337
902.141	4120
902.26	4116
902.379	4291
902.498	4257
902.617	4223
902.735	4333
902.854	4421
902.973	4363
903.091	4188
903.21	4177
903.328	4291
903.446	4223
903.565	4234
903.683	4329
903.801	4280
903.919	4318
904.038	4421
904.156	4303
904.274	4440
904.392	4379
904.51	4405
904.627	4459
904.745	4561
904.863	4637
904.981	4390
905.098	4314
905.216	4360
905.334	4402
905.451	4447
905.569	4459
905.686	4523
905.803	4577
905.921	4424
906.038	4554
906.155	4455
906.272	4424
906.389	4478
906.506	4371
906.623	4424
906.74	4379
906.857	4318
906.974	4413
907.091	4565
907.208	4645
907.324	4611
907.441	4493
907.557	4337
907.674	4341
907.79	4303
907.907	4325
908.023	4500
908.139	4470
908.256	4421
908.372	4432
908.488	4432
908.604	4386
908.72	4265
908.836	4371
908.952	4375
909.068	4424
909.184	4611
909.3	4493
909.415	4588
909.531	4493
909.647	4379
909.762	4405
909.878	4333
909.993	4367
910.108	4367
910.224	4398
910.339	4436
910.454	4428
910.57	4367
910.685	4322
910.8	4637
910.915	4573
911.03	4455
911.145	4333
911.259	4344
911.374	4398
911.489	4306
911.604	4299
911.718	4158
911.833	4196
911.947	4055
912.062	4025
912.176	4181
912.291	4204
912.405	4234
912.519	4474
912.633	4512
912.748	4386
912.862	4322
912.976	4188
913.09	4093
913.204	4196
913.318	4211
913.431	4329
913.545	4356
913.659	4470
913.772	4363
913.886	4238
914	4238
914.113	4375
914.226	4398
914.34	4367
914.453	4261
914.566	4394
914.68	4333
914.793	4287
914.906	4143
915.019	4086
915.132	4105
915.245	4169
915.358	4234
915.47	4257
915.583	4238
915.696	4287
915.809	4398
915.921	4386
916.034	4261
916.146	4253
916.259	4227
916.371	4356
916.483	4348
916.595	4234
916.708	4280
916.82	4303
916.932	4318
917.044	4291
917.156	4303
917.268	4227
917.38	4325
917.491	4310
917.603	4348
917.715	4409
917.826	4413
917.938	4329
918.049	4227
918.161	4394
918.272	4523
918.384	4527
918.495	4413
918.606	4329
918.717	4253
918.828	4318
918.939	4329
919.05	4276
919.161	4299
919.272	4147
919.383	4200
919.494	4390
919.604	4679
919.715	4443
919.826	4295
919.936	4402
920.047	4565
920.157	4474
920.267	4687
920.378	4535
920.488	4455
920.598	4717
920.708	4820
920.818	4748
920.928	4717
921.038	4984
921.148	4915
921.258	4637
921.368	4573
921.477	4500
921.587	4432
921.697	4363
921.806	4523
921.916	4440
922.025	4314
922.134	4280
922.244	4204
922.353	4341
922.462	4177
922.571	4120
922.68	3994
922.789	3922
922.898	4036
923.007	3972
923.116	4097
923.224	4071
923.333	4063
923.442	4010
923.55	3983
923.659	4017
923.767	4116
923.876	3994
923.984	4116
924.092	3983
924.201	4105
924.309	4082
924.417	4090
924.525	4036
924.633	4067
924.741	5060
924.849	3949
924.956	4120
925.064	3930
925.172	3918
925.279	3975
925.387	4051
925.494	4029
925.602	4169
925.709	4196
925.816	4036
925.924	4112
926.031	4249
926.138	4147
926.245	4169
926.352	4063
926.459	4249
926.566	4287
926.673	4162
926.779	4048
926.886	4067
926.993	3983
927.099	3915
927.206	3930
927.312	3926
927.419	4059
927.525	3994
927.631	4078
927.737	3979
927.843	3975
927.95	3835
928.056	3907
928.162	3975
928.267	4048
928.373	4702
928.479	4135
928.585	3880
928.69	4017
928.796	4051
928.901	3960
929.007	3850
929.112	3945
929.218	3972
929.323	3953
929.428	3968
929.533	4109
929.638	3899
929.743	3953
929.848	4025
929.953	3983
930.058	3960
930.163	3778
930.267	3846
930.372	4006
930.477	3789
930.581	4063
930.685	3915
930.79	3816
930.894	3861
930.998	3842
931.103	4067
931.207	3736
931.311	3663
931.415	3656
931.519	3534
931.623	3553
