Data from test_V78500241_979.txt Node
Date: Fri Mar 25 16:55:48 CST 2022
User: usil
Spectrometer: V785-0024
Trigger mode: 0
Integration Time (sec): 4.000000E-1
Scans to average: 1
Nonlinearity correction enabled: false
Boxcar width: 0
Storing dark spectrum: false
XAxis mode: Wavelengths
Number of Pixels in Spectrum: 1024
>>>>>Begin Spectral Data<<<<<
801.071	8031
801.214	8054
801.356	7974
801.499	7871
801.641	7788
801.783	7875
801.926	7944
802.068	7989
802.211	7959
802.353	7955
802.496	7788
802.638	7822
802.78	7864
802.923	7894
803.065	7833
803.208	7947
803.35	7978
803.492	8100
803.635	8149
803.777	8020
803.919	8126
804.061	8408
804.204	8126
804.346	8016
804.488	7967
804.63	8069
804.773	8035
804.915	8187
805.057	8252
805.199	8195
805.341	8191
805.483	8275
805.626	8252
805.768	8119
805.91	8225
806.052	8221
806.194	8092
806.336	8282
806.478	8084
806.62	8081
806.762	8096
806.904	8221
807.046	8412
807.188	8282
807.33	8256
807.472	8339
807.614	8126
807.756	8149
807.898	8035
808.04	7928
808.182	7871
808.324	7875
808.465	7871
808.607	8069
808.749	8126
808.891	8202
809.033	8290
809.174	8221
809.316	8149
809.458	8081
809.6	7951
809.741	8081
809.883	8008
810.025	8081
810.166	8035
810.308	7989
810.45	8069
810.591	7887
810.733	7772
810.875	7696
811.016	7537
811.158	7434
811.299	7613
811.441	7639
811.582	7651
811.724	7594
811.865	7476
812.007	7556
812.148	7586
812.29	7586
812.431	7765
812.573	7871
812.714	8027
812.855	8084
812.997	8142
813.138	8336
813.279	8157
813.421	8092
813.562	8043
813.703	7894
813.845	7765
813.986	7426
814.127	7285
814.268	7175
814.41	7141
814.551	7122
814.692	7126
814.833	7069
814.974	7084
815.115	7103
815.256	6932
815.397	6890
815.539	6951
815.68	6829
815.821	6760
815.962	6897
816.103	6829
816.244	6707
816.385	6677
816.526	6654
816.666	6494
816.807	6277
816.948	6445
817.089	6467
817.23	6471
817.371	6422
817.512	6372
817.653	6380
817.793	6338
817.934	6426
818.075	6353
818.216	6418
818.356	6422
818.497	6262
818.638	6019
818.778	6159
818.919	6201
819.06	6171
819.2	6285
819.341	6277
819.481	6296
819.622	6570
819.762	6726
819.903	6692
820.043	6593
820.184	6582
820.324	6597
820.465	6722
820.605	6669
820.746	6673
820.886	6464
821.026	6711
821.167	6669
821.307	6833
821.447	6738
821.588	6692
821.728	6525
821.868	6456
822.008	6334
822.149	6407
822.289	6331
822.429	6117
822.569	6049
822.709	6136
822.849	5878
822.99	5927
823.13	5954
823.27	5920
823.41	5752
823.55	5817
823.69	5756
823.83	5756
823.97	5722
824.11	5551
824.25	5528
824.389	5604
824.529	5585
824.669	5501
824.809	5638
824.949	5657
825.089	5623
825.228	5566
825.368	5368
825.508	5337
825.648	5322
825.787	5383
825.927	5372
826.067	5307
826.206	5318
826.346	5402
826.485	5368
826.625	5444
826.765	5543
826.904	5467
827.044	5269
827.183	5201
827.323	5105
827.462	5261
827.601	5162
827.741	5223
827.88	5166
828.02	5132
828.159	5265
828.298	5254
828.437	5307
828.577	5265
828.716	5490
828.855	5299
828.994	5162
829.134	5151
829.273	5155
829.412	5071
829.551	5098
829.69	5185
829.829	5239
829.968	5360
830.107	5254
830.246	5299
830.385	5170
830.524	5140
830.663	5113
830.802	4953
830.941	4862
831.08	4831
831.219	4953
831.357	5003
831.496	5147
831.635	4877
831.774	4858
831.913	4828
832.051	4725
832.19	4691
832.329	4873
832.467	4679
832.606	4634
832.744	4698
832.883	4736
833.022	4683
833.16	4778
833.299	4782
833.437	4797
833.576	4866
833.714	4900
833.852	4854
833.991	4915
834.129	4968
834.267	4984
834.406	4904
834.544	4930
834.682	4968
834.821	4953
834.959	5143
835.097	5033
835.235	5102
835.373	5052
835.511	5121
835.65	5067
835.788	4984
835.926	4942
836.064	4858
836.202	4908
836.34	5143
836.478	5174
836.615	5124
836.753	5235
836.891	5296
837.029	5284
837.167	5147
837.305	5094
837.443	5098
837.58	5048
837.718	5265
837.856	5151
837.993	5113
838.131	5231
838.269	5140
838.406	5174
838.544	5147
838.681	5060
838.819	4987
838.956	4892
839.094	4915
839.231	4972
839.369	5140
839.506	5402
839.643	5307
839.781	5033
839.918	5014
840.055	5094
840.193	5079
840.33	5098
840.467	5159
840.604	5220
840.742	5410
840.879	5025
841.016	5083
841.153	5166
841.29	5330
841.427	5364
841.564	5284
841.701	5360
841.838	5296
841.975	5296
842.112	5250
842.249	5143
842.385	5105
842.522	5345
842.659	5117
842.796	5155
842.933	5178
843.069	5113
843.206	5083
843.343	5269
843.479	5231
843.616	5269
843.752	5022
843.889	5003
844.025	5189
844.162	4957
844.298	5197
844.435	5048
844.571	5048
844.708	5204
844.844	5303
844.98	5330
845.117	5246
845.253	5151
845.389	5064
845.525	5121
845.661	5185
845.798	5048
845.934	5140
846.07	5029
846.206	5170
846.342	5284
846.478	5170
846.614	4984
846.75	4980
846.886	4908
847.022	5124
847.158	5029
847.294	5048
847.429	5071
847.565	5018
847.701	5269
847.837	4850
847.972	4790
848.108	4930
848.244	4900
848.379	4767
848.515	4733
848.65	4801
848.786	4748
848.921	4736
849.057	4847
849.192	4889
849.328	4782
849.463	4831
849.598	4782
849.734	4771
849.869	4656
850.004	4668
850.14	4634
850.275	4569
850.41	4527
850.545	4558
850.68	4584
850.815	4592
850.95	4584
851.085	4843
851.22	4710
851.355	4691
851.49	4558
851.625	4592
851.76	4626
851.895	4535
852.03	4523
852.165	4630
852.299	4675
852.434	4774
852.569	4679
852.703	4744
852.838	4820
852.973	4904
853.107	4927
853.242	4721
853.376	4634
853.511	4577
853.645	4603
853.78	4831
853.914	4649
854.048	4637
854.183	4630
854.317	4675
854.451	4850
854.585	4664
854.72	4611
854.854	4733
854.988	4618
855.122	4683
855.256	4504
855.39	4668
855.524	4755
855.658	4725
855.792	4694
855.926	4717
856.06	4683
856.194	4801
856.327	4660
856.461	4569
856.595	4637
856.729	4611
856.862	4771
856.996	4668
857.13	4714
857.263	4771
857.397	4740
857.53	4649
857.664	4683
857.797	4729
857.931	4763
858.064	4683
858.197	4649
858.331	4649
858.464	4588
858.597	4500
858.731	4630
858.864	4660
858.997	4577
859.13	4645
859.263	4656
859.396	4645
859.529	4592
859.662	4516
859.795	4527
859.928	4599
860.061	4706
860.194	4729
860.327	4607
860.46	4615
860.592	4721
860.725	4717
860.858	4687
860.99	4531
861.123	4493
861.256	4531
861.388	4565
861.521	5235
861.653	4443
861.786	4417
861.918	4474
862.05	4493
862.183	4561
862.315	4596
862.447	4683
862.58	4546
862.712	4386
862.844	4367
862.976	4462
863.108	4451
863.24	4854
863.372	4291
863.504	4375
863.636	4386
863.768	4519
863.9	4455
864.032	4356
864.164	4409
864.296	4440
864.428	4489
864.559	4550
864.691	4516
864.823	4478
864.954	4474
865.086	4569
865.217	4405
865.349	4375
865.48	4428
865.612	4421
865.743	4569
865.875	4440
866.006	4436
866.137	4481
866.269	4417
866.4	4451
866.531	4375
866.662	4390
866.793	4379
866.924	4413
867.055	4497
867.186	4402
867.317	4428
867.448	4390
867.579	4383
867.71	4360
867.841	4383
867.972	4462
868.103	4493
868.233	4481
868.364	4436
868.495	4478
868.625	4618
868.756	4725
868.886	4542
869.017	4626
869.147	4748
869.278	4733
869.408	4615
869.539	4611
869.669	4672
869.799	4660
869.929	4721
870.06	4767
870.19	4930
870.32	4873
870.45	4908
870.58	4957
870.71	5121
870.84	5056
870.97	4900
871.1	4854
871.23	5090
871.36	5098
871.489	5037
871.619	5041
871.749	5102
871.879	5083
872.008	5143
872.138	5060
872.267	4987
872.397	4824
872.526	4790
872.656	4740
872.785	4797
872.915	4949
873.044	5067
873.173	4919
873.303	4881
873.432	4900
873.561	4949
873.69	4870
873.819	4892
873.948	4885
874.077	4774
874.206	4729
874.335	4774
874.464	4911
874.593	5064
874.722	4980
874.851	5075
874.979	5045
875.108	5022
875.237	4953
875.365	4843
875.494	4862
875.623	4953
875.751	4831
875.88	4885
876.008	5025
876.136	4980
876.265	5117
876.393	5322
876.521	5178
876.65	5174
876.778	5178
876.906	5033
877.034	4991
877.162	5033
877.29	4984
877.418	4987
877.546	5025
877.674	5048
877.802	4987
877.93	4995
878.058	4881
878.185	4831
878.313	4949
878.441	4923
878.568	4717
878.696	4824
878.824	4923
878.951	4995
879.079	5083
879.206	5261
879.333	5064
879.461	4972
879.588	4987
879.715	5121
879.842	5185
879.97	5029
880.097	4778
880.224	4759
880.351	4755
880.478	4774
880.605	4778
880.732	4748
880.859	5094
880.986	4835
881.112	4915
881.239	4733
881.366	4675
881.493	4607
881.619	4615
881.746	4675
881.872	4626
881.999	4622
882.125	4694
882.252	4736
882.378	4759
882.505	4965
882.631	4801
882.757	4660
882.883	4679
883.01	4698
883.136	4668
883.262	4611
883.388	4668
883.514	4790
883.64	4847
883.766	4816
883.892	4668
884.018	4694
884.143	4896
884.269	5022
884.395	4634
884.52	4599
884.646	4649
884.772	4596
884.897	4527
885.023	4645
885.148	4816
885.274	4870
885.399	4782
885.524	4729
885.65	4679
885.775	4744
885.9	4744
886.025	4873
886.15	4763
886.275	4721
886.4	4641
886.525	4702
886.65	4687
886.775	4668
886.9	4900
887.025	4965
887.149	4812
887.274	4626
887.399	4531
887.523	4607
887.648	4550
887.773	4592
887.897	4717
888.021	4771
888.146	4687
888.27	4820
888.395	4896
888.519	4759
888.643	4797
888.767	4831
888.891	4672
889.015	4607
889.139	4618
889.263	4653
889.387	4733
889.511	4831
889.635	4778
889.759	4656
889.883	4622
890.006	4694
890.13	4790
890.254	4599
890.377	4668
890.501	4527
890.624	4485
890.748	4641
890.871	4527
890.995	4398
891.118	4402
891.241	4519
891.364	4512
891.488	4641
891.611	4493
891.734	4565
891.857	4611
891.98	4535
892.103	4660
892.226	4527
892.349	4516
892.471	4409
892.594	4523
892.717	4599
892.839	4558
892.962	4577
893.085	4694
893.207	4592
893.33	4428
893.452	4527
893.575	4660
893.697	4592
893.819	4782
893.941	4835
894.064	4797
894.186	4569
894.308	4512
894.43	4714
894.552	4816
894.674	4744
894.796	4596
894.918	4626
895.04	4519
895.161	4725
895.283	4664
895.405	4573
895.526	4618
895.648	4653
895.769	4683
895.891	4694
896.012	4740
896.134	4702
896.255	4687
896.376	4607
896.498	4660
896.619	4714
896.74	4592
896.861	4649
896.982	4946
897.103	5090
897.224	4828
897.345	4752
897.466	4656
897.587	4698
897.708	4824
897.828	4805
897.949	4675
898.07	4622
898.19	4660
898.311	4824
898.431	4653
898.552	4744
898.672	4790
898.792	4816
898.913	4694
899.033	4622
899.153	4493
899.273	4417
899.393	4440
899.513	4542
899.633	4565
899.753	4512
899.873	4462
899.993	4569
900.113	4538
900.232	4584
900.352	4538
900.472	4478
900.591	4383
900.711	4481
900.83	4451
900.95	4630
901.069	4698
901.189	4512
901.308	4379
901.427	4348
901.546	4375
901.665	4474
901.784	4451
901.904	4379
902.023	4322
902.141	4154
902.26	4162
902.379	4280
902.498	4215
902.617	4200
902.735	4352
902.854	4383
902.973	4337
903.091	4223
903.21	4200
903.328	4287
903.446	4272
903.565	4192
903.683	4341
903.801	4280
903.919	4363
904.038	4398
904.156	4280
904.274	4417
904.392	4386
904.51	4417
904.627	4466
904.745	4554
904.863	4622
904.981	4352
905.098	4303
905.216	4356
905.334	4402
905.451	4375
905.569	4409
905.686	4538
905.803	4481
905.921	4417
906.038	4573
906.155	4413
906.272	4409
906.389	4466
906.506	4329
906.623	4390
906.74	4405
906.857	4306
906.974	4367
907.091	4607
907.208	4618
907.324	4577
907.441	4459
907.557	4295
907.674	4352
907.79	4299
907.907	4367
908.023	4455
908.139	4489
908.256	4390
908.372	4459
908.488	4436
908.604	4356
908.72	4325
908.836	4371
908.952	4344
909.068	4409
909.184	4561
909.3	4443
909.415	4584
909.531	4554
909.647	4329
909.762	4367
909.878	4310
909.993	4421
910.108	4428
910.224	4424
910.339	4508
910.454	4379
910.57	4333
910.685	4238
910.8	4634
910.915	4634
911.03	4500
911.145	4299
911.259	4367
911.374	4390
911.489	4337
911.604	4291
911.718	4154
911.833	4181
911.947	4055
912.062	4040
912.176	4188
912.291	4234
912.405	4253
912.519	4459
912.633	4459
912.748	4383
912.862	4314
912.976	4227
913.09	4032
913.204	4223
913.318	4284
913.431	4360
913.545	4360
913.659	4500
913.772	4344
913.886	4268
914	4230
914.113	4379
914.226	4432
914.34	4386
914.453	4257
914.566	4409
914.68	4284
914.793	4303
914.906	4124
915.019	4143
915.132	4059
915.245	4181
915.358	4192
915.47	4246
915.583	4280
915.696	4287
915.809	4390
915.921	4428
916.034	4219
916.146	4280
916.259	4196
916.371	4360
916.483	4371
916.595	4234
916.708	4276
916.82	4352
916.932	4318
917.044	4333
917.156	4306
917.268	4246
917.38	4333
917.491	4249
917.603	4318
917.715	4344
917.826	4390
917.938	4363
918.049	4242
918.161	4379
918.272	4565
918.384	4531
918.495	4436
918.606	4329
918.717	4219
918.828	4318
918.939	4348
919.05	4242
919.161	4306
919.272	4135
919.383	4185
919.494	4447
919.604	4702
919.715	4451
919.826	4341
919.936	4348
920.047	4580
920.157	4519
920.267	4691
920.378	4527
920.488	4508
920.598	4714
920.708	4866
920.818	4744
920.928	4694
921.038	4946
921.148	4885
921.258	4615
921.368	4573
921.477	4512
921.587	4451
921.697	4333
921.806	4546
921.916	4428
922.025	4249
922.134	4246
922.244	4211
922.353	4344
922.462	4143
922.571	4120
922.68	4036
922.789	3960
922.898	4059
923.007	4002
923.116	4093
923.224	4090
923.333	4090
923.442	3979
923.55	3937
923.659	4067
923.767	4128
923.876	3994
923.984	4139
924.092	3956
924.201	4086
924.309	4059
924.417	4139
924.525	4025
924.633	4105
924.741	5079
924.849	3896
924.956	4109
925.064	3945
925.172	3876
925.279	3979
925.387	4078
925.494	4002
925.602	4207
925.709	4173
925.816	4025
925.924	4131
926.031	4166
926.138	4162
926.245	4215
926.352	4048
926.459	4246
926.566	4272
926.673	4150
926.779	4074
926.886	4059
926.993	3979
927.099	3968
927.206	3945
927.312	3945
927.419	4063
927.525	4029
927.631	4048
927.737	3937
927.843	3911
927.95	3835
928.056	3987
928.162	3975
928.267	4063
928.373	4668
928.479	4093
928.585	3842
928.69	3987
928.796	4044
928.901	3922
929.007	3835
929.112	3975
929.218	3964
929.323	3972
929.428	3945
929.533	4078
929.638	3915
929.743	3949
929.848	4017
929.953	3987
930.058	3918
930.163	3785
930.267	3823
930.372	3956
930.477	3793
930.581	4101
930.685	3953
930.79	3835
930.894	3857
930.998	3873
931.103	3987
931.207	3686
931.311	3679
931.415	3622
931.519	3519
931.623	3572
