Data from test_V78500241_236.txt Node
Date: Fri Mar 25 16:50:38 CST 2022
User: usil
Spectrometer: V785-0024
Trigger mode: 0
Integration Time (sec): 4.000000E-1
Scans to average: 1
Nonlinearity correction enabled: false
Boxcar width: 0
Storing dark spectrum: false
XAxis mode: Wavelengths
Number of Pixels in Spectrum: 1024
>>>>>Begin Spectral Data<<<<<
801.071	8058
801.214	7955
801.356	7868
801.499	7887
801.641	7753
801.783	7830
801.926	7970
802.068	7928
802.211	7982
802.353	8043
802.496	7837
802.638	7894
802.78	7921
802.923	7955
803.065	7860
803.208	7780
803.35	7913
803.492	8138
803.635	8123
803.777	7993
803.919	8077
804.061	8423
804.204	8111
804.346	7989
804.488	7993
804.63	8088
804.773	7978
804.915	8077
805.057	8157
805.199	8123
805.341	8180
805.483	8214
805.626	8187
805.768	8142
805.91	8126
806.052	8134
806.194	8077
806.336	8214
806.478	8077
806.62	8043
806.762	8077
806.904	8218
807.046	8393
807.188	8355
807.33	8305
807.472	8309
807.614	8050
807.756	8164
807.898	8054
808.04	7856
808.182	7925
808.324	7959
808.465	7890
808.607	8039
808.749	8142
808.891	8225
809.033	8377
809.174	8138
809.316	8031
809.458	8027
809.6	7982
809.741	7947
809.883	7959
810.025	8088
810.166	8031
810.308	7978
810.45	8001
810.591	7814
810.733	7799
810.875	7647
811.016	7468
811.158	7457
811.299	7601
811.441	7658
811.582	7628
811.724	7499
811.865	7449
812.007	7575
812.148	7613
812.29	7655
812.431	7765
812.573	7799
812.714	8001
812.855	8145
812.997	8153
813.138	8313
813.279	8164
813.421	8062
813.562	7989
813.703	7845
813.845	7750
813.986	7419
814.127	7244
814.268	7228
814.41	7213
814.551	7179
814.692	7160
814.833	7088
814.974	7110
815.115	7145
815.256	6973
815.397	6913
815.539	6985
815.68	6859
815.821	6738
815.962	6818
816.103	6791
816.244	6779
816.385	6593
816.526	6631
816.666	6570
816.807	6304
816.948	6441
817.089	6464
817.23	6403
817.371	6334
817.512	6403
817.653	6403
817.793	6315
817.934	6399
818.075	6369
818.216	6441
818.356	6369
818.497	6224
818.638	6133
818.778	6125
818.919	6121
819.06	6087
819.2	6281
819.341	6304
819.481	6369
819.622	6456
819.762	6715
819.903	6692
820.043	6582
820.184	6574
820.324	6555
820.465	6681
820.605	6658
820.746	6631
820.886	6479
821.026	6627
821.167	6688
821.307	6779
821.447	6768
821.588	6631
821.728	6521
821.868	6509
822.008	6304
822.149	6350
822.289	6380
822.429	6182
822.569	6068
822.709	6152
822.849	5920
822.99	5893
823.13	5901
823.27	5931
823.41	5764
823.55	5821
823.69	5790
823.83	5775
823.97	5630
824.11	5543
824.25	5471
824.389	5577
824.529	5566
824.669	5516
824.809	5592
824.949	5642
825.089	5619
825.228	5558
825.368	5444
825.508	5341
825.648	5360
825.787	5345
825.927	5364
826.067	5292
826.206	5269
826.346	5357
826.485	5444
826.625	5398
826.765	5547
826.904	5421
827.044	5322
827.183	5178
827.323	5132
827.462	5242
827.601	5136
827.741	5155
827.88	5204
828.02	5109
828.159	5254
828.298	5296
828.437	5379
828.577	5292
828.716	5482
828.855	5315
828.994	5181
829.134	5132
829.273	5181
829.412	5151
829.551	5162
829.69	5178
829.829	5220
829.968	5330
830.107	5265
830.246	5288
830.385	5212
830.524	5124
830.663	5109
830.802	4953
830.941	4885
831.08	4911
831.219	5003
831.357	4961
831.496	5185
831.635	4911
831.774	4824
831.913	4854
832.051	4721
832.19	4683
832.329	4873
832.467	4733
832.606	4626
832.744	4702
832.883	4774
833.022	4698
833.16	4778
833.299	4790
833.437	4812
833.576	4828
833.714	4835
833.852	4843
833.991	4927
834.129	4915
834.267	4957
834.406	4862
834.544	4965
834.682	4957
834.821	4972
834.959	5159
835.097	5022
835.235	5147
835.373	5037
835.511	5067
835.65	5029
835.788	5003
835.926	4862
836.064	4911
836.202	4930
836.34	5147
836.478	5250
836.615	5147
836.753	5147
836.891	5280
837.029	5223
837.167	5189
837.305	5185
837.443	5151
837.58	5067
837.718	5250
837.856	5197
837.993	5140
838.131	5170
838.269	5189
838.406	5242
838.544	5239
838.681	5029
838.819	5022
838.956	4870
839.094	4904
839.231	4961
839.369	5037
839.506	5398
839.643	5265
839.781	5067
839.918	5018
840.055	5098
840.193	5052
840.33	5090
840.467	5128
840.604	5166
840.742	5414
840.879	5052
841.016	5071
841.153	5128
841.29	5345
841.427	5318
841.564	5280
841.701	5349
841.838	5208
841.975	5197
842.112	5231
842.249	5128
842.385	5083
842.522	5334
842.659	5140
842.796	5159
842.933	5201
843.069	5185
843.206	5113
843.343	5288
843.479	5220
843.616	5261
843.752	4991
843.889	4965
844.025	5220
844.162	5022
844.298	5185
844.435	5090
844.571	4995
844.708	5189
844.844	5292
844.98	5299
845.117	5322
845.253	5151
845.389	5048
845.525	5109
845.661	5124
845.798	5006
845.934	5147
846.07	4995
846.206	5151
846.342	5269
846.478	5109
846.614	4991
846.75	5006
846.886	4927
847.022	5136
847.158	5006
847.294	5041
847.429	5121
847.565	5025
847.701	5322
847.837	4850
847.972	4767
848.108	4862
848.244	4934
848.379	4816
848.515	4755
848.65	4706
848.786	4763
848.921	4763
849.057	4824
849.192	4889
849.328	4805
849.463	4862
849.598	4828
849.734	4767
849.869	4702
850.004	4664
850.14	4691
850.275	4668
850.41	4508
850.545	4607
850.68	4607
850.815	4603
850.95	4634
851.085	4858
851.22	4759
851.355	4687
851.49	4660
851.625	4611
851.76	4641
851.895	4569
852.03	4618
852.165	4672
852.299	4748
852.434	4824
852.569	4812
852.703	4805
852.838	4877
852.973	4911
853.107	4919
853.242	4774
853.376	4706
853.511	4634
853.645	4596
853.78	4843
853.914	4710
854.048	4660
854.183	4736
854.317	4653
854.451	4892
854.585	4687
854.72	4668
854.854	4831
854.988	4679
855.122	4706
855.256	4615
855.39	4717
855.524	4839
855.658	4797
855.792	4721
855.926	4854
856.06	4797
856.194	4828
856.327	4710
856.461	4664
856.595	4675
856.729	4634
856.862	4793
856.996	4740
857.13	4786
857.263	4820
857.397	4877
857.53	4679
857.664	4771
857.797	4805
857.931	4812
858.064	4744
858.197	4790
858.331	4683
858.464	4630
858.597	4542
858.731	4668
858.864	4675
858.997	4630
859.13	4660
859.263	4725
859.396	4748
859.529	4660
859.662	4653
859.795	4611
859.928	4649
860.061	4778
860.194	4812
860.327	4653
860.46	4596
860.592	4729
860.725	4740
860.858	4782
860.99	4645
861.123	4535
861.256	4538
861.388	4668
861.521	5463
861.653	4508
861.786	4489
861.918	4504
862.05	4554
862.183	4558
862.315	4656
862.447	4725
862.58	4630
862.712	4424
862.844	4360
862.976	4508
863.108	4478
863.24	4934
863.372	4360
863.504	4478
863.636	4466
863.768	4535
863.9	4519
864.032	4386
864.164	4512
864.296	4538
864.428	4622
864.559	4577
864.691	4542
864.823	4611
864.954	4554
865.086	4538
865.217	4493
865.349	4455
865.48	4481
865.612	4497
865.743	4645
865.875	4527
866.006	4504
866.137	4523
866.269	4485
866.4	4462
866.531	4481
866.662	4428
866.793	4455
866.924	4504
867.055	4466
867.186	4523
867.317	4455
867.448	4402
867.579	4447
867.71	4470
867.841	4383
867.972	4478
868.103	4466
868.233	4504
868.364	4504
868.495	4523
868.625	4714
868.756	4797
868.886	4645
869.017	4675
869.147	4744
869.278	4786
869.408	4675
869.539	4702
869.669	4725
869.799	4698
869.929	4774
870.06	4805
870.19	4991
870.32	4896
870.45	4980
870.58	5037
870.71	5136
870.84	5140
870.97	4976
871.1	4972
871.23	5216
871.36	5185
871.489	5033
871.619	5117
871.749	5124
871.879	5174
872.008	5170
872.138	5025
872.267	5052
872.397	4896
872.526	4862
872.656	4771
872.785	4809
872.915	4957
873.044	5033
873.173	4984
873.303	4991
873.432	5018
873.561	5018
873.69	4923
873.819	4858
873.948	4961
874.077	4896
874.206	4801
874.335	4805
874.464	4999
874.593	5067
874.722	5022
874.851	5136
874.979	5094
875.108	5041
875.237	4919
875.365	4904
875.494	4984
875.623	4953
875.751	4889
875.88	4961
876.008	4968
876.136	5064
876.265	5223
876.393	5360
876.521	5299
876.65	5273
876.778	5227
876.906	5113
877.034	5071
877.162	5136
877.29	5025
877.418	5094
877.546	5064
877.674	5128
877.802	5048
877.93	5041
878.058	4995
878.185	4984
878.313	4995
878.441	4976
878.568	4858
878.696	4904
878.824	4999
878.951	5048
879.079	5189
879.206	5318
879.333	5151
879.461	5003
879.588	5064
879.715	5162
879.842	5216
879.97	5041
880.097	4786
880.224	4809
880.351	4824
880.478	4858
880.605	4843
880.732	4831
880.859	5132
880.986	4938
881.112	4957
881.239	4790
881.366	4774
881.493	4622
881.619	4626
881.746	4637
881.872	4725
881.999	4687
882.125	4694
882.252	4805
882.378	4854
882.505	4953
882.631	4843
882.757	4694
882.883	4797
883.01	4759
883.136	4729
883.262	4668
883.388	4656
883.514	4835
883.64	4828
883.766	4809
883.892	4683
884.018	4767
884.143	4927
884.269	5056
884.395	4706
884.52	4679
884.646	4683
884.772	4618
884.897	4599
885.023	4721
885.148	4850
885.274	4854
885.399	4839
885.524	4755
885.65	4755
885.775	4786
885.9	4744
886.025	4881
886.15	4835
886.275	4744
886.4	4675
886.525	4767
886.65	4694
886.775	4733
886.9	4915
887.025	5105
887.149	4847
887.274	4672
887.399	4618
887.523	4653
887.648	4618
887.773	4630
887.897	4809
888.021	4831
888.146	4706
888.27	4809
888.395	4968
888.519	4866
888.643	4850
888.767	4835
888.891	4683
889.015	4641
889.139	4702
889.263	4622
889.387	4828
889.511	4942
889.635	4839
889.759	4660
889.883	4729
890.006	4736
890.13	4900
890.254	4649
890.377	4736
890.501	4592
890.624	4535
890.748	4679
890.871	4546
890.995	4462
891.118	4409
891.241	4554
891.364	4550
891.488	4637
891.611	4622
891.734	4531
891.857	4596
891.98	4603
892.103	4649
892.226	4645
892.349	4584
892.471	4462
892.594	4607
892.717	4679
892.839	4584
892.962	4618
893.085	4622
893.207	4668
893.33	4485
893.452	4626
893.575	4656
893.697	4634
893.819	4839
893.941	4866
894.064	4771
894.186	4584
894.308	4626
894.43	4744
894.552	4839
894.674	4778
894.796	4592
894.918	4645
895.04	4538
895.161	4717
895.283	4656
895.405	4634
895.526	4698
895.648	4774
895.769	4706
895.891	4755
896.012	4774
896.134	4702
896.255	4721
896.376	4668
896.498	4645
896.619	4755
896.74	4630
896.861	4687
896.982	4953
897.103	5113
897.224	4904
897.345	4771
897.466	4653
897.587	4801
897.708	4885
897.828	4786
897.949	4782
898.07	4558
898.19	4679
898.311	4900
898.431	4694
898.552	4778
898.672	4847
898.792	4862
898.913	4771
899.033	4679
899.153	4512
899.273	4466
899.393	4474
899.513	4523
899.633	4569
899.753	4554
899.873	4573
899.993	4603
900.113	4577
900.232	4649
900.352	4523
900.472	4550
900.591	4474
900.711	4550
900.83	4451
900.95	4592
901.069	4706
901.189	4603
901.308	4417
901.427	4337
901.546	4409
901.665	4470
901.784	4535
901.904	4462
902.023	4375
902.141	4200
902.26	4238
902.379	4322
902.498	4272
902.617	4246
902.735	4417
902.854	4443
902.973	4432
903.091	4246
903.21	4284
903.328	4276
903.446	4265
903.565	4265
903.683	4417
903.801	4325
903.919	4421
904.038	4485
904.156	4360
904.274	4466
904.392	4402
904.51	4470
904.627	4500
904.745	4622
904.863	4634
904.981	4417
905.098	4360
905.216	4367
905.334	4466
905.451	4424
905.569	4478
905.686	4615
905.803	4637
905.921	4447
906.038	4588
906.155	4519
906.272	4424
906.389	4451
906.506	4386
906.623	4398
906.74	4447
906.857	4371
906.974	4367
907.091	4580
907.208	4736
907.324	4630
907.441	4516
907.557	4333
907.674	4363
907.79	4371
907.907	4440
908.023	4516
908.139	4493
908.256	4417
908.372	4443
908.488	4481
908.604	4394
908.72	4375
908.836	4398
908.952	4440
909.068	4398
909.184	4599
909.3	4558
909.415	4634
909.531	4584
909.647	4394
909.762	4367
909.878	4360
909.993	4440
910.108	4409
910.224	4421
910.339	4493
910.454	4447
910.57	4371
910.685	4344
910.8	4710
910.915	4615
911.03	4500
911.145	4379
911.259	4367
911.374	4398
911.489	4306
911.604	4303
911.718	4188
911.833	4253
911.947	4097
912.062	4048
912.176	4215
912.291	4272
912.405	4280
912.519	4504
912.633	4565
912.748	4402
912.862	4337
912.976	4291
913.09	4131
913.204	4158
913.318	4295
913.431	4447
913.545	4405
913.659	4466
913.772	4417
913.886	4280
914	4219
914.113	4424
914.226	4405
914.34	4440
914.453	4272
914.566	4409
914.68	4333
914.793	4371
914.906	4204
915.019	4166
915.132	4112
915.245	4230
915.358	4177
915.47	4230
915.583	4287
915.696	4325
915.809	4379
915.921	4363
916.034	4303
916.146	4291
916.259	4230
916.371	4447
916.483	4386
916.595	4227
916.708	4333
916.82	4337
916.932	4352
917.044	4352
917.156	4371
917.268	4249
917.38	4284
917.491	4322
917.603	4383
917.715	4451
917.826	4443
917.938	4360
918.049	4291
918.161	4462
918.272	4573
918.384	4558
918.495	4443
918.606	4329
918.717	4265
918.828	4383
918.939	4379
919.05	4268
919.161	4394
919.272	4124
919.383	4268
919.494	4523
919.604	4656
919.715	4512
919.826	4413
919.936	4451
920.047	4580
920.157	4527
920.267	4793
920.378	4569
920.488	4538
920.598	4786
920.708	4965
920.818	4782
920.928	4831
921.038	4987
921.148	4980
921.258	4672
921.368	4622
921.477	4497
921.587	4519
921.697	4402
921.806	4637
921.916	4512
922.025	4314
922.134	4318
922.244	4287
922.353	4390
922.462	4219
922.571	4204
922.68	4086
922.789	4055
922.898	4048
923.007	4048
923.116	4215
923.224	4131
923.333	4154
923.442	4013
923.55	4032
923.659	4059
923.767	4162
923.876	4059
923.984	4169
924.092	4048
924.201	4086
924.309	4147
924.417	4204
924.525	4128
924.633	4147
924.741	5136
924.849	3953
924.956	4223
925.064	4025
925.172	3975
925.279	4059
925.387	4112
925.494	4120
925.602	4280
925.709	4227
925.816	4093
925.924	4173
926.031	4261
926.138	4238
926.245	4303
926.352	4173
926.459	4291
926.566	4371
926.673	4177
926.779	4177
926.886	4116
926.993	4048
927.099	4013
927.206	3972
927.312	3991
927.419	4147
927.525	4093
927.631	4128
927.737	4006
927.843	3991
927.95	3907
928.056	4021
928.162	4029
928.267	4109
928.373	4656
928.479	4181
928.585	3926
928.69	4044
928.796	4128
928.901	4017
929.007	3896
929.112	4067
929.218	3972
929.323	3968
929.428	3960
929.533	4147
929.638	3956
929.743	3994
929.848	4059
929.953	4101
930.058	3953
930.163	3816
930.267	3865
930.372	4036
930.477	3869
930.581	4173
930.685	4006
930.79	3854
930.894	3926
930.998	3918
931.103	4116
931.207	3762
931.311	3709
931.415	3743
931.519	3553
931.623	3606
