Data from test_V78500241_536.txt Node
Date: Fri Mar 25 16:52:43 CST 2022
User: usil
Spectrometer: V785-0024
Trigger mode: 0
Integration Time (sec): 4.000000E-1
Scans to average: 1
Nonlinearity correction enabled: false
Boxcar width: 0
Storing dark spectrum: false
XAxis mode: Wavelengths
Number of Pixels in Spectrum: 1024
>>>>>Begin Spectral Data<<<<<
801.071	7989
801.214	7993
801.356	7837
801.499	7761
801.641	7811
801.783	7788
801.926	8054
802.068	7951
802.211	7944
802.353	8024
802.496	7887
802.638	7898
802.78	7955
802.923	7909
803.065	7818
803.208	7879
803.35	7986
803.492	8065
803.635	8100
803.777	8054
803.919	8115
804.061	8358
804.204	8126
804.346	7944
804.488	7947
804.63	8081
804.773	7940
804.915	8073
805.057	8237
805.199	8176
805.341	8240
805.483	8339
805.626	8233
805.768	8058
805.91	8103
806.052	8157
806.194	8069
806.336	8259
806.478	8103
806.62	8115
806.762	8183
806.904	8244
807.046	8480
807.188	8259
807.33	8237
807.472	8286
807.614	8096
807.756	8153
807.898	7982
808.04	7871
808.182	8005
808.324	7887
808.465	7951
808.607	8043
808.749	8134
808.891	8187
809.033	8324
809.174	8161
809.316	8111
809.458	8050
809.6	8016
809.741	8001
809.883	8035
810.025	8027
810.166	8027
810.308	8016
810.45	7993
810.591	7902
810.733	7731
810.875	7620
811.016	7521
811.158	7506
811.299	7636
811.441	7780
811.582	7658
811.724	7578
811.865	7540
812.007	7655
812.148	7628
812.29	7723
812.431	7769
812.573	7860
812.714	7997
812.855	8191
812.997	8229
813.138	8362
813.279	8233
813.421	8206
813.562	8005
813.703	7974
813.845	7822
813.986	7514
814.127	7335
814.268	7293
814.41	7240
814.551	7202
814.692	7164
814.833	7027
814.974	7084
815.115	7145
815.256	6954
815.397	6913
815.539	6954
815.68	6821
815.821	6802
815.962	6878
816.103	6867
816.244	6635
816.385	6616
816.526	6589
816.666	6498
816.807	6380
816.948	6464
817.089	6437
817.23	6448
817.371	6369
817.512	6365
817.653	6388
817.793	6338
817.934	6429
818.075	6471
818.216	6448
818.356	6422
818.497	6292
818.638	6076
818.778	6136
818.919	6106
819.06	6121
819.2	6323
819.341	6300
819.481	6338
819.622	6525
819.762	6749
819.903	6730
820.043	6585
820.184	6570
820.324	6532
820.465	6608
820.605	6623
820.746	6570
820.886	6483
821.026	6616
821.167	6700
821.307	6802
821.447	6730
821.588	6601
821.728	6494
821.868	6460
822.008	6296
822.149	6350
822.289	6361
822.429	6121
822.569	6038
822.709	6136
822.849	5939
822.99	5904
823.13	5988
823.27	5893
823.41	5756
823.55	5783
823.69	5805
823.83	5775
823.97	5665
824.11	5551
824.25	5505
824.389	5589
824.529	5600
824.669	5486
824.809	5646
824.949	5737
825.089	5608
825.228	5524
825.368	5391
825.508	5318
825.648	5368
825.787	5368
825.927	5360
826.067	5296
826.206	5288
826.346	5376
826.485	5383
826.625	5387
826.765	5532
826.904	5482
827.044	5208
827.183	5220
827.323	5121
827.462	5242
827.601	5162
827.741	5174
827.88	5208
828.02	5117
828.159	5212
828.298	5242
828.437	5360
828.577	5318
828.716	5440
828.855	5318
828.994	5136
829.134	5109
829.273	5212
829.412	5098
829.551	5162
829.69	5178
829.829	5265
829.968	5353
830.107	5261
830.246	5273
830.385	5162
830.524	5071
830.663	5090
830.802	4915
830.941	4854
831.08	4835
831.219	5022
831.357	4915
831.496	5098
831.635	4870
831.774	4862
831.913	4801
832.051	4733
832.19	4774
832.329	4805
832.467	4691
832.606	4641
832.744	4721
832.883	4733
833.022	4740
833.16	4843
833.299	4839
833.437	4824
833.576	4839
833.714	4858
833.852	4858
833.991	4858
834.129	4915
834.267	4968
834.406	4953
834.544	5018
834.682	4995
834.821	4930
834.959	5155
835.097	4976
835.235	5094
835.373	5113
835.511	5075
835.65	5022
835.788	5022
835.926	4896
836.064	4858
836.202	4900
836.34	5166
836.478	5193
836.615	5105
836.753	5193
836.891	5288
837.029	5220
837.167	5170
837.305	5162
837.443	5124
837.58	5090
837.718	5223
837.856	5147
837.993	5143
838.131	5204
838.269	5201
838.406	5242
838.544	5155
838.681	4995
838.819	5052
838.956	4873
839.094	4850
839.231	4942
839.369	5132
839.506	5395
839.643	5273
839.781	5041
839.918	5025
840.055	5045
840.193	5052
840.33	5124
840.467	5113
840.604	5201
840.742	5474
840.879	5045
841.016	5048
841.153	5136
841.29	5421
841.427	5326
841.564	5273
841.701	5345
841.838	5322
841.975	5246
842.112	5239
842.249	5105
842.385	5075
842.522	5326
842.659	5181
842.796	5124
842.933	5181
843.069	5174
843.206	5162
843.343	5330
843.479	5254
843.616	5318
843.752	5014
843.889	4980
844.025	5261
844.162	5003
844.298	5170
844.435	5067
844.571	5052
844.708	5185
844.844	5322
844.98	5315
845.117	5311
845.253	5189
845.389	5037
845.525	5075
845.661	5166
845.798	5048
845.934	5109
846.07	5018
846.206	5170
846.342	5242
846.478	5166
846.614	5067
846.75	4934
846.886	4889
847.022	5079
847.158	5022
847.294	5022
847.429	5105
847.565	5029
847.701	5383
847.837	4820
847.972	4843
848.108	4984
848.244	4911
848.379	4755
848.515	4725
848.65	4706
848.786	4740
848.921	4835
849.057	4816
849.192	4873
849.328	4763
849.463	4858
849.598	4767
849.734	4812
849.869	4675
850.004	4565
850.14	4706
850.275	4637
850.41	4497
850.545	4607
850.68	4603
850.815	4622
850.95	4630
851.085	4839
851.22	4725
851.355	4664
851.49	4615
851.625	4615
851.76	4641
851.895	4538
852.03	4519
852.165	4615
852.299	4744
852.434	4778
852.569	4782
852.703	4801
852.838	4801
852.973	4930
853.107	4904
853.242	4710
853.376	4698
853.511	4565
853.645	4626
853.78	4767
853.914	4691
854.048	4622
854.183	4656
854.317	4691
854.451	4816
854.585	4668
854.72	4622
854.854	4755
854.988	4588
855.122	4641
855.256	4535
855.39	4687
855.524	4771
855.658	4683
855.792	4694
855.926	4733
856.06	4740
856.194	4786
856.327	4698
856.461	4599
856.595	4607
856.729	4626
856.862	4725
856.996	4675
857.13	4710
857.263	4790
857.397	4812
857.53	4664
857.664	4698
857.797	4748
857.931	4801
858.064	4710
858.197	4759
858.331	4656
858.464	4618
858.597	4531
858.731	4641
858.864	4653
858.997	4584
859.13	4672
859.263	4637
859.396	4774
859.529	4573
859.662	4542
859.795	4554
859.928	4607
860.061	4744
860.194	4744
860.327	4603
860.46	4592
860.592	4702
860.725	4740
860.858	4725
860.99	4599
861.123	4538
861.256	4527
861.388	4554
861.521	5421
861.653	4478
861.786	4428
861.918	4478
862.05	4500
862.183	4531
862.315	4622
862.447	4596
862.58	4550
862.712	4405
862.844	4363
862.976	4470
863.108	4462
863.24	4847
863.372	4360
863.504	4405
863.636	4428
863.768	4474
863.9	4459
864.032	4356
864.164	4443
864.296	4424
864.428	4607
864.559	4535
864.691	4519
864.823	4508
864.954	4466
865.086	4470
865.217	4470
865.349	4413
865.48	4462
865.612	4485
865.743	4622
865.875	4436
866.006	4443
866.137	4455
866.269	4421
866.4	4421
866.531	4447
866.662	4436
866.793	4379
866.924	4455
867.055	4500
867.186	4417
867.317	4405
867.448	4417
867.579	4409
867.71	4417
867.841	4383
867.972	4421
868.103	4516
868.233	4459
868.364	4489
868.495	4516
868.625	4714
868.756	4714
868.886	4565
869.017	4641
869.147	4755
869.278	4778
869.408	4645
869.539	4645
869.669	4729
869.799	4675
869.929	4759
870.06	4710
870.19	4923
870.32	4934
870.45	4942
870.58	5048
870.71	5067
870.84	5079
870.97	4972
871.1	4816
871.23	5075
871.36	5132
871.489	5010
871.619	5037
871.749	5128
871.879	5136
872.008	5181
872.138	5102
872.267	4957
872.397	4862
872.526	4767
872.656	4706
872.785	4824
872.915	4938
873.044	4995
873.173	4938
873.303	4938
873.432	4972
873.561	4980
873.69	4873
873.819	4816
873.948	4900
874.077	4786
874.206	4710
874.335	4790
874.464	4930
874.593	5037
874.722	4949
874.851	5048
874.979	5037
875.108	5037
875.237	4892
875.365	4862
875.494	4885
875.623	4972
875.751	4854
875.88	4873
876.008	4987
876.136	5029
876.265	5204
876.393	5376
876.521	5273
876.65	5216
876.778	5166
876.906	5056
877.034	5037
877.162	5067
877.29	5003
877.418	5071
877.546	5094
877.674	5037
877.802	5010
877.93	5067
878.058	4942
878.185	4911
878.313	4934
878.441	4949
878.568	4820
878.696	4831
878.824	4934
878.951	5025
879.079	5132
879.206	5296
879.333	5102
879.461	4987
879.588	5003
879.715	5143
879.842	5208
879.97	5045
880.097	4771
880.224	4736
880.351	4801
880.478	4824
880.605	4801
880.732	4793
880.859	5075
880.986	4896
881.112	4858
881.239	4782
881.366	4706
881.493	4634
881.619	4596
881.746	4626
881.872	4615
881.999	4653
882.125	4714
882.252	4828
882.378	4873
882.505	4965
882.631	4831
882.757	4672
882.883	4721
883.01	4729
883.136	4668
883.262	4611
883.388	4588
883.514	4774
883.64	4866
883.766	4740
883.892	4641
884.018	4702
884.143	4908
884.269	5006
884.395	4679
884.52	4592
884.646	4653
884.772	4558
884.897	4531
885.023	4656
885.148	4774
885.274	4862
885.399	4809
885.524	4710
885.65	4672
885.775	4771
885.9	4717
886.025	4862
886.15	4786
886.275	4774
886.4	4630
886.525	4710
886.65	4702
886.775	4710
886.9	4908
887.025	4976
887.149	4778
887.274	4675
887.399	4622
887.523	4592
887.648	4603
887.773	4596
887.897	4774
888.021	4835
888.146	4645
888.27	4831
888.395	4911
888.519	4733
888.643	4824
888.767	4790
888.891	4645
889.015	4588
889.139	4675
889.263	4592
889.387	4744
889.511	4831
889.635	4824
889.759	4664
889.883	4694
890.006	4729
890.13	4839
890.254	4630
890.377	4637
890.501	4607
890.624	4481
890.748	4641
890.871	4512
890.995	4405
891.118	4405
891.241	4512
891.364	4538
891.488	4634
891.611	4478
891.734	4538
891.857	4577
891.98	4535
892.103	4558
892.226	4599
892.349	4573
892.471	4424
892.594	4527
892.717	4558
892.839	4577
892.962	4580
893.085	4675
893.207	4569
893.33	4432
893.452	4554
893.575	4683
893.697	4561
893.819	4809
893.941	4774
894.064	4771
894.186	4569
894.308	4588
894.43	4702
894.552	4843
894.674	4748
894.796	4561
894.918	4580
895.04	4550
895.161	4714
895.283	4645
895.405	4554
895.526	4660
895.648	4660
895.769	4679
895.891	4725
896.012	4733
896.134	4721
896.255	4694
896.376	4645
896.498	4607
896.619	4672
896.74	4611
896.861	4664
896.982	4923
897.103	5105
897.224	4797
897.345	4736
897.466	4672
897.587	4717
897.708	4862
897.828	4786
897.949	4683
898.07	4535
898.19	4653
898.311	4820
898.431	4694
898.552	4725
898.672	4771
898.792	4809
898.913	4729
899.033	4630
899.153	4493
899.273	4462
899.393	4535
899.513	4504
899.633	4466
899.753	4519
899.873	4508
899.993	4634
900.113	4561
900.232	4558
900.352	4542
900.472	4504
900.591	4383
900.711	4478
900.83	4428
900.95	4599
901.069	4649
901.189	4542
901.308	4379
901.427	4333
901.546	4394
901.665	4447
901.784	4493
901.904	4398
902.023	4253
902.141	4215
902.26	4211
902.379	4295
902.498	4242
902.617	4177
902.735	4352
902.854	4394
902.973	4367
903.091	4158
903.21	4230
903.328	4303
903.446	4265
903.565	4287
903.683	4360
903.801	4303
903.919	4440
904.038	4432
904.156	4310
904.274	4436
904.392	4379
904.51	4481
904.627	4493
904.745	4599
904.863	4637
904.981	4360
905.098	4291
905.216	4344
905.334	4413
905.451	4413
905.569	4394
905.686	4550
905.803	4554
905.921	4367
906.038	4561
906.155	4478
906.272	4383
906.389	4481
906.506	4375
906.623	4356
906.74	4390
906.857	4329
906.974	4383
907.091	4577
907.208	4645
907.324	4550
907.441	4481
907.557	4344
907.674	4341
907.79	4333
907.907	4352
908.023	4466
908.139	4466
908.256	4474
908.372	4500
908.488	4470
908.604	4337
908.72	4341
908.836	4417
908.952	4367
909.068	4379
909.184	4538
909.3	4462
909.415	4588
909.531	4558
909.647	4310
909.762	4367
909.878	4325
909.993	4390
910.108	4398
910.224	4398
910.339	4485
910.454	4417
910.57	4405
910.685	4310
910.8	4645
910.915	4592
911.03	4474
911.145	4356
911.259	4322
911.374	4360
911.489	4329
911.604	4234
911.718	4162
911.833	4204
911.947	4105
912.062	3998
912.176	4196
912.291	4257
912.405	4242
912.519	4443
912.633	4489
912.748	4440
912.862	4318
912.976	4211
913.09	4128
913.204	4204
913.318	4230
913.431	4383
913.545	4360
913.659	4398
913.772	4325
913.886	4211
914	4200
914.113	4356
914.226	4481
914.34	4383
914.453	4249
914.566	4443
914.68	4219
914.793	4337
914.906	4154
915.019	4109
915.132	4078
915.245	4173
915.358	4192
915.47	4238
915.583	4261
915.696	4333
915.809	4398
915.921	4424
916.034	4230
916.146	4238
916.259	4265
916.371	4375
916.483	4363
916.595	4238
916.708	4314
916.82	4352
916.932	4356
917.044	4367
917.156	4360
917.268	4223
917.38	4299
917.491	4242
917.603	4314
917.715	4379
917.826	4424
917.938	4371
918.049	4246
918.161	4371
918.272	4554
918.384	4508
918.495	4436
918.606	4310
918.717	4280
918.828	4306
918.939	4402
919.05	4253
919.161	4306
919.272	4112
919.383	4204
919.494	4421
919.604	4645
919.715	4447
919.826	4314
919.936	4405
920.047	4569
920.157	4455
920.267	4733
920.378	4550
920.488	4531
920.598	4710
920.708	4877
920.818	4752
920.928	4740
921.038	4991
921.148	4900
921.258	4634
921.368	4546
921.477	4470
921.587	4440
921.697	4424
921.806	4554
921.916	4462
922.025	4234
922.134	4238
922.244	4211
922.353	4314
922.462	4185
922.571	4162
922.68	4006
922.789	3949
922.898	4051
923.007	4040
923.116	4097
923.224	4093
923.333	4109
923.442	4006
923.55	3964
923.659	4040
923.767	4059
923.876	4025
923.984	4143
924.092	4040
924.201	4093
924.309	4105
924.417	4124
924.525	4055
924.633	4074
924.741	5010
924.849	3869
924.956	4116
925.064	3979
925.172	3922
925.279	3964
925.387	4078
925.494	4112
925.602	4177
925.709	4207
925.816	4032
925.924	4139
926.031	4227
926.138	4154
926.245	4219
926.352	4097
926.459	4265
926.566	4265
926.673	4112
926.779	4124
926.886	4051
926.993	3979
927.099	3987
927.206	3972
927.312	3941
927.419	4032
927.525	4032
927.631	4128
927.737	3945
927.843	3930
927.95	3876
928.056	3949
928.162	3968
928.267	4067
928.373	4733
928.479	4139
928.585	3918
928.69	4006
928.796	4048
928.901	3956
929.007	3876
929.112	4013
929.218	3979
929.323	3960
929.428	3941
929.533	4150
929.638	3937
929.743	3941
929.848	4040
929.953	3941
930.058	3960
930.163	3774
930.267	3850
930.372	3998
930.477	3823
930.581	4051
930.685	3972
930.79	3854
930.894	3876
930.998	3838
931.103	4063
931.207	3701
931.311	3660
931.415	3667
931.519	3485
931.623	3534
