Data from test_V78500241_791.txt Node
Date: Fri Mar 25 16:54:30 CST 2022
User: usil
Spectrometer: V785-0024
Trigger mode: 0
Integration Time (sec): 4.000000E-1
Scans to average: 1
Nonlinearity correction enabled: false
Boxcar width: 0
Storing dark spectrum: false
XAxis mode: Wavelengths
Number of Pixels in Spectrum: 1024
>>>>>Begin Spectral Data<<<<<
801.071	8005
801.214	7989
801.356	7906
801.499	7860
801.641	7731
801.783	7772
801.926	7944
802.068	7951
802.211	7974
802.353	7951
802.496	7860
802.638	7883
802.78	7852
802.923	7921
803.065	7871
803.208	7879
803.35	7921
803.492	8142
803.635	8134
803.777	7989
803.919	8187
804.061	8355
804.204	8142
804.346	8005
804.488	8016
804.63	8103
804.773	7982
804.915	8092
805.057	8218
805.199	8176
805.341	8244
805.483	8187
805.626	8225
805.768	8058
805.91	8161
806.052	8138
806.194	8069
806.336	8252
806.478	8115
806.62	8092
806.762	8142
806.904	8248
807.046	8488
807.188	8366
807.33	8305
807.472	8267
807.614	8126
807.756	8092
807.898	7940
808.04	7849
808.182	7947
808.324	7833
808.465	7898
808.607	8065
808.749	8134
808.891	8202
809.033	8282
809.174	8199
809.316	8081
809.458	8024
809.6	7970
809.741	8088
809.883	8062
810.025	8115
810.166	8130
810.308	8046
810.45	8039
810.591	7875
810.733	7666
810.875	7658
811.016	7464
811.158	7449
811.299	7590
811.441	7662
811.582	7613
811.724	7514
811.865	7559
812.007	7597
812.148	7590
812.29	7571
812.431	7674
812.573	7799
812.714	7928
812.855	8130
812.997	8187
813.138	8377
813.279	8210
813.421	8111
813.562	7959
813.703	7909
813.845	7837
813.986	7426
814.127	7221
814.268	7202
814.41	7270
814.551	7103
814.692	7084
814.833	7069
814.974	7000
815.115	7042
815.256	6970
815.397	6977
815.539	6935
815.68	6829
815.821	6753
815.962	6863
816.103	6810
816.244	6707
816.385	6578
816.526	6650
816.666	6422
816.807	6311
816.948	6376
817.089	6456
817.23	6429
817.371	6376
817.512	6353
817.653	6350
817.793	6338
817.934	6342
818.075	6448
818.216	6395
818.356	6410
818.497	6182
818.638	6125
818.778	6144
818.919	6106
819.06	6136
819.2	6289
819.341	6315
819.481	6323
819.622	6467
819.762	6703
819.903	6700
820.043	6620
820.184	6536
820.324	6601
820.465	6707
820.605	6639
820.746	6601
820.886	6471
821.026	6631
821.167	6692
821.307	6863
821.447	6722
821.588	6627
821.728	6574
821.868	6483
822.008	6327
822.149	6353
822.289	6372
822.429	6167
822.569	6076
822.709	6106
822.849	5866
822.99	5885
823.13	5942
823.27	5870
823.41	5764
823.55	5726
823.69	5798
823.83	5741
823.97	5623
824.11	5509
824.25	5509
824.389	5509
824.529	5600
824.669	5455
824.809	5646
824.949	5642
825.089	5672
825.228	5509
825.368	5376
825.508	5357
825.648	5311
825.787	5387
825.927	5345
826.067	5292
826.206	5299
826.346	5387
826.485	5364
826.625	5440
826.765	5543
826.904	5493
827.044	5250
827.183	5201
827.323	5174
827.462	5227
827.601	5155
827.741	5117
827.88	5197
828.02	5109
828.159	5239
828.298	5315
828.437	5337
828.577	5258
828.716	5448
828.855	5303
828.994	5098
829.134	5174
829.273	5166
829.412	5178
829.551	5109
829.69	5102
829.829	5220
829.968	5349
830.107	5227
830.246	5246
830.385	5136
830.524	5083
830.663	5037
830.802	4984
830.941	4900
831.08	4930
831.219	4965
831.357	5052
831.496	5151
831.635	4908
831.774	4858
831.913	4839
832.051	4771
832.19	4733
832.329	4835
832.467	4706
832.606	4573
832.744	4710
832.883	4668
833.022	4694
833.16	4816
833.299	4812
833.437	4820
833.576	4828
833.714	4862
833.852	4885
833.991	4839
834.129	4961
834.267	4919
834.406	4900
834.544	4968
834.682	4938
834.821	4965
834.959	5181
835.097	4980
835.235	5143
835.373	5029
835.511	5086
835.65	5041
835.788	5010
835.926	4915
836.064	4877
836.202	4953
836.34	5166
836.478	5170
836.615	5109
836.753	5143
836.891	5250
837.029	5265
837.167	5197
837.305	5121
837.443	5124
837.58	5014
837.718	5220
837.856	5128
837.993	5147
838.131	5235
838.269	5178
838.406	5193
838.544	5181
838.681	5014
838.819	4999
838.956	4904
839.094	4934
839.231	4957
839.369	5045
839.506	5395
839.643	5181
839.781	5048
839.918	4972
840.055	5090
840.193	5041
840.33	5117
840.467	5166
840.604	5208
840.742	5410
840.879	5060
841.016	5067
841.153	5128
841.29	5376
841.427	5258
841.564	5265
841.701	5307
841.838	5242
841.975	5246
842.112	5246
842.249	5162
842.385	5109
842.522	5330
842.659	5147
842.796	5147
842.933	5178
843.069	5223
843.206	5143
843.343	5337
843.479	5208
843.616	5311
843.752	5003
843.889	5006
844.025	5204
844.162	5006
844.298	5254
844.435	5075
844.571	5067
844.708	5162
844.844	5315
844.98	5353
845.117	5318
845.253	5159
845.389	5128
845.525	5128
845.661	5143
845.798	5022
845.934	5105
846.07	4991
846.206	5185
846.342	5273
846.478	5174
846.614	4980
846.75	4938
846.886	4938
847.022	5151
847.158	5006
847.294	5067
847.429	5060
847.565	5056
847.701	5269
847.837	4805
847.972	4809
848.108	4911
848.244	4900
848.379	4755
848.515	4748
848.65	4710
848.786	4721
848.921	4736
849.057	4797
849.192	4881
849.328	4774
849.463	4835
849.598	4778
849.734	4729
849.869	4683
850.004	4626
850.14	4668
850.275	4618
850.41	4550
850.545	4558
850.68	4607
850.815	4637
850.95	4679
851.085	4824
851.22	4744
851.355	4649
851.49	4577
851.625	4660
851.76	4622
851.895	4519
852.03	4535
852.165	4634
852.299	4675
852.434	4755
852.569	4725
852.703	4725
852.838	4862
852.973	4843
853.107	4877
853.242	4744
853.376	4710
853.511	4550
853.645	4607
853.78	4755
853.914	4645
854.048	4622
854.183	4653
854.317	4675
854.451	4820
854.585	4694
854.72	4626
854.854	4771
854.988	4565
855.122	4588
855.256	4474
855.39	4637
855.524	4725
855.658	4717
855.792	4691
855.926	4748
856.06	4687
856.194	4759
856.327	4656
856.461	4588
856.595	4660
856.729	4622
856.862	4710
856.996	4660
857.13	4675
857.263	4786
857.397	4797
857.53	4588
857.664	4725
857.797	4767
857.931	4733
858.064	4675
858.197	4748
858.331	4641
858.464	4634
858.597	4569
858.731	4596
858.864	4577
858.997	4596
859.13	4615
859.263	4615
859.396	4744
859.529	4592
859.662	4580
859.795	4497
859.928	4592
860.061	4759
860.194	4755
860.327	4580
860.46	4584
860.592	4721
860.725	4729
860.858	4672
860.99	4519
861.123	4489
861.256	4519
861.388	4611
861.521	5193
861.653	4466
861.786	4405
861.918	4390
862.05	4481
862.183	4500
862.315	4596
862.447	4641
862.58	4516
862.712	4394
862.844	4291
862.976	4443
863.108	4413
863.24	4835
863.372	4383
863.504	4443
863.636	4402
863.768	4478
863.9	4360
864.032	4333
864.164	4337
864.296	4443
864.428	4519
864.559	4531
864.691	4512
864.823	4504
864.954	4516
865.086	4489
865.217	4466
865.349	4371
865.48	4455
865.612	4497
865.743	4592
865.875	4462
866.006	4451
866.137	4428
866.269	4462
866.4	4424
866.531	4424
866.662	4383
866.793	4405
866.924	4447
867.055	4478
867.186	4459
867.317	4424
867.448	4360
867.579	4413
867.71	4394
867.841	4447
867.972	4470
868.103	4440
868.233	4478
868.364	4451
868.495	4527
868.625	4683
868.756	4786
868.886	4592
869.017	4618
869.147	4835
869.278	4801
869.408	4668
869.539	4694
869.669	4801
869.799	4683
869.929	4839
870.06	4812
870.19	4991
870.32	4987
870.45	4965
870.58	5037
870.71	5162
870.84	5136
870.97	5003
871.1	4946
871.23	5159
871.36	5121
871.489	5079
871.619	5155
871.749	5166
871.879	5147
872.008	5227
872.138	5113
872.267	4987
872.397	4923
872.526	4824
872.656	4733
872.785	4805
872.915	4991
873.044	5052
873.173	4965
873.303	5003
873.432	5006
873.561	4972
873.69	4930
873.819	4934
873.948	4930
874.077	4870
874.206	4824
874.335	4816
874.464	4911
874.593	5086
874.722	4984
874.851	5140
874.979	5121
875.108	5071
875.237	5018
875.365	4904
875.494	4896
875.623	5037
875.751	4911
875.88	4927
876.008	5048
876.136	5075
876.265	5223
876.393	5368
876.521	5265
876.65	5223
876.778	5162
876.906	5102
877.034	5018
877.162	5094
877.29	5003
877.418	5086
877.546	5075
877.674	5033
877.802	5052
877.93	5010
878.058	4991
878.185	4858
878.313	4999
878.441	4953
878.568	4797
878.696	4938
878.824	5022
878.951	5037
879.079	5086
879.206	5334
879.333	5071
879.461	5029
879.588	5014
879.715	5094
879.842	5227
879.97	5048
880.097	4831
880.224	4771
880.351	4831
880.478	4889
880.605	4816
880.732	4793
880.859	5105
880.986	4923
881.112	4915
881.239	4774
881.366	4698
881.493	4653
881.619	4603
881.746	4656
881.872	4653
881.999	4645
882.125	4721
882.252	4801
882.378	4831
882.505	5006
882.631	4843
882.757	4748
882.883	4759
883.01	4755
883.136	4733
883.262	4645
883.388	4607
883.514	4797
883.64	4892
883.766	4793
883.892	4710
884.018	4748
884.143	4850
884.269	4965
884.395	4672
884.52	4630
884.646	4630
884.772	4588
884.897	4577
885.023	4649
885.148	4786
885.274	4854
885.399	4793
885.524	4744
885.65	4672
885.775	4771
885.9	4710
886.025	4866
886.15	4824
886.275	4763
886.4	4645
886.525	4710
886.65	4710
886.775	4733
886.9	4908
887.025	5060
887.149	4786
887.274	4683
887.399	4618
887.523	4622
887.648	4577
887.773	4603
887.897	4797
888.021	4774
888.146	4763
888.27	4835
888.395	4889
888.519	4801
888.643	4862
888.767	4885
888.891	4691
889.015	4653
889.139	4656
889.263	4611
889.387	4729
889.511	4858
889.635	4816
889.759	4641
889.883	4645
890.006	4759
890.13	4904
890.254	4660
890.377	4721
890.501	4538
890.624	4535
890.748	4664
890.871	4538
890.995	4481
891.118	4440
891.241	4542
891.364	4554
891.488	4656
891.611	4531
891.734	4592
891.857	4615
891.98	4611
892.103	4668
892.226	4588
892.349	4546
892.471	4428
892.594	4516
892.717	4656
892.839	4588
892.962	4664
893.085	4649
893.207	4637
893.33	4474
893.452	4523
893.575	4702
893.697	4607
893.819	4847
893.941	4877
894.064	4801
894.186	4592
894.308	4573
894.43	4759
894.552	4820
894.674	4759
894.796	4580
894.918	4607
895.04	4618
895.161	4736
895.283	4664
895.405	4584
895.526	4645
895.648	4679
895.769	4702
895.891	4736
896.012	4755
896.134	4755
896.255	4714
896.376	4706
896.498	4687
896.619	4729
896.74	4618
896.861	4687
896.982	4953
897.103	5105
897.224	4835
897.345	4744
897.466	4721
897.587	4729
897.708	4889
897.828	4812
897.949	4721
898.07	4618
898.19	4626
898.311	4831
898.431	4675
898.552	4771
898.672	4847
898.792	4752
898.913	4801
899.033	4675
899.153	4508
899.273	4451
899.393	4459
899.513	4569
899.633	4569
899.753	4565
899.873	4516
899.993	4618
900.113	4516
900.232	4637
900.352	4550
900.472	4512
900.591	4432
900.711	4497
900.83	4466
900.95	4653
901.069	4725
901.189	4577
901.308	4402
901.427	4394
901.546	4436
901.665	4478
901.784	4550
901.904	4383
902.023	4371
902.141	4227
902.26	4188
902.379	4344
902.498	4272
902.617	4253
902.735	4375
902.854	4398
902.973	4390
903.091	4253
903.21	4287
903.328	4291
903.446	4280
903.565	4280
903.683	4375
903.801	4284
903.919	4421
904.038	4443
904.156	4363
904.274	4466
904.392	4459
904.51	4470
904.627	4451
904.745	4580
904.863	4599
904.981	4405
905.098	4310
905.216	4413
905.334	4451
905.451	4455
905.569	4493
905.686	4607
905.803	4584
905.921	4402
906.038	4573
906.155	4561
906.272	4428
906.389	4538
906.506	4383
906.623	4421
906.74	4466
906.857	4337
906.974	4379
907.091	4622
907.208	4687
907.324	4596
907.441	4500
907.557	4394
907.674	4352
907.79	4341
907.907	4413
908.023	4535
908.139	4478
908.256	4413
908.372	4440
908.488	4462
908.604	4363
908.72	4356
908.836	4413
908.952	4367
909.068	4451
909.184	4618
909.3	4474
909.415	4565
909.531	4588
909.647	4379
909.762	4432
909.878	4318
909.993	4459
910.108	4424
910.224	4459
910.339	4455
910.454	4329
910.57	4344
910.685	4322
910.8	4645
910.915	4603
911.03	4500
911.145	4386
911.259	4325
911.374	4405
911.489	4306
911.604	4310
911.718	4219
911.833	4242
911.947	4124
912.062	4048
912.176	4284
912.291	4272
912.405	4295
912.519	4462
912.633	4538
912.748	4440
912.862	4295
912.976	4261
913.09	4120
913.204	4238
913.318	4257
913.431	4363
913.545	4390
913.659	4500
913.772	4421
913.886	4291
914	4291
914.113	4386
914.226	4497
914.34	4409
914.453	4287
914.566	4440
914.68	4398
914.793	4344
914.906	4173
915.019	4150
915.132	4090
915.245	4211
915.358	4227
915.47	4280
915.583	4261
915.696	4322
915.809	4417
915.921	4466
916.034	4242
916.146	4261
916.259	4246
916.371	4398
916.483	4383
916.595	4291
916.708	4325
916.82	4360
916.932	4356
917.044	4337
917.156	4344
917.268	4253
917.38	4280
917.491	4306
917.603	4398
917.715	4417
917.826	4443
917.938	4363
918.049	4238
918.161	4428
918.272	4573
918.384	4527
918.495	4432
918.606	4303
918.717	4246
918.828	4352
918.939	4386
919.05	4303
919.161	4333
919.272	4086
919.383	4230
919.494	4451
919.604	4630
919.715	4459
919.826	4360
919.936	4451
920.047	4527
920.157	4504
920.267	4679
920.378	4565
920.488	4550
920.598	4748
920.708	4877
920.818	4805
920.928	4843
921.038	4942
921.148	4900
921.258	4630
921.368	4569
921.477	4512
921.587	4481
921.697	4405
921.806	4569
921.916	4417
922.025	4291
922.134	4325
922.244	4215
922.353	4383
922.462	4181
922.571	4135
922.68	4032
922.789	4017
922.898	4063
923.007	4040
923.116	4097
923.224	4105
923.333	4105
923.442	4002
923.55	3987
923.659	4040
923.767	4166
923.876	3975
923.984	4150
924.092	4010
924.201	4093
924.309	4109
924.417	4143
924.525	4097
924.633	4135
924.741	4934
924.849	3930
924.956	4116
925.064	3994
925.172	3945
925.279	4010
925.387	4051
925.494	4055
925.602	4177
925.709	4158
925.816	3998
925.924	4128
926.031	4177
926.138	4154
926.245	4223
926.352	4177
926.459	4276
926.566	4299
926.673	4207
926.779	4109
926.886	4112
926.993	3987
927.099	3945
927.206	3987
927.312	3937
927.419	4082
927.525	4051
927.631	4116
927.737	3941
927.843	3930
927.95	3861
928.056	3918
928.162	4021
928.267	4074
928.373	4664
928.479	4090
928.585	3857
928.69	3968
928.796	4078
928.901	3983
929.007	3861
929.112	4010
929.218	3972
929.323	3968
929.428	3926
929.533	4135
929.638	3949
929.743	3979
929.848	4059
929.953	3968
930.058	3903
930.163	3789
930.267	3808
930.372	3983
930.477	3808
930.581	4101
930.685	3945
930.79	3823
930.894	3918
930.998	3846
931.103	4051
931.207	3724
931.311	3663
931.415	3690
931.519	3568
931.623	3576
