Data from test_V78500241_598.txt Node
Date: Fri Mar 25 16:53:09 CST 2022
User: usil
Spectrometer: V785-0024
Trigger mode: 0
Integration Time (sec): 4.000000E-1
Scans to average: 1
Nonlinearity correction enabled: false
Boxcar width: 0
Storing dark spectrum: false
XAxis mode: Wavelengths
Number of Pixels in Spectrum: 1024
>>>>>Begin Spectral Data<<<<<
801.071	7951
801.214	8012
801.356	7894
801.499	7772
801.641	7731
801.783	7792
801.926	8027
802.068	7982
802.211	7925
802.353	7963
802.496	7826
802.638	7883
802.78	7928
802.923	7864
803.065	7818
803.208	7841
803.35	7967
803.492	8096
803.635	8176
803.777	8035
803.919	8084
804.061	8343
804.204	8107
804.346	8027
804.488	7925
804.63	8145
804.773	7997
804.915	8107
805.057	8290
805.199	8138
805.341	8187
805.483	8256
805.626	8279
805.768	8115
805.91	8119
806.052	8259
806.194	8111
806.336	8290
806.478	8069
806.62	8100
806.762	8149
806.904	8225
807.046	8465
807.188	8328
807.33	8324
807.472	8309
807.614	8130
807.756	8130
807.898	7959
808.04	7822
808.182	7890
808.324	7932
808.465	7902
808.607	8046
808.749	8115
808.891	8240
809.033	8305
809.174	8119
809.316	8012
809.458	8107
809.6	7944
809.741	8069
809.883	8005
810.025	8058
810.166	8062
810.308	7989
810.45	8035
810.591	7830
810.733	7731
810.875	7655
811.016	7533
811.158	7514
811.299	7544
811.441	7738
811.582	7643
811.724	7499
811.865	7518
812.007	7582
812.148	7609
812.29	7578
812.431	7700
812.573	7868
812.714	7898
812.855	8050
812.997	8256
813.138	8355
813.279	8237
813.421	8191
813.562	8027
813.703	7849
813.845	7776
813.986	7502
814.127	7369
814.268	7312
814.41	7266
814.551	7145
814.692	7099
814.833	7072
814.974	7099
815.115	7133
815.256	6947
815.397	6920
815.539	6993
815.68	6795
815.821	6875
815.962	6890
816.103	6859
816.244	6806
816.385	6616
816.526	6620
816.666	6456
816.807	6289
816.948	6388
817.089	6513
817.23	6460
817.371	6342
817.512	6334
817.653	6384
817.793	6407
817.934	6418
818.075	6513
818.216	6441
818.356	6388
818.497	6194
818.638	6140
818.778	6114
818.919	6152
819.06	6121
819.2	6334
819.341	6308
819.481	6353
819.622	6544
819.762	6719
819.903	6642
820.043	6570
820.184	6620
820.324	6608
820.465	6662
820.605	6623
820.746	6642
820.886	6414
821.026	6654
821.167	6726
821.307	6837
821.447	6753
821.588	6623
821.728	6532
821.868	6437
822.008	6323
822.149	6292
822.289	6334
822.429	6117
822.569	6053
822.709	6144
822.849	5870
822.99	5885
823.13	5893
823.27	5885
823.41	5764
823.55	5756
823.69	5695
823.83	5771
823.97	5707
824.11	5554
824.25	5509
824.389	5554
824.529	5558
824.669	5520
824.809	5630
824.949	5638
825.089	5615
825.228	5551
825.368	5330
825.508	5326
825.648	5341
825.787	5353
825.927	5387
826.067	5337
826.206	5299
826.346	5395
826.485	5391
826.625	5402
826.765	5577
826.904	5478
827.044	5250
827.183	5231
827.323	5155
827.462	5212
827.601	5181
827.741	5185
827.88	5136
828.02	5109
828.159	5258
828.298	5273
828.437	5357
828.577	5269
828.716	5448
828.855	5315
828.994	5178
829.134	5109
829.273	5170
829.412	5124
829.551	5140
829.69	5170
829.829	5250
829.968	5360
830.107	5284
830.246	5284
830.385	5170
830.524	5117
830.663	5056
830.802	4999
830.941	4866
831.08	4911
831.219	4946
831.357	4927
831.496	5147
831.635	4881
831.774	4816
831.913	4843
832.051	4729
832.19	4744
832.329	4866
832.467	4721
832.606	4588
832.744	4687
832.883	4714
833.022	4687
833.16	4786
833.299	4854
833.437	4824
833.576	4900
833.714	4892
833.852	4877
833.991	4870
834.129	4904
834.267	4949
834.406	4866
834.544	4942
834.682	4980
834.821	4972
834.959	5109
835.097	4957
835.235	5151
835.373	5071
835.511	5090
835.65	5018
835.788	5083
835.926	4885
836.064	4843
836.202	4889
836.34	5166
836.478	5204
836.615	5140
836.753	5254
836.891	5269
837.029	5208
837.167	5132
837.305	5151
837.443	5109
837.58	5098
837.718	5265
837.856	5124
837.993	5174
838.131	5197
838.269	5185
838.406	5227
838.544	5174
838.681	5033
838.819	4976
838.956	4873
839.094	4923
839.231	4987
839.369	5060
839.506	5387
839.643	5231
839.781	5064
839.918	5010
840.055	5094
840.193	5071
840.33	5083
840.467	5121
840.604	5159
840.742	5345
840.879	5094
841.016	5075
841.153	5121
841.29	5360
841.427	5387
841.564	5318
841.701	5337
841.838	5284
841.975	5223
842.112	5265
842.249	5132
842.385	5033
842.522	5334
842.659	5204
842.796	5189
842.933	5212
843.069	5143
843.206	5166
843.343	5269
843.479	5239
843.616	5227
843.752	4991
843.889	4984
844.025	5189
844.162	5006
844.298	5201
844.435	5083
844.571	5022
844.708	5208
844.844	5296
844.98	5357
845.117	5292
845.253	5117
845.389	5045
845.525	5155
845.661	5083
845.798	5025
845.934	5121
846.07	5060
846.206	5162
846.342	5315
846.478	5216
846.614	4968
846.75	4995
846.886	4915
847.022	5079
847.158	4972
847.294	5105
847.429	5086
847.565	5075
847.701	5330
847.837	4839
847.972	4755
848.108	4976
848.244	4946
848.379	4774
848.515	4782
848.65	4721
848.786	4744
848.921	4778
849.057	4889
849.192	4908
849.328	4809
849.463	4801
849.598	4824
849.734	4744
849.869	4706
850.004	4622
850.14	4622
850.275	4584
850.41	4500
850.545	4546
850.68	4622
850.815	4596
850.95	4660
851.085	4820
851.22	4736
851.355	4725
851.49	4611
851.625	4622
851.76	4653
851.895	4550
852.03	4527
852.165	4649
852.299	4725
852.434	4771
852.569	4702
852.703	4767
852.838	4839
852.973	4934
853.107	4908
853.242	4702
853.376	4561
853.511	4554
853.645	4542
853.78	4805
853.914	4679
854.048	4656
854.183	4645
854.317	4656
854.451	4843
854.585	4675
854.72	4656
854.854	4782
854.988	4588
855.122	4634
855.256	4558
855.39	4637
855.524	4755
855.658	4740
855.792	4698
855.926	4759
856.06	4744
856.194	4733
856.327	4710
856.461	4634
856.595	4634
856.729	4592
856.862	4748
856.996	4725
857.13	4698
857.263	4717
857.397	4755
857.53	4694
857.664	4733
857.797	4752
857.931	4835
858.064	4683
858.197	4786
858.331	4645
858.464	4599
858.597	4531
858.731	4599
858.864	4611
858.997	4634
859.13	4664
859.263	4630
859.396	4691
859.529	4596
859.662	4550
859.795	4584
859.928	4596
860.061	4748
860.194	4706
860.327	4603
860.46	4538
860.592	4710
860.725	4725
860.858	4740
860.99	4592
861.123	4504
861.256	4508
861.388	4577
861.521	5417
861.653	4459
861.786	4443
861.918	4451
862.05	4481
862.183	4558
862.315	4618
862.447	4683
862.58	4573
862.712	4379
862.844	4344
862.976	4424
863.108	4508
863.24	4870
863.372	4306
863.504	4402
863.636	4402
863.768	4535
863.9	4413
864.032	4360
864.164	4398
864.296	4417
864.428	4523
864.559	4573
864.691	4573
864.823	4474
864.954	4497
865.086	4500
865.217	4436
865.349	4432
865.48	4424
865.612	4500
865.743	4656
865.875	4451
866.006	4405
866.137	4436
866.269	4398
866.4	4451
866.531	4398
866.662	4428
866.793	4402
866.924	4428
867.055	4497
867.186	4462
867.317	4360
867.448	4360
867.579	4424
867.71	4421
867.841	4360
867.972	4485
868.103	4504
868.233	4424
868.364	4428
868.495	4504
868.625	4596
868.756	4774
868.886	4565
869.017	4618
869.147	4778
869.278	4714
869.408	4653
869.539	4710
869.669	4721
869.799	4645
869.929	4767
870.06	4687
870.19	4961
870.32	4923
870.45	4919
870.58	5018
870.71	5079
870.84	5060
870.97	4976
871.1	4915
871.23	5151
871.36	5136
871.489	4995
871.619	5037
871.749	5083
871.879	5083
872.008	5170
872.138	5041
872.267	4965
872.397	4839
872.526	4793
872.656	4729
872.785	4812
872.915	4942
873.044	5029
873.173	4938
873.303	4949
873.432	4957
873.561	4942
873.69	4862
873.819	4847
873.948	4972
874.077	4793
874.206	4793
874.335	4790
874.464	4923
874.593	5025
874.722	4965
874.851	5056
874.979	5075
875.108	5037
875.237	4881
875.365	4934
875.494	4877
875.623	4961
875.751	4831
875.88	4843
876.008	4946
876.136	5014
876.265	5155
876.393	5334
876.521	5220
876.65	5269
876.778	5174
876.906	5102
877.034	5041
877.162	4999
877.29	4972
877.418	5025
877.546	5018
877.674	5006
877.802	5041
877.93	4999
878.058	4911
878.185	4866
878.313	4976
878.441	4870
878.568	4812
878.696	4873
878.824	4972
878.951	5006
879.079	5128
879.206	5250
879.333	5060
879.461	5014
879.588	4999
879.715	5109
879.842	5220
879.97	4984
880.097	4805
880.224	4717
880.351	4752
880.478	4828
880.605	4831
880.732	4752
880.859	5113
880.986	4930
881.112	4892
881.239	4778
881.366	4710
881.493	4622
881.619	4611
881.746	4664
881.872	4653
881.999	4694
882.125	4630
882.252	4790
882.378	4843
882.505	4965
882.631	4767
882.757	4691
882.883	4759
883.01	4683
883.136	4679
883.262	4611
883.388	4634
883.514	4805
883.64	4873
883.766	4797
883.892	4664
884.018	4698
884.143	4862
884.269	5014
884.395	4679
884.52	4645
884.646	4653
884.772	4607
884.897	4546
885.023	4698
885.148	4767
885.274	4835
885.399	4790
885.524	4744
885.65	4767
885.775	4717
885.9	4736
886.025	4877
886.15	4801
886.275	4717
886.4	4637
886.525	4725
886.65	4698
886.775	4714
886.9	4866
887.025	5048
887.149	4767
887.274	4622
887.399	4569
887.523	4580
887.648	4569
887.773	4611
887.897	4793
888.021	4763
888.146	4656
888.27	4816
888.395	4854
888.519	4835
888.643	4835
888.767	4839
888.891	4653
889.015	4580
889.139	4630
889.263	4618
889.387	4774
889.511	4843
889.635	4793
889.759	4664
889.883	4603
890.006	4702
890.13	4831
890.254	4588
890.377	4706
890.501	4565
890.624	4573
890.748	4641
890.871	4531
890.995	4440
891.118	4379
891.241	4474
891.364	4531
891.488	4683
891.611	4500
891.734	4558
891.857	4592
891.98	4615
892.103	4626
892.226	4599
892.349	4519
892.471	4428
892.594	4516
892.717	4573
892.839	4577
892.962	4546
893.085	4675
893.207	4580
893.33	4527
893.452	4554
893.575	4641
893.697	4577
893.819	4824
893.941	4816
894.064	4778
894.186	4577
894.308	4569
894.43	4729
894.552	4793
894.674	4755
894.796	4550
894.918	4527
895.04	4622
895.161	4698
895.283	4653
895.405	4516
895.526	4626
895.648	4641
895.769	4691
895.891	4714
896.012	4698
896.134	4725
896.255	4706
896.376	4641
896.498	4626
896.619	4694
896.74	4580
896.861	4630
896.982	4896
897.103	5098
897.224	4828
897.345	4771
897.466	4660
897.587	4733
897.708	4862
897.828	4793
897.949	4645
898.07	4596
898.19	4653
898.311	4835
898.431	4687
898.552	4717
898.672	4854
898.792	4835
898.913	4786
899.033	4622
899.153	4459
899.273	4474
899.393	4504
899.513	4538
899.633	4519
899.753	4535
899.873	4493
899.993	4592
900.113	4546
900.232	4607
900.352	4584
900.472	4493
900.591	4413
900.711	4504
900.83	4512
900.95	4569
901.069	4668
901.189	4504
901.308	4367
901.427	4280
901.546	4367
901.665	4466
901.784	4519
901.904	4398
902.023	4333
902.141	4204
902.26	4196
902.379	4306
902.498	4257
902.617	4230
902.735	4390
902.854	4394
902.973	4333
903.091	4177
903.21	4207
903.328	4284
903.446	4287
903.565	4242
903.683	4375
903.801	4306
903.919	4413
904.038	4462
904.156	4272
904.274	4459
904.392	4379
904.51	4405
904.627	4554
904.745	4580
904.863	4634
904.981	4405
905.098	4348
905.216	4352
905.334	4405
905.451	4440
905.569	4417
905.686	4546
905.803	4558
905.921	4432
906.038	4516
906.155	4413
906.272	4390
906.389	4447
906.506	4375
906.623	4394
906.74	4375
906.857	4306
906.974	4344
907.091	4588
907.208	4694
907.324	4592
907.441	4546
907.557	4333
907.674	4398
907.79	4310
907.907	4360
908.023	4489
908.139	4474
908.256	4424
908.372	4470
908.488	4462
908.604	4367
908.72	4314
908.836	4371
908.952	4367
909.068	4413
909.184	4584
909.3	4485
909.415	4599
909.531	4538
909.647	4352
909.762	4402
909.878	4363
909.993	4440
910.108	4436
910.224	4409
910.339	4512
910.454	4417
910.57	4390
910.685	4318
910.8	4622
910.915	4588
911.03	4447
911.145	4341
911.259	4322
911.374	4371
911.489	4291
911.604	4303
911.718	4223
911.833	4162
911.947	4128
912.062	4010
912.176	4192
912.291	4272
912.405	4204
912.519	4436
912.633	4546
912.748	4383
912.862	4318
912.976	4196
913.09	4090
913.204	4188
913.318	4268
913.431	4386
913.545	4352
913.659	4440
913.772	4371
913.886	4265
914	4257
914.113	4379
914.226	4440
914.34	4421
914.453	4249
914.566	4409
914.68	4337
914.793	4333
914.906	4177
915.019	4131
915.132	4063
915.245	4169
915.358	4192
915.47	4230
915.583	4261
915.696	4314
915.809	4386
915.921	4443
916.034	4268
916.146	4253
916.259	4185
916.371	4398
916.483	4329
916.595	4276
916.708	4314
916.82	4284
916.932	4280
917.044	4360
917.156	4329
917.268	4253
917.38	4276
917.491	4265
917.603	4367
917.715	4383
917.826	4447
917.938	4341
918.049	4272
918.161	4390
918.272	4538
918.384	4592
918.495	4481
918.606	4299
918.717	4261
918.828	4341
918.939	4348
919.05	4242
919.161	4352
919.272	4177
919.383	4276
919.494	4402
919.604	4649
919.715	4447
919.826	4318
919.936	4386
920.047	4519
920.157	4489
920.267	4759
920.378	4569
920.488	4478
920.598	4691
920.708	4870
920.818	4778
920.928	4755
921.038	4949
921.148	4919
921.258	4599
921.368	4577
921.477	4497
921.587	4447
921.697	4344
921.806	4523
921.916	4459
922.025	4272
922.134	4318
922.244	4223
922.353	4333
922.462	4188
922.571	4116
922.68	3998
922.789	3922
922.898	4067
923.007	3987
923.116	4071
923.224	4082
923.333	4093
923.442	3972
923.55	3972
923.659	4086
923.767	4150
923.876	3998
923.984	4112
924.092	4013
924.201	4059
924.309	4082
924.417	4120
924.525	4071
924.633	4090
924.741	5052
924.849	3926
924.956	4131
925.064	3941
925.172	3945
925.279	3968
925.387	4044
925.494	4051
925.602	4215
925.709	4215
925.816	4051
925.924	4128
926.031	4276
926.138	4128
926.245	4196
926.352	4071
926.459	4219
926.566	4329
926.673	4169
926.779	4090
926.886	4051
926.993	3972
927.099	3956
927.206	3930
927.312	3903
927.419	4097
927.525	4044
927.631	4078
927.737	4010
927.843	3964
927.95	3850
928.056	3975
928.162	3937
928.267	4067
928.373	4656
928.479	4074
928.585	3911
928.69	4021
928.796	4059
928.901	4010
929.007	3831
929.112	4032
929.218	3964
929.323	3953
929.428	3956
929.533	4112
929.638	3899
929.743	3964
929.848	4010
929.953	3987
930.058	3960
930.163	3804
930.267	3835
930.372	3998
930.477	3819
930.581	4078
930.685	3911
930.79	3823
930.894	3876
930.998	3827
931.103	4010
931.207	3713
931.311	3660
931.415	3705
931.519	3526
931.623	3580
