Data from test_V78500241_2324.txt Node
Date: Fri Mar 25 17:05:09 CST 2022
User: usil
Spectrometer: V785-0024
Trigger mode: 0
Integration Time (sec): 4.000000E-1
Scans to average: 1
Nonlinearity correction enabled: false
Boxcar width: 0
Storing dark spectrum: false
XAxis mode: Wavelengths
Number of Pixels in Spectrum: 1024
>>>>>Begin Spectral Data<<<<<
801.071	8024
801.214	8046
801.356	7875
801.499	7879
801.641	7753
801.783	7864
801.926	7959
802.068	8001
802.211	7993
802.353	8008
802.496	7868
802.638	7890
802.78	7989
802.923	7936
803.065	7982
803.208	7845
803.35	8020
803.492	8065
803.635	8180
803.777	8046
803.919	8111
804.061	8507
804.204	8138
804.346	8081
804.488	7986
804.63	8168
804.773	7963
804.915	8084
805.057	8282
805.199	8191
805.341	8214
805.483	8237
805.626	8240
805.768	8164
805.91	8145
806.052	8199
806.194	8138
806.336	8282
806.478	8081
806.62	8119
806.762	8176
806.904	8240
807.046	8374
807.188	8351
807.33	8332
807.472	8332
807.614	8195
807.756	8111
807.898	7978
808.04	7811
808.182	7875
808.324	7967
808.465	7906
808.607	8134
808.749	8130
808.891	8176
809.033	8336
809.174	8180
809.316	8069
809.458	8115
809.6	8043
809.741	8073
809.883	8054
810.025	8096
810.166	8001
810.308	8012
810.45	7974
810.591	7894
810.733	7795
810.875	7693
811.016	7510
811.158	7518
811.299	7636
811.441	7681
811.582	7670
811.724	7575
811.865	7510
812.007	7624
812.148	7559
812.29	7620
812.431	7731
812.573	7879
812.714	8001
812.855	8145
812.997	8206
813.138	8248
813.279	8191
813.421	8088
813.562	8016
813.703	7860
813.845	7696
813.986	7464
814.127	7244
814.268	7217
814.41	7194
814.551	7187
814.692	7232
814.833	7046
814.974	7168
815.115	7141
815.256	6970
815.397	6947
815.539	6962
815.68	6810
815.821	6760
815.962	6894
816.103	6821
816.244	6703
816.385	6719
816.526	6646
816.666	6509
816.807	6311
816.948	6452
817.089	6509
817.23	6395
817.371	6445
817.512	6342
817.653	6407
817.793	6369
817.934	6441
818.075	6429
818.216	6460
818.356	6456
818.497	6281
818.638	6114
818.778	6197
818.919	6140
819.06	6163
819.2	6315
819.341	6372
819.481	6391
819.622	6582
819.762	6703
819.903	6719
820.043	6646
820.184	6593
820.324	6601
820.465	6707
820.605	6665
820.746	6703
820.886	6532
821.026	6650
821.167	6734
821.307	6802
821.447	6764
821.588	6692
821.728	6574
821.868	6448
822.008	6346
822.149	6410
822.289	6334
822.429	6205
822.569	6076
822.709	6091
822.849	5973
822.99	5923
823.13	5931
823.27	5939
823.41	5882
823.55	5832
823.69	5737
823.83	5794
823.97	5729
824.11	5535
824.25	5497
824.389	5592
824.529	5615
824.669	5562
824.809	5608
824.949	5691
825.089	5547
825.228	5570
825.368	5444
825.508	5318
825.648	5341
825.787	5372
825.927	5429
826.067	5261
826.206	5326
826.346	5387
826.485	5425
826.625	5398
826.765	5554
826.904	5444
827.044	5292
827.183	5204
827.323	5162
827.462	5254
827.601	5189
827.741	5227
827.88	5231
828.02	5113
828.159	5250
828.298	5307
828.437	5345
828.577	5307
828.716	5478
828.855	5334
828.994	5143
829.134	5147
829.273	5201
829.412	5136
829.551	5132
829.69	5212
829.829	5223
829.968	5387
830.107	5246
830.246	5254
830.385	5185
830.524	5121
830.663	5071
830.802	5022
830.941	4858
831.08	4873
831.219	5037
831.357	4961
831.496	5166
831.635	4949
831.774	4824
831.913	4858
832.051	4744
832.19	4725
832.329	4816
832.467	4710
832.606	4630
832.744	4668
832.883	4725
833.022	4706
833.16	4759
833.299	4839
833.437	4862
833.576	4843
833.714	4828
833.852	4850
833.991	4908
834.129	4995
834.267	4961
834.406	4896
834.544	4957
834.682	4965
834.821	4919
834.959	5124
835.097	5025
835.235	5113
835.373	5109
835.511	5132
835.65	4999
835.788	5018
835.926	4862
836.064	4904
836.202	4881
836.34	5174
836.478	5254
836.615	5162
836.753	5166
836.891	5254
837.029	5174
837.167	5212
837.305	5216
837.443	5121
837.58	5079
837.718	5231
837.856	5151
837.993	5147
838.131	5254
838.269	5197
838.406	5170
838.544	5216
838.681	4999
838.819	4984
838.956	4911
839.094	4919
839.231	5029
839.369	5045
839.506	5433
839.643	5212
839.781	5060
839.918	5037
840.055	5041
840.193	5151
840.33	5166
840.467	5083
840.604	5189
840.742	5482
840.879	5105
841.016	5109
841.153	5140
841.29	5395
841.427	5349
841.564	5326
841.701	5368
841.838	5299
841.975	5250
842.112	5220
842.249	5132
842.385	5105
842.522	5307
842.659	5151
842.796	5128
842.933	5204
843.069	5166
843.206	5094
843.343	5296
843.479	5197
843.616	5269
843.752	5010
843.889	4995
844.025	5246
844.162	4999
844.298	5181
844.435	5067
844.571	5041
844.708	5223
844.844	5254
844.98	5364
845.117	5296
845.253	5159
845.389	5117
845.525	5155
845.661	5174
845.798	5056
845.934	5113
846.07	5006
846.206	5216
846.342	5220
846.478	5166
846.614	5010
846.75	4965
846.886	4949
847.022	5147
847.158	5010
847.294	5010
847.429	5117
847.565	5037
847.701	5376
847.837	4877
847.972	4820
848.108	4946
848.244	4938
848.379	4744
848.515	4763
848.65	4706
848.786	4755
848.921	4740
849.057	4858
849.192	4873
849.328	4778
849.463	4866
849.598	4816
849.734	4782
849.869	4706
850.004	4637
850.14	4668
850.275	4664
850.41	4542
850.545	4592
850.68	4603
850.815	4577
850.95	4615
851.085	4839
851.22	4752
851.355	4679
851.49	4611
851.625	4637
851.76	4653
851.895	4603
852.03	4535
852.165	4645
852.299	4744
852.434	4748
852.569	4736
852.703	4778
852.838	4889
852.973	4877
853.107	4908
853.242	4729
853.376	4668
853.511	4527
853.645	4588
853.78	4858
853.914	4637
854.048	4679
854.183	4653
854.317	4729
854.451	4847
854.585	4679
854.72	4626
854.854	4729
854.988	4588
855.122	4660
855.256	4508
855.39	4672
855.524	4752
855.658	4729
855.792	4706
855.926	4714
856.06	4759
856.194	4790
856.327	4721
856.461	4630
856.595	4618
856.729	4599
856.862	4736
856.996	4714
857.13	4710
857.263	4786
857.397	4763
857.53	4649
857.664	4717
857.797	4748
857.931	4790
858.064	4717
858.197	4752
858.331	4714
858.464	4577
858.597	4504
858.731	4618
858.864	4569
858.997	4584
859.13	4679
859.263	4694
859.396	4687
859.529	4584
859.662	4538
859.795	4542
859.928	4626
860.061	4774
860.194	4744
860.327	4611
860.46	4542
860.592	4725
860.725	4740
860.858	4733
860.99	4596
861.123	4550
861.256	4535
861.388	4634
861.521	5345
861.653	4462
861.786	4436
861.918	4462
862.05	4558
862.183	4569
862.315	4603
862.447	4653
862.58	4569
862.712	4428
862.844	4329
862.976	4489
863.108	4451
863.24	4911
863.372	4280
863.504	4398
863.636	4390
863.768	4481
863.9	4443
864.032	4367
864.164	4409
864.296	4508
864.428	4577
864.559	4588
864.691	4504
864.823	4569
864.954	4474
865.086	4550
865.217	4470
865.349	4405
865.48	4462
865.612	4455
865.743	4656
865.875	4440
866.006	4440
866.137	4500
866.269	4451
866.4	4440
866.531	4428
866.662	4394
866.793	4398
866.924	4413
867.055	4519
867.186	4447
867.317	4443
867.448	4394
867.579	4390
867.71	4405
867.841	4341
867.972	4508
868.103	4466
868.233	4459
868.364	4459
868.495	4470
868.625	4668
868.756	4729
868.886	4550
869.017	4626
869.147	4755
869.278	4767
869.408	4660
869.539	4622
869.669	4755
869.799	4626
869.929	4717
870.06	4698
870.19	5003
870.32	4908
870.45	4942
870.58	5025
870.71	5113
870.84	5056
870.97	4961
871.1	4896
871.23	5140
871.36	5113
871.489	5052
871.619	5075
871.749	5048
871.879	5147
872.008	5159
872.138	5056
872.267	5014
872.397	4839
872.526	4828
872.656	4755
872.785	4786
872.915	4930
873.044	4999
873.173	4930
873.303	4984
873.432	4923
873.561	4934
873.69	4881
873.819	4885
873.948	4919
874.077	4870
874.206	4771
874.335	4805
874.464	4972
874.593	5060
874.722	4984
874.851	5052
874.979	4999
875.108	5041
875.237	4938
875.365	4885
875.494	4866
875.623	4942
875.751	4858
875.88	4877
876.008	4934
876.136	5018
876.265	5201
876.393	5341
876.521	5246
876.65	5235
876.778	5174
876.906	5048
877.034	5025
877.162	5003
877.29	4968
877.418	5056
877.546	5041
877.674	5083
877.802	5003
877.93	5006
878.058	4953
878.185	4873
878.313	4987
878.441	4900
878.568	4835
878.696	4904
878.824	4923
878.951	4991
879.079	5098
879.206	5330
879.333	5060
879.461	5022
879.588	4984
879.715	5083
879.842	5174
879.97	5037
880.097	4744
880.224	4740
880.351	4812
880.478	4812
880.605	4843
880.732	4786
880.859	5113
880.986	4896
881.112	4908
881.239	4744
881.366	4702
881.493	4607
881.619	4603
881.746	4565
881.872	4599
881.999	4698
882.125	4691
882.252	4748
882.378	4847
882.505	4938
882.631	4816
882.757	4710
882.883	4679
883.01	4725
883.136	4668
883.262	4596
883.388	4592
883.514	4862
883.64	4870
883.766	4778
883.892	4664
884.018	4717
884.143	4873
884.269	4968
884.395	4759
884.52	4603
884.646	4592
884.772	4569
884.897	4573
885.023	4664
885.148	4790
885.274	4809
885.399	4828
885.524	4702
885.65	4710
885.775	4702
885.9	4759
886.025	4831
886.15	4736
886.275	4698
886.4	4664
886.525	4710
886.65	4645
886.775	4679
886.9	4881
887.025	5022
887.149	4801
887.274	4656
887.399	4588
887.523	4550
887.648	4542
887.773	4618
887.897	4774
888.021	4774
888.146	4683
888.27	4816
888.395	4919
888.519	4809
888.643	4839
888.767	4812
888.891	4683
889.015	4577
889.139	4664
889.263	4584
889.387	4763
889.511	4839
889.635	4816
889.759	4672
889.883	4626
890.006	4702
890.13	4862
890.254	4660
890.377	4653
890.501	4535
890.624	4508
890.748	4675
890.871	4504
890.995	4428
891.118	4363
891.241	4478
891.364	4512
891.488	4634
891.611	4516
891.734	4523
891.857	4603
891.98	4527
892.103	4607
892.226	4607
892.349	4500
892.471	4428
892.594	4519
892.717	4603
892.839	4531
892.962	4607
893.085	4615
893.207	4603
893.33	4455
893.452	4500
893.575	4622
893.697	4577
893.819	4824
893.941	4824
894.064	4767
894.186	4573
894.308	4558
894.43	4664
894.552	4812
894.674	4744
894.796	4569
894.918	4615
895.04	4508
895.161	4752
895.283	4637
895.405	4561
895.526	4592
895.648	4691
895.769	4668
895.891	4717
896.012	4767
896.134	4721
896.255	4656
896.376	4603
896.498	4607
896.619	4637
896.74	4554
896.861	4641
896.982	4930
897.103	5090
897.224	4816
897.345	4759
897.466	4656
897.587	4656
897.708	4870
897.828	4778
897.949	4668
898.07	4542
898.19	4656
898.311	4835
898.431	4641
898.552	4755
898.672	4809
898.792	4805
898.913	4721
899.033	4618
899.153	4519
899.273	4390
899.393	4485
899.513	4462
899.633	4554
899.753	4523
899.873	4500
899.993	4618
900.113	4527
900.232	4622
900.352	4519
900.472	4512
900.591	4405
900.711	4474
900.83	4386
900.95	4672
901.069	4683
901.189	4493
901.308	4337
901.427	4341
901.546	4379
901.665	4451
901.784	4508
901.904	4413
902.023	4329
902.141	4219
902.26	4223
902.379	4337
902.498	4253
902.617	4223
902.735	4306
902.854	4402
902.973	4360
903.091	4219
903.21	4242
903.328	4333
903.446	4253
903.565	4219
903.683	4375
903.801	4291
903.919	4447
904.038	4424
904.156	4333
904.274	4443
904.392	4386
904.51	4421
904.627	4447
904.745	4607
904.863	4618
904.981	4383
905.098	4268
905.216	4329
905.334	4394
905.451	4398
905.569	4386
905.686	4542
905.803	4603
905.921	4440
906.038	4580
906.155	4504
906.272	4405
906.389	4443
906.506	4284
906.623	4344
906.74	4363
906.857	4257
906.974	4360
907.091	4550
907.208	4641
907.324	4603
907.441	4504
907.557	4318
907.674	4360
907.79	4333
907.907	4360
908.023	4478
908.139	4451
908.256	4428
908.372	4478
908.488	4447
908.604	4337
908.72	4344
908.836	4363
908.952	4356
909.068	4462
909.184	4535
909.3	4474
909.415	4584
909.531	4523
909.647	4394
909.762	4363
909.878	4341
909.993	4443
910.108	4428
910.224	4375
910.339	4466
910.454	4394
910.57	4329
910.685	4333
910.8	4649
910.915	4611
911.03	4481
911.145	4333
911.259	4318
911.374	4348
911.489	4287
911.604	4261
911.718	4169
911.833	4207
911.947	4093
912.062	4032
912.176	4230
912.291	4268
912.405	4261
912.519	4455
912.633	4485
912.748	4360
912.862	4325
912.976	4204
913.09	4124
913.204	4185
913.318	4280
913.431	4394
913.545	4386
913.659	4436
913.772	4383
913.886	4238
914	4200
914.113	4371
914.226	4413
914.34	4386
914.453	4227
914.566	4428
914.68	4268
914.793	4314
914.906	4169
915.019	4124
915.132	4071
915.245	4211
915.358	4188
915.47	4284
915.583	4242
915.696	4310
915.809	4428
915.921	4394
916.034	4234
916.146	4257
916.259	4249
916.371	4390
916.483	4352
916.595	4314
916.708	4306
916.82	4325
916.932	4291
917.044	4314
917.156	4287
917.268	4227
917.38	4227
917.491	4303
917.603	4333
917.715	4405
917.826	4405
917.938	4352
918.049	4227
918.161	4386
918.272	4577
918.384	4535
918.495	4443
918.606	4280
918.717	4227
918.828	4314
918.939	4447
919.05	4280
919.161	4306
919.272	4120
919.383	4227
919.494	4493
919.604	4607
919.715	4405
919.826	4394
919.936	4398
920.047	4519
920.157	4538
920.267	4637
920.378	4531
920.488	4481
920.598	4660
920.708	4900
920.818	4729
920.928	4717
921.038	4961
921.148	4908
921.258	4607
921.368	4561
921.477	4500
921.587	4493
921.697	4383
921.806	4596
921.916	4436
922.025	4238
922.134	4272
922.244	4230
922.353	4356
922.462	4185
922.571	4143
922.68	4040
922.789	3953
922.898	4032
923.007	3945
923.116	4135
923.224	4055
923.333	4082
923.442	3991
923.55	3972
923.659	4006
923.767	4097
923.876	4017
923.984	4131
924.092	3975
924.201	4029
924.309	4071
924.417	4169
924.525	4048
924.633	4090
924.741	5006
924.849	3941
924.956	4158
925.064	3949
925.172	3915
925.279	3968
925.387	4063
925.494	4032
925.602	4234
925.709	4166
925.816	4029
925.924	4105
926.031	4261
926.138	4192
926.245	4227
926.352	4093
926.459	4196
926.566	4291
926.673	4177
926.779	4116
926.886	4021
926.993	3991
927.099	3949
927.206	3945
927.312	3953
927.419	4036
927.525	3998
927.631	4093
927.737	3953
927.843	3934
927.95	3842
928.056	3979
928.162	3972
928.267	4055
928.373	4687
928.479	4093
928.585	3865
928.69	4051
928.796	4059
928.901	3949
929.007	3850
929.112	3964
929.218	3991
929.323	3930
929.428	3937
929.533	4086
929.638	3899
929.743	3975
929.848	4048
929.953	4032
930.058	3956
930.163	3766
930.267	3816
930.372	3937
930.477	3804
930.581	4086
930.685	3975
930.79	3823
930.894	3892
930.998	3880
931.103	4051
931.207	3701
931.311	3698
931.415	3686
931.519	3530
931.623	3561
