Data from test_V78500241_170.txt Node
Date: Fri Mar 25 16:50:11 CST 2022
User: usil
Spectrometer: V785-0024
Trigger mode: 0
Integration Time (sec): 4.000000E-1
Scans to average: 1
Nonlinearity correction enabled: false
Boxcar width: 0
Storing dark spectrum: false
XAxis mode: Wavelengths
Number of Pixels in Spectrum: 1024
>>>>>Begin Spectral Data<<<<<
801.071	8035
801.214	8016
801.356	7940
801.499	7906
801.641	7799
801.783	7864
801.926	7993
802.068	7940
802.211	8039
802.353	7970
802.496	7871
802.638	7868
802.78	7936
802.923	7845
803.065	7826
803.208	7940
803.35	7993
803.492	8024
803.635	8153
803.777	7951
803.919	8092
804.061	8305
804.204	8126
804.346	8043
804.488	7986
804.63	8123
804.773	7917
804.915	8054
805.057	8214
805.199	8046
805.341	8195
805.483	8259
805.626	8240
805.768	8065
805.91	8176
806.052	8134
806.194	8020
806.336	8290
806.478	8103
806.62	8039
806.762	8119
806.904	8206
807.046	8415
807.188	8267
807.33	8218
807.472	8290
807.614	8218
807.756	8100
807.898	7986
808.04	7928
808.182	7906
808.324	7909
808.465	7944
808.607	8012
808.749	8054
808.891	8172
809.033	8343
809.174	8290
809.316	8008
809.458	8065
809.6	7928
809.741	8016
809.883	8043
810.025	8115
810.166	7974
810.308	8020
810.45	7989
810.591	7928
810.733	7746
810.875	7636
811.016	7586
811.158	7449
811.299	7563
811.441	7769
811.582	7696
811.724	7575
811.865	7552
812.007	7655
812.148	7597
812.29	7590
812.431	7727
812.573	7917
812.714	8039
812.855	8229
812.997	8313
813.138	8294
813.279	8183
813.421	8145
813.562	7928
813.703	7864
813.845	7833
813.986	7422
814.127	7293
814.268	7213
814.41	7225
814.551	7160
814.692	7285
814.833	7110
814.974	7099
815.115	7118
815.256	6947
815.397	6920
815.539	6844
815.68	6890
815.821	6818
815.962	6901
816.103	6844
816.244	6741
816.385	6673
816.526	6608
816.666	6555
816.807	6300
816.948	6433
817.089	6456
817.23	6486
817.371	6433
817.512	6376
817.653	6410
817.793	6376
817.934	6391
818.075	6414
818.216	6418
818.356	6407
818.497	6266
818.638	6114
818.778	6167
818.919	6136
819.06	6163
819.2	6331
819.341	6361
819.481	6334
819.622	6544
819.762	6722
819.903	6700
820.043	6597
820.184	6563
820.324	6547
820.465	6722
820.605	6738
820.746	6639
820.886	6547
821.026	6627
821.167	6681
821.307	6791
821.447	6798
821.588	6650
821.728	6608
821.868	6509
822.008	6331
822.149	6403
822.289	6365
822.429	6136
822.569	6076
822.709	6186
822.849	5874
822.99	5942
823.13	5935
823.27	5923
823.41	5851
823.55	5745
823.69	5710
823.83	5798
823.97	5668
824.11	5528
824.25	5551
824.389	5562
824.529	5581
824.669	5509
824.809	5630
824.949	5665
825.089	5649
825.228	5558
825.368	5425
825.508	5284
825.648	5376
825.787	5440
825.927	5395
826.067	5334
826.206	5296
826.346	5357
826.485	5410
826.625	5421
826.765	5528
826.904	5471
827.044	5284
827.183	5227
827.323	5109
827.462	5246
827.601	5174
827.741	5201
827.88	5227
828.02	5174
828.159	5227
828.298	5326
828.437	5417
828.577	5280
828.716	5497
828.855	5349
828.994	5151
829.134	5155
829.273	5227
829.412	5155
829.551	5155
829.69	5181
829.829	5261
829.968	5398
830.107	5273
830.246	5299
830.385	5189
830.524	5132
830.663	5102
830.802	4949
830.941	4930
831.08	4839
831.219	5033
831.357	4976
831.496	5086
831.635	4961
831.774	4854
831.913	4839
832.051	4763
832.19	4752
832.329	4831
832.467	4668
832.606	4672
832.744	4702
832.883	4717
833.022	4729
833.16	4767
833.299	4790
833.437	4831
833.576	4858
833.714	4877
833.852	4831
833.991	4892
834.129	4980
834.267	5003
834.406	4839
834.544	5029
834.682	4999
834.821	4938
834.959	5147
835.097	5010
835.235	5140
835.373	5075
835.511	5155
835.65	4991
835.788	5071
835.926	4892
836.064	4915
836.202	4915
836.34	5143
836.478	5254
836.615	5094
836.753	5235
836.891	5280
837.029	5239
837.167	5261
837.305	5189
837.443	5162
837.58	5029
837.718	5250
837.856	5185
837.993	5185
838.131	5201
838.269	5254
838.406	5204
838.544	5155
838.681	5090
838.819	5003
838.956	4911
839.094	4923
839.231	4953
839.369	5045
839.506	5433
839.643	5261
839.781	5071
839.918	4987
840.055	5143
840.193	5090
840.33	5136
840.467	5174
840.604	5197
840.742	5410
840.879	5029
841.016	5064
841.153	5166
841.29	5429
841.427	5318
841.564	5341
841.701	5379
841.838	5261
841.975	5189
842.112	5250
842.249	5178
842.385	5048
842.522	5330
842.659	5185
842.796	5132
842.933	5181
843.069	5159
843.206	5086
843.343	5345
843.479	5299
843.616	5280
843.752	5014
843.889	5029
844.025	5250
844.162	4980
844.298	5201
844.435	5086
844.571	5033
844.708	5204
844.844	5315
844.98	5391
845.117	5280
845.253	5147
845.389	5132
845.525	5132
845.661	5159
845.798	5010
845.934	5124
846.07	5060
846.206	5162
846.342	5284
846.478	5235
846.614	5060
846.75	5037
846.886	4972
847.022	5113
847.158	5060
847.294	5086
847.429	5140
847.565	5014
847.701	5299
847.837	4831
847.972	4824
848.108	4927
848.244	4927
848.379	4748
848.515	4755
848.65	4744
848.786	4748
848.921	4778
849.057	4839
849.192	4942
849.328	4843
849.463	4835
849.598	4843
849.734	4759
849.869	4702
850.004	4634
850.14	4702
850.275	4645
850.41	4558
850.545	4554
850.68	4580
850.815	4607
850.95	4687
851.085	4885
851.22	4748
851.355	4687
851.49	4622
851.625	4675
851.76	4656
851.895	4531
852.03	4542
852.165	4660
852.299	4706
852.434	4801
852.569	4748
852.703	4771
852.838	4870
852.973	4942
853.107	4938
853.242	4774
853.376	4653
853.511	4565
853.645	4637
853.78	4816
853.914	4744
854.048	4653
854.183	4599
854.317	4729
854.451	4870
854.585	4645
854.72	4679
854.854	4740
854.988	4611
855.122	4637
855.256	4542
855.39	4626
855.524	4763
855.658	4714
855.792	4660
855.926	4740
856.06	4725
856.194	4824
856.327	4714
856.461	4626
856.595	4645
856.729	4611
856.862	4733
856.996	4752
857.13	4698
857.263	4752
857.397	4801
857.53	4637
857.664	4721
857.797	4774
857.931	4805
858.064	4691
858.197	4790
858.331	4660
858.464	4634
858.597	4527
858.731	4637
858.864	4645
858.997	4584
859.13	4660
859.263	4710
859.396	4725
859.529	4554
859.662	4535
859.795	4519
859.928	4588
860.061	4793
860.194	4706
860.327	4588
860.46	4550
860.592	4729
860.725	4721
860.858	4752
860.99	4626
861.123	4542
861.256	4546
861.388	4641
861.521	5398
861.653	4474
861.786	4447
861.918	4443
862.05	4580
862.183	4573
862.315	4561
862.447	4660
862.58	4542
862.712	4413
862.844	4367
862.976	4478
863.108	4451
863.24	4854
863.372	4329
863.504	4390
863.636	4432
863.768	4466
863.9	4474
864.032	4398
864.164	4413
864.296	4478
864.428	4538
864.559	4527
864.691	4565
864.823	4527
864.954	4489
865.086	4493
865.217	4500
865.349	4379
865.48	4455
865.612	4542
865.743	4660
865.875	4489
866.006	4447
866.137	4489
866.269	4462
866.4	4485
866.531	4402
866.662	4440
866.793	4398
866.924	4436
867.055	4519
867.186	4466
867.317	4451
867.448	4375
867.579	4383
867.71	4367
867.841	4371
867.972	4508
868.103	4462
868.233	4440
868.364	4447
868.495	4504
868.625	4675
868.756	4759
868.886	4584
869.017	4626
869.147	4778
869.278	4774
869.408	4664
869.539	4668
869.669	4763
869.799	4702
869.929	4733
870.06	4755
870.19	4972
870.32	4957
870.45	4968
870.58	4999
870.71	5048
870.84	5079
870.97	4942
871.1	4919
871.23	5151
871.36	5109
871.489	4987
871.619	5052
871.749	5105
871.879	5064
872.008	5136
872.138	5052
872.267	4995
872.397	4881
872.526	4778
872.656	4763
872.785	4797
872.915	4946
873.044	4999
873.173	4881
873.303	4991
873.432	4965
873.561	4949
873.69	4862
873.819	4881
873.948	4934
874.077	4809
874.206	4771
874.335	4820
874.464	4927
874.593	5117
874.722	4987
874.851	5105
874.979	5056
875.108	5052
875.237	4919
875.365	4862
875.494	4850
875.623	4938
875.751	4801
875.88	4881
876.008	4965
876.136	5086
876.265	5193
876.393	5360
876.521	5201
876.65	5261
876.778	5170
876.906	5060
877.034	5041
877.162	5060
877.29	4968
877.418	5037
877.546	5045
877.674	4987
877.802	5075
877.93	5018
878.058	4938
878.185	4858
878.313	4965
878.441	4961
878.568	4820
878.696	4911
878.824	5003
878.951	5037
879.079	5136
879.206	5284
879.333	5102
879.461	4995
879.588	5033
879.715	5147
879.842	5242
879.97	4995
880.097	4759
880.224	4706
880.351	4786
880.478	4850
880.605	4797
880.732	4828
880.859	5098
880.986	4862
881.112	4957
881.239	4790
881.366	4683
881.493	4645
881.619	4554
881.746	4653
881.872	4664
881.999	4626
882.125	4694
882.252	4858
882.378	4908
882.505	4968
882.631	4801
882.757	4649
882.883	4752
883.01	4733
883.136	4675
883.262	4580
883.388	4611
883.514	4835
883.64	4854
883.766	4824
883.892	4668
884.018	4706
884.143	4885
884.269	5060
884.395	4664
884.52	4653
884.646	4656
884.772	4561
884.897	4546
885.023	4656
885.148	4755
885.274	4896
885.399	4824
885.524	4725
885.65	4736
885.775	4721
885.9	4698
886.025	4847
886.15	4767
886.275	4702
886.4	4653
886.525	4706
886.65	4653
886.775	4698
886.9	4927
887.025	5056
887.149	4858
887.274	4710
887.399	4580
887.523	4603
887.648	4607
887.773	4634
887.897	4805
888.021	4862
888.146	4714
888.27	4835
888.395	4927
888.519	4793
888.643	4812
888.767	4816
888.891	4717
889.015	4618
889.139	4653
889.263	4649
889.387	4759
889.511	4938
889.635	4824
889.759	4668
889.883	4687
890.006	4786
890.13	4877
890.254	4668
890.377	4729
890.501	4618
890.624	4561
890.748	4630
890.871	4607
890.995	4493
891.118	4424
891.241	4611
891.364	4580
891.488	4687
891.611	4546
891.734	4618
891.857	4611
891.98	4645
892.103	4691
892.226	4622
892.349	4592
892.471	4508
892.594	4573
892.717	4675
892.839	4588
892.962	4660
893.085	4725
893.207	4668
893.33	4459
893.452	4588
893.575	4698
893.697	4626
893.819	4824
893.941	4866
894.064	4839
894.186	4641
894.308	4580
894.43	4805
894.552	4873
894.674	4793
894.796	4622
894.918	4660
895.04	4637
895.161	4752
895.283	4778
895.405	4672
895.526	4687
895.648	4721
895.769	4740
895.891	4767
896.012	4767
896.134	4763
896.255	4725
896.376	4706
896.498	4683
896.619	4744
896.74	4706
896.861	4672
896.982	4972
897.103	5124
897.224	4873
897.345	4831
897.466	4717
897.587	4790
897.708	4915
897.828	4858
897.949	4675
898.07	4599
898.19	4687
898.311	4900
898.431	4717
898.552	4778
898.672	4911
898.792	4911
898.913	4809
899.033	4664
899.153	4577
899.273	4470
899.393	4561
899.513	4546
899.633	4577
899.753	4611
899.873	4573
899.993	4615
900.113	4607
900.232	4675
900.352	4634
900.472	4542
900.591	4485
900.711	4538
900.83	4489
900.95	4637
901.069	4767
901.189	4580
901.308	4436
901.427	4356
901.546	4428
901.665	4516
901.784	4558
901.904	4398
902.023	4375
902.141	4234
902.26	4196
902.379	4310
902.498	4276
902.617	4306
902.735	4424
902.854	4481
902.973	4394
903.091	4265
903.21	4242
903.328	4325
903.446	4341
903.565	4291
903.683	4432
903.801	4306
903.919	4432
904.038	4428
904.156	4390
904.274	4504
904.392	4443
904.51	4470
904.627	4470
904.745	4630
904.863	4687
904.981	4474
905.098	4329
905.216	4367
905.334	4474
905.451	4466
905.569	4474
905.686	4622
905.803	4607
905.921	4478
906.038	4577
906.155	4531
906.272	4432
906.389	4455
906.506	4375
906.623	4413
906.74	4440
906.857	4383
906.974	4383
907.091	4588
907.208	4691
907.324	4580
907.441	4538
907.557	4390
907.674	4386
907.79	4386
907.907	4402
908.023	4474
908.139	4535
908.256	4485
908.372	4500
908.488	4504
908.604	4405
908.72	4417
908.836	4394
908.952	4386
909.068	4470
909.184	4611
909.3	4504
909.415	4649
909.531	4588
909.647	4424
909.762	4440
909.878	4417
909.993	4470
910.108	4474
910.224	4455
910.339	4512
910.454	4409
910.57	4432
910.685	4295
910.8	4698
910.915	4645
911.03	4508
911.145	4390
911.259	4405
911.374	4424
911.489	4329
911.604	4280
911.718	4211
911.833	4284
911.947	4124
912.062	4097
912.176	4234
912.291	4280
912.405	4284
912.519	4516
912.633	4546
912.748	4440
912.862	4360
912.976	4253
913.09	4147
913.204	4242
913.318	4291
913.431	4413
913.545	4363
913.659	4516
913.772	4409
913.886	4291
914	4242
914.113	4443
914.226	4516
914.34	4443
914.453	4333
914.566	4459
914.68	4341
914.793	4394
914.906	4200
915.019	4192
915.132	4128
915.245	4261
915.358	4261
915.47	4287
915.583	4291
915.696	4314
915.809	4451
915.921	4451
916.034	4352
916.146	4306
916.259	4268
916.371	4470
916.483	4447
916.595	4287
916.708	4356
916.82	4325
916.932	4398
917.044	4375
917.156	4356
917.268	4249
917.38	4360
917.491	4322
917.603	4402
917.715	4478
917.826	4474
917.938	4379
918.049	4291
918.161	4481
918.272	4588
918.384	4599
918.495	4470
918.606	4337
918.717	4306
918.828	4383
918.939	4402
919.05	4344
919.161	4344
919.272	4162
919.383	4284
919.494	4500
919.604	4714
919.715	4428
919.826	4394
919.936	4424
920.047	4618
920.157	4497
920.267	4736
920.378	4599
920.488	4542
920.598	4744
920.708	4915
920.818	4843
920.928	4786
921.038	5025
921.148	4949
921.258	4717
921.368	4622
921.477	4592
921.587	4470
921.697	4405
921.806	4542
921.916	4478
922.025	4341
922.134	4360
922.244	4261
922.353	4360
922.462	4215
922.571	4185
922.68	4059
922.789	4006
922.898	4044
923.007	4040
923.116	4139
923.224	4093
923.333	4158
923.442	4044
923.55	4025
923.659	4097
923.767	4166
923.876	4017
923.984	4158
924.092	4044
924.201	4090
924.309	4086
924.417	4162
924.525	4071
924.633	4150
924.741	4927
924.849	3949
924.956	4169
925.064	3991
925.172	3979
925.279	3975
925.387	4097
925.494	4055
925.602	4246
925.709	4223
925.816	4086
925.924	4166
926.031	4246
926.138	4177
926.245	4261
926.352	4097
926.459	4325
926.566	4314
926.673	4219
926.779	4112
926.886	4120
926.993	4021
927.099	4040
927.206	3972
927.312	3987
927.419	4093
927.525	4063
927.631	4120
927.737	3972
927.843	3934
927.95	3892
928.056	4006
928.162	4044
928.267	4074
928.373	4755
928.479	4166
928.585	3903
928.69	4086
928.796	4120
928.901	4021
929.007	3892
929.112	4063
929.218	4006
929.323	3953
929.428	3972
929.533	4154
929.638	3960
929.743	3956
929.848	4086
929.953	3987
930.058	4006
930.163	3804
930.267	3816
930.372	4032
930.477	3846
930.581	4173
930.685	4017
930.79	3819
930.894	3972
930.998	3899
931.103	4074
931.207	3808
931.311	3740
931.415	3713
931.519	3580
931.623	3595
