Data from test_V78500241_494.txt Node
Date: Fri Mar 25 16:52:26 CST 2022
User: usil
Spectrometer: V785-0024
Trigger mode: 0
Integration Time (sec): 4.000000E-1
Scans to average: 1
Nonlinearity correction enabled: false
Boxcar width: 0
Storing dark spectrum: false
XAxis mode: Wavelengths
Number of Pixels in Spectrum: 1024
>>>>>Begin Spectral Data<<<<<
801.071	8024
801.214	8039
801.356	7826
801.499	7826
801.641	7795
801.783	7792
801.926	8001
802.068	8001
802.211	8016
802.353	8001
802.496	7841
802.638	7837
802.78	7898
802.923	7906
803.065	7868
803.208	7811
803.35	7928
803.492	8142
803.635	8161
803.777	7974
803.919	8119
804.061	8381
804.204	8123
804.346	7967
804.488	7921
804.63	8119
804.773	7925
804.915	8092
805.057	8259
805.199	8183
805.341	8206
805.483	8244
805.626	8088
805.768	8073
805.91	8134
806.052	8195
806.194	8100
806.336	8263
806.478	8081
806.62	8111
806.762	8126
806.904	8248
807.046	8404
807.188	8279
807.33	8233
807.472	8256
807.614	8145
807.756	8111
807.898	7997
808.04	7921
808.182	7951
808.324	7902
808.465	7860
808.607	8012
808.749	8016
808.891	8202
809.033	8244
809.174	8176
809.316	8031
809.458	7989
809.6	7959
809.741	7993
809.883	8073
810.025	8081
810.166	8035
810.308	7989
810.45	7940
810.591	7909
810.733	7772
810.875	7655
811.016	7476
811.158	7449
811.299	7613
811.441	7658
811.582	7689
811.724	7601
811.865	7525
812.007	7586
812.148	7548
812.29	7616
812.431	7780
812.573	7883
812.714	8088
812.855	8176
812.997	8206
813.138	8377
813.279	8233
813.421	8130
813.562	8043
813.703	7868
813.845	7761
813.986	7548
814.127	7350
814.268	7343
814.41	7225
814.551	7228
814.692	7183
814.833	7050
814.974	7149
815.115	7152
815.256	6966
815.397	6905
815.539	6943
815.68	6825
815.821	6821
815.962	6901
816.103	6871
816.244	6741
816.385	6673
816.526	6608
816.666	6525
816.807	6258
816.948	6452
817.089	6456
817.23	6422
817.371	6380
817.512	6353
817.653	6384
817.793	6331
817.934	6445
818.075	6486
818.216	6426
818.356	6407
818.497	6213
818.638	6129
818.778	6125
818.919	6121
819.06	6140
819.2	6308
819.341	6281
819.481	6319
819.622	6494
819.762	6749
819.903	6692
820.043	6563
820.184	6528
820.324	6589
820.465	6681
820.605	6654
820.746	6593
820.886	6525
821.026	6662
821.167	6658
821.307	6745
821.447	6753
821.588	6623
821.728	6540
821.868	6464
822.008	6277
822.149	6365
822.289	6292
822.429	6133
822.569	6068
822.709	6125
822.849	5931
822.99	5809
823.13	5859
823.27	5889
823.41	5809
823.55	5786
823.69	5760
823.83	5775
823.97	5657
824.11	5493
824.25	5478
824.389	5623
824.529	5558
824.669	5547
824.809	5623
824.949	5649
825.089	5615
825.228	5478
825.368	5379
825.508	5360
825.648	5334
825.787	5391
825.927	5402
826.067	5303
826.206	5345
826.346	5414
826.485	5402
826.625	5417
826.765	5589
826.904	5459
827.044	5216
827.183	5162
827.323	5147
827.462	5181
827.601	5162
827.741	5189
827.88	5181
828.02	5109
828.159	5303
828.298	5277
828.437	5322
828.577	5280
828.716	5493
828.855	5334
828.994	5162
829.134	5166
829.273	5181
829.412	5159
829.551	5056
829.69	5128
829.829	5284
829.968	5311
830.107	5288
830.246	5246
830.385	5174
830.524	5121
830.663	5067
830.802	4976
830.941	4908
831.08	4889
831.219	5010
831.357	4995
831.496	5147
831.635	4904
831.774	4866
831.913	4854
832.051	4683
832.19	4721
832.329	4835
832.467	4694
832.606	4649
832.744	4729
832.883	4714
833.022	4729
833.16	4782
833.299	4824
833.437	4812
833.576	4866
833.714	4847
833.852	4866
833.991	4858
834.129	4984
834.267	4961
834.406	4946
834.544	4946
834.682	4976
834.821	4999
834.959	5117
835.097	4995
835.235	5143
835.373	5102
835.511	5060
835.65	5022
835.788	5052
835.926	4949
836.064	4877
836.202	4881
836.34	5124
836.478	5284
836.615	5151
836.753	5231
836.891	5261
837.029	5258
837.167	5201
837.305	5136
837.443	5102
837.58	5075
837.718	5204
837.856	5140
837.993	5170
838.131	5261
838.269	5147
838.406	5174
838.544	5185
838.681	4999
838.819	5022
838.956	4915
839.094	4938
839.231	5014
839.369	5041
839.506	5406
839.643	5296
839.781	5086
839.918	5041
840.055	5105
840.193	5086
840.33	5075
840.467	5174
840.604	5193
840.742	5436
840.879	5037
841.016	5090
841.153	5143
841.29	5292
841.427	5368
841.564	5322
841.701	5379
841.838	5318
841.975	5231
842.112	5258
842.249	5162
842.385	5098
842.522	5315
842.659	5166
842.796	5102
842.933	5193
843.069	5162
843.206	5174
843.343	5288
843.479	5246
843.616	5242
843.752	5045
843.889	5022
844.025	5235
844.162	5018
844.298	5208
844.435	5121
844.571	5018
844.708	5204
844.844	5288
844.98	5322
845.117	5376
845.253	5113
845.389	5071
845.525	5151
845.661	5132
845.798	5048
845.934	5136
846.07	5086
846.206	5216
846.342	5303
846.478	5147
846.614	5014
846.75	4968
846.886	4923
847.022	5155
847.158	5033
847.294	5083
847.429	5162
847.565	5094
847.701	5311
847.837	4847
847.972	4793
848.108	4911
848.244	4946
848.379	4790
848.515	4706
848.65	4736
848.786	4759
848.921	4809
849.057	4854
849.192	4930
849.328	4828
849.463	4816
849.598	4797
849.734	4744
849.869	4679
850.004	4622
850.14	4641
850.275	4615
850.41	4546
850.545	4588
850.68	4603
850.815	4656
850.95	4607
851.085	4866
851.22	4759
851.355	4645
851.49	4592
851.625	4634
851.76	4675
851.895	4535
852.03	4466
852.165	4649
852.299	4691
852.434	4755
852.569	4714
852.703	4816
852.838	4850
852.973	4930
853.107	4885
853.242	4702
853.376	4615
853.511	4546
853.645	4634
853.78	4801
853.914	4710
854.048	4653
854.183	4645
854.317	4706
854.451	4839
854.585	4672
854.72	4618
854.854	4710
854.988	4558
855.122	4668
855.256	4527
855.39	4668
855.524	4767
855.658	4748
855.792	4675
855.926	4767
856.06	4801
856.194	4850
856.327	4649
856.461	4630
856.595	4645
856.729	4618
856.862	4774
856.996	4725
857.13	4702
857.263	4767
857.397	4782
857.53	4634
857.664	4755
857.797	4729
857.931	4793
858.064	4706
858.197	4729
858.331	4664
858.464	4584
858.597	4569
858.731	4660
858.864	4637
858.997	4618
859.13	4618
859.263	4691
859.396	4702
859.529	4607
859.662	4565
859.795	4527
859.928	4664
860.061	4759
860.194	4706
860.327	4580
860.46	4535
860.592	4706
860.725	4698
860.858	4694
860.99	4599
861.123	4489
861.256	4516
861.388	4577
861.521	5322
861.653	4508
861.786	4470
861.918	4424
862.05	4512
862.183	4599
862.315	4615
862.447	4634
862.58	4550
862.712	4432
862.844	4360
862.976	4481
863.108	4447
863.24	4733
863.372	4348
863.504	4413
863.636	4398
863.768	4500
863.9	4443
864.032	4363
864.164	4360
864.296	4500
864.428	4538
864.559	4584
864.691	4535
864.823	4527
864.954	4512
865.086	4493
865.217	4440
865.349	4413
865.48	4462
865.612	4474
865.743	4649
865.875	4447
866.006	4409
866.137	4462
866.269	4443
866.4	4440
866.531	4402
866.662	4386
866.793	4390
866.924	4436
867.055	4546
867.186	4478
867.317	4485
867.448	4421
867.579	4413
867.71	4398
867.841	4341
867.972	4478
868.103	4497
868.233	4436
868.364	4413
868.495	4481
868.625	4668
868.756	4763
868.886	4542
869.017	4649
869.147	4744
869.278	4820
869.408	4641
869.539	4656
869.669	4710
869.799	4675
869.929	4725
870.06	4675
870.19	5022
870.32	4946
870.45	4946
870.58	5033
870.71	5105
870.84	5113
870.97	4927
871.1	4847
871.23	5109
871.36	5132
871.489	4999
871.619	5045
871.749	5124
871.879	5098
872.008	5166
872.138	5079
872.267	4965
872.397	4786
872.526	4866
872.656	4675
872.785	4797
872.915	4976
873.044	5025
873.173	4930
873.303	4934
873.432	4961
873.561	4934
873.69	4915
873.819	4854
873.948	4908
874.077	4797
874.206	4748
874.335	4786
874.464	4892
874.593	5064
874.722	4946
874.851	5105
874.979	5052
875.108	5018
875.237	4858
875.365	4953
875.494	4915
875.623	4976
875.751	4828
875.88	4889
876.008	4972
876.136	5025
876.265	5181
876.393	5296
876.521	5246
876.65	5246
876.778	5185
876.906	5098
877.034	5025
877.162	5079
877.29	4961
877.418	5071
877.546	5045
877.674	5010
877.802	5064
877.93	5025
878.058	4987
878.185	4870
878.313	4968
878.441	4942
878.568	4805
878.696	4900
878.824	4961
878.951	4999
879.079	5174
879.206	5307
879.333	5124
879.461	5025
879.588	5064
879.715	5086
879.842	5193
879.97	4968
880.097	4839
880.224	4714
880.351	4843
880.478	4793
880.605	4839
880.732	4809
880.859	5113
880.986	4862
881.112	4930
881.239	4782
881.366	4660
881.493	4660
881.619	4618
881.746	4653
881.872	4626
881.999	4618
882.125	4668
882.252	4767
882.378	4812
882.505	5010
882.631	4790
882.757	4630
882.883	4729
883.01	4733
883.136	4672
883.262	4626
883.388	4622
883.514	4801
883.64	4866
883.766	4816
883.892	4698
884.018	4733
884.143	4889
884.269	5018
884.395	4664
884.52	4596
884.646	4641
884.772	4599
884.897	4565
885.023	4649
885.148	4805
885.274	4866
885.399	4820
885.524	4649
885.65	4694
885.775	4748
885.9	4721
886.025	4847
886.15	4748
886.275	4702
886.4	4660
886.525	4687
886.65	4653
886.775	4694
886.9	4881
887.025	5033
887.149	4786
887.274	4618
887.399	4611
887.523	4603
887.648	4603
887.773	4580
887.897	4755
888.021	4786
888.146	4656
888.27	4850
888.395	4896
888.519	4812
888.643	4809
888.767	4820
888.891	4702
889.015	4641
889.139	4660
889.263	4592
889.387	4759
889.511	4881
889.635	4771
889.759	4603
889.883	4645
890.006	4729
890.13	4793
890.254	4592
890.377	4706
890.501	4546
890.624	4523
890.748	4607
890.871	4519
890.995	4436
891.118	4413
891.241	4493
891.364	4554
891.488	4683
891.611	4508
891.734	4558
891.857	4645
891.98	4565
892.103	4672
892.226	4592
892.349	4519
892.471	4462
892.594	4596
892.717	4569
892.839	4626
892.962	4603
893.085	4698
893.207	4656
893.33	4497
893.452	4516
893.575	4618
893.697	4573
893.819	4828
893.941	4790
894.064	4767
894.186	4592
894.308	4596
894.43	4759
894.552	4835
894.674	4725
894.796	4542
894.918	4645
895.04	4565
895.161	4759
895.283	4611
895.405	4577
895.526	4637
895.648	4694
895.769	4725
895.891	4683
896.012	4786
896.134	4736
896.255	4660
896.376	4626
896.498	4592
896.619	4683
896.74	4607
896.861	4660
896.982	4930
897.103	5018
897.224	4790
897.345	4774
897.466	4706
897.587	4691
897.708	4877
897.828	4790
897.949	4706
898.07	4577
898.19	4649
898.311	4767
898.431	4668
898.552	4729
898.672	4767
898.792	4866
898.913	4778
899.033	4626
899.153	4474
899.273	4485
899.393	4519
899.513	4535
899.633	4531
899.753	4569
899.873	4565
899.993	4592
900.113	4527
900.232	4588
900.352	4527
900.472	4500
900.591	4447
900.711	4504
900.83	4409
900.95	4618
901.069	4679
901.189	4550
901.308	4291
901.427	4295
901.546	4360
901.665	4440
901.784	4508
901.904	4413
902.023	4318
902.141	4169
902.26	4147
902.379	4280
902.498	4261
902.617	4253
902.735	4405
902.854	4402
902.973	4344
903.091	4204
903.21	4188
903.328	4329
903.446	4272
903.565	4268
903.683	4329
903.801	4306
903.919	4451
904.038	4443
904.156	4287
904.274	4413
904.392	4413
904.51	4413
904.627	4443
904.745	4577
904.863	4577
904.981	4428
905.098	4344
905.216	4383
905.334	4421
905.451	4443
905.569	4489
905.686	4546
905.803	4550
905.921	4409
906.038	4569
906.155	4470
906.272	4432
906.389	4459
906.506	4344
906.623	4375
906.74	4402
906.857	4356
906.974	4383
907.091	4538
907.208	4725
907.324	4596
907.441	4535
907.557	4329
907.674	4390
907.79	4306
907.907	4394
908.023	4516
908.139	4516
908.256	4428
908.372	4443
908.488	4440
908.604	4348
908.72	4325
908.836	4405
908.952	4367
909.068	4443
909.184	4580
909.3	4451
909.415	4561
909.531	4596
909.647	4341
909.762	4352
909.878	4371
909.993	4443
910.108	4424
910.224	4413
910.339	4451
910.454	4371
910.57	4379
910.685	4333
910.8	4592
910.915	4588
911.03	4527
911.145	4303
911.259	4318
911.374	4344
911.489	4268
911.604	4280
911.718	4173
911.833	4230
911.947	4116
912.062	3987
912.176	4238
912.291	4242
912.405	4265
912.519	4466
912.633	4535
912.748	4379
912.862	4356
912.976	4230
913.09	4109
913.204	4147
913.318	4261
913.431	4383
913.545	4413
913.659	4462
913.772	4394
913.886	4234
914	4242
914.113	4409
914.226	4493
914.34	4413
914.453	4227
914.566	4443
914.68	4284
914.793	4325
914.906	4158
915.019	4131
915.132	4059
915.245	4173
915.358	4181
915.47	4238
915.583	4249
915.696	4268
915.809	4386
915.921	4417
916.034	4287
916.146	4268
916.259	4238
916.371	4398
916.483	4322
916.595	4280
916.708	4310
916.82	4329
916.932	4314
917.044	4314
917.156	4325
917.268	4207
917.38	4257
917.491	4314
917.603	4363
917.715	4443
917.826	4451
917.938	4348
918.049	4253
918.161	4371
918.272	4565
918.384	4538
918.495	4440
918.606	4261
918.717	4211
918.828	4379
918.939	4398
919.05	4265
919.161	4306
919.272	4116
919.383	4215
919.494	4405
919.604	4626
919.715	4455
919.826	4352
919.936	4402
920.047	4508
920.157	4474
920.267	4683
920.378	4512
920.488	4481
920.598	4714
920.708	4885
920.818	4710
920.928	4763
921.038	4930
921.148	4889
921.258	4645
921.368	4565
921.477	4459
921.587	4474
921.697	4394
921.806	4558
921.916	4447
922.025	4310
922.134	4238
922.244	4242
922.353	4325
922.462	4154
922.571	4097
922.68	4021
922.789	3972
922.898	4078
923.007	3998
923.116	4105
923.224	4051
923.333	4036
923.442	3979
923.55	4010
923.659	4013
923.767	4109
923.876	4036
923.984	4162
924.092	3953
924.201	4078
924.309	4112
924.417	4093
924.525	4013
924.633	4143
924.741	5098
924.849	3960
924.956	4109
925.064	3979
925.172	3907
925.279	3941
925.387	4017
925.494	4040
925.602	4215
925.709	4200
925.816	4017
925.924	4139
926.031	4272
926.138	4158
926.245	4173
926.352	4067
926.459	4268
926.566	4299
926.673	4173
926.779	4074
926.886	4143
926.993	3968
927.099	3956
927.206	3956
927.312	3964
927.419	4051
927.525	3972
927.631	4097
927.737	3975
927.843	3964
927.95	3846
928.056	3934
928.162	4036
928.267	4074
928.373	4702
928.479	4147
928.585	3854
928.69	4010
928.796	4078
928.901	3956
929.007	3896
929.112	4006
929.218	4021
929.323	3956
929.428	3907
929.533	4131
929.638	3911
929.743	4002
929.848	4044
929.953	3998
930.058	3922
930.163	3797
930.267	3819
930.372	3987
930.477	3831
930.581	4097
930.685	3964
930.79	3827
930.894	3930
930.998	3846
931.103	4013
931.207	3690
931.311	3724
931.415	3663
931.519	3526
931.623	3538
