Data from test_V78500241_2040.txt Node
Date: Fri Mar 25 17:03:11 CST 2022
User: usil
Spectrometer: V785-0024
Trigger mode: 0
Integration Time (sec): 4.000000E-1
Scans to average: 1
Nonlinearity correction enabled: false
Boxcar width: 0
Storing dark spectrum: false
XAxis mode: Wavelengths
Number of Pixels in Spectrum: 1024
>>>>>Begin Spectral Data<<<<<
801.071	7993
801.214	7978
801.356	7940
801.499	7814
801.641	7833
801.783	7852
801.926	7902
802.068	7921
802.211	7982
802.353	8016
802.496	7883
802.638	7955
802.78	7875
802.923	7875
803.065	7875
803.208	7852
803.35	7906
803.492	8142
803.635	8214
803.777	8088
803.919	8149
804.061	8427
804.204	8176
804.346	8103
804.488	8008
804.63	8119
804.773	8062
804.915	8138
805.057	8339
805.199	8168
805.341	8229
805.483	8248
805.626	8263
805.768	8161
805.91	8210
806.052	8282
806.194	8123
806.336	8347
806.478	8180
806.62	8142
806.762	8199
806.904	8347
807.046	8583
807.188	8351
807.33	8332
807.472	8309
807.614	8161
807.756	8225
807.898	8050
808.04	7982
808.182	7947
808.324	7967
808.465	7856
808.607	8069
808.749	8149
808.891	8199
809.033	8313
809.174	8263
809.316	8077
809.458	8111
809.6	7974
809.741	8054
809.883	8050
810.025	8115
810.166	8081
810.308	8031
810.45	8005
810.591	7841
810.733	7738
810.875	7677
811.016	7544
811.158	7502
811.299	7597
811.441	7696
811.582	7696
811.724	7575
811.865	7563
812.007	7578
812.148	7594
812.29	7632
812.431	7750
812.573	7913
812.714	8005
812.855	8153
812.997	8256
813.138	8286
813.279	8180
813.421	8027
813.562	7921
813.703	7784
813.845	7731
813.986	7438
814.127	7259
814.268	7232
814.41	7209
814.551	7213
814.692	7209
814.833	7053
814.974	7168
815.115	7122
815.256	6985
815.397	7023
815.539	6977
815.68	6745
815.821	6840
815.962	6818
816.103	6840
816.244	6711
816.385	6639
816.526	6604
816.666	6490
816.807	6350
816.948	6486
817.089	6445
817.23	6456
817.371	6376
817.512	6372
817.653	6418
817.793	6388
817.934	6418
818.075	6471
818.216	6536
818.356	6475
818.497	6296
818.638	6182
818.778	6232
818.919	6144
819.06	6190
819.2	6399
819.341	6334
819.481	6365
819.622	6513
819.762	6722
819.903	6738
820.043	6604
820.184	6616
820.324	6570
820.465	6745
820.605	6635
820.746	6616
820.886	6490
821.026	6635
821.167	6673
821.307	6814
821.447	6734
821.588	6692
821.728	6574
821.868	6498
822.008	6372
822.149	6372
822.289	6395
822.429	6175
822.569	6159
822.709	6136
822.849	5954
822.99	5939
823.13	5980
823.27	5870
823.41	5836
823.55	5863
823.69	5771
823.83	5760
823.97	5703
824.11	5558
824.25	5589
824.389	5589
824.529	5611
824.669	5532
824.809	5611
824.949	5623
825.089	5653
825.228	5577
825.368	5368
825.508	5398
825.648	5387
825.787	5425
825.927	5410
826.067	5360
826.206	5280
826.346	5406
826.485	5398
826.625	5444
826.765	5585
826.904	5471
827.044	5246
827.183	5212
827.323	5117
827.462	5239
827.601	5140
827.741	5201
827.88	5223
828.02	5117
828.159	5277
828.298	5277
828.437	5398
828.577	5318
828.716	5493
828.855	5303
828.994	5178
829.134	5181
829.273	5227
829.412	5197
829.551	5162
829.69	5166
829.829	5208
829.968	5376
830.107	5284
830.246	5326
830.385	5208
830.524	5124
830.663	5067
830.802	5014
830.941	4919
831.08	4908
831.219	5003
831.357	4995
831.496	5155
831.635	4911
831.774	4877
831.913	4809
832.051	4710
832.19	4774
832.329	4854
832.467	4694
832.606	4641
832.744	4668
832.883	4752
833.022	4725
833.16	4778
833.299	4835
833.437	4835
833.576	4809
833.714	4889
833.852	4892
833.991	4934
834.129	4949
834.267	4930
834.406	4934
834.544	4995
834.682	4987
834.821	4957
834.959	5162
835.097	5003
835.235	5143
835.373	5086
835.511	5105
835.65	5079
835.788	5048
835.926	4908
836.064	4896
836.202	4919
836.34	5231
836.478	5242
836.615	5090
836.753	5250
836.891	5299
837.029	5258
837.167	5227
837.305	5143
837.443	5143
837.58	5117
837.718	5242
837.856	5181
837.993	5181
838.131	5231
838.269	5201
838.406	5204
838.544	5174
838.681	5033
838.819	5014
838.956	4889
839.094	4835
839.231	5029
839.369	5143
839.506	5452
839.643	5284
839.781	5003
839.918	5041
840.055	5037
840.193	5075
840.33	5083
840.467	5121
840.604	5159
840.742	5410
840.879	5052
841.016	5064
841.153	5155
841.29	5341
841.427	5322
841.564	5330
841.701	5357
841.838	5315
841.975	5223
842.112	5288
842.249	5132
842.385	5124
842.522	5334
842.659	5151
842.796	5178
842.933	5185
843.069	5121
843.206	5124
843.343	5349
843.479	5235
843.616	5277
843.752	4991
843.889	5006
844.025	5216
844.162	5022
844.298	5250
844.435	5102
844.571	5029
844.708	5212
844.844	5288
844.98	5425
845.117	5349
845.253	5140
845.389	5033
845.525	5193
845.661	5128
845.798	5025
845.934	5132
846.07	4984
846.206	5216
846.342	5273
846.478	5189
846.614	4999
846.75	4999
846.886	4889
847.022	5166
847.158	5003
847.294	5083
847.429	5086
847.565	5117
847.701	5307
847.837	4915
847.972	4816
848.108	4942
848.244	4911
848.379	4767
848.515	4755
848.65	4706
848.786	4717
848.921	4778
849.057	4877
849.192	4892
849.328	4805
849.463	4858
849.598	4782
849.734	4767
849.869	4710
850.004	4653
850.14	4683
850.275	4618
850.41	4565
850.545	4558
850.68	4622
850.815	4653
850.95	4626
851.085	4862
851.22	4805
851.355	4744
851.49	4607
851.625	4668
851.76	4630
851.895	4603
852.03	4512
852.165	4668
852.299	4687
852.434	4790
852.569	4797
852.703	4755
852.838	4850
852.973	4980
853.107	4942
853.242	4771
853.376	4683
853.511	4592
853.645	4694
853.78	4854
853.914	4797
854.048	4721
854.183	4675
854.317	4733
854.451	4839
854.585	4710
854.72	4634
854.854	4824
854.988	4584
855.122	4634
855.256	4561
855.39	4717
855.524	4782
855.658	4771
855.792	4714
855.926	4763
856.06	4828
856.194	4824
856.327	4763
856.461	4653
856.595	4637
856.729	4702
856.862	4786
856.996	4729
857.13	4755
857.263	4843
857.397	4862
857.53	4721
857.664	4763
857.797	4801
857.931	4812
858.064	4725
858.197	4786
858.331	4683
858.464	4675
858.597	4615
858.731	4618
858.864	4679
858.997	4664
859.13	4660
859.263	4721
859.396	4725
859.529	4622
859.662	4622
859.795	4599
859.928	4710
860.061	4778
860.194	4786
860.327	4622
860.46	4588
860.592	4710
860.725	4748
860.858	4755
860.99	4580
861.123	4558
861.256	4561
861.388	4645
861.521	5254
861.653	4516
861.786	4493
861.918	4558
862.05	4550
862.183	4615
862.315	4603
862.447	4607
862.58	4546
862.712	4417
862.844	4390
862.976	4531
863.108	4481
863.24	4820
863.372	4314
863.504	4455
863.636	4462
863.768	4523
863.9	4500
864.032	4394
864.164	4455
864.296	4538
864.428	4569
864.559	4599
864.691	4599
864.823	4554
864.954	4474
865.086	4519
865.217	4470
865.349	4440
865.48	4481
865.612	4558
865.743	4691
865.875	4516
866.006	4481
866.137	4466
866.269	4497
866.4	4550
866.531	4447
866.662	4390
866.793	4462
866.924	4443
867.055	4478
867.186	4474
867.317	4428
867.448	4348
867.579	4428
867.71	4394
867.841	4443
867.972	4474
868.103	4497
868.233	4470
868.364	4497
868.495	4497
868.625	4694
868.756	4774
868.886	4599
869.017	4615
869.147	4805
869.278	4801
869.408	4687
869.539	4706
869.669	4710
869.799	4717
869.929	4778
870.06	4736
870.19	5014
870.32	4942
870.45	4999
870.58	5010
870.71	5121
870.84	5136
870.97	4965
871.1	4919
871.23	5174
871.36	5204
871.489	5052
871.619	5079
871.749	5143
871.879	5113
872.008	5197
872.138	5086
872.267	5014
872.397	4892
872.526	4858
872.656	4694
872.785	4862
872.915	4927
873.044	5083
873.173	4980
873.303	4965
873.432	4976
873.561	5018
873.69	4919
873.819	4892
873.948	4995
874.077	4828
874.206	4755
874.335	4831
874.464	4923
874.593	5090
874.722	4991
874.851	5121
874.979	5033
875.108	5060
875.237	4957
875.365	4881
875.494	4873
875.623	4999
875.751	4797
875.88	4904
876.008	5060
876.136	5048
876.265	5246
876.393	5334
876.521	5303
876.65	5284
876.778	5216
876.906	5041
877.034	5064
877.162	5079
877.29	5029
877.418	5083
877.546	5056
877.674	5056
877.802	5014
877.93	5033
878.058	4987
878.185	4911
878.313	4942
878.441	4976
878.568	4831
878.696	4930
878.824	5014
878.951	5010
879.079	5170
879.206	5296
879.333	5109
879.461	5075
879.588	5052
879.715	5155
879.842	5242
879.97	5060
880.097	4843
880.224	4763
880.351	4831
880.478	4812
880.605	4847
880.732	4809
880.859	5086
880.986	4858
881.112	4957
881.239	4854
881.366	4687
881.493	4626
881.619	4596
881.746	4687
881.872	4679
881.999	4691
882.125	4721
882.252	4793
882.378	4866
882.505	4976
882.631	4809
882.757	4691
882.883	4733
883.01	4763
883.136	4710
883.262	4637
883.388	4634
883.514	4843
883.64	4831
883.766	4843
883.892	4694
884.018	4786
884.143	4911
884.269	5010
884.395	4668
884.52	4630
884.646	4660
884.772	4626
884.897	4577
885.023	4679
885.148	4782
885.274	4885
885.399	4801
885.524	4748
885.65	4714
885.775	4790
885.9	4748
886.025	4923
886.15	4801
886.275	4717
886.4	4698
886.525	4759
886.65	4691
886.775	4714
886.9	4911
887.025	5052
887.149	4843
887.274	4649
887.399	4626
887.523	4626
887.648	4592
887.773	4622
887.897	4816
888.021	4748
888.146	4771
888.27	4824
888.395	4885
888.519	4847
888.643	4824
888.767	4862
888.891	4710
889.015	4592
889.139	4649
889.263	4672
889.387	4778
889.511	4877
889.635	4797
889.759	4672
889.883	4611
890.006	4786
890.13	4858
890.254	4653
890.377	4645
890.501	4569
890.624	4573
890.748	4637
890.871	4535
890.995	4485
891.118	4417
891.241	4538
891.364	4577
891.488	4618
891.611	4512
891.734	4565
891.857	4584
891.98	4561
892.103	4649
892.226	4634
892.349	4565
892.471	4462
892.594	4573
892.717	4649
892.839	4573
892.962	4607
893.085	4656
893.207	4599
893.33	4493
893.452	4546
893.575	4656
893.697	4622
893.819	4831
893.941	4828
894.064	4778
894.186	4611
894.308	4603
894.43	4725
894.552	4885
894.674	4771
894.796	4603
894.918	4626
895.04	4584
895.161	4771
895.283	4683
895.405	4588
895.526	4660
895.648	4694
895.769	4679
895.891	4729
896.012	4759
896.134	4694
896.255	4698
896.376	4653
896.498	4630
896.619	4752
896.74	4634
896.861	4698
896.982	4999
897.103	5117
897.224	4911
897.345	4763
897.466	4664
897.587	4748
897.708	4866
897.828	4771
897.949	4740
898.07	4584
898.19	4668
898.311	4835
898.431	4710
898.552	4733
898.672	4824
898.792	4816
898.913	4740
899.033	4653
899.153	4508
899.273	4481
899.393	4592
899.513	4580
899.633	4546
899.753	4584
899.873	4584
899.993	4634
900.113	4519
900.232	4588
900.352	4546
900.472	4504
900.591	4409
900.711	4470
900.83	4432
900.95	4599
901.069	4717
901.189	4558
901.308	4390
901.427	4352
901.546	4375
901.665	4451
901.784	4577
901.904	4447
902.023	4329
902.141	4196
902.26	4192
902.379	4306
902.498	4295
902.617	4223
902.735	4398
902.854	4379
902.973	4390
903.091	4192
903.21	4265
903.328	4333
903.446	4303
903.565	4261
903.683	4375
903.801	4299
903.919	4383
904.038	4489
904.156	4310
904.274	4466
904.392	4394
904.51	4466
904.627	4489
904.745	4565
904.863	4698
904.981	4436
905.098	4329
905.216	4432
905.334	4459
905.451	4455
905.569	4447
905.686	4596
905.803	4592
905.921	4478
906.038	4531
906.155	4481
906.272	4379
906.389	4462
906.506	4352
906.623	4405
906.74	4405
906.857	4310
906.974	4405
907.091	4546
907.208	4710
907.324	4584
907.441	4542
907.557	4348
907.674	4356
907.79	4356
907.907	4386
908.023	4489
908.139	4485
908.256	4462
908.372	4451
908.488	4478
908.604	4333
908.72	4306
908.836	4447
908.952	4367
909.068	4428
909.184	4611
909.3	4535
909.415	4599
909.531	4596
909.647	4386
909.762	4405
909.878	4379
909.993	4451
910.108	4394
910.224	4398
910.339	4519
910.454	4421
910.57	4348
910.685	4318
910.8	4630
910.915	4573
911.03	4558
911.145	4348
911.259	4348
911.374	4398
911.489	4329
911.604	4287
911.718	4211
911.833	4200
911.947	4090
912.062	4044
912.176	4219
912.291	4265
912.405	4276
912.519	4459
912.633	4489
912.748	4402
912.862	4337
912.976	4219
913.09	4147
913.204	4219
913.318	4249
913.431	4379
913.545	4417
913.659	4474
913.772	4367
913.886	4314
914	4280
914.113	4367
914.226	4470
914.34	4398
914.453	4227
914.566	4466
914.68	4284
914.793	4337
914.906	4200
915.019	4154
915.132	4093
915.245	4181
915.358	4246
915.47	4246
915.583	4249
915.696	4314
915.809	4432
915.921	4455
916.034	4249
916.146	4284
916.259	4253
916.371	4367
916.483	4337
916.595	4253
916.708	4367
916.82	4341
916.932	4383
917.044	4299
917.156	4341
917.268	4284
917.38	4249
917.491	4325
917.603	4352
917.715	4443
917.826	4451
917.938	4341
918.049	4261
918.161	4402
918.272	4519
918.384	4512
918.495	4462
918.606	4299
918.717	4219
918.828	4367
918.939	4356
919.05	4253
919.161	4322
919.272	4169
919.383	4249
919.494	4481
919.604	4596
919.715	4493
919.826	4352
919.936	4383
920.047	4504
920.157	4512
920.267	4706
920.378	4580
920.488	4485
920.598	4729
920.708	4900
920.818	4733
920.928	4790
921.038	5018
921.148	4847
921.258	4615
921.368	4577
921.477	4512
921.587	4474
921.697	4383
921.806	4538
921.916	4462
922.025	4299
922.134	4246
922.244	4204
922.353	4325
922.462	4169
922.571	4131
922.68	4025
922.789	3975
922.898	4013
923.007	4048
923.116	4097
923.224	4101
923.333	4082
923.442	4013
923.55	3960
923.659	4051
923.767	4078
923.876	4040
923.984	4086
924.092	4025
924.201	4059
924.309	4093
924.417	4169
924.525	4097
924.633	4101
924.741	5045
924.849	3937
924.956	4173
925.064	3983
925.172	3899
925.279	3964
925.387	4055
925.494	4029
925.602	4196
925.709	4181
925.816	4074
925.924	4158
926.031	4268
926.138	4173
926.245	4234
926.352	4105
926.459	4268
926.566	4325
926.673	4143
926.779	4071
926.886	4074
926.993	3983
927.099	3983
927.206	3949
927.312	3960
927.419	4051
927.525	4025
927.631	4109
927.737	4013
927.843	3956
927.95	3816
928.056	3937
928.162	3949
928.267	4051
928.373	4596
928.479	4101
928.585	3876
928.69	4032
928.796	4074
928.901	3964
929.007	3850
929.112	3983
929.218	3956
929.323	3968
929.428	3941
929.533	4112
929.638	3941
929.743	3956
929.848	4025
929.953	3960
930.058	3930
930.163	3774
930.267	3850
930.372	3941
930.477	3857
930.581	4082
930.685	3941
930.79	3808
930.894	3838
930.998	3835
931.103	4036
931.207	3759
931.311	3690
931.415	3648
931.519	3515
931.623	3561
