Data from test_V78500241_1710.txt Node
Date: Fri Mar 25 17:00:53 CST 2022
User: usil
Spectrometer: V785-0024
Trigger mode: 0
Integration Time (sec): 4.000000E-1
Scans to average: 1
Nonlinearity correction enabled: false
Boxcar width: 0
Storing dark spectrum: false
XAxis mode: Wavelengths
Number of Pixels in Spectrum: 1024
>>>>>Begin Spectral Data<<<<<
801.071	8020
801.214	7970
801.356	7955
801.499	7864
801.641	7822
801.783	7761
801.926	7940
802.068	7944
802.211	7928
802.353	7970
802.496	7845
802.638	7837
802.78	7944
802.923	7936
803.065	7818
803.208	7856
803.35	7982
803.492	8081
803.635	8096
803.777	7959
803.919	8172
804.061	8461
804.204	8153
804.346	8031
804.488	7963
804.63	8100
804.773	8031
804.915	8138
805.057	8259
805.199	8176
805.341	8153
805.483	8195
805.626	8191
805.768	8073
805.91	8214
806.052	8248
806.194	8115
806.336	8328
806.478	8054
806.62	8008
806.762	8176
806.904	8233
807.046	8499
807.188	8419
807.33	8301
807.472	8332
807.614	8168
807.756	8195
807.898	8012
808.04	7883
808.182	7890
808.324	7894
808.465	7947
808.607	8092
808.749	8126
808.891	8202
809.033	8309
809.174	8210
809.316	7993
809.458	8084
809.6	7993
809.741	8081
809.883	8058
810.025	8111
810.166	8058
810.308	7967
810.45	7978
810.591	7814
810.733	7750
810.875	7655
811.016	7483
811.158	7521
811.299	7582
811.441	7719
811.582	7685
811.724	7567
811.865	7518
812.007	7582
812.148	7537
812.29	7616
812.431	7784
812.573	7906
812.714	7940
812.855	8123
812.997	8199
813.138	8275
813.279	8195
813.421	8001
813.562	7955
813.703	7822
813.845	7750
813.986	7445
814.127	7308
814.268	7213
814.41	7232
814.551	7171
814.692	7164
814.833	7072
814.974	7145
815.115	7088
815.256	7008
815.397	6954
815.539	6928
815.68	6772
815.821	6798
815.962	6814
816.103	6806
816.244	6726
816.385	6570
816.526	6582
816.666	6479
816.807	6262
816.948	6380
817.089	6452
817.23	6353
817.371	6346
817.512	6418
817.653	6365
817.793	6369
817.934	6418
818.075	6517
818.216	6426
818.356	6391
818.497	6224
818.638	6091
818.778	6133
818.919	6121
819.06	6167
819.2	6323
819.341	6327
819.481	6319
819.622	6467
819.762	6700
819.903	6734
820.043	6620
820.184	6551
820.324	6582
820.465	6688
820.605	6684
820.746	6677
820.886	6536
821.026	6635
821.167	6669
821.307	6745
821.447	6810
821.588	6601
821.728	6627
821.868	6479
822.008	6308
822.149	6353
822.289	6327
822.429	6133
822.569	6110
822.709	6125
822.849	5878
822.99	5893
823.13	5897
823.27	5897
823.41	5821
823.55	5813
823.69	5710
823.83	5817
823.97	5672
824.11	5448
824.25	5524
824.389	5535
824.529	5509
824.669	5509
824.809	5634
824.949	5611
825.089	5589
825.228	5543
825.368	5402
825.508	5315
825.648	5311
825.787	5383
825.927	5357
826.067	5254
826.206	5265
826.346	5345
826.485	5398
826.625	5440
826.765	5505
826.904	5433
827.044	5258
827.183	5223
827.323	5113
827.462	5212
827.601	5136
827.741	5166
827.88	5220
828.02	5083
828.159	5204
828.298	5303
828.437	5372
828.577	5258
828.716	5459
828.855	5318
828.994	5178
829.134	5159
829.273	5162
829.412	5067
829.551	5128
829.69	5197
829.829	5250
829.968	5421
830.107	5250
830.246	5284
830.385	5181
830.524	5143
830.663	5056
830.802	4908
830.941	4873
831.08	4900
831.219	5025
831.357	4949
831.496	5193
831.635	4942
831.774	4843
831.913	4816
832.051	4714
832.19	4774
832.329	4748
832.467	4672
832.606	4653
832.744	4725
832.883	4733
833.022	4714
833.16	4755
833.299	4778
833.437	4854
833.576	4847
833.714	4831
833.852	4885
833.991	4885
834.129	4927
834.267	4999
834.406	4908
834.544	4968
834.682	4987
834.821	4915
834.959	5124
835.097	4961
835.235	5098
835.373	5067
835.511	5037
835.65	5037
835.788	5075
835.926	4889
836.064	4908
836.202	4961
836.34	5170
836.478	5193
836.615	5147
836.753	5181
836.891	5227
837.029	5258
837.167	5181
837.305	5216
837.443	5102
837.58	5071
837.718	5231
837.856	5178
837.993	5102
838.131	5261
838.269	5170
838.406	5185
838.544	5204
838.681	5041
838.819	5045
838.956	4919
839.094	4858
839.231	4938
839.369	5094
839.506	5406
839.643	5273
839.781	5029
839.918	4957
840.055	5132
840.193	5064
840.33	5098
840.467	5151
840.604	5162
840.742	5459
840.879	5064
841.016	5048
841.153	5151
841.29	5353
841.427	5334
841.564	5292
841.701	5341
841.838	5265
841.975	5220
842.112	5235
842.249	5083
842.385	5105
842.522	5307
842.659	5140
842.796	5102
842.933	5197
843.069	5143
843.206	5162
843.343	5265
843.479	5208
843.616	5273
843.752	4991
843.889	4995
844.025	5193
844.162	4980
844.298	5223
844.435	5052
844.571	5064
844.708	5166
844.844	5311
844.98	5303
845.117	5246
845.253	5178
845.389	5071
845.525	5155
845.661	5102
845.798	5052
845.934	5147
846.07	5018
846.206	5155
846.342	5280
846.478	5178
846.614	5025
846.75	4968
846.886	4923
847.022	5140
847.158	5025
847.294	5060
847.429	5071
847.565	5037
847.701	5337
847.837	4858
847.972	4801
848.108	4999
848.244	4957
848.379	4774
848.515	4710
848.65	4710
848.786	4714
848.921	4831
849.057	4866
849.192	4881
849.328	4786
849.463	4839
849.598	4774
849.734	4755
849.869	4702
850.004	4615
850.14	4653
850.275	4649
850.41	4558
850.545	4523
850.68	4573
850.815	4626
850.95	4641
851.085	4873
851.22	4687
851.355	4668
851.49	4592
851.625	4618
851.76	4607
851.895	4531
852.03	4512
852.165	4683
852.299	4664
852.434	4790
852.569	4721
852.703	4675
852.838	4858
852.973	4949
853.107	4961
853.242	4759
853.376	4637
853.511	4519
853.645	4634
853.78	4782
853.914	4672
854.048	4675
854.183	4641
854.317	4740
854.451	4870
854.585	4675
854.72	4672
854.854	4736
854.988	4569
855.122	4615
855.256	4470
855.39	4656
855.524	4809
855.658	4725
855.792	4691
855.926	4744
856.06	4755
856.194	4786
856.327	4668
856.461	4626
856.595	4569
856.729	4615
856.862	4748
856.996	4687
857.13	4729
857.263	4729
857.397	4850
857.53	4653
857.664	4717
857.797	4721
857.931	4797
858.064	4714
858.197	4729
858.331	4683
858.464	4607
858.597	4493
858.731	4645
858.864	4645
858.997	4573
859.13	4618
859.263	4668
859.396	4698
859.529	4607
859.662	4596
859.795	4546
859.928	4588
860.061	4748
860.194	4725
860.327	4615
860.46	4573
860.592	4691
860.725	4740
860.858	4664
860.99	4550
861.123	4527
861.256	4546
861.388	4626
861.521	5193
861.653	4481
861.786	4462
861.918	4466
862.05	4504
862.183	4500
862.315	4592
862.447	4645
862.58	4546
862.712	4394
862.844	4375
862.976	4478
863.108	4447
863.24	4900
863.372	4337
863.504	4375
863.636	4432
863.768	4489
863.9	4436
864.032	4295
864.164	4413
864.296	4466
864.428	4516
864.559	4516
864.691	4558
864.823	4519
864.954	4504
865.086	4558
865.217	4466
865.349	4371
865.48	4440
865.612	4478
865.743	4618
865.875	4428
866.006	4386
866.137	4466
866.269	4455
866.4	4424
866.531	4402
866.662	4348
866.793	4424
866.924	4405
867.055	4497
867.186	4497
867.317	4436
867.448	4367
867.579	4390
867.71	4402
867.841	4325
867.972	4451
868.103	4451
868.233	4455
868.364	4424
868.495	4504
868.625	4611
868.756	4714
868.886	4561
869.017	4611
869.147	4763
869.278	4778
869.408	4656
869.539	4634
869.669	4668
869.799	4622
869.929	4778
870.06	4736
870.19	4968
870.32	4934
870.45	4949
870.58	5025
870.71	5056
870.84	5056
870.97	4942
871.1	4870
871.23	5162
871.36	5166
871.489	5010
871.619	5079
871.749	5071
871.879	5075
872.008	5155
872.138	5037
872.267	4957
872.397	4835
872.526	4820
872.656	4721
872.785	4790
872.915	4976
873.044	4991
873.173	4862
873.303	4953
873.432	4938
873.561	4889
873.69	4854
873.819	4850
873.948	4877
874.077	4801
874.206	4774
874.335	4744
874.464	4889
874.593	5025
874.722	4923
874.851	5132
874.979	5037
875.108	5052
875.237	4953
875.365	4885
875.494	4938
875.623	4968
875.751	4771
875.88	4904
876.008	4934
876.136	4953
876.265	5181
876.393	5280
876.521	5189
876.65	5197
876.778	5181
876.906	5052
877.034	4999
877.162	5022
877.29	4957
877.418	5052
877.546	5029
877.674	5010
877.802	5041
877.93	4972
878.058	4892
878.185	4873
878.313	4953
878.441	4957
878.568	4831
878.696	4824
878.824	4942
878.951	4949
879.079	5094
879.206	5277
879.333	5079
879.461	4984
879.588	4995
879.715	5060
879.842	5216
879.97	5003
880.097	4752
880.224	4752
880.351	4774
880.478	4771
880.605	4763
880.732	4755
880.859	5094
880.986	4911
881.112	4881
881.239	4721
881.366	4611
881.493	4558
881.619	4596
881.746	4637
881.872	4645
881.999	4649
882.125	4656
882.252	4771
882.378	4782
882.505	4908
882.631	4797
882.757	4645
882.883	4725
883.01	4691
883.136	4668
883.262	4607
883.388	4565
883.514	4786
883.64	4850
883.766	4801
883.892	4630
884.018	4687
884.143	4866
884.269	5006
884.395	4637
884.52	4596
884.646	4611
884.772	4577
884.897	4573
885.023	4675
885.148	4812
885.274	4831
885.399	4763
885.524	4771
885.65	4679
885.775	4721
885.9	4694
886.025	4858
886.15	4755
886.275	4641
886.4	4641
886.525	4679
886.65	4675
886.775	4660
886.9	4881
887.025	5018
887.149	4771
887.274	4672
887.399	4584
887.523	4622
887.648	4561
887.773	4611
887.897	4752
888.021	4763
888.146	4691
888.27	4767
888.395	4900
888.519	4824
888.643	4835
888.767	4771
888.891	4702
889.015	4664
889.139	4630
889.263	4580
889.387	4755
889.511	4854
889.635	4805
889.759	4664
889.883	4634
890.006	4729
890.13	4812
890.254	4641
890.377	4664
890.501	4569
890.624	4523
890.748	4645
890.871	4535
890.995	4462
891.118	4417
891.241	4523
891.364	4577
891.488	4626
891.611	4577
891.734	4580
891.857	4664
891.98	4577
892.103	4630
892.226	4599
892.349	4588
892.471	4451
892.594	4550
892.717	4580
892.839	4573
892.962	4675
893.085	4714
893.207	4607
893.33	4462
893.452	4618
893.575	4706
893.697	4611
893.819	4839
893.941	4877
894.064	4774
894.186	4588
894.308	4622
894.43	4755
894.552	4850
894.674	4809
894.796	4569
894.918	4603
895.04	4611
895.161	4733
895.283	4698
895.405	4637
895.526	4668
895.648	4778
895.769	4733
895.891	4771
896.012	4744
896.134	4763
896.255	4679
896.376	4672
896.498	4691
896.619	4714
896.74	4694
896.861	4694
896.982	4934
897.103	5128
897.224	4885
897.345	4786
897.466	4721
897.587	4721
897.708	4847
897.828	4824
897.949	4675
898.07	4630
898.19	4710
898.311	4866
898.431	4717
898.552	4786
898.672	4835
898.792	4843
898.913	4782
899.033	4679
899.153	4535
899.273	4523
899.393	4535
899.513	4546
899.633	4588
899.753	4618
899.873	4592
899.993	4584
900.113	4561
900.232	4668
900.352	4596
900.472	4516
900.591	4421
900.711	4550
900.83	4451
900.95	4683
901.069	4717
901.189	4584
901.308	4398
901.427	4329
901.546	4375
901.665	4489
901.784	4512
901.904	4447
902.023	4341
902.141	4207
902.26	4211
902.379	4306
902.498	4230
902.617	4287
902.735	4436
902.854	4402
902.973	4398
903.091	4211
903.21	4253
903.328	4314
903.446	4272
903.565	4276
903.683	4383
903.801	4329
903.919	4390
904.038	4470
904.156	4344
904.274	4493
904.392	4409
904.51	4428
904.627	4489
904.745	4584
904.863	4664
904.981	4421
905.098	4310
905.216	4424
905.334	4424
905.451	4481
905.569	4493
905.686	4580
905.803	4622
905.921	4421
906.038	4546
906.155	4504
906.272	4413
906.389	4485
906.506	4390
906.623	4367
906.74	4417
906.857	4287
906.974	4402
907.091	4603
907.208	4736
907.324	4615
907.441	4558
907.557	4402
907.674	4379
907.79	4379
907.907	4398
908.023	4508
908.139	4474
908.256	4470
908.372	4489
908.488	4485
908.604	4356
908.72	4329
908.836	4402
908.952	4447
909.068	4493
909.184	4550
909.3	4493
909.415	4634
909.531	4584
909.647	4341
909.762	4375
909.878	4383
909.993	4462
910.108	4455
910.224	4512
910.339	4535
910.454	4447
910.57	4409
910.685	4352
910.8	4675
910.915	4588
911.03	4504
911.145	4371
911.259	4329
911.374	4386
911.489	4367
911.604	4314
911.718	4207
911.833	4230
911.947	4128
912.062	4059
912.176	4268
912.291	4246
912.405	4280
912.519	4497
912.633	4519
912.748	4390
912.862	4329
912.976	4200
913.09	4109
913.204	4215
913.318	4276
913.431	4424
913.545	4379
913.659	4440
913.772	4371
913.886	4268
914	4257
914.113	4409
914.226	4466
914.34	4405
914.453	4310
914.566	4470
914.68	4325
914.793	4333
914.906	4192
915.019	4162
915.132	4150
915.245	4249
915.358	4230
915.47	4268
915.583	4325
915.696	4265
915.809	4413
915.921	4451
916.034	4261
916.146	4303
916.259	4253
916.371	4394
916.483	4402
916.595	4310
916.708	4322
916.82	4322
916.932	4352
917.044	4386
917.156	4383
917.268	4291
917.38	4284
917.491	4291
917.603	4383
917.715	4447
917.826	4459
917.938	4379
918.049	4318
918.161	4443
918.272	4569
918.384	4550
918.495	4451
918.606	4314
918.717	4291
918.828	4409
918.939	4402
919.05	4314
919.161	4341
919.272	4177
919.383	4238
919.494	4459
919.604	4656
919.715	4451
919.826	4417
919.936	4443
920.047	4523
920.157	4554
920.267	4668
920.378	4565
920.488	4462
920.598	4721
920.708	4942
920.818	4793
920.928	4778
921.038	4953
921.148	4942
921.258	4596
921.368	4611
921.477	4546
921.587	4481
921.697	4344
921.806	4592
921.916	4462
922.025	4280
922.134	4299
922.244	4303
922.353	4367
922.462	4181
922.571	4116
922.68	4029
922.789	4010
922.898	4044
923.007	4010
923.116	4124
923.224	4147
923.333	4074
923.442	3953
923.55	3960
923.659	4044
923.767	4147
923.876	4032
923.984	4158
924.092	4010
924.201	4059
924.309	4105
924.417	4074
924.525	4055
924.633	4173
924.741	4915
924.849	3941
924.956	4124
925.064	3994
925.172	3934
925.279	3998
925.387	4059
925.494	4059
925.602	4192
925.709	4177
925.816	4059
925.924	4147
926.031	4211
926.138	4169
926.245	4204
926.352	4105
926.459	4318
926.566	4318
926.673	4162
926.779	4116
926.886	4086
926.993	4002
927.099	3987
927.206	3991
927.312	3956
927.419	4067
927.525	4059
927.631	4082
927.737	3991
927.843	3975
927.95	3861
928.056	3975
928.162	3994
928.267	4067
928.373	4698
928.479	4150
928.585	3918
928.69	4017
928.796	4116
928.901	3994
929.007	3846
929.112	4044
929.218	3960
929.323	4002
929.428	3960
929.533	4131
929.638	3941
929.743	3956
929.848	4112
929.953	3964
930.058	3968
930.163	3812
930.267	3831
930.372	4013
930.477	3831
930.581	4116
930.685	3941
930.79	3838
930.894	3903
930.998	3899
931.103	4029
931.207	3747
931.311	3724
931.415	3728
931.519	3564
931.623	3564
