Data from test_V78500241_2159.txt Node
Date: Fri Mar 25 17:04:00 CST 2022
User: usil
Spectrometer: V785-0024
Trigger mode: 0
Integration Time (sec): 4.000000E-1
Scans to average: 1
Nonlinearity correction enabled: false
Boxcar width: 0
Storing dark spectrum: false
XAxis mode: Wavelengths
Number of Pixels in Spectrum: 1024
>>>>>Begin Spectral Data<<<<<
801.071	7951
801.214	8035
801.356	7894
801.499	7826
801.641	7814
801.783	7826
801.926	7947
802.068	7986
802.211	7951
802.353	8016
802.496	7894
802.638	7944
802.78	7852
802.923	7913
803.065	7947
803.208	7879
803.35	7955
803.492	8012
803.635	8225
803.777	8073
803.919	8130
804.061	8427
804.204	8199
804.346	8054
804.488	7974
804.63	8016
804.773	7970
804.915	8153
805.057	8332
805.199	8130
805.341	8180
805.483	8206
805.626	8214
805.768	8115
805.91	8157
806.052	8221
806.194	8142
806.336	8267
806.478	8130
806.62	8069
806.762	8100
806.904	8248
807.046	8480
807.188	8377
807.33	8320
807.472	8313
807.614	8202
807.756	8153
807.898	8058
808.04	7906
808.182	7833
808.324	7932
808.465	7860
808.607	8020
808.749	8199
808.891	8229
809.033	8290
809.174	8214
809.316	8123
809.458	8073
809.6	8008
809.741	8046
809.883	8043
810.025	8073
810.166	8180
810.308	8035
810.45	8046
810.591	7826
810.733	7746
810.875	7700
811.016	7468
811.158	7460
811.299	7559
811.441	7655
811.582	7708
811.724	7563
811.865	7525
812.007	7658
812.148	7575
812.29	7609
812.431	7765
812.573	7921
812.714	7917
812.855	8142
812.997	8214
813.138	8301
813.279	8206
813.421	8054
813.562	7921
813.703	7894
813.845	7738
813.986	7392
814.127	7270
814.268	7217
814.41	7183
814.551	7259
814.692	7285
814.833	7057
814.974	7114
815.115	7149
815.256	6981
815.397	6947
815.539	6867
815.68	6806
815.821	6764
815.962	6878
816.103	6844
816.244	6715
816.385	6582
816.526	6612
816.666	6479
816.807	6289
816.948	6448
817.089	6437
817.23	6513
817.371	6414
817.512	6391
817.653	6407
817.793	6365
817.934	6422
818.075	6429
818.216	6433
818.356	6433
818.497	6216
818.638	6095
818.778	6186
818.919	6167
819.06	6159
819.2	6334
819.341	6376
819.481	6331
819.622	6585
819.762	6627
819.903	6734
820.043	6601
820.184	6593
820.324	6570
820.465	6715
820.605	6654
820.746	6631
820.886	6460
821.026	6696
821.167	6711
821.307	6825
821.447	6760
821.588	6692
821.728	6623
821.868	6525
822.008	6331
822.149	6369
822.289	6372
822.429	6190
822.569	6121
822.709	6140
822.849	5931
822.99	5885
823.13	5927
823.27	5931
823.41	5813
823.55	5824
823.69	5817
823.83	5832
823.97	5688
824.11	5611
824.25	5501
824.389	5585
824.529	5623
824.669	5577
824.809	5608
824.949	5657
825.089	5638
825.228	5551
825.368	5463
825.508	5372
825.648	5368
825.787	5425
825.927	5387
826.067	5372
826.206	5318
826.346	5391
826.485	5463
826.625	5414
826.765	5573
826.904	5554
827.044	5250
827.183	5261
827.323	5178
827.462	5288
827.601	5269
827.741	5246
827.88	5341
828.02	5109
828.159	5277
828.298	5334
828.437	5406
828.577	5334
828.716	5516
828.855	5387
828.994	5216
829.134	5178
829.273	5292
829.412	5121
829.551	5193
829.69	5185
829.829	5330
829.968	5360
830.107	5326
830.246	5357
830.385	5170
830.524	5193
830.663	5105
830.802	4991
830.941	4923
831.08	4961
831.219	5010
831.357	5029
831.496	5189
831.635	4999
831.774	4919
831.913	4923
832.051	4759
832.19	4771
832.329	4835
832.467	4729
832.606	4702
832.744	4740
832.883	4778
833.022	4801
833.16	4816
833.299	4870
833.437	4862
833.576	4892
833.714	4927
833.852	4934
833.991	4892
834.129	4934
834.267	5003
834.406	4980
834.544	5018
834.682	5037
834.821	5025
834.959	5170
835.097	5048
835.235	5197
835.373	5155
835.511	5124
835.65	5060
835.788	5033
835.926	4934
836.064	4911
836.202	4934
836.34	5197
836.478	5231
836.615	5174
836.753	5269
836.891	5311
837.029	5261
837.167	5269
837.305	5185
837.443	5193
837.58	5098
837.718	5250
837.856	5185
837.993	5197
838.131	5273
838.269	5231
838.406	5170
838.544	5269
838.681	5086
838.819	5075
838.956	4938
839.094	4904
839.231	4980
839.369	5136
839.506	5417
839.643	5341
839.781	5124
839.918	5041
840.055	5140
840.193	5174
840.33	5102
840.467	5208
840.604	5261
840.742	5448
840.879	5105
841.016	5117
841.153	5147
841.29	5425
841.427	5368
841.564	5334
841.701	5433
841.838	5250
841.975	5258
842.112	5277
842.249	5189
842.385	5162
842.522	5349
842.659	5159
842.796	5189
842.933	5216
843.069	5147
843.206	5189
843.343	5303
843.479	5246
843.616	5273
843.752	5083
843.889	5071
844.025	5223
844.162	5052
844.298	5254
844.435	5109
844.571	5079
844.708	5185
844.844	5334
844.98	5318
845.117	5311
845.253	5174
845.389	5079
845.525	5216
845.661	5147
845.798	5079
845.934	5136
846.07	5064
846.206	5178
846.342	5273
846.478	5258
846.614	5041
846.75	4980
846.886	4953
847.022	5113
847.158	4984
847.294	5029
847.429	5136
847.565	5102
847.701	5311
847.837	4889
847.972	4824
848.108	5033
848.244	5003
848.379	4831
848.515	4774
848.65	4748
848.786	4820
848.921	4812
849.057	4908
849.192	4919
849.328	4828
849.463	4862
849.598	4824
849.734	4752
849.869	4729
850.004	4630
850.14	4717
850.275	4626
850.41	4512
850.545	4607
850.68	4626
850.815	4618
850.95	4637
851.085	4896
851.22	4748
851.355	4694
851.49	4664
851.625	4622
851.76	4653
851.895	4569
852.03	4558
852.165	4698
852.299	4683
852.434	4809
852.569	4767
852.703	4812
852.838	4900
852.973	4942
853.107	4961
853.242	4778
853.376	4717
853.511	4573
853.645	4672
853.78	4831
853.914	4698
854.048	4702
854.183	4679
854.317	4744
854.451	4873
854.585	4668
854.72	4660
854.854	4774
854.988	4592
855.122	4641
855.256	4565
855.39	4698
855.524	4809
855.658	4755
855.792	4717
855.926	4755
856.06	4767
856.194	4797
856.327	4744
856.461	4630
856.595	4645
856.729	4641
856.862	4801
856.996	4687
857.13	4820
857.263	4767
857.397	4835
857.53	4710
857.664	4793
857.797	4831
857.931	4835
858.064	4694
858.197	4748
858.331	4672
858.464	4649
858.597	4573
858.731	4656
858.864	4630
858.997	4660
859.13	4656
859.263	4679
859.396	4736
859.529	4588
859.662	4622
859.795	4573
859.928	4634
860.061	4778
860.194	4771
860.327	4641
860.46	4558
860.592	4698
860.725	4717
860.858	4759
860.99	4603
861.123	4561
861.256	4516
861.388	4603
861.521	5425
861.653	4497
861.786	4478
861.918	4546
862.05	4538
862.183	4550
862.315	4653
862.447	4641
862.58	4569
862.712	4409
862.844	4402
862.976	4474
863.108	4497
863.24	4771
863.372	4352
863.504	4443
863.636	4436
863.768	4500
863.9	4440
864.032	4402
864.164	4432
864.296	4512
864.428	4535
864.559	4569
864.691	4599
864.823	4489
864.954	4470
865.086	4493
865.217	4478
865.349	4432
865.48	4417
865.612	4512
865.743	4637
865.875	4508
866.006	4470
866.137	4519
866.269	4470
866.4	4462
866.531	4455
866.662	4436
866.793	4443
866.924	4459
867.055	4497
867.186	4466
867.317	4470
867.448	4386
867.579	4443
867.71	4390
867.841	4424
867.972	4459
868.103	4470
868.233	4474
868.364	4443
868.495	4497
868.625	4717
868.756	4793
868.886	4573
869.017	4668
869.147	4752
869.278	4771
869.408	4698
869.539	4649
869.669	4733
869.799	4702
869.929	4809
870.06	4664
870.19	4972
870.32	4953
870.45	4995
870.58	5048
870.71	5083
870.84	5083
870.97	4961
871.1	4927
871.23	5166
871.36	5124
871.489	5060
871.619	5086
871.749	5090
871.879	5121
872.008	5220
872.138	5056
872.267	5014
872.397	4843
872.526	4797
872.656	4778
872.785	4828
872.915	4968
873.044	5071
873.173	4946
873.303	4972
873.432	4984
873.561	4949
873.69	4911
873.819	4911
873.948	4938
874.077	4812
874.206	4759
874.335	4793
874.464	4911
874.593	5029
874.722	4976
874.851	5151
874.979	5079
875.108	5025
875.237	4961
875.365	4889
875.494	4904
875.623	4999
875.751	4797
875.88	4934
876.008	4984
876.136	5079
876.265	5277
876.393	5345
876.521	5239
876.65	5212
876.778	5208
876.906	5113
877.034	5121
877.162	5029
877.29	4999
877.418	5098
877.546	5045
877.674	5086
877.802	5048
877.93	5010
878.058	4934
878.185	4881
878.313	4991
878.441	4961
878.568	4809
878.696	4885
878.824	4995
878.951	5029
879.079	5189
879.206	5280
879.333	5113
879.461	4984
879.588	5010
879.715	5121
879.842	5280
879.97	5018
880.097	4793
880.224	4786
880.351	4854
880.478	4843
880.605	4839
880.732	4790
880.859	5140
880.986	4881
881.112	4927
881.239	4778
881.366	4694
881.493	4683
881.619	4634
881.746	4637
881.872	4656
881.999	4649
882.125	4687
882.252	4820
882.378	4850
882.505	4972
882.631	4801
882.757	4668
882.883	4687
883.01	4725
883.136	4672
883.262	4615
883.388	4641
883.514	4763
883.64	4843
883.766	4797
883.892	4664
884.018	4736
884.143	4938
884.269	5045
884.395	4675
884.52	4622
884.646	4664
884.772	4622
884.897	4596
885.023	4694
885.148	4801
885.274	4889
885.399	4866
885.524	4748
885.65	4736
885.775	4782
885.9	4687
886.025	4877
886.15	4782
886.275	4755
886.4	4641
886.525	4771
886.65	4717
886.775	4672
886.9	4953
887.025	5071
887.149	4816
887.274	4668
887.399	4558
887.523	4596
887.648	4558
887.773	4558
887.897	4801
888.021	4774
888.146	4725
888.27	4824
888.395	4904
888.519	4831
888.643	4801
888.767	4831
888.891	4725
889.015	4592
889.139	4687
889.263	4634
889.387	4767
889.511	4915
889.635	4782
889.759	4656
889.883	4672
890.006	4691
890.13	4889
890.254	4630
890.377	4710
890.501	4569
890.624	4516
890.748	4626
890.871	4497
890.995	4428
891.118	4363
891.241	4546
891.364	4588
891.488	4630
891.611	4519
891.734	4546
891.857	4596
891.98	4508
892.103	4675
892.226	4637
892.349	4554
892.471	4390
892.594	4580
892.717	4611
892.839	4565
892.962	4626
893.085	4675
893.207	4580
893.33	4455
893.452	4504
893.575	4672
893.697	4561
893.819	4778
893.941	4862
894.064	4759
894.186	4656
894.308	4592
894.43	4710
894.552	4828
894.674	4759
894.796	4580
894.918	4641
895.04	4580
895.161	4694
895.283	4653
895.405	4618
895.526	4691
895.648	4672
895.769	4710
895.891	4740
896.012	4755
896.134	4759
896.255	4664
896.376	4622
896.498	4664
896.619	4656
896.74	4645
896.861	4675
896.982	4885
897.103	5113
897.224	4839
897.345	4755
897.466	4683
897.587	4721
897.708	4870
897.828	4809
897.949	4729
898.07	4596
898.19	4603
898.311	4850
898.431	4634
898.552	4752
898.672	4820
898.792	4835
898.913	4774
899.033	4660
899.153	4542
899.273	4424
899.393	4478
899.513	4588
899.633	4538
899.753	4558
899.873	4523
899.993	4615
900.113	4603
900.232	4584
900.352	4538
900.472	4485
900.591	4375
900.711	4478
900.83	4474
900.95	4588
901.069	4672
901.189	4565
901.308	4371
901.427	4303
901.546	4394
901.665	4451
901.784	4535
901.904	4379
902.023	4325
902.141	4204
902.26	4196
902.379	4284
902.498	4230
902.617	4211
902.735	4417
902.854	4417
902.973	4356
903.091	4192
903.21	4242
903.328	4314
903.446	4280
903.565	4287
903.683	4356
903.801	4261
903.919	4390
904.038	4443
904.156	4299
904.274	4436
904.392	4440
904.51	4466
904.627	4485
904.745	4580
904.863	4656
904.981	4398
905.098	4314
905.216	4363
905.334	4432
905.451	4459
905.569	4424
905.686	4565
905.803	4580
905.921	4432
906.038	4538
906.155	4550
906.272	4409
906.389	4470
906.506	4363
906.623	4375
906.74	4405
906.857	4291
906.974	4394
907.091	4550
907.208	4691
907.324	4599
907.441	4474
907.557	4367
907.674	4352
907.79	4310
907.907	4390
908.023	4485
908.139	4485
908.256	4447
908.372	4470
908.488	4462
908.604	4379
908.72	4341
908.836	4360
908.952	4409
909.068	4455
909.184	4584
909.3	4504
909.415	4603
909.531	4497
909.647	4375
909.762	4367
909.878	4398
909.993	4504
910.108	4421
910.224	4436
910.339	4485
910.454	4390
910.57	4390
910.685	4314
910.8	4687
910.915	4637
911.03	4512
911.145	4299
911.259	4318
911.374	4375
911.489	4295
911.604	4291
911.718	4207
911.833	4227
911.947	4109
912.062	4067
912.176	4211
912.291	4234
912.405	4284
912.519	4500
912.633	4504
912.748	4375
912.862	4310
912.976	4192
913.09	4048
913.204	4124
913.318	4265
913.431	4375
913.545	4348
913.659	4417
913.772	4352
913.886	4272
914	4234
914.113	4379
914.226	4436
914.34	4390
914.453	4265
914.566	4421
914.68	4291
914.793	4287
914.906	4162
915.019	4116
915.132	4090
915.245	4211
915.358	4211
915.47	4219
915.583	4272
915.696	4322
915.809	4398
915.921	4402
916.034	4284
916.146	4234
916.259	4234
916.371	4398
916.483	4333
916.595	4223
916.708	4325
916.82	4280
916.932	4341
917.044	4295
917.156	4352
917.268	4215
917.38	4303
917.491	4211
917.603	4360
917.715	4390
917.826	4432
917.938	4341
918.049	4227
918.161	4379
918.272	4577
918.384	4546
918.495	4455
918.606	4287
918.717	4242
918.828	4306
918.939	4356
919.05	4272
919.161	4291
919.272	4158
919.383	4291
919.494	4481
919.604	4637
919.715	4470
919.826	4329
919.936	4417
920.047	4508
920.157	4504
920.267	4717
920.378	4516
920.488	4538
920.598	4717
920.708	4953
920.818	4812
920.928	4805
921.038	4995
921.148	4923
921.258	4637
921.368	4561
921.477	4474
921.587	4489
921.697	4383
921.806	4497
921.916	4394
922.025	4238
922.134	4276
922.244	4219
922.353	4329
922.462	4162
922.571	4112
922.68	3998
922.789	4006
922.898	4013
923.007	3994
923.116	4078
923.224	4124
923.333	4116
923.442	3968
923.55	3979
923.659	4010
923.767	4078
923.876	4002
923.984	4158
924.092	3972
924.201	4078
924.309	4124
924.417	4173
924.525	4105
924.633	4147
924.741	5083
924.849	3941
924.956	4105
925.064	3960
925.172	3918
925.279	3979
925.387	4074
925.494	4097
925.602	4169
925.709	4185
925.816	4048
925.924	4150
926.031	4219
926.138	4154
926.245	4215
926.352	4036
926.459	4238
926.566	4325
926.673	4158
926.779	4093
926.886	4074
926.993	3991
927.099	3937
927.206	3934
927.312	3945
927.419	4071
927.525	4063
927.631	4090
927.737	3975
927.843	3960
927.95	3823
928.056	3926
928.162	3956
928.267	4048
928.373	4691
928.479	4086
928.585	3873
928.69	3994
928.796	4112
928.901	3956
929.007	3838
929.112	4029
929.218	3972
929.323	3953
929.428	3911
929.533	4093
929.638	3945
929.743	3983
929.848	4063
929.953	4013
930.058	3941
930.163	3759
930.267	3812
930.372	3968
930.477	3781
930.581	4097
930.685	3922
930.79	3781
930.894	3899
930.998	3884
931.103	4032
931.207	3720
931.311	3690
931.415	3682
931.519	3523
931.623	3511
