Data from test_V78500241_1786.txt Node
Date: Fri Mar 25 17:01:25 CST 2022
User: usil
Spectrometer: V785-0024
Trigger mode: 0
Integration Time (sec): 4.000000E-1
Scans to average: 1
Nonlinearity correction enabled: false
Boxcar width: 0
Storing dark spectrum: false
XAxis mode: Wavelengths
Number of Pixels in Spectrum: 1024
>>>>>Begin Spectral Data<<<<<
801.071	8024
801.214	8008
801.356	7799
801.499	7807
801.641	7799
801.783	7795
801.926	7978
802.068	7913
802.211	7997
802.353	7959
802.496	7814
802.638	7792
802.78	7841
802.923	7887
803.065	7917
803.208	7784
803.35	7989
803.492	8058
803.635	8103
803.777	7982
803.919	8123
804.061	8446
804.204	8157
804.346	8077
804.488	7970
804.63	8142
804.773	8046
804.915	8123
805.057	8332
805.199	8126
805.341	8134
805.483	8206
805.626	8145
805.768	8096
805.91	8180
806.052	8206
806.194	8130
806.336	8305
806.478	8115
806.62	8020
806.762	8142
806.904	8301
807.046	8526
807.188	8332
807.33	8339
807.472	8275
807.614	8153
807.756	8164
807.898	7947
808.04	7780
808.182	7906
808.324	7879
808.465	7913
808.607	8058
808.749	8100
808.891	8195
809.033	8298
809.174	8168
809.316	8123
809.458	8096
809.6	8058
809.741	8035
809.883	8012
810.025	8100
810.166	8073
810.308	8050
810.45	7967
810.591	7845
810.733	7792
810.875	7651
811.016	7514
811.158	7521
811.299	7537
811.441	7719
811.582	7670
811.724	7578
811.865	7540
812.007	7559
812.148	7601
812.29	7590
812.431	7719
812.573	7864
812.714	7940
812.855	8138
812.997	8206
813.138	8313
813.279	8161
813.421	8100
813.562	7940
813.703	7765
813.845	7715
813.986	7373
814.127	7320
814.268	7209
814.41	7225
814.551	7183
814.692	7183
814.833	7084
814.974	7103
815.115	7179
815.256	6958
815.397	6954
815.539	6970
815.68	6806
815.821	6719
815.962	6848
816.103	6776
816.244	6703
816.385	6570
816.526	6589
816.666	6498
816.807	6300
816.948	6445
817.089	6418
817.23	6426
817.371	6327
817.512	6391
817.653	6391
817.793	6365
817.934	6410
818.075	6414
818.216	6452
818.356	6395
818.497	6235
818.638	6087
818.778	6178
818.919	6114
819.06	6136
819.2	6281
819.341	6277
819.481	6361
819.622	6483
819.762	6768
819.903	6684
820.043	6585
820.184	6585
820.324	6551
820.465	6730
820.605	6658
820.746	6677
820.886	6536
821.026	6582
821.167	6688
821.307	6684
821.447	6684
821.588	6627
821.728	6601
821.868	6509
822.008	6361
822.149	6342
822.289	6350
822.429	6102
822.569	6125
822.709	6133
822.849	5866
822.99	5901
823.13	5893
823.27	5893
823.41	5767
823.55	5775
823.69	5752
823.83	5741
823.97	5699
824.11	5490
824.25	5528
824.389	5577
824.529	5562
824.669	5490
824.809	5657
824.949	5684
825.089	5608
825.228	5570
825.368	5334
825.508	5318
825.648	5379
825.787	5368
825.927	5315
826.067	5273
826.206	5273
826.346	5341
826.485	5383
826.625	5448
826.765	5566
826.904	5455
827.044	5284
827.183	5208
827.323	5128
827.462	5220
827.601	5140
827.741	5220
827.88	5181
828.02	5136
828.159	5223
828.298	5273
828.437	5391
828.577	5299
828.716	5452
828.855	5349
828.994	5201
829.134	5208
829.273	5178
829.412	5155
829.551	5105
829.69	5201
829.829	5212
829.968	5349
830.107	5265
830.246	5296
830.385	5174
830.524	5128
830.663	5083
830.802	5037
830.941	4923
831.08	4896
831.219	5022
831.357	4965
831.496	5162
831.635	4995
831.774	4862
831.913	4873
832.051	4763
832.19	4782
832.329	4854
832.467	4725
832.606	4649
832.744	4763
832.883	4759
833.022	4725
833.16	4805
833.299	4870
833.437	4873
833.576	4866
833.714	4873
833.852	4847
833.991	4919
834.129	5003
834.267	4927
834.406	4953
834.544	5037
834.682	5029
834.821	4980
834.959	5174
835.097	5006
835.235	5113
835.373	5113
835.511	5128
835.65	5060
835.788	5029
835.926	4915
836.064	4889
836.202	4976
836.34	5201
836.478	5235
836.615	5193
836.753	5303
836.891	5307
837.029	5239
837.167	5269
837.305	5212
837.443	5220
837.58	5143
837.718	5216
837.856	5239
837.993	5242
838.131	5235
838.269	5269
838.406	5258
838.544	5246
838.681	4976
838.819	5052
838.956	4942
839.094	4915
839.231	5029
839.369	5136
839.506	5467
839.643	5299
839.781	5094
839.918	5083
840.055	5155
840.193	5121
840.33	5124
840.467	5124
840.604	5185
840.742	5497
840.879	5098
841.016	5113
841.153	5181
841.29	5414
841.427	5402
841.564	5353
841.701	5364
841.838	5357
841.975	5265
842.112	5265
842.249	5174
842.385	5155
842.522	5318
842.659	5174
842.796	5189
842.933	5220
843.069	5189
843.206	5216
843.343	5303
843.479	5322
843.616	5318
843.752	5094
843.889	5014
844.025	5273
844.162	4999
844.298	5204
844.435	5075
844.571	5079
844.708	5227
844.844	5330
844.98	5383
845.117	5337
845.253	5185
845.389	5109
845.525	5174
845.661	5193
845.798	5102
845.934	5201
846.07	5045
846.206	5227
846.342	5322
846.478	5162
846.614	5052
846.75	4984
846.886	4946
847.022	5090
847.158	5060
847.294	5098
847.429	5128
847.565	5083
847.701	5379
847.837	4892
847.972	4790
848.108	4938
848.244	4904
848.379	4816
848.515	4774
848.65	4729
848.786	4797
848.921	4778
849.057	4889
849.192	4930
849.328	4873
849.463	4858
849.598	4828
849.734	4771
849.869	4725
850.004	4660
850.14	4687
850.275	4664
850.41	4577
850.545	4603
850.68	4634
850.815	4683
850.95	4672
851.085	4866
851.22	4755
851.355	4744
851.49	4672
851.625	4637
851.76	4660
851.895	4565
852.03	4569
852.165	4656
852.299	4725
852.434	4797
852.569	4771
852.703	4805
852.838	4835
852.973	4927
853.107	4984
853.242	4763
853.376	4710
853.511	4592
853.645	4653
853.78	4843
853.914	4694
854.048	4744
854.183	4706
854.317	4736
854.451	4919
854.585	4664
854.72	4653
854.854	4797
854.988	4599
855.122	4683
855.256	4554
855.39	4698
855.524	4831
855.658	4744
855.792	4694
855.926	4744
856.06	4793
856.194	4790
856.327	4744
856.461	4645
856.595	4637
856.729	4679
856.862	4767
856.996	4710
857.13	4717
857.263	4778
857.397	4831
857.53	4702
857.664	4763
857.797	4763
857.931	4790
858.064	4702
858.197	4725
858.331	4649
858.464	4649
858.597	4577
858.731	4660
858.864	4698
858.997	4615
859.13	4668
859.263	4717
859.396	4668
859.529	4603
859.662	4588
859.795	4550
859.928	4660
860.061	4774
860.194	4824
860.327	4679
860.46	4565
860.592	4752
860.725	4733
860.858	4733
860.99	4634
861.123	4531
861.256	4497
861.388	4637
861.521	5307
861.653	4535
861.786	4436
861.918	4455
862.05	4531
862.183	4580
862.315	4660
862.447	4672
862.58	4554
862.712	4417
862.844	4379
862.976	4459
863.108	4447
863.24	4919
863.372	4333
863.504	4478
863.636	4436
863.768	4535
863.9	4459
864.032	4371
864.164	4379
864.296	4440
864.428	4546
864.559	4588
864.691	4580
864.823	4554
864.954	4500
865.086	4558
865.217	4478
865.349	4428
865.48	4459
865.612	4523
865.743	4611
865.875	4504
866.006	4481
866.137	4485
866.269	4489
866.4	4440
866.531	4424
866.662	4440
866.793	4413
866.924	4424
867.055	4538
867.186	4497
867.317	4432
867.448	4413
867.579	4360
867.71	4405
867.841	4417
867.972	4489
868.103	4478
868.233	4493
868.364	4535
868.495	4478
868.625	4668
868.756	4748
868.886	4634
869.017	4683
869.147	4729
869.278	4771
869.408	4744
869.539	4645
869.669	4733
869.799	4683
869.929	4820
870.06	4778
870.19	4991
870.32	4968
870.45	4987
870.58	5052
870.71	5109
870.84	5048
870.97	4949
871.1	4911
871.23	5174
871.36	5105
871.489	5041
871.619	5086
871.749	5121
871.879	5208
872.008	5189
872.138	5090
872.267	4957
872.397	4824
872.526	4881
872.656	4744
872.785	4828
872.915	4930
873.044	5037
873.173	5006
873.303	5010
873.432	4972
873.561	4995
873.69	4873
873.819	4904
873.948	4847
874.077	4793
874.206	4774
874.335	4843
874.464	4942
874.593	5071
874.722	4961
874.851	5113
874.979	5060
875.108	5090
875.237	4953
875.365	4892
875.494	4881
875.623	4972
875.751	4816
875.88	4942
876.008	4984
876.136	5079
876.265	5204
876.393	5334
876.521	5250
876.65	5254
876.778	5121
876.906	5113
877.034	5048
877.162	5105
877.29	5010
877.418	5079
877.546	5067
877.674	5079
877.802	4976
877.93	5045
878.058	4999
878.185	4892
878.313	4957
878.441	4961
878.568	4820
878.696	4862
878.824	4904
878.951	5041
879.079	5155
879.206	5277
879.333	5124
879.461	4999
879.588	4995
879.715	5117
879.842	5216
879.97	5060
880.097	4790
880.224	4782
880.351	4824
880.478	4839
880.605	4850
880.732	4843
880.859	5105
880.986	4900
881.112	4957
881.239	4736
881.366	4637
881.493	4656
881.619	4588
881.746	4618
881.872	4698
881.999	4694
882.125	4698
882.252	4816
882.378	4843
882.505	4991
882.631	4820
882.757	4721
882.883	4755
883.01	4755
883.136	4698
883.262	4645
883.388	4596
883.514	4854
883.64	4862
883.766	4850
883.892	4687
884.018	4725
884.143	4889
884.269	5022
884.395	4725
884.52	4615
884.646	4714
884.772	4660
884.897	4561
885.023	4653
885.148	4797
885.274	4911
885.399	4820
885.524	4733
885.65	4710
885.775	4744
885.9	4755
886.025	4866
886.15	4740
886.275	4733
886.4	4698
886.525	4748
886.65	4675
886.775	4683
886.9	4934
887.025	5033
887.149	4824
887.274	4687
887.399	4569
887.523	4649
887.648	4565
887.773	4592
887.897	4771
888.021	4809
888.146	4702
888.27	4820
888.395	4930
888.519	4850
888.643	4812
888.767	4843
888.891	4733
889.015	4622
889.139	4607
889.263	4607
889.387	4752
889.511	4873
889.635	4820
889.759	4641
889.883	4618
890.006	4771
890.13	4858
890.254	4618
890.377	4660
890.501	4535
890.624	4535
890.748	4603
890.871	4459
890.995	4481
891.118	4485
891.241	4550
891.364	4554
891.488	4664
891.611	4523
891.734	4577
891.857	4554
891.98	4542
892.103	4664
892.226	4675
892.349	4561
892.471	4470
892.594	4592
892.717	4656
892.839	4542
892.962	4584
893.085	4660
893.207	4584
893.33	4470
893.452	4504
893.575	4630
893.697	4603
893.819	4831
893.941	4850
894.064	4752
894.186	4649
894.308	4615
894.43	4767
894.552	4820
894.674	4767
894.796	4523
894.918	4580
895.04	4569
895.161	4706
895.283	4694
895.405	4531
895.526	4630
895.648	4702
895.769	4714
895.891	4759
896.012	4752
896.134	4721
896.255	4706
896.376	4641
896.498	4596
896.619	4679
896.74	4622
896.861	4626
896.982	4919
897.103	5037
897.224	4885
897.345	4752
897.466	4710
897.587	4714
897.708	4889
897.828	4786
897.949	4694
898.07	4519
898.19	4622
898.311	4835
898.431	4702
898.552	4763
898.672	4828
898.792	4774
898.913	4767
899.033	4615
899.153	4508
899.273	4436
899.393	4504
899.513	4554
899.633	4580
899.753	4546
899.873	4500
899.993	4565
900.113	4535
900.232	4615
900.352	4531
900.472	4493
900.591	4402
900.711	4508
900.83	4470
900.95	4592
901.069	4717
901.189	4542
901.308	4409
901.427	4314
901.546	4356
901.665	4516
901.784	4535
901.904	4379
902.023	4291
902.141	4150
902.26	4173
902.379	4318
902.498	4227
902.617	4207
902.735	4383
902.854	4405
902.973	4360
903.091	4249
903.21	4234
903.328	4280
903.446	4257
903.565	4253
903.683	4402
903.801	4261
903.919	4459
904.038	4504
904.156	4329
904.274	4474
904.392	4451
904.51	4523
904.627	4493
904.745	4599
904.863	4683
904.981	4432
905.098	4352
905.216	4348
905.334	4455
905.451	4481
905.569	4462
905.686	4637
905.803	4603
905.921	4440
906.038	4588
906.155	4542
906.272	4478
906.389	4466
906.506	4424
906.623	4424
906.74	4440
906.857	4363
906.974	4398
907.091	4603
907.208	4687
907.324	4672
907.441	4538
907.557	4371
907.674	4417
907.79	4383
907.907	4405
908.023	4512
908.139	4516
908.256	4455
908.372	4500
908.488	4493
908.604	4413
908.72	4417
908.836	4451
908.952	4413
909.068	4485
909.184	4599
909.3	4523
909.415	4607
909.531	4573
909.647	4394
909.762	4421
909.878	4325
909.993	4459
910.108	4424
910.224	4428
910.339	4508
910.454	4421
910.57	4417
910.685	4322
910.8	4744
910.915	4596
911.03	4531
911.145	4394
911.259	4375
911.374	4421
911.489	4299
911.604	4261
911.718	4246
911.833	4265
911.947	4116
912.062	4101
912.176	4268
912.291	4284
912.405	4272
912.519	4447
912.633	4550
912.748	4402
912.862	4356
912.976	4261
913.09	4192
913.204	4230
913.318	4306
913.431	4405
913.545	4394
913.659	4523
913.772	4405
913.886	4310
914	4299
914.113	4360
914.226	4466
914.34	4443
914.453	4280
914.566	4478
914.68	4333
914.793	4344
914.906	4238
915.019	4185
915.132	4097
915.245	4211
915.358	4215
915.47	4322
915.583	4303
915.696	4329
915.809	4432
915.921	4481
916.034	4272
916.146	4284
916.259	4238
916.371	4405
916.483	4383
916.595	4306
916.708	4329
916.82	4405
916.932	4398
917.044	4360
917.156	4417
917.268	4295
917.38	4344
917.491	4299
917.603	4383
917.715	4489
917.826	4466
917.938	4375
918.049	4257
918.161	4462
918.272	4573
918.384	4535
918.495	4447
918.606	4322
918.717	4322
918.828	4356
918.939	4398
919.05	4253
919.161	4360
919.272	4158
919.383	4280
919.494	4519
919.604	4649
919.715	4466
919.826	4337
919.936	4436
920.047	4592
920.157	4527
920.267	4698
920.378	4561
920.488	4523
920.598	4801
920.708	4942
920.818	4774
920.928	4782
921.038	4984
921.148	4961
921.258	4664
921.368	4569
921.477	4542
921.587	4531
921.697	4485
921.806	4592
921.916	4516
922.025	4325
922.134	4265
922.244	4200
922.353	4348
922.462	4207
922.571	4147
922.68	4040
922.789	4017
922.898	4063
923.007	3987
923.116	4120
923.224	4097
923.333	4105
923.442	3994
923.55	3998
923.659	4032
923.767	4131
923.876	4044
923.984	4154
924.092	4029
924.201	4128
924.309	4105
924.417	4135
924.525	4036
924.633	4097
924.741	5113
924.849	4010
924.956	4181
925.064	3991
925.172	3953
925.279	4002
925.387	4097
925.494	4112
925.602	4249
925.709	4211
925.816	4097
925.924	4150
926.031	4169
926.138	4223
926.245	4230
926.352	4131
926.459	4253
926.566	4356
926.673	4173
926.779	4143
926.886	4143
926.993	3998
927.099	3949
927.206	4002
927.312	3994
927.419	4055
927.525	4044
927.631	4135
927.737	3975
927.843	3979
927.95	3941
928.056	4002
928.162	4063
928.267	4067
928.373	4596
928.479	4120
928.585	3899
928.69	4044
928.796	4143
928.901	4029
929.007	3838
929.112	4044
929.218	4025
929.323	4032
929.428	4017
929.533	4139
929.638	3907
929.743	3956
929.848	4109
929.953	4010
930.058	3968
930.163	3797
930.267	3842
930.372	3998
930.477	3816
930.581	4078
930.685	3987
930.79	3838
930.894	3907
930.998	3918
931.103	4063
931.207	3774
931.311	3698
931.415	3705
931.519	3580
931.623	3587
