Data from test_V78500241_2470.txt Node
Date: Fri Mar 25 17:06:10 CST 2022
User: usil
Spectrometer: V785-0024
Trigger mode: 0
Integration Time (sec): 4.000000E-1
Scans to average: 1
Nonlinearity correction enabled: false
Boxcar width: 0
Storing dark spectrum: false
XAxis mode: Wavelengths
Number of Pixels in Spectrum: 1024
>>>>>Begin Spectral Data<<<<<
801.071	8012
801.214	7986
801.356	7909
801.499	7868
801.641	7822
801.783	7772
801.926	7921
802.068	7940
802.211	7959
802.353	8039
802.496	7837
802.638	7879
802.78	7959
802.923	7944
803.065	7856
803.208	7898
803.35	7909
803.492	8157
803.635	8168
803.777	8058
803.919	8138
804.061	8404
804.204	8199
804.346	8069
804.488	7970
804.63	8050
804.773	8012
804.915	8123
805.057	8263
805.199	8168
805.341	8142
805.483	8336
805.626	8202
805.768	8134
805.91	8221
806.052	8240
806.194	8088
806.336	8237
806.478	8153
806.62	8031
806.762	8130
806.904	8191
807.046	8461
807.188	8400
807.33	8259
807.472	8347
807.614	8187
807.756	8142
807.898	8001
808.04	7909
808.182	7894
808.324	7822
808.465	7909
808.607	8084
808.749	8107
808.891	8301
809.033	8298
809.174	8183
809.316	8149
809.458	8024
809.6	7993
809.741	8027
809.883	8024
810.025	8111
810.166	8024
810.308	7989
810.45	8012
810.591	7909
810.733	7792
810.875	7651
811.016	7571
811.158	7464
811.299	7639
811.441	7746
811.582	7636
811.724	7590
811.865	7502
812.007	7601
812.148	7544
812.29	7616
812.431	7685
812.573	7868
812.714	7978
812.855	8107
812.997	8214
813.138	8309
813.279	8157
813.421	8111
813.562	7932
813.703	7864
813.845	7792
813.986	7529
814.127	7244
814.268	7217
814.41	7259
814.551	7164
814.692	7232
814.833	7065
814.974	7118
815.115	7110
815.256	7004
815.397	6935
815.539	6954
815.68	6848
815.821	6772
815.962	6901
816.103	6806
816.244	6738
816.385	6658
816.526	6665
816.666	6483
816.807	6327
816.948	6437
817.089	6502
817.23	6426
817.371	6369
817.512	6365
817.653	6346
817.793	6388
817.934	6437
818.075	6418
818.216	6395
818.356	6403
818.497	6251
818.638	6110
818.778	6182
818.919	6140
819.06	6190
819.2	6308
819.341	6372
819.481	6426
819.622	6536
819.762	6753
819.903	6768
820.043	6635
820.184	6608
820.324	6566
820.465	6696
820.605	6730
820.746	6673
820.886	6597
821.026	6650
821.167	6726
821.307	6787
821.447	6768
821.588	6707
821.728	6616
821.868	6555
822.008	6388
822.149	6399
822.289	6357
822.429	6190
822.569	6205
822.709	6213
822.849	5965
822.99	5980
823.13	5931
823.27	5901
823.41	5813
823.55	5809
823.69	5813
823.83	5828
823.97	5680
824.11	5611
824.25	5592
824.389	5608
824.529	5680
824.669	5554
824.809	5634
824.949	5703
825.089	5634
825.228	5570
825.368	5414
825.508	5395
825.648	5349
825.787	5398
825.927	5376
826.067	5307
826.206	5292
826.346	5341
826.485	5398
826.625	5444
826.765	5611
826.904	5516
827.044	5288
827.183	5220
827.323	5220
827.462	5242
827.601	5170
827.741	5246
827.88	5227
828.02	5162
828.159	5326
828.298	5395
828.437	5398
828.577	5330
828.716	5509
828.855	5406
828.994	5246
829.134	5197
829.273	5231
829.412	5193
829.551	5132
829.69	5159
829.829	5303
829.968	5372
830.107	5337
830.246	5311
830.385	5231
830.524	5227
830.663	5124
830.802	5056
830.941	4938
831.08	4934
831.219	5102
831.357	5010
831.496	5204
831.635	4934
831.774	4896
831.913	4908
832.051	4782
832.19	4767
832.329	4908
832.467	4740
832.606	4649
832.744	4748
832.883	4736
833.022	4816
833.16	4824
833.299	4843
833.437	4862
833.576	4889
833.714	4892
833.852	4915
833.991	4873
834.129	4991
834.267	5014
834.406	4930
834.544	5018
834.682	5041
834.821	5003
834.959	5208
835.097	5018
835.235	5143
835.373	5143
835.511	5185
835.65	5048
835.788	5048
835.926	4957
836.064	4892
836.202	4965
836.34	5220
836.478	5273
836.615	5193
836.753	5239
836.891	5315
837.029	5299
837.167	5189
837.305	5208
837.443	5227
837.58	5128
837.718	5322
837.856	5246
837.993	5140
838.131	5288
838.269	5254
838.406	5250
838.544	5220
838.681	5086
838.819	4984
838.956	4968
839.094	4908
839.231	5014
839.369	5128
839.506	5455
839.643	5341
839.781	5140
839.918	5079
840.055	5136
840.193	5201
840.33	5159
840.467	5136
840.604	5208
840.742	5490
840.879	5075
841.016	5136
841.153	5193
841.29	5387
841.427	5372
841.564	5357
841.701	5372
841.838	5334
841.975	5284
842.112	5292
842.249	5162
842.385	5140
842.522	5334
842.659	5220
842.796	5155
842.933	5193
843.069	5193
843.206	5140
843.343	5334
843.479	5269
843.616	5330
843.752	5018
843.889	5045
844.025	5315
844.162	5060
844.298	5227
844.435	5086
844.571	5086
844.708	5216
844.844	5307
844.98	5379
845.117	5288
845.253	5128
845.389	5147
845.525	5143
845.661	5185
845.798	5056
845.934	5159
846.07	5094
846.206	5227
846.342	5246
846.478	5254
846.614	5052
846.75	4995
846.886	4984
847.022	5170
847.158	5052
847.294	5105
847.429	5162
847.565	5105
847.701	5360
847.837	4896
847.972	4839
848.108	5010
848.244	4987
848.379	4797
848.515	4755
848.65	4752
848.786	4755
848.921	4839
849.057	4957
849.192	4934
849.328	4835
849.463	4911
849.598	4839
849.734	4809
849.869	4717
850.004	4687
850.14	4687
850.275	4664
850.41	4615
850.545	4592
850.68	4664
850.815	4641
850.95	4683
851.085	4908
851.22	4767
851.355	4702
851.49	4679
851.625	4729
851.76	4664
851.895	4569
852.03	4535
852.165	4660
852.299	4748
852.434	4812
852.569	4790
852.703	4831
852.838	4870
852.973	4957
853.107	4904
853.242	4782
853.376	4702
853.511	4561
853.645	4668
853.78	4843
853.914	4736
854.048	4729
854.183	4710
854.317	4702
854.451	4877
854.585	4672
854.72	4683
854.854	4793
854.988	4656
855.122	4675
855.256	4474
855.39	4752
855.524	4786
855.658	4744
855.792	4691
855.926	4744
856.06	4786
856.194	4824
856.327	4763
856.461	4694
856.595	4607
856.729	4649
856.862	4782
856.996	4706
857.13	4755
857.263	4748
857.397	4843
857.53	4668
857.664	4797
857.797	4771
857.931	4831
858.064	4733
858.197	4805
858.331	4660
858.464	4675
858.597	4588
858.731	4641
858.864	4622
858.997	4656
859.13	4664
859.263	4656
859.396	4733
859.529	4569
859.662	4618
859.795	4558
859.928	4622
860.061	4790
860.194	4809
860.327	4611
860.46	4599
860.592	4721
860.725	4740
860.858	4755
860.99	4588
861.123	4531
861.256	4558
861.388	4618
861.521	5223
861.653	4500
861.786	4432
861.918	4538
862.05	4546
862.183	4599
862.315	4626
862.447	4702
862.58	4592
862.712	4432
862.844	4356
862.976	4508
863.108	4459
863.24	4866
863.372	4371
863.504	4405
863.636	4440
863.768	4508
863.9	4462
864.032	4432
864.164	4478
864.296	4527
864.428	4580
864.559	4546
864.691	4580
864.823	4569
864.954	4527
865.086	4523
865.217	4523
865.349	4417
865.48	4508
865.612	4523
865.743	4649
865.875	4508
866.006	4455
866.137	4500
866.269	4489
866.4	4436
866.531	4413
866.662	4424
866.793	4424
866.924	4409
867.055	4538
867.186	4504
867.317	4432
867.448	4417
867.579	4436
867.71	4417
867.841	4371
867.972	4462
868.103	4470
868.233	4519
868.364	4455
868.495	4500
868.625	4687
868.756	4767
868.886	4592
869.017	4653
869.147	4820
869.278	4828
869.408	4649
869.539	4611
869.669	4702
869.799	4675
869.929	4812
870.06	4767
870.19	4965
870.32	4904
870.45	4946
870.58	5045
870.71	5147
870.84	5136
870.97	4965
871.1	4889
871.23	5124
871.36	5143
871.489	5029
871.619	5117
871.749	5143
871.879	5124
872.008	5197
872.138	5090
872.267	4965
872.397	4843
872.526	4873
872.656	4755
872.785	4816
872.915	5006
873.044	5060
873.173	4987
873.303	5041
873.432	5006
873.561	4991
873.69	4919
873.819	4866
873.948	4949
874.077	4850
874.206	4759
874.335	4866
874.464	4938
874.593	5064
874.722	5018
874.851	5113
874.979	5105
875.108	5071
875.237	4946
875.365	4877
875.494	4892
875.623	5018
875.751	4866
875.88	4881
876.008	5033
876.136	5006
876.265	5269
876.393	5360
876.521	5261
876.65	5265
876.778	5208
876.906	5117
877.034	5083
877.162	5060
877.29	5029
877.418	5102
877.546	5094
877.674	5079
877.802	5029
877.93	5048
878.058	4968
878.185	4877
878.313	4961
878.441	4968
878.568	4831
878.696	4881
878.824	4972
878.951	5060
879.079	5147
879.206	5307
879.333	5140
879.461	4980
879.588	5014
879.715	5178
879.842	5204
879.97	4984
880.097	4820
880.224	4793
880.351	4790
880.478	4877
880.605	4793
880.732	4816
880.859	5109
880.986	4942
881.112	4961
881.239	4824
881.366	4683
881.493	4630
881.619	4584
881.746	4679
881.872	4687
881.999	4649
882.125	4687
882.252	4805
882.378	4858
882.505	4942
882.631	4824
882.757	4679
882.883	4771
883.01	4755
883.136	4694
883.262	4592
883.388	4656
883.514	4835
883.64	4911
883.766	4820
883.892	4698
884.018	4740
884.143	4889
884.269	5022
884.395	4687
884.52	4641
884.646	4653
884.772	4588
884.897	4615
885.023	4679
885.148	4812
885.274	4850
885.399	4843
885.524	4717
885.65	4660
885.775	4809
885.9	4748
886.025	4870
886.15	4774
886.275	4721
886.4	4698
886.525	4729
886.65	4687
886.775	4740
886.9	4927
887.025	5048
887.149	4812
887.274	4656
887.399	4607
887.523	4626
887.648	4660
887.773	4584
887.897	4706
888.021	4763
888.146	4736
888.27	4866
888.395	4881
888.519	4847
888.643	4797
888.767	4843
888.891	4702
889.015	4641
889.139	4637
889.263	4622
889.387	4790
889.511	4885
889.635	4793
889.759	4634
889.883	4645
890.006	4706
890.13	4885
890.254	4664
890.377	4721
890.501	4558
890.624	4573
890.748	4596
890.871	4527
890.995	4447
891.118	4421
891.241	4500
891.364	4599
891.488	4637
891.611	4519
891.734	4569
891.857	4607
891.98	4558
892.103	4694
892.226	4630
892.349	4550
892.471	4440
892.594	4561
892.717	4561
892.839	4592
892.962	4550
893.085	4691
893.207	4588
893.33	4493
893.452	4516
893.575	4694
893.697	4584
893.819	4812
893.941	4820
894.064	4850
894.186	4626
894.308	4550
894.43	4767
894.552	4771
894.674	4755
894.796	4569
894.918	4660
895.04	4588
895.161	4744
895.283	4630
895.405	4622
895.526	4664
895.648	4691
895.769	4694
895.891	4698
896.012	4759
896.134	4691
896.255	4675
896.376	4622
896.498	4626
896.619	4710
896.74	4645
896.861	4664
896.982	4889
897.103	5147
897.224	4801
897.345	4752
897.466	4694
897.587	4717
897.708	4892
897.828	4778
897.949	4660
898.07	4584
898.19	4687
898.311	4862
898.431	4698
898.552	4736
898.672	4816
898.792	4801
898.913	4778
899.033	4649
899.153	4527
899.273	4459
899.393	4447
899.513	4538
899.633	4512
899.753	4630
899.873	4542
899.993	4599
900.113	4565
900.232	4634
900.352	4561
900.472	4478
900.591	4409
900.711	4466
900.83	4462
900.95	4626
901.069	4679
901.189	4573
901.308	4337
901.427	4306
901.546	4371
901.665	4485
901.784	4599
901.904	4428
902.023	4356
902.141	4177
902.26	4162
902.379	4295
902.498	4230
902.617	4261
902.735	4390
902.854	4341
902.973	4402
903.091	4230
903.21	4253
903.328	4299
903.446	4322
903.565	4268
903.683	4344
903.801	4314
903.919	4466
904.038	4443
904.156	4337
904.274	4421
904.392	4440
904.51	4447
904.627	4493
904.745	4596
904.863	4641
904.981	4386
905.098	4344
905.216	4371
905.334	4459
905.451	4440
905.569	4436
905.686	4561
905.803	4569
905.921	4447
906.038	4603
906.155	4466
906.272	4394
906.389	4470
906.506	4367
906.623	4383
906.74	4386
906.857	4303
906.974	4356
907.091	4565
907.208	4653
907.324	4577
907.441	4493
907.557	4341
907.674	4367
907.79	4325
907.907	4394
908.023	4531
908.139	4466
908.256	4428
908.372	4462
908.488	4459
908.604	4333
908.72	4341
908.836	4360
908.952	4440
909.068	4428
909.184	4599
909.3	4459
909.415	4599
909.531	4561
909.647	4413
909.762	4394
909.878	4356
909.993	4421
910.108	4421
910.224	4398
910.339	4485
910.454	4383
910.57	4398
910.685	4295
910.8	4634
910.915	4554
911.03	4516
911.145	4329
911.259	4405
911.374	4386
911.489	4325
911.604	4318
911.718	4219
911.833	4192
911.947	4120
912.062	4078
912.176	4177
912.291	4230
912.405	4268
912.519	4432
912.633	4561
912.748	4413
912.862	4348
912.976	4207
913.09	4086
913.204	4207
913.318	4257
913.431	4375
913.545	4405
913.659	4459
913.772	4409
913.886	4276
914	4234
914.113	4356
914.226	4421
914.34	4356
914.453	4253
914.566	4466
914.68	4284
914.793	4329
914.906	4211
915.019	4097
915.132	4097
915.245	4188
915.358	4230
915.47	4219
915.583	4280
915.696	4268
915.809	4394
915.921	4436
916.034	4238
916.146	4276
916.259	4223
916.371	4428
916.483	4360
916.595	4287
916.708	4272
916.82	4272
916.932	4306
917.044	4356
917.156	4314
917.268	4276
917.38	4337
917.491	4299
917.603	4333
917.715	4489
917.826	4421
917.938	4379
918.049	4257
918.161	4432
918.272	4523
918.384	4523
918.495	4432
918.606	4306
918.717	4249
918.828	4280
918.939	4371
919.05	4257
919.161	4272
919.272	4128
919.383	4234
919.494	4466
919.604	4656
919.715	4481
919.826	4348
919.936	4405
920.047	4508
920.157	4504
920.267	4717
920.378	4569
920.488	4481
920.598	4694
920.708	4919
920.818	4763
920.928	4748
921.038	4987
921.148	4980
921.258	4653
921.368	4558
921.477	4462
921.587	4462
921.697	4344
921.806	4596
921.916	4478
922.025	4314
922.134	4287
922.244	4246
922.353	4333
922.462	4230
922.571	4166
922.68	4013
922.789	3979
922.898	4017
923.007	4021
923.116	4150
923.224	4082
923.333	4059
923.442	4021
923.55	3975
923.659	4048
923.767	4093
923.876	4013
923.984	4124
924.092	4013
924.201	4036
924.309	4101
924.417	4120
924.525	4055
924.633	4135
924.741	5064
924.849	3907
924.956	4109
925.064	3953
925.172	3884
925.279	3945
925.387	4067
925.494	4067
925.602	4211
925.709	4177
925.816	4036
925.924	4120
926.031	4249
926.138	4120
926.245	4166
926.352	4071
926.459	4227
926.566	4291
926.673	4135
926.779	4093
926.886	4059
926.993	3994
927.099	3953
927.206	3975
927.312	3949
927.419	4040
927.525	4078
927.631	4105
927.737	3945
927.843	3979
927.95	3865
928.056	3994
928.162	4013
928.267	4067
928.373	4698
928.479	4101
928.585	3854
928.69	4059
928.796	4059
928.901	3937
929.007	3861
929.112	4006
929.218	3960
929.323	3953
929.428	3926
929.533	4093
929.638	3915
929.743	3949
929.848	4010
929.953	4032
930.058	3937
930.163	3793
930.267	3861
930.372	3953
930.477	3808
930.581	4067
930.685	3945
930.79	3831
930.894	3918
930.998	3838
931.103	4013
931.207	3751
931.311	3675
931.415	3667
931.519	3523
931.623	3557
