Data from test_V78500241_2528.txt Node
Date: Fri Mar 25 17:06:34 CST 2022
User: usil
Spectrometer: V785-0024
Trigger mode: 0
Integration Time (sec): 4.000000E-1
Scans to average: 1
Nonlinearity correction enabled: false
Boxcar width: 0
Storing dark spectrum: false
XAxis mode: Wavelengths
Number of Pixels in Spectrum: 1024
>>>>>Begin Spectral Data<<<<<
801.071	8016
801.214	7928
801.356	7799
801.499	7875
801.641	7803
801.783	7780
801.926	7902
802.068	7947
802.211	7982
802.353	8001
802.496	7879
802.638	7868
802.78	7959
802.923	7837
803.065	7879
803.208	7944
803.35	7936
803.492	8084
803.635	8115
803.777	8031
803.919	8153
804.061	8484
804.204	8191
804.346	8039
804.488	8020
804.63	8073
804.773	8005
804.915	8123
805.057	8259
805.199	8069
805.341	8183
805.483	8320
805.626	8202
805.768	8191
805.91	8168
806.052	8172
806.194	8069
806.336	8267
806.478	8142
806.62	8039
806.762	8134
806.904	8324
807.046	8473
807.188	8400
807.33	8282
807.472	8317
807.614	8199
807.756	8172
807.898	8016
808.04	7868
808.182	7811
808.324	7887
808.465	7906
808.607	8024
808.749	8081
808.891	8206
809.033	8275
809.174	8256
809.316	8054
809.458	8050
809.6	8058
809.741	7997
809.883	7970
810.025	8130
810.166	8088
810.308	7963
810.45	8012
810.591	7856
810.733	7723
810.875	7666
811.016	7537
811.158	7518
811.299	7575
811.441	7734
811.582	7719
811.724	7563
811.865	7601
812.007	7624
812.148	7586
812.29	7666
812.431	7742
812.573	7871
812.714	7944
812.855	8096
812.997	8153
813.138	8275
813.279	8191
813.421	8107
813.562	7982
813.703	7807
813.845	7746
813.986	7453
814.127	7217
814.268	7213
814.41	7198
814.551	7137
814.692	7187
814.833	7110
814.974	7046
815.115	7202
815.256	6924
815.397	6920
815.539	6882
815.68	6837
815.821	6798
815.962	6814
816.103	6802
816.244	6745
816.385	6597
816.526	6589
816.666	6486
816.807	6331
816.948	6448
817.089	6502
817.23	6460
817.371	6414
817.512	6433
817.653	6365
817.793	6327
817.934	6448
818.075	6414
818.216	6452
818.356	6380
818.497	6216
818.638	6114
818.778	6167
818.919	6121
819.06	6178
819.2	6433
819.341	6319
819.481	6365
819.622	6540
819.762	6745
819.903	6802
820.043	6654
820.184	6623
820.324	6563
820.465	6654
820.605	6696
820.746	6623
820.886	6563
821.026	6681
821.167	6662
821.307	6764
821.447	6783
821.588	6665
821.728	6650
821.868	6498
822.008	6353
822.149	6414
822.289	6395
822.429	6144
822.569	6057
822.709	6091
822.849	5920
822.99	5855
823.13	5942
823.27	5935
823.41	5809
823.55	5817
823.69	5786
823.83	5764
823.97	5680
824.11	5528
824.25	5493
824.389	5528
824.529	5573
824.669	5566
824.809	5630
824.949	5611
825.089	5577
825.228	5611
825.368	5414
825.508	5353
825.648	5345
825.787	5372
825.927	5277
826.067	5284
826.206	5299
826.346	5391
826.485	5417
826.625	5417
826.765	5600
826.904	5455
827.044	5239
827.183	5246
827.323	5113
827.462	5258
827.601	5189
827.741	5178
827.88	5220
828.02	5128
828.159	5265
828.298	5246
828.437	5326
828.577	5288
828.716	5463
828.855	5330
828.994	5178
829.134	5162
829.273	5204
829.412	5128
829.551	5113
829.69	5147
829.829	5265
829.968	5341
830.107	5273
830.246	5299
830.385	5193
830.524	5162
830.663	5014
830.802	4976
830.941	4885
831.08	4900
831.219	4976
831.357	4976
831.496	5151
831.635	4915
831.774	4828
831.913	4831
832.051	4736
832.19	4782
832.329	4820
832.467	4683
832.606	4653
832.744	4733
832.883	4733
833.022	4710
833.16	4809
833.299	4816
833.437	4820
833.576	4850
833.714	4908
833.852	4858
833.991	4881
834.129	4957
834.267	4949
834.406	4889
834.544	4987
834.682	4934
834.821	4915
834.959	5178
835.097	4919
835.235	5151
835.373	5098
835.511	5094
835.65	5022
835.788	5014
835.926	4919
836.064	4843
836.202	4892
836.34	5159
836.478	5220
836.615	5147
836.753	5216
836.891	5334
837.029	5235
837.167	5166
837.305	5166
837.443	5132
837.58	5079
837.718	5307
837.856	5166
837.993	5117
838.131	5258
838.269	5231
838.406	5197
838.544	5155
838.681	5052
838.819	4976
838.956	4866
839.094	4877
839.231	4984
839.369	5033
839.506	5383
839.643	5242
839.781	5094
839.918	5048
840.055	5094
840.193	5083
840.33	5102
840.467	5197
840.604	5151
840.742	5493
840.879	5105
841.016	5113
841.153	5128
841.29	5383
841.427	5318
841.564	5307
841.701	5311
841.838	5246
841.975	5216
842.112	5277
842.249	5098
842.385	5086
842.522	5326
842.659	5147
842.796	5132
842.933	5208
843.069	5083
843.206	5193
843.343	5364
843.479	5231
843.616	5265
843.752	5010
843.889	4987
844.025	5235
844.162	5003
844.298	5204
844.435	5022
844.571	5037
844.708	5208
844.844	5250
844.98	5357
845.117	5231
845.253	5170
845.389	5071
845.525	5197
845.661	5067
845.798	5075
845.934	5121
846.07	5056
846.206	5185
846.342	5277
846.478	5178
846.614	4984
846.75	4968
846.886	4896
847.022	5159
847.158	5014
847.294	5041
847.429	5086
847.565	5029
847.701	5296
847.837	4824
847.972	4793
848.108	4980
848.244	4968
848.379	4774
848.515	4733
848.65	4752
848.786	4733
848.921	4763
849.057	4782
849.192	4892
849.328	4816
849.463	4847
849.598	4759
849.734	4755
849.869	4717
850.004	4664
850.14	4679
850.275	4649
850.41	4561
850.545	4535
850.68	4618
850.815	4630
850.95	4607
851.085	4820
851.22	4778
851.355	4683
851.49	4550
851.625	4630
851.76	4599
851.895	4561
852.03	4508
852.165	4653
852.299	4733
852.434	4778
852.569	4786
852.703	4736
852.838	4843
852.973	4919
853.107	4919
853.242	4721
853.376	4683
853.511	4550
853.645	4584
853.78	4752
853.914	4683
854.048	4672
854.183	4622
854.317	4710
854.451	4877
854.585	4691
854.72	4649
854.854	4759
854.988	4554
855.122	4664
855.256	4500
855.39	4683
855.524	4790
855.658	4721
855.792	4736
855.926	4748
856.06	4748
856.194	4771
856.327	4717
856.461	4611
856.595	4603
856.729	4649
856.862	4812
856.996	4736
857.13	4725
857.263	4752
857.397	4771
857.53	4645
857.664	4691
857.797	4774
857.931	4824
858.064	4714
858.197	4790
858.331	4653
858.464	4603
858.597	4523
858.731	4653
858.864	4660
858.997	4626
859.13	4649
859.263	4675
859.396	4710
859.529	4577
859.662	4599
859.795	4546
859.928	4664
860.061	4733
860.194	4790
860.327	4573
860.46	4546
860.592	4729
860.725	4702
860.858	4702
860.99	4577
861.123	4546
861.256	4504
861.388	4641
861.521	5121
861.653	4459
861.786	4413
861.918	4466
862.05	4516
862.183	4554
862.315	4615
862.447	4641
862.58	4577
862.712	4375
862.844	4303
862.976	4459
863.108	4447
863.24	4790
863.372	4344
863.504	4402
863.636	4421
863.768	4493
863.9	4394
864.032	4390
864.164	4390
864.296	4485
864.428	4538
864.559	4554
864.691	4558
864.823	4519
864.954	4481
865.086	4470
865.217	4451
865.349	4379
865.48	4447
865.612	4462
865.743	4649
865.875	4546
866.006	4428
866.137	4447
866.269	4424
866.4	4402
866.531	4470
866.662	4386
866.793	4413
866.924	4474
867.055	4527
867.186	4451
867.317	4386
867.448	4390
867.579	4383
867.71	4375
867.841	4329
867.972	4459
868.103	4485
868.233	4485
868.364	4497
868.495	4497
868.625	4710
868.756	4744
868.886	4584
869.017	4645
869.147	4801
869.278	4782
869.408	4641
869.539	4706
869.669	4733
869.799	4668
869.929	4744
870.06	4736
870.19	5022
870.32	4877
870.45	4976
870.58	5022
870.71	5037
870.84	5067
870.97	4976
871.1	4900
871.23	5124
871.36	5136
871.489	5010
871.619	5090
871.749	5075
871.879	5086
872.008	5178
872.138	5083
872.267	4991
872.397	4854
872.526	4809
872.656	4687
872.785	4793
872.915	4930
873.044	5014
873.173	4934
873.303	4961
873.432	4961
873.561	4946
873.69	4930
873.819	4904
873.948	4957
874.077	4816
874.206	4744
874.335	4748
874.464	4953
874.593	5022
874.722	4919
874.851	5105
874.979	5079
875.108	5029
875.237	4915
875.365	4915
875.494	4896
875.623	5010
875.751	4809
875.88	4919
876.008	4965
876.136	5079
876.265	5239
876.393	5337
876.521	5231
876.65	5258
876.778	5140
876.906	5113
877.034	5037
877.162	5022
877.29	4980
877.418	5048
877.546	5105
877.674	5060
877.802	5033
877.93	5025
878.058	4980
878.185	4839
878.313	4976
878.441	4953
878.568	4774
878.696	4911
878.824	4965
878.951	5018
879.079	5105
879.206	5239
879.333	5071
879.461	5018
879.588	5018
879.715	5094
879.842	5197
879.97	5048
880.097	4774
880.224	4752
880.351	4831
880.478	4812
880.605	4816
880.732	4828
880.859	5067
880.986	4892
881.112	4881
881.239	4755
881.366	4702
881.493	4580
881.619	4603
881.746	4622
881.872	4660
881.999	4641
882.125	4645
882.252	4744
882.378	4831
882.505	4946
882.631	4839
882.757	4679
882.883	4733
883.01	4736
883.136	4675
883.262	4569
883.388	4584
883.514	4831
883.64	4850
883.766	4782
883.892	4683
884.018	4740
884.143	4858
884.269	5025
884.395	4664
884.52	4584
884.646	4626
884.772	4554
884.897	4558
885.023	4672
885.148	4767
885.274	4839
885.399	4828
885.524	4683
885.65	4702
885.775	4778
885.9	4702
886.025	4908
886.15	4767
886.275	4653
886.4	4679
886.525	4755
886.65	4691
886.775	4698
886.9	4930
887.025	4968
887.149	4801
887.274	4679
887.399	4577
887.523	4615
887.648	4569
887.773	4603
887.897	4809
888.021	4763
888.146	4706
888.27	4824
888.395	4900
888.519	4752
888.643	4828
888.767	4736
888.891	4660
889.015	4611
889.139	4599
889.263	4637
889.387	4763
889.511	4892
889.635	4816
889.759	4706
889.883	4656
890.006	4714
890.13	4809
890.254	4603
890.377	4687
890.501	4516
890.624	4459
890.748	4630
890.871	4546
890.995	4421
891.118	4440
891.241	4489
891.364	4558
891.488	4653
891.611	4447
891.734	4565
891.857	4588
891.98	4554
892.103	4660
892.226	4584
892.349	4523
892.471	4405
892.594	4546
892.717	4618
892.839	4569
892.962	4599
893.085	4656
893.207	4603
893.33	4447
893.452	4512
893.575	4653
893.697	4584
893.819	4809
893.941	4824
894.064	4755
894.186	4588
894.308	4554
894.43	4740
894.552	4805
894.674	4744
894.796	4565
894.918	4618
895.04	4558
895.161	4675
895.283	4710
895.405	4580
895.526	4603
895.648	4687
895.769	4687
895.891	4683
896.012	4702
896.134	4752
896.255	4634
896.376	4637
896.498	4538
896.619	4672
896.74	4622
896.861	4656
896.982	4911
897.103	5064
897.224	4847
897.345	4717
897.466	4683
897.587	4733
897.708	4870
897.828	4790
897.949	4641
898.07	4561
898.19	4675
898.311	4831
898.431	4679
898.552	4782
898.672	4858
898.792	4820
898.913	4721
899.033	4660
899.153	4554
899.273	4436
899.393	4455
899.513	4542
899.633	4538
899.753	4535
899.873	4512
899.993	4592
900.113	4588
900.232	4584
900.352	4523
900.472	4489
900.591	4421
900.711	4462
900.83	4432
900.95	4641
901.069	4649
901.189	4527
901.308	4356
901.427	4379
901.546	4363
901.665	4481
901.784	4531
901.904	4394
902.023	4310
902.141	4192
902.26	4196
902.379	4284
902.498	4261
902.617	4196
902.735	4402
902.854	4383
902.973	4322
903.091	4211
903.21	4230
903.328	4272
903.446	4215
903.565	4295
903.683	4333
903.801	4242
903.919	4409
904.038	4390
904.156	4299
904.274	4413
904.392	4409
904.51	4451
904.627	4497
904.745	4554
904.863	4580
904.981	4402
905.098	4291
905.216	4360
905.334	4440
905.451	4402
905.569	4436
905.686	4561
905.803	4554
905.921	4409
906.038	4561
906.155	4462
906.272	4409
906.389	4451
906.506	4322
906.623	4360
906.74	4390
906.857	4306
906.974	4348
907.091	4577
907.208	4679
907.324	4592
907.441	4508
907.557	4360
907.674	4325
907.79	4299
907.907	4379
908.023	4478
908.139	4443
908.256	4440
908.372	4523
908.488	4436
908.604	4379
908.72	4341
908.836	4402
908.952	4360
909.068	4424
909.184	4588
909.3	4478
909.415	4592
909.531	4523
909.647	4375
909.762	4375
909.878	4367
909.993	4398
910.108	4436
910.224	4436
910.339	4550
910.454	4375
910.57	4394
910.685	4325
910.8	4596
910.915	4561
911.03	4459
911.145	4337
911.259	4314
911.374	4398
911.489	4253
911.604	4276
911.718	4131
911.833	4181
911.947	4086
912.062	4029
912.176	4215
912.291	4200
912.405	4261
912.519	4481
912.633	4508
912.748	4386
912.862	4261
912.976	4181
913.09	4112
913.204	4200
913.318	4272
913.431	4371
913.545	4371
913.659	4405
913.772	4333
913.886	4238
914	4227
914.113	4344
914.226	4443
914.34	4424
914.453	4261
914.566	4383
914.68	4306
914.793	4322
914.906	4185
915.019	4101
915.132	4105
915.245	4188
915.358	4204
915.47	4261
915.583	4249
915.696	4295
915.809	4390
915.921	4390
916.034	4299
916.146	4238
916.259	4234
916.371	4417
916.483	4348
916.595	4284
916.708	4363
916.82	4360
916.932	4337
917.044	4306
917.156	4360
917.268	4192
917.38	4287
917.491	4284
917.603	4333
917.715	4398
917.826	4436
917.938	4360
918.049	4207
918.161	4390
918.272	4580
918.384	4493
918.495	4440
918.606	4230
918.717	4227
918.828	4348
918.939	4379
919.05	4249
919.161	4337
919.272	4093
919.383	4265
919.494	4440
919.604	4649
919.715	4409
919.826	4272
919.936	4402
920.047	4504
920.157	4478
920.267	4630
920.378	4531
920.488	4542
920.598	4740
920.708	4847
920.818	4744
920.928	4778
921.038	4915
921.148	4877
921.258	4611
921.368	4596
921.477	4466
921.587	4466
921.697	4394
921.806	4550
921.916	4413
922.025	4246
922.134	4234
922.244	4177
922.353	4303
922.462	4169
922.571	4082
922.68	4029
922.789	3983
922.898	3998
923.007	4021
923.116	4097
923.224	4040
923.333	4063
923.442	3968
923.55	3998
923.659	4006
923.767	4074
923.876	3975
923.984	4112
924.092	3975
924.201	4101
924.309	4059
924.417	4112
924.525	4013
924.633	4093
924.741	5014
924.849	3899
924.956	4086
925.064	3964
925.172	3918
925.279	3956
925.387	4017
925.494	4044
925.602	4211
925.709	4211
925.816	4036
925.924	4135
926.031	4242
926.138	4147
926.245	4185
926.352	4109
926.459	4227
926.566	4276
926.673	4120
926.779	4059
926.886	4051
926.993	3945
927.099	3964
927.206	3945
927.312	3998
927.419	4044
927.525	4029
927.631	4078
927.737	3960
927.843	3949
927.95	3835
928.056	3968
928.162	4010
928.267	4029
928.373	4603
928.479	4116
928.585	3884
928.69	4067
928.796	4067
928.901	3960
929.007	3827
929.112	4021
929.218	3972
929.323	3903
929.428	3934
929.533	4086
929.638	3873
929.743	3991
929.848	3998
929.953	4002
930.058	3949
930.163	3785
930.267	3842
930.372	3998
930.477	3800
930.581	4093
930.685	3987
930.79	3774
930.894	3903
930.998	3884
931.103	4036
931.207	3728
931.311	3682
931.415	3686
931.519	3488
931.623	3538
