Data from test_V78500241_2697.txt Node
Date: Fri Mar 25 17:07:45 CST 2022
User: usil
Spectrometer: V785-0024
Trigger mode: 0
Integration Time (sec): 4.000000E-1
Scans to average: 1
Nonlinearity correction enabled: false
Boxcar width: 0
Storing dark spectrum: false
XAxis mode: Wavelengths
Number of Pixels in Spectrum: 1024
>>>>>Begin Spectral Data<<<<<
801.071	8027
801.214	7993
801.356	7921
801.499	7826
801.641	7868
801.783	7890
801.926	7986
802.068	7978
802.211	7955
802.353	8084
802.496	7906
802.638	7921
802.78	7963
802.923	7890
803.065	7894
803.208	7917
803.35	7932
803.492	8123
803.635	8183
803.777	8020
803.919	8123
804.061	8434
804.204	8168
804.346	8050
804.488	7967
804.63	8077
804.773	8046
804.915	8142
805.057	8320
805.199	8176
805.341	8225
805.483	8294
805.626	8183
805.768	8168
805.91	8237
806.052	8237
806.194	8123
806.336	8328
806.478	8096
806.62	7986
806.762	8157
806.904	8214
807.046	8431
807.188	8358
807.33	8377
807.472	8252
807.614	8187
807.756	8218
807.898	8046
808.04	7811
808.182	7894
808.324	7959
808.465	7928
808.607	8054
808.749	8138
808.891	8324
809.033	8305
809.174	8248
809.316	8035
809.458	8046
809.6	8043
809.741	8058
809.883	8020
810.025	8111
810.166	8168
810.308	8092
810.45	7989
810.591	7868
810.733	7731
810.875	7685
811.016	7495
811.158	7529
811.299	7563
811.441	7788
811.582	7719
811.724	7552
811.865	7556
812.007	7601
812.148	7636
812.29	7662
812.431	7712
812.573	7860
812.714	7982
812.855	8149
812.997	8294
813.138	8377
813.279	8115
813.421	8149
813.562	8001
813.703	7860
813.845	7792
813.986	7460
814.127	7301
814.268	7221
814.41	7149
814.551	7225
814.692	7160
814.833	7076
814.974	7053
815.115	7190
815.256	6943
815.397	6962
815.539	6954
815.68	6806
815.821	6814
815.962	6871
816.103	6878
816.244	6722
816.385	6620
816.526	6654
816.666	6509
816.807	6251
816.948	6506
817.089	6521
817.23	6418
817.371	6338
817.512	6376
817.653	6372
817.793	6327
817.934	6388
818.075	6448
818.216	6456
818.356	6361
818.497	6285
818.638	6148
818.778	6197
818.919	6144
819.06	6144
819.2	6292
819.341	6247
819.481	6391
819.622	6502
819.762	6688
819.903	6715
820.043	6559
820.184	6547
820.324	6597
820.465	6669
820.605	6658
820.746	6574
820.886	6486
821.026	6677
821.167	6726
821.307	6852
821.447	6757
821.588	6665
821.728	6612
821.868	6464
822.008	6327
822.149	6369
822.289	6365
822.429	6216
822.569	6117
822.709	6178
822.849	5935
822.99	5946
823.13	6003
823.27	5904
823.41	5817
823.55	5764
823.69	5828
823.83	5832
823.97	5684
824.11	5585
824.25	5535
824.389	5570
824.529	5615
824.669	5562
824.809	5646
824.949	5699
825.089	5703
825.228	5596
825.368	5455
825.508	5269
825.648	5372
825.787	5383
825.927	5376
826.067	5349
826.206	5303
826.346	5436
826.485	5387
826.625	5440
826.765	5589
826.904	5543
827.044	5288
827.183	5261
827.323	5201
827.462	5277
827.601	5216
827.741	5223
827.88	5216
828.02	5170
828.159	5296
828.298	5372
828.437	5433
828.577	5322
828.716	5547
828.855	5360
828.994	5216
829.134	5235
829.273	5258
829.412	5124
829.551	5185
829.69	5197
829.829	5261
829.968	5402
830.107	5277
830.246	5288
830.385	5223
830.524	5132
830.663	5117
830.802	5052
830.941	4938
831.08	4900
831.219	5037
831.357	5006
831.496	5284
831.635	4930
831.774	4896
831.913	4908
832.051	4812
832.19	4793
832.329	4908
832.467	4752
832.606	4733
832.744	4774
832.883	4759
833.022	4759
833.16	4831
833.299	4885
833.437	4896
833.576	4866
833.714	4858
833.852	4877
833.991	4942
834.129	4987
834.267	5003
834.406	4984
834.544	5003
834.682	5037
834.821	5018
834.959	5197
835.097	5037
835.235	5155
835.373	5067
835.511	5121
835.65	5079
835.788	5064
835.926	4911
836.064	4896
836.202	4919
836.34	5235
836.478	5250
836.615	5170
836.753	5231
836.891	5318
837.029	5288
837.167	5246
837.305	5212
837.443	5159
837.58	5136
837.718	5284
837.856	5223
837.993	5197
838.131	5261
838.269	5250
838.406	5235
838.544	5220
838.681	5083
838.819	5045
838.956	4908
839.094	4953
839.231	5029
839.369	5079
839.506	5467
839.643	5318
839.781	5102
839.918	5041
840.055	5136
840.193	5170
840.33	5102
840.467	5143
840.604	5212
840.742	5436
840.879	5079
841.016	5102
841.153	5185
841.29	5383
841.427	5376
841.564	5326
841.701	5410
841.838	5307
841.975	5330
842.112	5280
842.249	5201
842.385	5181
842.522	5406
842.659	5197
842.796	5208
842.933	5223
843.069	5197
843.206	5170
843.343	5311
843.479	5246
843.616	5292
843.752	5060
843.889	5056
844.025	5235
844.162	5041
844.298	5280
844.435	5117
844.571	5052
844.708	5261
844.844	5345
844.98	5364
845.117	5322
845.253	5124
845.389	5117
845.525	5189
845.661	5162
845.798	5075
845.934	5162
846.07	5102
846.206	5185
846.342	5288
846.478	5193
846.614	5052
846.75	4938
846.886	4957
847.022	5159
847.158	5064
847.294	5113
847.429	5121
847.565	5083
847.701	5303
847.837	4885
847.972	4881
848.108	4976
848.244	4995
848.379	4828
848.515	4786
848.65	4812
848.786	4797
848.921	4801
849.057	4870
849.192	4908
849.328	4828
849.463	4900
849.598	4816
849.734	4771
849.869	4725
850.004	4683
850.14	4679
850.275	4645
850.41	4577
850.545	4660
850.68	4603
850.815	4702
850.95	4656
851.085	4885
851.22	4767
851.355	4748
851.49	4645
851.625	4668
851.76	4611
851.895	4618
852.03	4596
852.165	4694
852.299	4717
852.434	4797
852.569	4782
852.703	4763
852.838	4858
852.973	4968
853.107	5010
853.242	4835
853.376	4714
853.511	4584
853.645	4653
853.78	4812
853.914	4736
854.048	4702
854.183	4691
854.317	4710
854.451	4892
854.585	4683
854.72	4660
854.854	4786
854.988	4634
855.122	4649
855.256	4519
855.39	4664
855.524	4797
855.658	4805
855.792	4774
855.926	4729
856.06	4771
856.194	4812
856.327	4714
856.461	4618
856.595	4641
856.729	4645
856.862	4752
856.996	4767
857.13	4828
857.263	4740
857.397	4850
857.53	4702
857.664	4733
857.797	4771
857.931	4847
858.064	4698
858.197	4717
858.331	4653
858.464	4637
858.597	4531
858.731	4641
858.864	4679
858.997	4592
859.13	4649
859.263	4675
859.396	4725
859.529	4630
859.662	4596
859.795	4577
859.928	4626
860.061	4786
860.194	4790
860.327	4653
860.46	4561
860.592	4763
860.725	4748
860.858	4759
860.99	4573
861.123	4527
861.256	4561
861.388	4645
861.521	5353
861.653	4504
861.786	4489
861.918	4459
862.05	4531
862.183	4611
862.315	4607
862.447	4683
862.58	4584
862.712	4417
862.844	4363
862.976	4485
863.108	4424
863.24	4812
863.372	4367
863.504	4402
863.636	4390
863.768	4531
863.9	4421
864.032	4402
864.164	4409
864.296	4573
864.428	4538
864.559	4588
864.691	4550
864.823	4622
864.954	4542
865.086	4569
865.217	4466
865.349	4413
865.48	4478
865.612	4558
865.743	4603
865.875	4481
866.006	4436
866.137	4508
866.269	4424
866.4	4489
866.531	4478
866.662	4443
866.793	4459
866.924	4459
867.055	4512
867.186	4493
867.317	4451
867.448	4383
867.579	4451
867.71	4424
867.841	4428
867.972	4455
868.103	4451
868.233	4462
868.364	4443
868.495	4500
868.625	4706
868.756	4774
868.886	4558
869.017	4672
869.147	4809
869.278	4831
869.408	4710
869.539	4733
869.669	4698
869.799	4649
869.929	4767
870.06	4717
870.19	4968
870.32	4968
870.45	4999
870.58	5060
870.71	5086
870.84	5121
870.97	4961
871.1	4923
871.23	5170
871.36	5178
871.489	5067
871.619	5052
871.749	5079
871.879	5147
872.008	5181
872.138	5083
872.267	5029
872.397	4930
872.526	4850
872.656	4736
872.785	4831
872.915	4972
873.044	5014
873.173	4995
873.303	4938
873.432	4930
873.561	4930
873.69	4934
873.819	4854
873.948	4923
874.077	4847
874.206	4809
874.335	4831
874.464	4965
874.593	5117
874.722	4961
874.851	5155
874.979	5064
875.108	5060
875.237	4919
875.365	4911
875.494	4911
875.623	5006
875.751	4839
875.88	4938
876.008	5045
876.136	5022
876.265	5246
876.393	5376
876.521	5303
876.65	5265
876.778	5174
876.906	5071
877.034	5033
877.162	5075
877.29	5022
877.418	5109
877.546	5098
877.674	5090
877.802	5056
877.93	5022
878.058	4980
878.185	4930
878.313	4957
878.441	4957
878.568	4843
878.696	4942
878.824	4946
878.951	5029
879.079	5166
879.206	5318
879.333	5117
879.461	5022
879.588	5018
879.715	5143
879.842	5322
879.97	5022
880.097	4839
880.224	4782
880.351	4797
880.478	4892
880.605	4831
880.732	4820
880.859	5124
880.986	4942
881.112	4885
881.239	4790
881.366	4752
881.493	4618
881.619	4618
881.746	4645
881.872	4664
881.999	4691
882.125	4687
882.252	4828
882.378	4801
882.505	4961
882.631	4828
882.757	4736
882.883	4717
883.01	4721
883.136	4706
883.262	4656
883.388	4588
883.514	4793
883.64	4904
883.766	4820
883.892	4736
884.018	4725
884.143	4862
884.269	5075
884.395	4672
884.52	4656
884.646	4687
884.772	4618
884.897	4596
885.023	4706
885.148	4782
885.274	4908
885.399	4812
885.524	4736
885.65	4759
885.775	4786
885.9	4755
886.025	4892
886.15	4828
886.275	4725
886.4	4702
886.525	4759
886.65	4736
886.775	4710
886.9	4896
887.025	5086
887.149	4809
887.274	4702
887.399	4584
887.523	4588
887.648	4596
887.773	4584
887.897	4763
888.021	4805
888.146	4672
888.27	4858
888.395	4942
888.519	4782
888.643	4820
888.767	4870
888.891	4694
889.015	4626
889.139	4733
889.263	4634
889.387	4797
889.511	4850
889.635	4831
889.759	4687
889.883	4664
890.006	4736
890.13	4847
890.254	4634
890.377	4672
890.501	4512
890.624	4561
890.748	4622
890.871	4512
890.995	4455
891.118	4424
891.241	4535
891.364	4523
891.488	4668
891.611	4519
891.734	4516
891.857	4592
891.98	4523
892.103	4683
892.226	4596
892.349	4561
892.471	4440
892.594	4622
892.717	4607
892.839	4565
892.962	4599
893.085	4679
893.207	4580
893.33	4489
893.452	4500
893.575	4721
893.697	4565
893.819	4828
893.941	4870
894.064	4755
894.186	4607
894.308	4565
894.43	4717
894.552	4862
894.674	4752
894.796	4588
894.918	4611
895.04	4531
895.161	4736
895.283	4649
895.405	4592
895.526	4668
895.648	4710
895.769	4710
895.891	4733
896.012	4763
896.134	4752
896.255	4675
896.376	4691
896.498	4615
896.619	4694
896.74	4577
896.861	4641
896.982	4904
897.103	5094
897.224	4850
897.345	4771
897.466	4698
897.587	4790
897.708	4870
897.828	4790
897.949	4675
898.07	4558
898.19	4649
898.311	4816
898.431	4710
898.552	4767
898.672	4870
898.792	4740
898.913	4725
899.033	4645
899.153	4535
899.273	4447
899.393	4481
899.513	4542
899.633	4493
899.753	4538
899.873	4512
899.993	4584
900.113	4519
900.232	4626
900.352	4542
900.472	4500
900.591	4421
900.711	4459
900.83	4421
900.95	4596
901.069	4660
901.189	4516
901.308	4405
901.427	4333
901.546	4394
901.665	4497
901.784	4558
901.904	4398
902.023	4348
902.141	4181
902.26	4124
902.379	4310
902.498	4249
902.617	4261
902.735	4402
902.854	4451
902.973	4371
903.091	4204
903.21	4200
903.328	4242
903.446	4284
903.565	4272
903.683	4413
903.801	4276
903.919	4451
904.038	4459
904.156	4371
904.274	4481
904.392	4417
904.51	4462
904.627	4474
904.745	4569
904.863	4634
904.981	4394
905.098	4295
905.216	4363
905.334	4413
905.451	4481
905.569	4436
905.686	4538
905.803	4615
905.921	4455
906.038	4558
906.155	4485
906.272	4375
906.389	4470
906.506	4337
906.623	4409
906.74	4371
906.857	4322
906.974	4379
907.091	4615
907.208	4664
907.324	4626
907.441	4497
907.557	4386
907.674	4409
907.79	4337
907.907	4363
908.023	4474
908.139	4500
908.256	4424
908.372	4508
908.488	4424
908.604	4394
908.72	4348
908.836	4375
908.952	4344
909.068	4424
909.184	4565
909.3	4523
909.415	4611
909.531	4550
909.647	4360
909.762	4333
909.878	4356
909.993	4451
910.108	4409
910.224	4432
910.339	4459
910.454	4424
910.57	4371
910.685	4337
910.8	4649
910.915	4580
911.03	4516
911.145	4344
911.259	4348
911.374	4386
911.489	4306
911.604	4318
911.718	4188
911.833	4204
911.947	4105
912.062	4048
912.176	4215
912.291	4261
912.405	4223
912.519	4390
912.633	4546
912.748	4405
912.862	4363
912.976	4204
913.09	4120
913.204	4166
913.318	4215
913.431	4398
913.545	4348
913.659	4481
913.772	4386
913.886	4230
914	4227
914.113	4333
914.226	4443
914.34	4363
914.453	4249
914.566	4432
914.68	4253
914.793	4306
914.906	4185
915.019	4181
915.132	4112
915.245	4234
915.358	4219
915.47	4272
915.583	4291
915.696	4291
915.809	4413
915.921	4421
916.034	4253
916.146	4291
916.259	4211
916.371	4371
916.483	4344
916.595	4257
916.708	4325
916.82	4291
916.932	4303
917.044	4352
917.156	4360
917.268	4246
917.38	4265
917.491	4268
917.603	4344
917.715	4451
917.826	4436
917.938	4295
918.049	4268
918.161	4356
918.272	4577
918.384	4542
918.495	4481
918.606	4287
918.717	4284
918.828	4310
918.939	4360
919.05	4246
919.161	4333
919.272	4120
919.383	4314
919.494	4390
919.604	4637
919.715	4443
919.826	4386
919.936	4424
920.047	4508
920.157	4462
920.267	4725
920.378	4554
920.488	4504
920.598	4683
920.708	4915
920.818	4767
920.928	4763
921.038	4968
921.148	4927
921.258	4649
921.368	4573
921.477	4478
921.587	4432
921.697	4390
921.806	4516
921.916	4424
922.025	4295
922.134	4295
922.244	4287
922.353	4341
922.462	4196
922.571	4120
922.68	4017
922.789	3964
922.898	4063
923.007	4002
923.116	4078
923.224	4112
923.333	4109
923.442	3960
923.55	4010
923.659	4021
923.767	4093
923.876	4002
923.984	4162
924.092	4013
924.201	4071
924.309	4071
924.417	4109
924.525	4082
924.633	4105
924.741	5075
924.849	3930
924.956	4120
925.064	3968
925.172	3968
925.279	3968
925.387	4135
925.494	4078
925.602	4257
925.709	4177
925.816	4036
925.924	4131
926.031	4268
926.138	4143
926.245	4177
926.352	4082
926.459	4299
926.566	4325
926.673	4204
926.779	4074
926.886	4082
926.993	3937
927.099	3994
927.206	3956
927.312	3960
927.419	4059
927.525	4010
927.631	4116
927.737	3964
927.843	3956
927.95	3808
928.056	4017
928.162	4002
928.267	4112
928.373	4618
928.479	4097
928.585	3884
928.69	4040
928.796	4048
928.901	3949
929.007	3869
929.112	3975
929.218	4010
929.323	3975
929.428	3930
929.533	4093
929.638	3876
929.743	3964
929.848	4059
929.953	4048
930.058	3926
930.163	3793
930.267	3861
930.372	4017
930.477	3793
930.581	4078
930.685	3945
930.79	3812
930.894	3896
930.998	3861
931.103	4067
931.207	3686
931.311	3724
931.415	3720
931.519	3519
931.623	3507
