Data from test_V78500241_2239.txt Node
Date: Fri Mar 25 17:04:34 CST 2022
User: usil
Spectrometer: V785-0024
Trigger mode: 0
Integration Time (sec): 4.000000E-1
Scans to average: 1
Nonlinearity correction enabled: false
Boxcar width: 0
Storing dark spectrum: false
XAxis mode: Wavelengths
Number of Pixels in Spectrum: 1024
>>>>>Begin Spectral Data<<<<<
801.071	7936
801.214	7997
801.356	7833
801.499	7814
801.641	7814
801.783	7875
801.926	7913
802.068	8016
802.211	8005
802.353	8039
802.496	7856
802.638	7879
802.78	7852
802.923	7894
803.065	7837
803.208	7830
803.35	7989
803.492	8142
803.635	8206
803.777	8054
803.919	8103
804.061	8465
804.204	8149
804.346	8073
804.488	7993
804.63	8065
804.773	8039
804.915	8073
805.057	8290
805.199	8225
805.341	8199
805.483	8332
805.626	8168
805.768	8168
805.91	8229
806.052	8225
806.194	8172
806.336	8317
806.478	8153
806.62	8054
806.762	8176
806.904	8298
807.046	8598
807.188	8355
807.33	8324
807.472	8404
807.614	8164
807.756	8157
807.898	8035
808.04	7906
808.182	7906
808.324	7902
808.465	7940
808.607	8119
808.749	8142
808.891	8252
809.033	8408
809.174	8259
809.316	8134
809.458	8164
809.6	8031
809.741	8123
809.883	8062
810.025	8092
810.166	8058
810.308	8111
810.45	8065
810.591	7894
810.733	7788
810.875	7719
811.016	7525
811.158	7476
811.299	7620
811.441	7700
811.582	7666
811.724	7632
811.865	7597
812.007	7689
812.148	7681
812.29	7681
812.431	7864
812.573	7894
812.714	8024
812.855	8202
812.997	8301
813.138	8294
813.279	8221
813.421	8119
813.562	7959
813.703	7845
813.845	7807
813.986	7445
814.127	7339
814.268	7251
814.41	7247
814.551	7228
814.692	7270
814.833	7160
814.974	7187
815.115	7168
815.256	6981
815.397	6966
815.539	6966
815.68	6806
815.821	6814
815.962	6829
816.103	6837
816.244	6745
816.385	6726
816.526	6635
816.666	6509
816.807	6304
816.948	6448
817.089	6513
817.23	6475
817.371	6399
817.512	6429
817.653	6414
817.793	6388
817.934	6441
818.075	6486
818.216	6475
818.356	6433
818.497	6311
818.638	6148
818.778	6209
818.919	6186
819.06	6144
819.2	6346
819.341	6372
819.481	6391
819.622	6604
819.762	6722
819.903	6791
820.043	6646
820.184	6616
820.324	6578
820.465	6745
820.605	6715
820.746	6662
820.886	6631
821.026	6711
821.167	6696
821.307	6806
821.447	6856
821.588	6745
821.728	6623
821.868	6540
822.008	6323
822.149	6414
822.289	6311
822.429	6205
822.569	6117
822.709	6178
822.849	5984
822.99	6019
823.13	5931
823.27	5977
823.41	5866
823.55	5847
823.69	5794
823.83	5870
823.97	5691
824.11	5543
824.25	5570
824.389	5566
824.529	5592
824.669	5539
824.809	5714
824.949	5703
825.089	5688
825.228	5592
825.368	5357
825.508	5376
825.648	5383
825.787	5417
825.927	5383
826.067	5307
826.206	5376
826.346	5406
826.485	5398
826.625	5417
826.765	5558
826.904	5493
827.044	5273
827.183	5208
827.323	5189
827.462	5334
827.601	5204
827.741	5151
827.88	5189
828.02	5136
828.159	5273
828.298	5261
828.437	5364
828.577	5315
828.716	5512
828.855	5376
828.994	5212
829.134	5147
829.273	5265
829.412	5155
829.551	5136
829.69	5223
829.829	5273
829.968	5402
830.107	5341
830.246	5315
830.385	5140
830.524	5151
830.663	5071
830.802	5037
830.941	4961
831.08	4877
831.219	5014
831.357	4968
831.496	5189
831.635	4999
831.774	4847
831.913	4923
832.051	4767
832.19	4748
832.329	4854
832.467	4740
832.606	4717
832.744	4740
832.883	4698
833.022	4771
833.16	4812
833.299	4835
833.437	4854
833.576	4908
833.714	4904
833.852	4946
833.991	4885
834.129	5006
834.267	5003
834.406	4927
834.544	4995
834.682	4957
834.821	4965
834.959	5181
835.097	5056
835.235	5178
835.373	5086
835.511	5166
835.65	5037
835.788	5033
835.926	4927
836.064	4892
836.202	4965
836.34	5174
836.478	5246
836.615	5124
836.753	5246
836.891	5292
837.029	5258
837.167	5201
837.305	5193
837.443	5166
837.58	5090
837.718	5296
837.856	5174
837.993	5197
838.131	5242
838.269	5284
838.406	5269
838.544	5250
838.681	5086
838.819	5006
838.956	4927
839.094	4923
839.231	4984
839.369	5117
839.506	5436
839.643	5288
839.781	5098
839.918	5022
840.055	5155
840.193	5109
840.33	5174
840.467	5155
840.604	5197
840.742	5490
840.879	5079
841.016	5132
841.153	5136
841.29	5360
841.427	5349
841.564	5349
841.701	5353
841.838	5349
841.975	5254
842.112	5292
842.249	5147
842.385	5086
842.522	5326
842.659	5159
842.796	5170
842.933	5189
843.069	5155
843.206	5185
843.343	5307
843.479	5216
843.616	5261
843.752	5060
843.889	5025
844.025	5208
844.162	5029
844.298	5208
844.435	5128
844.571	5094
844.708	5162
844.844	5337
844.98	5417
845.117	5318
845.253	5181
845.389	5105
845.525	5193
845.661	5193
845.798	5086
845.934	5143
846.07	5079
846.206	5159
846.342	5315
846.478	5170
846.614	5003
846.75	4999
846.886	4946
847.022	5181
847.158	5029
847.294	5083
847.429	5151
847.565	5067
847.701	5322
847.837	4820
847.972	4812
848.108	4980
848.244	4923
848.379	4793
848.515	4763
848.65	4729
848.786	4759
848.921	4847
849.057	4900
849.192	4885
849.328	4816
849.463	4812
849.598	4831
849.734	4744
849.869	4694
850.004	4668
850.14	4645
850.275	4641
850.41	4546
850.545	4542
850.68	4660
850.815	4634
850.95	4626
851.085	4866
851.22	4763
851.355	4649
851.49	4607
851.625	4626
851.76	4668
851.895	4569
852.03	4546
852.165	4710
852.299	4733
852.434	4778
852.569	4744
852.703	4763
852.838	4873
852.973	4911
853.107	4953
853.242	4805
853.376	4683
853.511	4580
853.645	4611
853.78	4828
853.914	4683
854.048	4725
854.183	4656
854.317	4725
854.451	4892
854.585	4656
854.72	4672
854.854	4748
854.988	4599
855.122	4656
855.256	4531
855.39	4622
855.524	4786
855.658	4744
855.792	4691
855.926	4721
856.06	4793
856.194	4801
856.327	4698
856.461	4622
856.595	4675
856.729	4675
856.862	4778
856.996	4683
857.13	4702
857.263	4759
857.397	4858
857.53	4679
857.664	4752
857.797	4786
857.931	4790
858.064	4725
858.197	4778
858.331	4653
858.464	4603
858.597	4554
858.731	4649
858.864	4599
858.997	4622
859.13	4675
859.263	4710
859.396	4710
859.529	4592
859.662	4588
859.795	4523
859.928	4664
860.061	4748
860.194	4801
860.327	4660
860.46	4592
860.592	4733
860.725	4725
860.858	4702
860.99	4580
861.123	4569
861.256	4542
861.388	4599
861.521	5292
861.653	4527
861.786	4470
861.918	4481
862.05	4474
862.183	4565
862.315	4592
862.447	4653
862.58	4588
862.712	4443
862.844	4325
862.976	4481
863.108	4462
863.24	4900
863.372	4337
863.504	4405
863.636	4371
863.768	4508
863.9	4447
864.032	4424
864.164	4474
864.296	4508
864.428	4577
864.559	4580
864.691	4577
864.823	4527
864.954	4550
865.086	4478
865.217	4459
865.349	4371
865.48	4497
865.612	4516
865.743	4615
865.875	4451
866.006	4428
866.137	4436
866.269	4470
866.4	4470
866.531	4447
866.662	4440
866.793	4462
866.924	4440
867.055	4508
867.186	4478
867.317	4466
867.448	4356
867.579	4413
867.71	4432
867.841	4318
867.972	4459
868.103	4462
868.233	4436
868.364	4466
868.495	4508
868.625	4656
868.756	4725
868.886	4565
869.017	4596
869.147	4759
869.278	4782
869.408	4679
869.539	4626
869.669	4698
869.799	4660
869.929	4725
870.06	4755
870.19	4961
870.32	4908
870.45	4949
870.58	5010
870.71	5083
870.84	4999
870.97	4980
871.1	4930
871.23	5071
871.36	5124
871.489	5010
871.619	5037
871.749	5102
871.879	5159
872.008	5155
872.138	5041
872.267	4987
872.397	4904
872.526	4767
872.656	4748
872.785	4812
872.915	4961
873.044	5048
873.173	4953
873.303	5006
873.432	4968
873.561	4885
873.69	4858
873.819	4850
873.948	4949
874.077	4862
874.206	4740
874.335	4793
874.464	4927
874.593	5060
874.722	5033
874.851	5067
874.979	5098
875.108	5079
875.237	4934
875.365	4896
875.494	4908
875.623	4949
875.751	4854
875.88	4942
876.008	4999
876.136	5048
876.265	5208
876.393	5379
876.521	5220
876.65	5204
876.778	5201
876.906	5010
877.034	5064
877.162	5048
877.29	5018
877.418	5071
877.546	5064
877.674	5033
877.802	5056
877.93	5037
878.058	4923
878.185	4949
878.313	4930
878.441	4987
878.568	4824
878.696	4911
878.824	5014
878.951	4953
879.079	5140
879.206	5273
879.333	5117
879.461	4976
879.588	5025
879.715	5147
879.842	5204
879.97	5018
880.097	4786
880.224	4759
880.351	4843
880.478	4835
880.605	4793
880.732	4782
880.859	5086
880.986	4923
881.112	4892
881.239	4793
881.366	4672
881.493	4603
881.619	4592
881.746	4615
881.872	4660
881.999	4641
882.125	4668
882.252	4835
882.378	4820
882.505	4957
882.631	4816
882.757	4729
882.883	4774
883.01	4786
883.136	4664
883.262	4561
883.388	4626
883.514	4854
883.64	4873
883.766	4736
883.892	4630
884.018	4702
884.143	4881
884.269	5045
884.395	4683
884.52	4645
884.646	4637
884.772	4565
884.897	4599
885.023	4630
885.148	4778
885.274	4889
885.399	4820
885.524	4721
885.65	4679
885.775	4763
885.9	4691
886.025	4831
886.15	4744
886.275	4729
886.4	4694
886.525	4702
886.65	4687
886.775	4691
886.9	4915
887.025	5071
887.149	4797
887.274	4672
887.399	4550
887.523	4649
887.648	4618
887.773	4615
887.897	4828
888.021	4805
888.146	4592
888.27	4820
888.395	4915
888.519	4824
888.643	4782
888.767	4824
888.891	4714
889.015	4649
889.139	4637
889.263	4596
889.387	4744
889.511	4873
889.635	4793
889.759	4649
889.883	4672
890.006	4744
890.13	4816
890.254	4630
890.377	4675
890.501	4538
890.624	4554
890.748	4615
890.871	4489
890.995	4413
891.118	4379
891.241	4485
891.364	4558
891.488	4611
891.611	4508
891.734	4573
891.857	4599
891.98	4588
892.103	4706
892.226	4580
892.349	4535
892.471	4443
892.594	4554
892.717	4561
892.839	4584
892.962	4599
893.085	4649
893.207	4634
893.33	4504
893.452	4497
893.575	4649
893.697	4584
893.819	4763
893.941	4797
894.064	4767
894.186	4596
894.308	4603
894.43	4721
894.552	4831
894.674	4771
894.796	4542
894.918	4542
895.04	4550
895.161	4710
895.283	4630
895.405	4550
895.526	4641
895.648	4687
895.769	4733
895.891	4683
896.012	4778
896.134	4752
896.255	4675
896.376	4649
896.498	4626
896.619	4679
896.74	4626
896.861	4618
896.982	4927
897.103	5079
897.224	4816
897.345	4752
897.466	4660
897.587	4736
897.708	4831
897.828	4797
897.949	4672
898.07	4554
898.19	4618
898.311	4831
898.431	4672
898.552	4755
898.672	4782
898.792	4809
898.913	4721
899.033	4622
899.153	4508
899.273	4447
899.393	4554
899.513	4508
899.633	4512
899.753	4527
899.873	4558
899.993	4561
900.113	4508
900.232	4637
900.352	4523
900.472	4577
900.591	4417
900.711	4531
900.83	4451
900.95	4596
901.069	4641
901.189	4561
901.308	4379
901.427	4280
901.546	4352
901.665	4474
901.784	4519
901.904	4398
902.023	4303
902.141	4204
902.26	4215
902.379	4303
902.498	4253
902.617	4177
902.735	4352
902.854	4379
902.973	4344
903.091	4280
903.21	4181
903.328	4314
903.446	4284
903.565	4280
903.683	4363
903.801	4299
903.919	4409
904.038	4417
904.156	4344
904.274	4428
904.392	4428
904.51	4424
904.627	4432
904.745	4592
904.863	4577
904.981	4424
905.098	4268
905.216	4371
905.334	4394
905.451	4462
905.569	4409
905.686	4592
905.803	4592
905.921	4424
906.038	4519
906.155	4497
906.272	4363
906.389	4474
906.506	4371
906.623	4398
906.74	4325
906.857	4310
906.974	4363
907.091	4535
907.208	4687
907.324	4596
907.441	4466
907.557	4371
907.674	4363
907.79	4341
907.907	4337
908.023	4447
908.139	4466
908.256	4443
908.372	4470
908.488	4474
908.604	4371
908.72	4303
908.836	4363
908.952	4356
909.068	4402
909.184	4535
909.3	4443
909.415	4523
909.531	4573
909.647	4379
909.762	4352
909.878	4337
909.993	4413
910.108	4363
910.224	4386
910.339	4462
910.454	4375
910.57	4367
910.685	4333
910.8	4615
910.915	4558
911.03	4500
911.145	4402
911.259	4386
911.374	4363
911.489	4314
911.604	4261
911.718	4196
911.833	4200
911.947	4082
912.062	4006
912.176	4185
912.291	4227
912.405	4280
912.519	4489
912.633	4443
912.748	4356
912.862	4341
912.976	4223
913.09	4105
913.204	4192
913.318	4230
913.431	4371
913.545	4367
913.659	4383
913.772	4333
913.886	4246
914	4223
914.113	4356
914.226	4440
914.34	4398
914.453	4238
914.566	4440
914.68	4303
914.793	4333
914.906	4101
915.019	4093
915.132	4063
915.245	4169
915.358	4249
915.47	4215
915.583	4276
915.696	4291
915.809	4398
915.921	4428
916.034	4287
916.146	4291
916.259	4246
916.371	4436
916.483	4363
916.595	4200
916.708	4318
916.82	4280
916.932	4360
917.044	4325
917.156	4318
917.268	4177
917.38	4287
917.491	4276
917.603	4352
917.715	4421
917.826	4386
917.938	4325
918.049	4238
918.161	4443
918.272	4546
918.384	4554
918.495	4462
918.606	4287
918.717	4253
918.828	4314
918.939	4299
919.05	4242
919.161	4344
919.272	4097
919.383	4143
919.494	4432
919.604	4653
919.715	4386
919.826	4390
919.936	4402
920.047	4512
920.157	4554
920.267	4706
920.378	4546
920.488	4466
920.598	4744
920.708	4908
920.818	4748
920.928	4782
921.038	4927
921.148	4904
921.258	4630
921.368	4535
921.477	4538
921.587	4470
921.697	4371
921.806	4535
921.916	4417
922.025	4234
922.134	4322
922.244	4249
922.353	4325
922.462	4173
922.571	4143
922.68	3987
922.789	4017
922.898	4074
923.007	4013
923.116	4086
923.224	4059
923.333	4078
923.442	3994
923.55	3945
923.659	4036
923.767	4109
923.876	4006
923.984	4116
924.092	3960
924.201	4051
924.309	4135
924.417	4097
924.525	4067
924.633	4120
924.741	5067
924.849	3934
924.956	4105
925.064	3953
925.172	3941
925.279	3960
925.387	4025
925.494	4013
925.602	4211
925.709	4177
925.816	4074
925.924	4109
926.031	4234
926.138	4135
926.245	4177
926.352	4067
926.459	4215
926.566	4375
926.673	4158
926.779	4082
926.886	4059
926.993	3975
927.099	3922
927.206	3941
927.312	3934
927.419	4048
927.525	4025
927.631	4029
927.737	3975
927.843	3941
927.95	3861
928.056	3949
928.162	3979
928.267	4048
928.373	4649
928.479	4074
928.585	3892
928.69	4006
928.796	4067
928.901	4021
929.007	3823
929.112	3998
929.218	3979
929.323	3918
929.428	3918
929.533	4120
929.638	3899
929.743	3941
929.848	4044
929.953	3987
930.058	3903
930.163	3797
930.267	3831
930.372	3994
930.477	3800
930.581	4086
930.685	3934
930.79	3827
930.894	3873
930.998	3850
931.103	4036
931.207	3690
931.311	3694
931.415	3663
931.519	3492
931.623	3538
