Data from test_V78500241_2167.txt Node
Date: Fri Mar 25 17:04:04 CST 2022
User: usil
Spectrometer: V785-0024
Trigger mode: 0
Integration Time (sec): 4.000000E-1
Scans to average: 1
Nonlinearity correction enabled: false
Boxcar width: 0
Storing dark spectrum: false
XAxis mode: Wavelengths
Number of Pixels in Spectrum: 1024
>>>>>Begin Spectral Data<<<<<
801.071	8005
801.214	7997
801.356	7944
801.499	7906
801.641	7883
801.783	7864
801.926	7978
802.068	7928
802.211	8016
802.353	8062
802.496	7883
802.638	7917
802.78	7982
802.923	7913
803.065	7936
803.208	7906
803.35	7932
803.492	8134
803.635	8180
803.777	8073
803.919	8180
804.061	8473
804.204	8248
804.346	8161
804.488	8027
804.63	8073
804.773	7993
804.915	8183
805.057	8355
805.199	8233
805.341	8191
805.483	8305
805.626	8301
805.768	8225
805.91	8294
806.052	8252
806.194	8100
806.336	8324
806.478	8157
806.62	8088
806.762	8267
806.904	8275
807.046	8480
807.188	8469
807.33	8320
807.472	8423
807.614	8244
807.756	8195
807.898	8046
808.04	7932
808.182	7959
808.324	7925
808.465	7989
808.607	8069
808.749	8130
808.891	8336
809.033	8393
809.174	8229
809.316	8145
809.458	8103
809.6	8081
809.741	8130
809.883	8058
810.025	8100
810.166	8100
810.308	8065
810.45	8062
810.591	7845
810.733	7708
810.875	7723
811.016	7578
811.158	7518
811.299	7563
811.441	7624
811.582	7712
811.724	7616
811.865	7613
812.007	7582
812.148	7662
812.29	7647
812.431	7734
812.573	7925
812.714	8054
812.855	8210
812.997	8240
813.138	8271
813.279	8214
813.421	8081
813.562	7974
813.703	7792
813.845	7780
813.986	7464
814.127	7282
814.268	7225
814.41	7297
814.551	7202
814.692	7194
814.833	7088
814.974	7190
815.115	7183
815.256	7015
815.397	6951
815.539	7004
815.68	6859
815.821	6837
815.962	6909
816.103	6863
816.244	6730
816.385	6646
816.526	6593
816.666	6536
816.807	6319
816.948	6490
817.089	6509
817.23	6445
817.371	6391
817.512	6338
817.653	6410
817.793	6410
817.934	6391
818.075	6494
818.216	6517
818.356	6460
818.497	6285
818.638	6144
818.778	6171
818.919	6220
819.06	6220
819.2	6346
819.341	6353
819.481	6395
819.622	6597
819.762	6772
819.903	6749
820.043	6536
820.184	6604
820.324	6627
820.465	6730
820.605	6642
820.746	6707
820.886	6593
821.026	6688
821.167	6700
821.307	6829
821.447	6772
821.588	6677
821.728	6582
821.868	6547
822.008	6399
822.149	6426
822.289	6395
822.429	6140
822.569	6102
822.709	6148
822.849	5950
822.99	5920
823.13	5939
823.27	5920
823.41	5836
823.55	5836
823.69	5786
823.83	5821
823.97	5714
824.11	5532
824.25	5524
824.389	5611
824.529	5589
824.669	5619
824.809	5604
824.949	5646
825.089	5691
825.228	5566
825.368	5421
825.508	5364
825.648	5360
825.787	5387
825.927	5406
826.067	5337
826.206	5288
826.346	5364
826.485	5425
826.625	5417
826.765	5566
826.904	5486
827.044	5284
827.183	5216
827.323	5162
827.462	5242
827.601	5212
827.741	5181
827.88	5269
828.02	5189
828.159	5250
828.298	5269
828.437	5402
828.577	5337
828.716	5554
828.855	5326
828.994	5166
829.134	5201
829.273	5189
829.412	5212
829.551	5178
829.69	5178
829.829	5265
829.968	5406
830.107	5277
830.246	5326
830.385	5178
830.524	5079
830.663	5056
830.802	5003
830.941	4961
831.08	4934
831.219	5010
831.357	4999
831.496	5170
831.635	4919
831.774	4873
831.913	4885
832.051	4790
832.19	4752
832.329	4835
832.467	4691
832.606	4710
832.744	4729
832.883	4771
833.022	4759
833.16	4778
833.299	4858
833.437	4835
833.576	4850
833.714	4870
833.852	4915
833.991	4949
834.129	4972
834.267	5022
834.406	4953
834.544	5018
834.682	4995
834.821	5037
834.959	5189
835.097	5003
835.235	5193
835.373	5102
835.511	5140
835.65	5029
835.788	5037
835.926	4892
836.064	4919
836.202	4911
836.34	5220
836.478	5258
836.615	5113
836.753	5246
836.891	5292
837.029	5296
837.167	5178
837.305	5178
837.443	5166
837.58	5121
837.718	5220
837.856	5189
837.993	5170
838.131	5273
838.269	5178
838.406	5216
838.544	5216
838.681	5102
838.819	5033
838.956	4919
839.094	4900
839.231	4980
839.369	5109
839.506	5459
839.643	5292
839.781	5071
839.918	5018
840.055	5098
840.193	5113
840.33	5162
840.467	5113
840.604	5223
840.742	5471
840.879	5102
841.016	5124
841.153	5143
841.29	5410
841.427	5360
841.564	5296
841.701	5368
841.838	5311
841.975	5246
842.112	5322
842.249	5147
842.385	5147
842.522	5353
842.659	5143
842.796	5193
842.933	5185
843.069	5181
843.206	5197
843.343	5307
843.479	5273
843.616	5292
843.752	5022
843.889	5064
844.025	5223
844.162	5056
844.298	5288
844.435	5147
844.571	5094
844.708	5231
844.844	5299
844.98	5376
845.117	5307
845.253	5109
845.389	5098
845.525	5201
845.661	5143
845.798	5105
845.934	5193
846.07	5071
846.206	5223
846.342	5269
846.478	5170
846.614	5071
846.75	4991
846.886	4957
847.022	5181
847.158	5033
847.294	5113
847.429	5117
847.565	5056
847.701	5303
847.837	4862
847.972	4793
848.108	4946
848.244	5014
848.379	4786
848.515	4767
848.65	4744
848.786	4717
848.921	4782
849.057	4877
849.192	4896
849.328	4854
849.463	4866
849.598	4793
849.734	4778
849.869	4752
850.004	4630
850.14	4664
850.275	4634
850.41	4542
850.545	4519
850.68	4630
850.815	4675
850.95	4668
851.085	4854
851.22	4774
851.355	4687
851.49	4679
851.625	4622
851.76	4618
851.895	4546
852.03	4542
852.165	4687
852.299	4721
852.434	4801
852.569	4782
852.703	4790
852.838	4866
852.973	4965
853.107	4908
853.242	4744
853.376	4698
853.511	4550
853.645	4630
853.78	4820
853.914	4679
854.048	4710
854.183	4694
854.317	4702
854.451	4850
854.585	4706
854.72	4645
854.854	4812
854.988	4637
855.122	4683
855.256	4584
855.39	4634
855.524	4774
855.658	4714
855.792	4714
855.926	4717
856.06	4782
856.194	4854
856.327	4706
856.461	4607
856.595	4645
856.729	4649
856.862	4729
856.996	4721
857.13	4748
857.263	4721
857.397	4809
857.53	4668
857.664	4679
857.797	4786
857.931	4782
858.064	4702
858.197	4717
858.331	4694
858.464	4634
858.597	4527
858.731	4675
858.864	4664
858.997	4637
859.13	4656
859.263	4691
859.396	4679
859.529	4573
859.662	4641
859.795	4523
859.928	4626
860.061	4771
860.194	4778
860.327	4588
860.46	4596
860.592	4714
860.725	4717
860.858	4740
860.99	4596
861.123	4523
861.256	4523
861.388	4618
861.521	5417
861.653	4497
861.786	4485
861.918	4500
862.05	4497
862.183	4561
862.315	4588
862.447	4653
862.58	4577
862.712	4432
862.844	4306
862.976	4500
863.108	4466
863.24	4774
863.372	4390
863.504	4455
863.636	4424
863.768	4527
863.9	4447
864.032	4348
864.164	4424
864.296	4531
864.428	4615
864.559	4550
864.691	4584
864.823	4523
864.954	4466
865.086	4512
865.217	4462
865.349	4424
865.48	4440
865.612	4512
865.743	4668
865.875	4508
866.006	4447
866.137	4478
866.269	4447
866.4	4474
866.531	4455
866.662	4451
866.793	4379
866.924	4451
867.055	4542
867.186	4440
867.317	4470
867.448	4375
867.579	4375
867.71	4432
867.841	4405
867.972	4481
868.103	4481
868.233	4466
868.364	4462
868.495	4459
868.625	4706
868.756	4786
868.886	4558
869.017	4626
869.147	4793
869.278	4767
869.408	4706
869.539	4698
869.669	4778
869.799	4694
869.929	4687
870.06	4740
870.19	4968
870.32	4892
870.45	4965
870.58	5022
870.71	5056
870.84	5098
870.97	4946
871.1	4904
871.23	5140
871.36	5136
871.489	4991
871.619	5102
871.749	5121
871.879	5140
872.008	5201
872.138	5003
872.267	4949
872.397	4904
872.526	4793
872.656	4778
872.785	4843
872.915	5006
873.044	5052
873.173	4949
873.303	4972
873.432	4934
873.561	4961
873.69	4927
873.819	4873
873.948	4942
874.077	4801
874.206	4717
874.335	4755
874.464	4896
874.593	5105
874.722	4976
874.851	5128
874.979	5029
875.108	5014
875.237	4915
875.365	4938
875.494	4915
875.623	4927
875.751	4896
875.88	4858
876.008	4946
876.136	5056
876.265	5208
876.393	5334
876.521	5269
876.65	5254
876.778	5197
876.906	5094
877.034	5003
877.162	5022
877.29	5006
877.418	5045
877.546	5025
877.674	5086
877.802	5060
877.93	5025
878.058	4953
878.185	4870
878.313	5006
878.441	4946
878.568	4820
878.696	4892
878.824	4953
878.951	4984
879.079	5098
879.206	5223
879.333	5090
879.461	5010
879.588	5018
879.715	5147
879.842	5185
879.97	5029
880.097	4812
880.224	4778
880.351	4828
880.478	4793
880.605	4759
880.732	4782
880.859	5083
880.986	4854
881.112	4908
881.239	4801
881.366	4683
881.493	4615
881.619	4630
881.746	4649
881.872	4706
881.999	4664
882.125	4668
882.252	4812
882.378	4850
882.505	4984
882.631	4763
882.757	4717
882.883	4714
883.01	4752
883.136	4668
883.262	4615
883.388	4592
883.514	4774
883.64	4816
883.766	4774
883.892	4691
884.018	4755
884.143	4900
884.269	5052
884.395	4664
884.52	4668
884.646	4668
884.772	4580
884.897	4584
885.023	4683
885.148	4778
885.274	4892
885.399	4824
885.524	4710
885.65	4740
885.775	4679
885.9	4752
886.025	4870
886.15	4824
886.275	4683
886.4	4714
886.525	4733
886.65	4691
886.775	4672
886.9	4946
887.025	5010
887.149	4778
887.274	4664
887.399	4607
887.523	4584
887.648	4573
887.773	4637
887.897	4740
888.021	4763
888.146	4691
888.27	4801
888.395	4862
888.519	4778
888.643	4812
888.767	4797
888.891	4710
889.015	4588
889.139	4660
889.263	4649
889.387	4793
889.511	4885
889.635	4820
889.759	4664
889.883	4653
890.006	4714
890.13	4809
890.254	4622
890.377	4656
890.501	4519
890.624	4550
890.748	4656
890.871	4493
890.995	4462
891.118	4375
891.241	4516
891.364	4546
891.488	4664
891.611	4508
891.734	4573
891.857	4596
891.98	4558
892.103	4645
892.226	4603
892.349	4504
892.471	4443
892.594	4561
892.717	4607
892.839	4607
892.962	4577
893.085	4683
893.207	4607
893.33	4474
893.452	4481
893.575	4755
893.697	4611
893.819	4793
893.941	4809
894.064	4763
894.186	4550
894.308	4558
894.43	4744
894.552	4805
894.674	4744
894.796	4519
894.918	4615
895.04	4588
895.161	4683
895.283	4672
895.405	4550
895.526	4615
895.648	4721
895.769	4706
895.891	4714
896.012	4740
896.134	4774
896.255	4637
896.376	4645
896.498	4607
896.619	4634
896.74	4596
896.861	4584
896.982	4904
897.103	5071
897.224	4835
897.345	4729
897.466	4664
897.587	4694
897.708	4858
897.828	4744
897.949	4714
898.07	4527
898.19	4626
898.311	4824
898.431	4645
898.552	4755
898.672	4820
898.792	4790
898.913	4725
899.033	4611
899.153	4516
899.273	4466
899.393	4508
899.513	4519
899.633	4462
899.753	4542
899.873	4493
899.993	4584
900.113	4565
900.232	4550
900.352	4527
900.472	4478
900.591	4390
900.711	4493
900.83	4413
900.95	4596
901.069	4702
901.189	4535
901.308	4386
901.427	4322
901.546	4337
901.665	4497
901.784	4470
901.904	4402
902.023	4333
902.141	4211
902.26	4158
902.379	4287
902.498	4204
902.617	4219
902.735	4356
902.854	4390
902.973	4356
903.091	4223
903.21	4246
903.328	4329
903.446	4242
903.565	4257
903.683	4386
903.801	4242
903.919	4371
904.038	4459
904.156	4265
904.274	4417
904.392	4383
904.51	4394
904.627	4462
904.745	4577
904.863	4615
904.981	4409
905.098	4329
905.216	4344
905.334	4440
905.451	4421
905.569	4443
905.686	4542
905.803	4558
905.921	4417
906.038	4497
906.155	4447
906.272	4398
906.389	4428
906.506	4360
906.623	4360
906.74	4405
906.857	4314
906.974	4337
907.091	4558
907.208	4660
907.324	4565
907.441	4462
907.557	4341
907.674	4348
907.79	4299
907.907	4394
908.023	4481
908.139	4474
908.256	4481
908.372	4459
908.488	4447
908.604	4329
908.72	4310
908.836	4356
908.952	4379
909.068	4409
909.184	4569
909.3	4519
909.415	4569
909.531	4554
909.647	4303
909.762	4390
909.878	4314
909.993	4421
910.108	4367
910.224	4413
910.339	4447
910.454	4379
910.57	4352
910.685	4276
910.8	4664
910.915	4596
911.03	4500
911.145	4337
911.259	4310
911.374	4363
911.489	4268
911.604	4268
911.718	4200
911.833	4147
911.947	4055
912.062	4067
912.176	4173
912.291	4230
912.405	4268
912.519	4443
912.633	4485
912.748	4303
912.862	4265
912.976	4166
913.09	4097
913.204	4150
913.318	4253
913.431	4352
913.545	4367
913.659	4405
913.772	4329
913.886	4265
914	4192
914.113	4333
914.226	4383
914.34	4390
914.453	4268
914.566	4459
914.68	4314
914.793	4280
914.906	4169
915.019	4139
915.132	4067
915.245	4181
915.358	4223
915.47	4211
915.583	4253
915.696	4337
915.809	4394
915.921	4405
916.034	4341
916.146	4272
916.259	4246
916.371	4360
916.483	4344
916.595	4268
916.708	4299
916.82	4310
916.932	4276
917.044	4306
917.156	4329
917.268	4249
917.38	4287
917.491	4268
917.603	4325
917.715	4375
917.826	4428
917.938	4375
918.049	4246
918.161	4386
918.272	4519
918.384	4523
918.495	4474
918.606	4303
918.717	4207
918.828	4329
918.939	4379
919.05	4192
919.161	4314
919.272	4139
919.383	4242
919.494	4424
919.604	4634
919.715	4447
919.826	4341
919.936	4405
920.047	4497
920.157	4493
920.267	4649
920.378	4554
920.488	4443
920.598	4683
920.708	4847
920.818	4748
920.928	4793
921.038	4896
921.148	4889
921.258	4626
921.368	4565
921.477	4478
921.587	4500
921.697	4363
921.806	4519
921.916	4440
922.025	4253
922.134	4284
922.244	4181
922.353	4306
922.462	4139
922.571	4139
922.68	4040
922.789	3975
922.898	4013
923.007	4021
923.116	4112
923.224	4082
923.333	4109
923.442	3937
923.55	3972
923.659	4010
923.767	4128
923.876	4032
923.984	4078
924.092	3956
924.201	4071
924.309	4078
924.417	4116
924.525	4055
924.633	4090
924.741	5090
924.849	3926
924.956	4139
925.064	3968
925.172	3899
925.279	3949
925.387	4051
925.494	4059
925.602	4227
925.709	4188
925.816	4025
925.924	4105
926.031	4219
926.138	4177
926.245	4185
926.352	4097
926.459	4261
926.566	4280
926.673	4227
926.779	4120
926.886	4036
926.993	3941
927.099	3949
927.206	3911
927.312	3968
927.419	4059
927.525	4048
927.631	4078
927.737	3991
927.843	3930
927.95	3880
928.056	3968
928.162	3972
928.267	4048
928.373	4687
928.479	4097
928.585	3873
928.69	4029
928.796	4044
928.901	4006
929.007	3808
929.112	4013
929.218	3983
929.323	3956
929.428	3937
929.533	4097
929.638	3907
929.743	3975
929.848	4013
929.953	4021
930.058	3964
930.163	3812
930.267	3804
930.372	4002
930.477	3778
930.581	4006
930.685	3941
930.79	3800
930.894	3880
930.998	3869
931.103	4044
931.207	3766
931.311	3694
931.415	3667
931.519	3523
931.623	3549
