Data from test_V78500241_2135.txt Node
Date: Fri Mar 25 17:03:50 CST 2022
User: usil
Spectrometer: V785-0024
Trigger mode: 0
Integration Time (sec): 4.000000E-1
Scans to average: 1
Nonlinearity correction enabled: false
Boxcar width: 0
Storing dark spectrum: false
XAxis mode: Wavelengths
Number of Pixels in Spectrum: 1024
>>>>>Begin Spectral Data<<<<<
801.071	8005
801.214	8012
801.356	7898
801.499	7822
801.641	7719
801.783	7826
801.926	7963
802.068	8001
802.211	7951
802.353	7997
802.496	7830
802.638	7883
802.78	7871
802.923	7875
803.065	7879
803.208	7841
803.35	7978
803.492	8088
803.635	8107
803.777	7921
803.919	8149
804.061	8427
804.204	8195
804.346	8058
804.488	7959
804.63	8115
804.773	8001
804.915	8134
805.057	8267
805.199	8180
805.341	8187
805.483	8195
805.626	8157
805.768	8081
805.91	8218
806.052	8233
806.194	8138
806.336	8309
806.478	8149
806.62	8043
806.762	8161
806.904	8298
807.046	8415
807.188	8328
807.33	8286
807.472	8320
807.614	8199
807.756	8195
807.898	7989
808.04	7917
808.182	7841
808.324	7849
808.465	7906
808.607	8008
808.749	8062
808.891	8221
809.033	8267
809.174	8195
809.316	8054
809.458	8020
809.6	8031
809.741	8020
809.883	7997
810.025	8031
810.166	8016
810.308	8050
810.45	8020
810.591	7837
810.733	7723
810.875	7670
811.016	7525
811.158	7415
811.299	7514
811.441	7685
811.582	7647
811.724	7556
811.865	7525
812.007	7552
812.148	7616
812.29	7624
812.431	7750
812.573	7875
812.714	8039
812.855	8142
812.997	8210
813.138	8225
813.279	8077
813.421	8054
813.562	8001
813.703	7757
813.845	7658
813.986	7396
814.127	7266
814.268	7168
814.41	7168
814.551	7209
814.692	7236
814.833	7145
814.974	7107
815.115	7061
815.256	7015
815.397	6897
815.539	6833
815.68	6806
815.821	6700
815.962	6825
816.103	6818
816.244	6650
816.385	6578
816.526	6555
816.666	6460
816.807	6232
816.948	6429
817.089	6475
817.23	6475
817.371	6319
817.512	6357
817.653	6399
817.793	6331
817.934	6403
818.075	6391
818.216	6467
818.356	6376
818.497	6292
818.638	6102
818.778	6136
818.919	6186
819.06	6133
819.2	6334
819.341	6277
819.481	6353
819.622	6566
819.762	6734
819.903	6677
820.043	6601
820.184	6627
820.324	6639
820.465	6711
820.605	6673
820.746	6665
820.886	6547
821.026	6711
821.167	6711
821.307	6837
821.447	6757
821.588	6753
821.728	6635
821.868	6494
822.008	6410
822.149	6315
822.289	6445
822.429	6106
822.569	6125
822.709	6121
822.849	5961
822.99	5969
823.13	5954
823.27	5927
823.41	5851
823.55	5847
823.69	5889
823.83	5870
823.97	5703
824.11	5589
824.25	5535
824.389	5573
824.529	5558
824.669	5581
824.809	5707
824.949	5649
825.089	5596
825.228	5630
825.368	5444
825.508	5353
825.648	5395
825.787	5383
825.927	5471
826.067	5345
826.206	5307
826.346	5452
826.485	5448
826.625	5421
826.765	5604
826.904	5524
827.044	5296
827.183	5223
827.323	5147
827.462	5315
827.601	5212
827.741	5254
827.88	5261
828.02	5136
828.159	5322
828.298	5353
828.437	5391
828.577	5273
828.716	5528
828.855	5402
828.994	5208
829.134	5159
829.273	5242
829.412	5208
829.551	5166
829.69	5170
829.829	5231
829.968	5391
830.107	5307
830.246	5239
830.385	5128
830.524	5185
830.663	5090
830.802	4991
830.941	4946
831.08	4889
831.219	5014
831.357	5010
831.496	5185
831.635	4949
831.774	4885
831.913	4870
832.051	4767
832.19	4816
832.329	4820
832.467	4752
832.606	4653
832.744	4740
832.883	4725
833.022	4774
833.16	4797
833.299	4816
833.437	4877
833.576	4854
833.714	4919
833.852	4873
833.991	4858
834.129	4999
834.267	4957
834.406	4961
834.544	4995
834.682	4999
834.821	4976
834.959	5162
835.097	5041
835.235	5166
835.373	5117
835.511	5128
835.65	5064
835.788	5098
835.926	4892
836.064	4885
836.202	4946
836.34	5181
836.478	5311
836.615	5178
836.753	5208
836.891	5345
837.029	5303
837.167	5250
837.305	5216
837.443	5159
837.58	5113
837.718	5280
837.856	5242
837.993	5170
838.131	5284
838.269	5261
838.406	5204
838.544	5242
838.681	5090
838.819	5033
838.956	4908
839.094	4923
839.231	5010
839.369	5102
839.506	5402
839.643	5280
839.781	5079
839.918	5052
840.055	5117
840.193	5098
840.33	5132
840.467	5143
840.604	5216
840.742	5444
840.879	5086
841.016	5159
841.153	5189
841.29	5406
841.427	5345
841.564	5334
841.701	5395
841.838	5318
841.975	5269
842.112	5246
842.249	5174
842.385	5098
842.522	5349
842.659	5277
842.796	5128
842.933	5216
843.069	5189
843.206	5189
843.343	5357
843.479	5273
843.616	5220
843.752	5083
843.889	5045
844.025	5231
844.162	5045
844.298	5220
844.435	5105
844.571	5086
844.708	5231
844.844	5330
844.98	5330
845.117	5299
845.253	5216
845.389	5121
845.525	5181
845.661	5159
845.798	5098
845.934	5193
846.07	5064
846.206	5269
846.342	5330
846.478	5151
846.614	5014
846.75	5014
846.886	4934
847.022	5220
847.158	5052
847.294	5075
847.429	5102
847.565	5128
847.701	5360
847.837	4873
847.972	4805
848.108	4965
848.244	4892
848.379	4831
848.515	4797
848.65	4740
848.786	4752
848.921	4786
849.057	4919
849.192	4919
849.328	4828
849.463	4847
849.598	4873
849.734	4793
849.869	4763
850.004	4622
850.14	4664
850.275	4603
850.41	4569
850.545	4634
850.68	4626
850.815	4675
850.95	4656
851.085	4881
851.22	4812
851.355	4687
851.49	4634
851.625	4660
851.76	4660
851.895	4622
852.03	4542
852.165	4656
852.299	4755
852.434	4801
852.569	4748
852.703	4740
852.838	4839
852.973	4980
853.107	4972
853.242	4736
853.376	4687
853.511	4580
853.645	4649
853.78	4809
853.914	4755
854.048	4710
854.183	4702
854.317	4752
854.451	4858
854.585	4637
854.72	4675
854.854	4767
854.988	4630
855.122	4645
855.256	4584
855.39	4755
855.524	4797
855.658	4710
855.792	4725
855.926	4706
856.06	4805
856.194	4816
856.327	4698
856.461	4584
856.595	4630
856.729	4588
856.862	4820
856.996	4733
857.13	4744
857.263	4774
857.397	4828
857.53	4634
857.664	4763
857.797	4748
857.931	4801
858.064	4733
858.197	4710
858.331	4626
858.464	4542
858.597	4554
858.731	4630
858.864	4611
858.997	4584
859.13	4694
859.263	4653
859.396	4733
859.529	4592
859.662	4592
859.795	4535
859.928	4645
860.061	4809
860.194	4767
860.327	4656
860.46	4622
860.592	4752
860.725	4744
860.858	4736
860.99	4569
861.123	4535
861.256	4584
861.388	4653
861.521	5429
861.653	4546
861.786	4443
861.918	4493
862.05	4516
862.183	4599
862.315	4599
862.447	4611
862.58	4569
862.712	4459
862.844	4333
862.976	4466
863.108	4443
863.24	4752
863.372	4360
863.504	4424
863.636	4451
863.768	4531
863.9	4481
864.032	4409
864.164	4402
864.296	4538
864.428	4573
864.559	4573
864.691	4569
864.823	4577
864.954	4516
865.086	4542
865.217	4455
865.349	4436
865.48	4474
865.612	4535
865.743	4645
865.875	4470
866.006	4459
866.137	4459
866.269	4485
866.4	4470
866.531	4432
866.662	4409
866.793	4402
866.924	4459
867.055	4470
867.186	4440
867.317	4481
867.448	4348
867.579	4390
867.71	4424
867.841	4402
867.972	4508
868.103	4481
868.233	4455
868.364	4481
868.495	4512
868.625	4672
868.756	4835
868.886	4603
869.017	4675
869.147	4828
869.278	4793
869.408	4675
869.539	4618
869.669	4725
869.799	4691
869.929	4752
870.06	4786
870.19	5006
870.32	4915
870.45	4911
870.58	4987
870.71	5124
870.84	5128
870.97	4961
871.1	4908
871.23	5117
871.36	5162
871.489	5037
871.619	5090
871.749	5086
871.879	5174
872.008	5170
872.138	5006
872.267	5037
872.397	4862
872.526	4805
872.656	4752
872.785	4847
872.915	4972
873.044	5029
873.173	4927
873.303	4976
873.432	4949
873.561	4938
873.69	4862
873.819	4919
873.948	4892
874.077	4824
874.206	4786
874.335	4805
874.464	4930
874.593	5132
874.722	4957
874.851	5105
874.979	5018
875.108	5048
875.237	4896
875.365	4885
875.494	4919
875.623	4980
875.751	4828
875.88	4923
876.008	4991
876.136	5045
876.265	5212
876.393	5364
876.521	5269
876.65	5246
876.778	5193
876.906	5132
877.034	5025
877.162	5086
877.29	4995
877.418	5056
877.546	5094
877.674	5090
877.802	5075
877.93	5060
878.058	4965
878.185	4927
878.313	4972
878.441	4908
878.568	4812
878.696	4866
878.824	4976
878.951	4999
879.079	5109
879.206	5330
879.333	5102
879.461	5014
879.588	5064
879.715	5124
879.842	5231
879.97	5010
880.097	4816
880.224	4759
880.351	4797
880.478	4816
880.605	4782
880.732	4790
880.859	5109
880.986	4927
881.112	4911
881.239	4809
881.366	4736
881.493	4675
881.619	4584
881.746	4637
881.872	4698
881.999	4683
882.125	4687
882.252	4774
882.378	4812
882.505	4968
882.631	4801
882.757	4733
882.883	4809
883.01	4710
883.136	4706
883.262	4626
883.388	4626
883.514	4744
883.64	4900
883.766	4812
883.892	4702
884.018	4744
884.143	4889
884.269	5018
884.395	4649
884.52	4672
884.646	4649
884.772	4599
884.897	4615
885.023	4683
885.148	4835
885.274	4873
885.399	4847
885.524	4748
885.65	4736
885.775	4721
885.9	4649
886.025	4877
886.15	4816
886.275	4687
886.4	4679
886.525	4714
886.65	4714
886.775	4717
886.9	4866
887.025	5010
887.149	4828
887.274	4656
887.399	4573
887.523	4637
887.648	4592
887.773	4569
887.897	4771
888.021	4786
888.146	4653
888.27	4812
888.395	4927
888.519	4801
888.643	4816
888.767	4828
888.891	4717
889.015	4588
889.139	4653
889.263	4660
889.387	4763
889.511	4877
889.635	4812
889.759	4637
889.883	4634
890.006	4755
890.13	4896
890.254	4611
890.377	4694
890.501	4542
890.624	4538
890.748	4660
890.871	4523
890.995	4451
891.118	4424
891.241	4500
891.364	4546
891.488	4656
891.611	4455
891.734	4561
891.857	4618
891.98	4527
892.103	4672
892.226	4599
892.349	4519
892.471	4462
892.594	4599
892.717	4584
892.839	4565
892.962	4615
893.085	4668
893.207	4630
893.33	4451
893.452	4531
893.575	4675
893.697	4611
893.819	4828
893.941	4858
894.064	4736
894.186	4592
894.308	4580
894.43	4744
894.552	4850
894.674	4744
894.796	4546
894.918	4615
895.04	4573
895.161	4706
895.283	4645
895.405	4634
895.526	4626
895.648	4733
895.769	4668
895.891	4721
896.012	4706
896.134	4755
896.255	4694
896.376	4702
896.498	4607
896.619	4736
896.74	4607
896.861	4656
896.982	4889
897.103	5048
897.224	4831
897.345	4729
897.466	4672
897.587	4740
897.708	4915
897.828	4744
897.949	4679
898.07	4580
898.19	4596
898.311	4801
898.431	4641
898.552	4759
898.672	4809
898.792	4824
898.913	4793
899.033	4641
899.153	4523
899.273	4455
899.393	4500
899.513	4485
899.633	4538
899.753	4500
899.873	4474
899.993	4603
900.113	4577
900.232	4596
900.352	4550
900.472	4459
900.591	4360
900.711	4516
900.83	4516
900.95	4626
901.069	4672
901.189	4554
901.308	4394
901.427	4344
901.546	4341
901.665	4462
901.784	4535
901.904	4398
902.023	4284
902.141	4215
902.26	4173
902.379	4299
902.498	4227
902.617	4242
902.735	4375
902.854	4394
902.973	4352
903.091	4204
903.21	4192
903.328	4325
903.446	4253
903.565	4287
903.683	4375
903.801	4299
903.919	4428
904.038	4485
904.156	4318
904.274	4398
904.392	4417
904.51	4462
904.627	4504
904.745	4607
904.863	4637
904.981	4371
905.098	4310
905.216	4383
905.334	4409
905.451	4402
905.569	4481
905.686	4516
905.803	4546
905.921	4390
906.038	4588
906.155	4466
906.272	4394
906.389	4481
906.506	4352
906.623	4329
906.74	4375
906.857	4337
906.974	4360
907.091	4554
907.208	4660
907.324	4577
907.441	4474
907.557	4375
907.674	4360
907.79	4325
907.907	4363
908.023	4542
908.139	4470
908.256	4405
908.372	4500
908.488	4462
908.604	4371
908.72	4367
908.836	4394
908.952	4375
909.068	4417
909.184	4588
909.3	4462
909.415	4573
909.531	4546
909.647	4383
909.762	4390
909.878	4306
909.993	4428
910.108	4424
910.224	4383
910.339	4462
910.454	4394
910.57	4341
910.685	4291
910.8	4645
910.915	4634
911.03	4497
911.145	4329
911.259	4337
911.374	4402
911.489	4337
911.604	4295
911.718	4219
911.833	4200
911.947	4101
912.062	4055
912.176	4200
912.291	4280
912.405	4280
912.519	4447
912.633	4478
912.748	4383
912.862	4310
912.976	4211
913.09	4097
913.204	4120
913.318	4287
913.431	4341
913.545	4356
913.659	4432
913.772	4348
913.886	4265
914	4242
914.113	4394
914.226	4443
914.34	4371
914.453	4272
914.566	4405
914.68	4310
914.793	4318
914.906	4150
915.019	4135
915.132	4048
915.245	4215
915.358	4253
915.47	4253
915.583	4299
915.696	4303
915.809	4344
915.921	4455
916.034	4246
916.146	4276
916.259	4246
916.371	4341
916.483	4363
916.595	4265
916.708	4329
916.82	4310
916.932	4257
917.044	4322
917.156	4394
917.268	4188
917.38	4299
917.491	4257
917.603	4322
917.715	4390
917.826	4417
917.938	4341
918.049	4246
918.161	4386
918.272	4516
918.384	4535
918.495	4485
918.606	4261
918.717	4284
918.828	4337
918.939	4371
919.05	4230
919.161	4318
919.272	4131
919.383	4227
919.494	4462
919.604	4584
919.715	4455
919.826	4356
919.936	4371
920.047	4508
920.157	4459
920.267	4714
920.378	4527
920.488	4489
920.598	4698
920.708	4862
920.818	4706
920.928	4816
921.038	4892
921.148	4885
921.258	4618
921.368	4535
921.477	4481
921.587	4455
921.697	4344
921.806	4508
921.916	4409
922.025	4295
922.134	4268
922.244	4238
922.353	4310
922.462	4192
922.571	4131
922.68	4040
922.789	3968
922.898	4048
923.007	3960
923.116	4101
923.224	4059
923.333	4135
923.442	3968
923.55	3983
923.659	4059
923.767	4074
923.876	4029
923.984	4112
924.092	3945
924.201	4032
924.309	4131
924.417	4143
924.525	4013
924.633	4063
924.741	5018
924.849	3972
924.956	4120
925.064	3945
925.172	3915
925.279	3930
925.387	4059
925.494	4082
925.602	4204
925.709	4185
925.816	4051
925.924	4116
926.031	4246
926.138	4204
926.245	4227
926.352	4082
926.459	4238
926.566	4329
926.673	4139
926.779	4109
926.886	4051
926.993	3975
927.099	3934
927.206	3945
927.312	3937
927.419	4051
927.525	4051
927.631	4086
927.737	3994
927.843	3949
927.95	3873
928.056	3998
928.162	4002
928.267	4074
928.373	4580
928.479	4143
928.585	3797
928.69	4059
928.796	4101
928.901	3968
929.007	3835
929.112	4021
929.218	3934
929.323	3956
929.428	3930
929.533	4124
929.638	3903
929.743	3979
929.848	4071
929.953	3991
930.058	3953
930.163	3781
930.267	3842
930.372	3987
930.477	3808
930.581	4109
930.685	3949
930.79	3831
930.894	3842
930.998	3861
931.103	4082
931.207	3679
931.311	3709
931.415	3644
931.519	3519
931.623	3564
