Data from test_V78500241_950.txt Node
Date: Fri Mar 25 16:55:36 CST 2022
User: usil
Spectrometer: V785-0024
Trigger mode: 0
Integration Time (sec): 4.000000E-1
Scans to average: 1
Nonlinearity correction enabled: false
Boxcar width: 0
Storing dark spectrum: false
XAxis mode: Wavelengths
Number of Pixels in Spectrum: 1024
>>>>>Begin Spectral Data<<<<<
801.071	8031
801.214	8016
801.356	7898
801.499	7887
801.641	7780
801.783	7887
801.926	7928
802.068	7902
802.211	7932
802.353	7936
802.496	7845
802.638	7868
802.78	7936
802.923	7986
803.065	7868
803.208	7856
803.35	8039
803.492	8134
803.635	8149
803.777	8043
803.919	8138
804.061	8469
804.204	8065
804.346	8081
804.488	7955
804.63	8115
804.773	8054
804.915	8073
805.057	8187
805.199	8115
805.341	8168
805.483	8301
805.626	8233
805.768	8027
805.91	8157
806.052	8161
806.194	8111
806.336	8351
806.478	8069
806.62	8035
806.762	8111
806.904	8214
807.046	8442
807.188	8343
807.33	8309
807.472	8351
807.614	8145
807.756	8084
807.898	7986
808.04	7837
808.182	7894
808.324	7837
808.465	7818
808.607	8096
808.749	8043
808.891	8176
809.033	8279
809.174	8252
809.316	8081
809.458	8020
809.6	8024
809.741	8054
809.883	7986
810.025	8103
810.166	8062
810.308	7974
810.45	7978
810.591	7898
810.733	7723
810.875	7620
811.016	7518
811.158	7491
811.299	7590
811.441	7708
811.582	7643
811.724	7575
811.865	7510
812.007	7605
812.148	7578
812.29	7575
812.431	7658
812.573	7849
812.714	7955
812.855	8142
812.997	8168
813.138	8309
813.279	8138
813.421	8130
813.562	7989
813.703	7833
813.845	7765
813.986	7441
814.127	7259
814.268	7171
814.41	7129
814.551	7046
814.692	7137
814.833	6996
814.974	7019
815.115	7110
815.256	6935
815.397	6935
815.539	6916
815.68	6840
815.821	6768
815.962	6894
816.103	6802
816.244	6715
816.385	6627
816.526	6669
816.666	6445
816.807	6285
816.948	6418
817.089	6525
817.23	6395
817.371	6365
817.512	6391
817.653	6391
817.793	6342
817.934	6369
818.075	6403
818.216	6452
818.356	6376
818.497	6205
818.638	6129
818.778	6095
818.919	6087
819.06	6114
819.2	6254
819.341	6300
819.481	6353
819.622	6498
819.762	6669
819.903	6722
820.043	6612
820.184	6578
820.324	6528
820.465	6684
820.605	6669
820.746	6540
820.886	6506
821.026	6646
821.167	6692
821.307	6745
821.447	6818
821.588	6642
821.728	6608
821.868	6471
822.008	6338
822.149	6384
822.289	6331
822.429	6159
822.569	6049
822.709	6121
822.849	5897
822.99	5931
823.13	5878
823.27	5893
823.41	5767
823.55	5748
823.69	5771
823.83	5813
823.97	5653
824.11	5520
824.25	5482
824.389	5532
824.529	5596
824.669	5482
824.809	5570
824.949	5630
825.089	5623
825.228	5516
825.368	5357
825.508	5299
825.648	5357
825.787	5353
825.927	5372
826.067	5326
826.206	5284
826.346	5387
826.485	5360
826.625	5376
826.765	5520
826.904	5440
827.044	5235
827.183	5189
827.323	5098
827.462	5227
827.601	5143
827.741	5178
827.88	5246
828.02	5071
828.159	5212
828.298	5258
828.437	5299
828.577	5250
828.716	5421
828.855	5326
828.994	5143
829.134	5121
829.273	5193
829.412	5143
829.551	5094
829.69	5170
829.829	5174
829.968	5337
830.107	5250
830.246	5254
830.385	5189
830.524	5151
830.663	5064
830.802	4957
830.941	4873
831.08	4862
831.219	4965
831.357	4949
831.496	5094
831.635	4930
831.774	4782
831.913	4862
832.051	4691
832.19	4714
832.329	4870
832.467	4664
832.606	4580
832.744	4687
832.883	4733
833.022	4660
833.16	4816
833.299	4786
833.437	4847
833.576	4809
833.714	4824
833.852	4873
833.991	4930
834.129	4934
834.267	4976
834.406	4873
834.544	4995
834.682	4949
834.821	4942
834.959	5162
835.097	4968
835.235	5155
835.373	5086
835.511	5105
835.65	5033
835.788	4987
835.926	4919
836.064	4911
836.202	4877
836.34	5170
836.478	5220
836.615	5098
836.753	5166
836.891	5265
837.029	5170
837.167	5204
837.305	5162
837.443	5086
837.58	5037
837.718	5204
837.856	5170
837.993	5128
838.131	5208
838.269	5189
838.406	5159
838.544	5121
838.681	5003
838.819	5010
838.956	4881
839.094	4850
839.231	4927
839.369	5064
839.506	5429
839.643	5204
839.781	5025
839.918	5052
840.055	5056
840.193	5071
840.33	5056
840.467	5124
840.604	5181
840.742	5398
840.879	5075
841.016	5022
841.153	5132
841.29	5322
841.427	5311
841.564	5326
841.701	5345
841.838	5318
841.975	5216
842.112	5258
842.249	5105
842.385	5090
842.522	5299
842.659	5140
842.796	5113
842.933	5189
843.069	5098
843.206	5113
843.343	5334
843.479	5189
843.616	5235
843.752	4980
843.889	5022
844.025	5204
844.162	5014
844.298	5193
844.435	5064
844.571	5056
844.708	5181
844.844	5303
844.98	5288
845.117	5246
845.253	5105
845.389	5064
845.525	5067
845.661	5105
845.798	5010
845.934	5155
846.07	5010
846.206	5174
846.342	5227
846.478	5155
846.614	4984
846.75	4949
846.886	4915
847.022	5124
847.158	5029
847.294	5045
847.429	5090
847.565	5037
847.701	5261
847.837	4854
847.972	4805
848.108	4919
848.244	4892
848.379	4752
848.515	4675
848.65	4736
848.786	4752
848.921	4736
849.057	4809
849.192	4858
849.328	4786
849.463	4839
849.598	4771
849.734	4759
849.869	4683
850.004	4626
850.14	4618
850.275	4634
850.41	4508
850.545	4569
850.68	4546
850.815	4592
850.95	4641
851.085	4805
851.22	4687
851.355	4672
851.49	4611
851.625	4653
851.76	4626
851.895	4523
852.03	4508
852.165	4588
852.299	4744
852.434	4767
852.569	4706
852.703	4771
852.838	4812
852.973	4927
853.107	4877
853.242	4725
853.376	4710
853.511	4512
853.645	4630
853.78	4759
853.914	4675
854.048	4710
854.183	4626
854.317	4679
854.451	4793
854.585	4679
854.72	4622
854.854	4706
854.988	4565
855.122	4622
855.256	4519
855.39	4622
855.524	4729
855.658	4687
855.792	4664
855.926	4744
856.06	4767
856.194	4759
856.327	4717
856.461	4584
856.595	4588
856.729	4615
856.862	4729
856.996	4668
857.13	4706
857.263	4763
857.397	4759
857.53	4630
857.664	4656
857.797	4721
857.931	4786
858.064	4679
858.197	4771
858.331	4607
858.464	4584
858.597	4523
858.731	4622
858.864	4653
858.997	4558
859.13	4679
859.263	4675
859.396	4740
859.529	4573
859.662	4561
859.795	4546
859.928	4580
860.061	4710
860.194	4714
860.327	4603
860.46	4599
860.592	4759
860.725	4683
860.858	4664
860.99	4558
861.123	4470
861.256	4554
861.388	4611
861.521	5174
861.653	4443
861.786	4413
861.918	4402
862.05	4478
862.183	4546
862.315	4577
862.447	4622
862.58	4550
862.712	4329
862.844	4287
862.976	4466
863.108	4474
863.24	4744
863.372	4318
863.504	4390
863.636	4424
863.768	4516
863.9	4428
864.032	4344
864.164	4383
864.296	4459
864.428	4565
864.559	4527
864.691	4527
864.823	4481
864.954	4462
865.086	4523
865.217	4398
865.349	4413
865.48	4417
865.612	4455
865.743	4584
865.875	4447
866.006	4447
866.137	4428
866.269	4383
866.4	4360
866.531	4386
866.662	4371
866.793	4402
866.924	4394
867.055	4455
867.186	4413
867.317	4360
867.448	4337
867.579	4367
867.71	4360
867.841	4318
867.972	4413
868.103	4428
868.233	4466
868.364	4402
868.495	4470
868.625	4630
868.756	4767
868.886	4538
869.017	4626
869.147	4725
869.278	4706
869.408	4679
869.539	4607
869.669	4622
869.799	4607
869.929	4755
870.06	4729
870.19	4972
870.32	4892
870.45	4904
870.58	4961
870.71	5067
870.84	5121
870.97	4942
871.1	4896
871.23	5151
871.36	5109
871.489	5037
871.619	5117
871.749	5037
871.879	5155
872.008	5181
872.138	5003
872.267	4995
872.397	4831
872.526	4778
872.656	4706
872.785	4790
872.915	4908
873.044	5064
873.173	4961
873.303	4965
873.432	4987
873.561	4991
873.69	4877
873.819	4854
873.948	4995
874.077	4809
874.206	4740
874.335	4793
874.464	4987
874.593	5067
874.722	4961
874.851	5098
874.979	5060
875.108	5052
875.237	4923
875.365	4923
875.494	4934
875.623	5022
875.751	4881
875.88	4915
876.008	5018
876.136	5056
876.265	5166
876.393	5376
876.521	5273
876.65	5231
876.778	5220
876.906	5086
877.034	5067
877.162	5060
877.29	5052
877.418	5109
877.546	5018
877.674	5064
877.802	5067
877.93	5045
878.058	4987
878.185	4831
878.313	5010
878.441	4984
878.568	4812
878.696	4915
878.824	4961
878.951	5056
879.079	5113
879.206	5292
879.333	5113
879.461	4987
879.588	5064
879.715	5094
879.842	5254
879.97	5014
880.097	4873
880.224	4839
880.351	4809
880.478	4793
880.605	4748
880.732	4816
880.859	5121
880.986	4904
881.112	4904
881.239	4774
881.366	4675
881.493	4611
881.619	4599
881.746	4717
881.872	4649
881.999	4649
882.125	4694
882.252	4797
882.378	4809
882.505	4991
882.631	4778
882.757	4679
882.883	4744
883.01	4786
883.136	4721
883.262	4660
883.388	4626
883.514	4854
883.64	4877
883.766	4820
883.892	4710
884.018	4725
884.143	4930
884.269	5014
884.395	4698
884.52	4649
884.646	4675
884.772	4588
884.897	4588
885.023	4694
885.148	4774
885.274	4843
885.399	4828
885.524	4725
885.65	4717
885.775	4782
885.9	4660
886.025	4866
886.15	4835
886.275	4774
886.4	4672
886.525	4755
886.65	4702
886.775	4725
886.9	4866
887.025	5022
887.149	4831
887.274	4668
887.399	4607
887.523	4599
887.648	4599
887.773	4588
887.897	4759
888.021	4744
888.146	4740
888.27	4820
888.395	4896
888.519	4809
888.643	4839
888.767	4831
888.891	4664
889.015	4603
889.139	4698
889.263	4603
889.387	4786
889.511	4908
889.635	4839
889.759	4641
889.883	4660
890.006	4752
890.13	4805
890.254	4645
890.377	4683
890.501	4535
890.624	4561
890.748	4687
890.871	4554
890.995	4462
891.118	4398
891.241	4500
891.364	4546
891.488	4641
891.611	4493
891.734	4546
891.857	4637
891.98	4565
892.103	4672
892.226	4634
892.349	4527
892.471	4455
892.594	4569
892.717	4653
892.839	4645
892.962	4596
893.085	4725
893.207	4607
893.33	4474
893.452	4535
893.575	4687
893.697	4630
893.819	4831
893.941	4843
894.064	4778
894.186	4630
894.308	4611
894.43	4778
894.552	4835
894.674	4793
894.796	4577
894.918	4554
895.04	4592
895.161	4721
895.283	4687
895.405	4607
895.526	4706
895.648	4721
895.769	4683
895.891	4782
896.012	4721
896.134	4740
896.255	4706
896.376	4622
896.498	4637
896.619	4691
896.74	4687
896.861	4649
896.982	4904
897.103	5086
897.224	4820
897.345	4782
897.466	4641
897.587	4771
897.708	4831
897.828	4805
897.949	4672
898.07	4596
898.19	4649
898.311	4870
898.431	4706
898.552	4790
898.672	4862
898.792	4839
898.913	4744
899.033	4656
899.153	4527
899.273	4455
899.393	4508
899.513	4550
899.633	4512
899.753	4611
899.873	4554
899.993	4607
900.113	4558
900.232	4626
900.352	4542
900.472	4489
900.591	4428
900.711	4538
900.83	4485
900.95	4637
901.069	4706
901.189	4535
901.308	4409
901.427	4333
901.546	4413
901.665	4474
901.784	4508
901.904	4424
902.023	4352
902.141	4249
902.26	4147
902.379	4344
902.498	4299
902.617	4234
902.735	4428
902.854	4417
902.973	4405
903.091	4253
903.21	4227
903.328	4310
903.446	4280
903.565	4287
903.683	4363
903.801	4306
903.919	4413
904.038	4421
904.156	4306
904.274	4481
904.392	4417
904.51	4421
904.627	4512
904.745	4637
904.863	4637
904.981	4421
905.098	4299
905.216	4383
905.334	4455
905.451	4504
905.569	4459
905.686	4573
905.803	4592
905.921	4428
906.038	4580
906.155	4466
906.272	4428
906.389	4474
906.506	4398
906.623	4356
906.74	4440
906.857	4325
906.974	4413
907.091	4554
907.208	4736
907.324	4596
907.441	4538
907.557	4360
907.674	4344
907.79	4371
907.907	4367
908.023	4504
908.139	4523
908.256	4500
908.372	4485
908.488	4451
908.604	4333
908.72	4325
908.836	4363
908.952	4383
909.068	4474
909.184	4618
909.3	4470
909.415	4596
909.531	4584
909.647	4360
909.762	4379
909.878	4383
909.993	4478
910.108	4459
910.224	4398
910.339	4538
910.454	4405
910.57	4390
910.685	4348
910.8	4702
910.915	4577
911.03	4508
911.145	4432
911.259	4337
911.374	4402
911.489	4272
911.604	4276
911.718	4230
911.833	4181
911.947	4124
912.062	4086
912.176	4211
912.291	4268
912.405	4261
912.519	4493
912.633	4554
912.748	4371
912.862	4314
912.976	4211
913.09	4071
913.204	4230
913.318	4265
913.431	4379
913.545	4379
913.659	4485
913.772	4375
913.886	4280
914	4211
914.113	4383
914.226	4428
914.34	4405
914.453	4303
914.566	4443
914.68	4299
914.793	4314
914.906	4215
915.019	4196
915.132	4074
915.245	4150
915.358	4196
915.47	4284
915.583	4230
915.696	4280
915.809	4375
915.921	4424
916.034	4287
916.146	4230
916.259	4249
916.371	4402
916.483	4352
916.595	4299
916.708	4299
916.82	4363
916.932	4352
917.044	4337
917.156	4337
917.268	4242
917.38	4268
917.491	4272
917.603	4352
917.715	4459
917.826	4470
917.938	4352
918.049	4230
918.161	4390
918.272	4542
918.384	4569
918.495	4436
918.606	4276
918.717	4253
918.828	4329
918.939	4394
919.05	4284
919.161	4314
919.272	4120
919.383	4284
919.494	4455
919.604	4672
919.715	4409
919.826	4390
919.936	4413
920.047	4573
920.157	4493
920.267	4683
920.378	4500
920.488	4554
920.598	4717
920.708	4946
920.818	4744
920.928	4763
921.038	4942
921.148	4938
921.258	4649
921.368	4618
921.477	4508
921.587	4459
921.697	4390
921.806	4561
921.916	4443
922.025	4249
922.134	4253
922.244	4246
922.353	4329
922.462	4253
922.571	4109
922.68	4040
922.789	3975
922.898	4017
923.007	3987
923.116	4109
923.224	4105
923.333	4090
923.442	4013
923.55	4029
923.659	4074
923.767	4120
923.876	3956
923.984	4173
924.092	3987
924.201	4093
924.309	4093
924.417	4120
924.525	4010
924.633	4120
924.741	5109
924.849	3953
924.956	4150
925.064	3964
925.172	3903
925.279	3998
925.387	4086
925.494	4090
925.602	4215
925.709	4177
925.816	4059
925.924	4128
926.031	4196
926.138	4181
926.245	4207
926.352	4131
926.459	4249
926.566	4318
926.673	4154
926.779	4086
926.886	4086
926.993	3979
927.099	3968
927.206	3956
927.312	3979
927.419	4063
927.525	4063
927.631	4131
927.737	3953
927.843	3983
927.95	3899
928.056	3937
928.162	4025
928.267	4093
928.373	4733
928.479	4147
928.585	3941
928.69	4059
928.796	4071
928.901	3972
929.007	3831
929.112	3994
929.218	4017
929.323	3888
929.428	3949
929.533	4147
929.638	3964
929.743	3956
929.848	4040
929.953	4021
930.058	3934
930.163	3770
930.267	3842
930.372	3964
930.477	3838
930.581	4093
930.685	3953
930.79	3823
930.894	3918
930.998	3907
931.103	4048
931.207	3717
931.311	3682
931.415	3705
931.519	3542
931.623	3561
