Data from test_V78500241_684.txt Node
Date: Fri Mar 25 16:53:45 CST 2022
User: usil
Spectrometer: V785-0024
Trigger mode: 0
Integration Time (sec): 4.000000E-1
Scans to average: 1
Nonlinearity correction enabled: false
Boxcar width: 0
Storing dark spectrum: false
XAxis mode: Wavelengths
Number of Pixels in Spectrum: 1024
>>>>>Begin Spectral Data<<<<<
801.071	7959
801.214	7944
801.356	7925
801.499	7906
801.641	7776
801.783	7871
801.926	8005
802.068	7898
802.211	7982
802.353	8001
802.496	7833
802.638	7906
802.78	7928
802.923	7928
803.065	7833
803.208	7841
803.35	7967
803.492	8138
803.635	8069
803.777	8043
803.919	8062
804.061	8381
804.204	8115
804.346	7997
804.488	7856
804.63	8134
804.773	8039
804.915	8100
805.057	8317
805.199	8119
805.341	8183
805.483	8290
805.626	8282
805.768	8077
805.91	8168
806.052	8187
806.194	8062
806.336	8305
806.478	8069
806.62	8024
806.762	8092
806.904	8290
807.046	8404
807.188	8377
807.33	8271
807.472	8286
807.614	8164
807.756	8145
807.898	7947
808.04	7890
808.182	7875
808.324	7928
808.465	7967
808.607	8008
808.749	8092
808.891	8210
809.033	8176
809.174	8206
809.316	7974
809.458	8039
809.6	8027
809.741	8012
809.883	7982
810.025	8096
810.166	8123
810.308	8024
810.45	8046
810.591	7947
810.733	7719
810.875	7677
811.016	7525
811.158	7483
811.299	7605
811.441	7681
811.582	7662
811.724	7556
811.865	7457
812.007	7620
812.148	7544
812.29	7632
812.431	7780
812.573	7814
812.714	7917
812.855	8134
812.997	8263
813.138	8336
813.279	8183
813.421	8164
813.562	8054
813.703	7871
813.845	7731
813.986	7460
814.127	7316
814.268	7274
814.41	7236
814.551	7061
814.692	7145
814.833	7019
814.974	7118
815.115	7088
815.256	6973
815.397	6958
815.539	6951
815.68	6810
815.821	6818
815.962	6798
816.103	6825
816.244	6738
816.385	6612
816.526	6658
816.666	6513
816.807	6323
816.948	6384
817.089	6486
817.23	6445
817.371	6353
817.512	6376
817.653	6350
817.793	6407
817.934	6376
818.075	6471
818.216	6433
818.356	6388
818.497	6197
818.638	6144
818.778	6159
818.919	6117
819.06	6087
819.2	6281
819.341	6258
819.481	6342
819.622	6528
819.762	6711
819.903	6688
820.043	6551
820.184	6566
820.324	6585
820.465	6631
820.605	6707
820.746	6654
820.886	6490
821.026	6608
821.167	6711
821.307	6810
821.447	6726
821.588	6612
821.728	6563
821.868	6448
822.008	6289
822.149	6410
822.289	6414
822.429	6114
822.569	6060
822.709	6106
822.849	5923
822.99	5874
823.13	5901
823.27	5893
823.41	5745
823.55	5767
823.69	5771
823.83	5798
823.97	5596
824.11	5543
824.25	5467
824.389	5554
824.529	5501
824.669	5516
824.809	5680
824.949	5653
825.089	5592
825.228	5558
825.368	5452
825.508	5334
825.648	5379
825.787	5353
825.927	5372
826.067	5269
826.206	5299
826.346	5341
826.485	5391
826.625	5368
826.765	5490
826.904	5486
827.044	5216
827.183	5197
827.323	5143
827.462	5193
827.601	5143
827.741	5170
827.88	5208
828.02	5124
828.159	5185
828.298	5223
828.437	5334
828.577	5296
828.716	5452
828.855	5288
828.994	5174
829.134	5155
829.273	5151
829.412	5132
829.551	5132
829.69	5155
829.829	5273
829.968	5334
830.107	5216
830.246	5299
830.385	5151
830.524	5140
830.663	5064
830.802	4991
830.941	4889
831.08	4835
831.219	5033
831.357	4972
831.496	5185
831.635	4942
831.774	4889
831.913	4820
832.051	4717
832.19	4740
832.329	4782
832.467	4725
832.606	4618
832.744	4748
832.883	4702
833.022	4717
833.16	4797
833.299	4828
833.437	4782
833.576	4839
833.714	4824
833.852	4915
833.991	4843
834.129	4987
834.267	4942
834.406	4934
834.544	4953
834.682	4965
834.821	4965
834.959	5162
835.097	4946
835.235	5155
835.373	5060
835.511	5090
835.65	5067
835.788	5064
835.926	4858
836.064	4889
836.202	4938
836.34	5189
836.478	5197
836.615	5162
836.753	5147
836.891	5223
837.029	5239
837.167	5201
837.305	5151
837.443	5113
837.58	5056
837.718	5242
837.856	5159
837.993	5166
838.131	5261
838.269	5155
838.406	5189
838.544	5162
838.681	5003
838.819	5033
838.956	4885
839.094	4889
839.231	4961
839.369	5083
839.506	5429
839.643	5254
839.781	5102
839.918	5037
840.055	5067
840.193	5090
840.33	5083
840.467	5113
840.604	5204
840.742	5455
840.879	5045
841.016	5083
841.153	5159
841.29	5368
841.427	5341
841.564	5292
841.701	5318
841.838	5303
841.975	5235
842.112	5246
842.249	5159
842.385	5102
842.522	5307
842.659	5166
842.796	5113
842.933	5174
843.069	5140
843.206	5178
843.343	5288
843.479	5258
843.616	5280
843.752	5033
843.889	5010
844.025	5223
844.162	5006
844.298	5231
844.435	5071
844.571	5079
844.708	5250
844.844	5311
844.98	5330
845.117	5318
845.253	5105
845.389	5067
845.525	5113
845.661	5140
845.798	4965
845.934	5181
846.07	5060
846.206	5155
846.342	5239
846.478	5174
846.614	4995
846.75	4991
846.886	4949
847.022	5105
847.158	5010
847.294	5025
847.429	5143
847.565	5018
847.701	5322
847.837	4858
847.972	4778
848.108	4999
848.244	4919
848.379	4774
848.515	4748
848.65	4729
848.786	4729
848.921	4801
849.057	4850
849.192	4816
849.328	4797
849.463	4877
849.598	4828
849.734	4774
849.869	4691
850.004	4622
850.14	4637
850.275	4626
850.41	4516
850.545	4569
850.68	4615
850.815	4611
850.95	4641
851.085	4835
851.22	4748
851.355	4687
851.49	4622
851.625	4603
851.76	4683
851.895	4580
852.03	4519
852.165	4615
852.299	4706
852.434	4809
852.569	4687
852.703	4790
852.838	4782
852.973	4957
853.107	4904
853.242	4656
853.376	4622
853.511	4561
853.645	4615
853.78	4831
853.914	4714
854.048	4694
854.183	4626
854.317	4679
854.451	4793
854.585	4664
854.72	4615
854.854	4744
854.988	4615
855.122	4637
855.256	4554
855.39	4664
855.524	4828
855.658	4721
855.792	4725
855.926	4702
856.06	4736
856.194	4767
856.327	4698
856.461	4596
856.595	4634
856.729	4615
856.862	4736
856.996	4687
857.13	4740
857.263	4786
857.397	4778
857.53	4634
857.664	4687
857.797	4801
857.931	4744
858.064	4649
858.197	4656
858.331	4607
858.464	4618
858.597	4550
858.731	4641
858.864	4599
858.997	4550
859.13	4645
859.263	4660
859.396	4664
859.529	4554
859.662	4573
859.795	4546
859.928	4630
860.061	4752
860.194	4759
860.327	4607
860.46	4542
860.592	4687
860.725	4714
860.858	4725
860.99	4599
861.123	4516
861.256	4516
861.388	4599
861.521	5227
861.653	4481
861.786	4462
861.918	4390
862.05	4523
862.183	4561
862.315	4592
862.447	4634
862.58	4497
862.712	4371
862.844	4287
862.976	4485
863.108	4489
863.24	4812
863.372	4306
863.504	4436
863.636	4417
863.768	4440
863.9	4466
864.032	4333
864.164	4405
864.296	4531
864.428	4558
864.559	4592
864.691	4500
864.823	4516
864.954	4474
865.086	4447
865.217	4443
865.349	4363
865.48	4497
865.612	4424
865.743	4599
865.875	4478
866.006	4436
866.137	4504
866.269	4459
866.4	4459
866.531	4386
866.662	4421
866.793	4356
866.924	4390
867.055	4485
867.186	4428
867.317	4375
867.448	4394
867.579	4402
867.71	4375
867.841	4352
867.972	4462
868.103	4470
868.233	4402
868.364	4443
868.495	4485
868.625	4714
868.756	4767
868.886	4580
869.017	4588
869.147	4767
869.278	4790
869.408	4615
869.539	4615
869.669	4710
869.799	4618
869.929	4816
870.06	4736
870.19	4972
870.32	4911
870.45	4976
870.58	4961
870.71	5071
870.84	5094
870.97	4919
871.1	4930
871.23	5128
871.36	5136
871.489	5014
871.619	5079
871.749	5090
871.879	5151
872.008	5178
872.138	5025
872.267	4999
872.397	4858
872.526	4839
872.656	4694
872.785	4793
872.915	4965
873.044	5003
873.173	4889
873.303	4949
873.432	4968
873.561	4968
873.69	4915
873.819	4843
873.948	4911
874.077	4831
874.206	4774
874.335	4805
874.464	4934
874.593	5071
874.722	4911
874.851	5075
874.979	5052
875.108	5014
875.237	4889
875.365	4866
875.494	4889
875.623	4984
875.751	4820
875.88	4835
876.008	4980
876.136	5025
876.265	5254
876.393	5353
876.521	5261
876.65	5220
876.778	5128
876.906	5090
877.034	5048
877.162	5056
877.29	4999
877.418	5037
877.546	5052
877.674	5003
877.802	5048
877.93	5029
878.058	4900
878.185	4885
878.313	4968
878.441	4930
878.568	4809
878.696	4835
878.824	4900
878.951	5014
879.079	5102
879.206	5296
879.333	5102
879.461	4987
879.588	5010
879.715	5105
879.842	5277
879.97	4995
880.097	4790
880.224	4729
880.351	4793
880.478	4797
880.605	4828
880.732	4782
880.859	5094
880.986	4900
881.112	4870
881.239	4793
881.366	4672
881.493	4645
881.619	4577
881.746	4664
881.872	4668
881.999	4683
882.125	4679
882.252	4793
882.378	4809
882.505	4968
882.631	4839
882.757	4634
882.883	4717
883.01	4740
883.136	4649
883.262	4569
883.388	4622
883.514	4835
883.64	4892
883.766	4812
883.892	4679
884.018	4740
884.143	4908
884.269	4980
884.395	4672
884.52	4622
884.646	4683
884.772	4611
884.897	4558
885.023	4611
885.148	4782
885.274	4904
885.399	4809
885.524	4725
885.65	4649
885.775	4733
885.9	4721
886.025	4824
886.15	4786
886.275	4694
886.4	4622
886.525	4759
886.65	4702
886.775	4744
886.9	4870
887.025	5037
887.149	4771
887.274	4656
887.399	4561
887.523	4664
887.648	4615
887.773	4607
887.897	4767
888.021	4824
888.146	4683
888.27	4820
888.395	4881
888.519	4729
888.643	4820
888.767	4870
888.891	4687
889.015	4607
889.139	4691
889.263	4634
889.387	4744
889.511	4870
889.635	4763
889.759	4630
889.883	4615
890.006	4755
890.13	4820
890.254	4649
890.377	4668
890.501	4550
890.624	4546
890.748	4634
890.871	4561
890.995	4379
891.118	4375
891.241	4546
891.364	4542
891.488	4626
891.611	4516
891.734	4512
891.857	4630
891.98	4546
892.103	4634
892.226	4607
892.349	4538
892.471	4402
892.594	4592
892.717	4577
892.839	4584
892.962	4580
893.085	4653
893.207	4573
893.33	4428
893.452	4554
893.575	4660
893.697	4565
893.819	4786
893.941	4843
894.064	4767
894.186	4603
894.308	4588
894.43	4733
894.552	4763
894.674	4782
894.796	4512
894.918	4615
895.04	4565
895.161	4717
895.283	4645
895.405	4561
895.526	4653
895.648	4729
895.769	4649
895.891	4744
896.012	4755
896.134	4714
896.255	4660
896.376	4607
896.498	4573
896.619	4694
896.74	4599
896.861	4634
896.982	4892
897.103	5105
897.224	4877
897.345	4729
897.466	4668
897.587	4706
897.708	4847
897.828	4816
897.949	4691
898.07	4599
898.19	4675
898.311	4839
898.431	4653
898.552	4759
898.672	4812
898.792	4782
898.913	4793
899.033	4637
899.153	4478
899.273	4417
899.393	4500
899.513	4508
899.633	4531
899.753	4535
899.873	4478
899.993	4592
900.113	4546
900.232	4584
900.352	4546
900.472	4504
900.591	4417
900.711	4516
900.83	4451
900.95	4596
901.069	4679
901.189	4565
901.308	4348
901.427	4253
901.546	4371
901.665	4489
901.784	4516
901.904	4352
902.023	4322
902.141	4192
902.26	4177
902.379	4265
902.498	4242
902.617	4230
902.735	4348
902.854	4424
902.973	4352
903.091	4284
903.21	4227
903.328	4280
903.446	4306
903.565	4192
903.683	4284
903.801	4284
903.919	4383
904.038	4417
904.156	4314
904.274	4462
904.392	4409
904.51	4424
904.627	4455
904.745	4580
904.863	4618
904.981	4379
905.098	4287
905.216	4379
905.334	4466
905.451	4466
905.569	4440
905.686	4565
905.803	4622
905.921	4394
906.038	4573
906.155	4481
906.272	4360
906.389	4512
906.506	4341
906.623	4356
906.74	4360
906.857	4295
906.974	4367
907.091	4546
907.208	4664
907.324	4611
907.441	4527
907.557	4341
907.674	4341
907.79	4276
907.907	4417
908.023	4470
908.139	4478
908.256	4394
908.372	4497
908.488	4440
908.604	4360
908.72	4261
908.836	4398
908.952	4303
909.068	4383
909.184	4512
909.3	4459
909.415	4519
909.531	4538
909.647	4352
909.762	4318
909.878	4341
909.993	4489
910.108	4390
910.224	4390
910.339	4451
910.454	4386
910.57	4402
910.685	4253
910.8	4664
910.915	4630
911.03	4493
911.145	4337
911.259	4310
911.374	4386
911.489	4329
911.604	4329
911.718	4124
911.833	4188
911.947	4071
912.062	4029
912.176	4192
912.291	4253
912.405	4230
912.519	4462
912.633	4512
912.748	4363
912.862	4314
912.976	4192
913.09	4097
913.204	4192
913.318	4238
913.431	4337
913.545	4394
913.659	4417
913.772	4421
913.886	4238
914	4242
914.113	4413
914.226	4413
914.34	4436
914.453	4234
914.566	4409
914.68	4337
914.793	4344
914.906	4147
915.019	4139
915.132	4090
915.245	4238
915.358	4188
915.47	4192
915.583	4284
915.696	4238
915.809	4432
915.921	4443
916.034	4261
916.146	4287
916.259	4223
916.371	4348
916.483	4333
916.595	4246
916.708	4337
916.82	4299
916.932	4318
917.044	4352
917.156	4314
917.268	4211
917.38	4303
917.491	4276
917.603	4352
917.715	4390
917.826	4409
917.938	4306
918.049	4211
918.161	4344
918.272	4558
918.384	4497
918.495	4459
918.606	4322
918.717	4249
918.828	4333
918.939	4360
919.05	4261
919.161	4371
919.272	4105
919.383	4207
919.494	4455
919.604	4634
919.715	4394
919.826	4360
919.936	4409
920.047	4489
920.157	4489
920.267	4702
920.378	4535
920.488	4519
920.598	4710
920.708	4885
920.818	4771
920.928	4729
921.038	4904
921.148	4839
921.258	4649
921.368	4538
921.477	4466
921.587	4466
921.697	4363
921.806	4558
921.916	4451
922.025	4287
922.134	4284
922.244	4234
922.353	4329
922.462	4211
922.571	4105
922.68	3998
922.789	3983
922.898	4021
923.007	3998
923.116	4097
923.224	4078
923.333	4074
923.442	3979
923.55	3994
923.659	3975
923.767	4120
923.876	3983
923.984	4124
924.092	3975
924.201	4105
924.309	4078
924.417	4128
924.525	4097
924.633	4120
924.741	5090
924.849	3842
924.956	4188
925.064	3945
925.172	3896
925.279	3964
925.387	4059
925.494	4036
925.602	4207
925.709	4192
925.816	4032
925.924	4150
926.031	4230
926.138	4131
926.245	4185
926.352	4101
926.459	4253
926.566	4314
926.673	4162
926.779	4150
926.886	4112
926.993	3972
927.099	3979
927.206	3945
927.312	3930
927.419	4036
927.525	4036
927.631	4090
927.737	3953
927.843	3998
927.95	3827
928.056	3956
928.162	3994
928.267	4017
928.373	4702
928.479	4078
928.585	3888
928.69	3983
928.796	4101
928.901	3979
929.007	3789
929.112	4010
929.218	3960
929.323	3941
929.428	3941
929.533	4078
929.638	3896
929.743	3994
929.848	4021
929.953	3975
930.058	3930
930.163	3755
930.267	3827
930.372	3998
930.477	3793
930.581	4109
930.685	3930
930.79	3831
930.894	3850
930.998	3835
931.103	4029
931.207	3698
931.311	3660
931.415	3679
931.519	3568
931.623	3568
