Data from test_V78500241_805.txt Node
Date: Fri Mar 25 16:54:36 CST 2022
User: usil
Spectrometer: V785-0024
Trigger mode: 0
Integration Time (sec): 4.000000E-1
Scans to average: 1
Nonlinearity correction enabled: false
Boxcar width: 0
Storing dark spectrum: false
XAxis mode: Wavelengths
Number of Pixels in Spectrum: 1024
>>>>>Begin Spectral Data<<<<<
801.071	8016
801.214	8035
801.356	7925
801.499	7925
801.641	7776
801.783	7830
801.926	8024
802.068	7887
802.211	7993
802.353	8016
802.496	7845
802.638	7898
802.78	7955
802.923	7906
803.065	7928
803.208	7887
803.35	8081
803.492	8210
803.635	8187
803.777	8001
803.919	8123
804.061	8408
804.204	8195
804.346	8024
804.488	7986
804.63	8180
804.773	8092
804.915	8084
805.057	8305
805.199	8237
805.341	8180
805.483	8320
805.626	8244
805.768	8161
805.91	8187
806.052	8275
806.194	8111
806.336	8229
806.478	8134
806.62	8069
806.762	8149
806.904	8248
807.046	8476
807.188	8343
807.33	8362
807.472	8328
807.614	8149
807.756	8111
807.898	7989
808.04	7860
808.182	7906
808.324	7864
808.465	7944
808.607	8035
808.749	8039
808.891	8210
809.033	8332
809.174	8191
809.316	8077
809.458	8024
809.6	7982
809.741	8035
809.883	8012
810.025	8115
810.166	8069
810.308	8058
810.45	8039
810.591	7845
810.733	7727
810.875	7704
811.016	7552
811.158	7521
811.299	7590
811.441	7700
811.582	7636
811.724	7613
811.865	7499
812.007	7582
812.148	7552
812.29	7556
812.431	7734
812.573	7833
812.714	7928
812.855	8111
812.997	8149
813.138	8301
813.279	8126
813.421	8046
813.562	7982
813.703	7875
813.845	7795
813.986	7453
814.127	7274
814.268	7293
814.41	7251
814.551	7133
814.692	7133
814.833	6985
814.974	7084
815.115	7065
815.256	6993
815.397	6916
815.539	6954
815.68	6829
815.821	6730
815.962	6818
816.103	6802
816.244	6741
816.385	6585
816.526	6627
816.666	6559
816.807	6285
816.948	6414
817.089	6483
817.23	6486
817.371	6380
817.512	6429
817.653	6357
817.793	6388
817.934	6384
818.075	6429
818.216	6376
818.356	6361
818.497	6216
818.638	6121
818.778	6152
818.919	6148
819.06	6159
819.2	6342
819.341	6285
819.481	6311
819.622	6525
819.762	6673
819.903	6654
820.043	6563
820.184	6540
820.324	6578
820.465	6665
820.605	6623
820.746	6616
820.886	6460
821.026	6700
821.167	6707
821.307	6722
821.447	6810
821.588	6593
821.728	6578
821.868	6467
822.008	6327
822.149	6380
822.289	6315
822.429	6133
822.569	6064
822.709	6144
822.849	5912
822.99	5870
823.13	5946
823.27	5954
823.41	5783
823.55	5752
823.69	5756
823.83	5786
823.97	5630
824.11	5554
824.25	5547
824.389	5509
824.529	5619
824.669	5543
824.809	5642
824.949	5699
825.089	5608
825.228	5532
825.368	5452
825.508	5398
825.648	5410
825.787	5345
825.927	5353
826.067	5292
826.206	5235
826.346	5410
826.485	5387
826.625	5429
826.765	5562
826.904	5474
827.044	5254
827.183	5189
827.323	5094
827.462	5189
827.601	5174
827.741	5223
827.88	5250
828.02	5136
828.159	5250
828.298	5315
828.437	5326
828.577	5326
828.716	5436
828.855	5341
828.994	5159
829.134	5124
829.273	5208
829.412	5159
829.551	5117
829.69	5121
829.829	5220
829.968	5353
830.107	5181
830.246	5296
830.385	5170
830.524	5189
830.663	5029
830.802	5010
830.941	4858
831.08	4877
831.219	5010
831.357	4968
831.496	5143
831.635	4946
831.774	4850
831.913	4835
832.051	4793
832.19	4748
832.329	4870
832.467	4675
832.606	4656
832.744	4717
832.883	4679
833.022	4763
833.16	4778
833.299	4820
833.437	4782
833.576	4824
833.714	4847
833.852	4858
833.991	4831
834.129	4961
834.267	4949
834.406	4915
834.544	4972
834.682	4923
834.821	4927
834.959	5193
835.097	4968
835.235	5113
835.373	5025
835.511	5113
835.65	5037
835.788	4980
835.926	4896
836.064	4904
836.202	4904
836.34	5220
836.478	5242
836.615	5162
836.753	5197
836.891	5288
837.029	5273
837.167	5201
837.305	5151
837.443	5132
837.58	5109
837.718	5223
837.856	5231
837.993	5136
838.131	5261
838.269	5220
838.406	5185
838.544	5178
838.681	5025
838.819	5006
838.956	4889
839.094	4923
839.231	5006
839.369	5048
839.506	5360
839.643	5258
839.781	5075
839.918	4991
840.055	5117
840.193	5083
840.33	5109
840.467	5185
840.604	5143
840.742	5452
840.879	5064
841.016	5083
841.153	5189
841.29	5284
841.427	5345
841.564	5296
841.701	5360
841.838	5261
841.975	5216
842.112	5239
842.249	5117
842.385	5136
842.522	5353
842.659	5162
842.796	5140
842.933	5162
843.069	5094
843.206	5151
843.343	5326
843.479	5216
843.616	5299
843.752	4987
843.889	5022
844.025	5242
844.162	4965
844.298	5227
844.435	5075
844.571	5060
844.708	5159
844.844	5292
844.98	5341
845.117	5322
845.253	5071
845.389	5083
845.525	5181
845.661	5181
845.798	5067
845.934	5132
846.07	5060
846.206	5174
846.342	5261
846.478	5189
846.614	5060
846.75	4946
846.886	4953
847.022	5121
847.158	4999
847.294	5033
847.429	5105
847.565	5056
847.701	5284
847.837	4881
847.972	4820
848.108	4980
848.244	4930
848.379	4820
848.515	4748
848.65	4710
848.786	4717
848.921	4797
849.057	4923
849.192	4908
849.328	4790
849.463	4835
849.598	4736
849.734	4763
849.869	4660
850.004	4626
850.14	4637
850.275	4622
850.41	4489
850.545	4542
850.68	4611
850.815	4592
850.95	4634
851.085	4790
851.22	4759
851.355	4649
851.49	4660
851.625	4618
851.76	4641
851.895	4565
852.03	4531
852.165	4630
852.299	4744
852.434	4790
852.569	4729
852.703	4752
852.838	4866
852.973	4889
853.107	4881
853.242	4790
853.376	4691
853.511	4577
853.645	4596
853.78	4835
853.914	4664
854.048	4702
854.183	4675
854.317	4733
854.451	4892
854.585	4740
854.72	4702
854.854	4782
854.988	4653
855.122	4729
855.256	4519
855.39	4679
855.524	4748
855.658	4767
855.792	4740
855.926	4778
856.06	4778
856.194	4847
856.327	4778
856.461	4653
856.595	4645
856.729	4683
856.862	4767
856.996	4694
857.13	4782
857.263	4767
857.397	4828
857.53	4698
857.664	4740
857.797	4782
857.931	4866
858.064	4729
858.197	4721
858.331	4694
858.464	4649
858.597	4569
858.731	4672
858.864	4675
858.997	4599
859.13	4733
859.263	4748
859.396	4710
859.529	4592
859.662	4641
859.795	4569
859.928	4641
860.061	4797
860.194	4809
860.327	4630
860.46	4630
860.592	4721
860.725	4729
860.858	4740
860.99	4577
861.123	4542
861.256	4523
861.388	4641
861.521	5307
861.653	4523
861.786	4443
861.918	4500
862.05	4527
862.183	4577
862.315	4615
862.447	4664
862.58	4550
862.712	4413
862.844	4360
862.976	4497
863.108	4455
863.24	4831
863.372	4337
863.504	4493
863.636	4436
863.768	4519
863.9	4493
864.032	4436
864.164	4451
864.296	4478
864.428	4577
864.559	4596
864.691	4516
864.823	4588
864.954	4554
865.086	4535
865.217	4470
865.349	4402
865.48	4512
865.612	4546
865.743	4656
865.875	4504
866.006	4478
866.137	4504
866.269	4478
866.4	4474
866.531	4402
866.662	4421
866.793	4455
866.924	4402
867.055	4519
867.186	4497
867.317	4409
867.448	4424
867.579	4440
867.71	4417
867.841	4428
867.972	4519
868.103	4538
868.233	4470
868.364	4436
868.495	4523
868.625	4672
868.756	4763
868.886	4573
869.017	4664
869.147	4774
869.278	4805
869.408	4675
869.539	4664
869.669	4733
869.799	4694
869.929	4801
870.06	4820
870.19	4976
870.32	4900
870.45	4927
870.58	5022
870.71	5105
870.84	5086
870.97	4953
871.1	4923
871.23	5128
871.36	5151
871.489	5083
871.619	5094
871.749	5128
871.879	5185
872.008	5223
872.138	5105
872.267	4980
872.397	4919
872.526	4786
872.656	4698
872.785	4839
872.915	4949
873.044	5056
873.173	4999
873.303	5045
873.432	4999
873.561	4927
873.69	4885
873.819	4843
873.948	4961
874.077	4843
874.206	4752
874.335	4816
874.464	4915
874.593	5086
874.722	4984
874.851	5136
874.979	5090
875.108	5075
875.237	4987
875.365	4949
875.494	4877
875.623	5010
875.751	4831
875.88	4976
876.008	4980
876.136	5022
876.265	5212
876.393	5349
876.521	5292
876.65	5223
876.778	5178
876.906	5067
877.034	5045
877.162	5086
877.29	4965
877.418	5079
877.546	5064
877.674	5094
877.802	5033
877.93	5056
878.058	4968
878.185	4873
878.313	5041
878.441	4949
878.568	4854
878.696	4881
878.824	4980
878.951	4991
879.079	5136
879.206	5322
879.333	5098
879.461	5010
879.588	5014
879.715	5151
879.842	5265
879.97	5064
880.097	4843
880.224	4763
880.351	4782
880.478	4889
880.605	4839
880.732	4793
880.859	5086
880.986	4866
881.112	4965
881.239	4809
881.366	4660
881.493	4622
881.619	4592
881.746	4675
881.872	4660
881.999	4675
882.125	4744
882.252	4824
882.378	4831
882.505	4911
882.631	4816
882.757	4740
882.883	4767
883.01	4778
883.136	4698
883.262	4649
883.388	4645
883.514	4824
883.64	4862
883.766	4797
883.892	4679
884.018	4774
884.143	4949
884.269	5067
884.395	4691
884.52	4630
884.646	4645
884.772	4637
884.897	4558
885.023	4649
885.148	4835
885.274	4896
885.399	4767
885.524	4740
885.65	4714
885.775	4717
885.9	4767
886.025	4892
886.15	4797
886.275	4740
886.4	4675
886.525	4729
886.65	4698
886.775	4672
886.9	4915
887.025	5041
887.149	4820
887.274	4668
887.399	4592
887.523	4611
887.648	4596
887.773	4592
887.897	4755
888.021	4790
888.146	4683
888.27	4820
888.395	4934
888.519	4793
888.643	4835
888.767	4885
888.891	4702
889.015	4577
889.139	4672
889.263	4603
889.387	4809
889.511	4877
889.635	4809
889.759	4694
889.883	4683
890.006	4702
890.13	4900
890.254	4668
890.377	4683
890.501	4573
890.624	4538
890.748	4626
890.871	4531
890.995	4455
891.118	4390
891.241	4527
891.364	4550
891.488	4668
891.611	4519
891.734	4565
891.857	4630
891.98	4599
892.103	4675
892.226	4603
892.349	4565
892.471	4417
892.594	4546
892.717	4596
892.839	4561
892.962	4596
893.085	4679
893.207	4641
893.33	4523
893.452	4519
893.575	4748
893.697	4584
893.819	4805
893.941	4828
894.064	4767
894.186	4592
894.308	4573
894.43	4733
894.552	4824
894.674	4755
894.796	4580
894.918	4599
895.04	4630
895.161	4668
895.283	4645
895.405	4603
895.526	4679
895.648	4694
895.769	4675
895.891	4759
896.012	4812
896.134	4706
896.255	4725
896.376	4675
896.498	4626
896.619	4626
896.74	4603
896.861	4668
896.982	4942
897.103	5128
897.224	4870
897.345	4774
897.466	4706
897.587	4694
897.708	4866
897.828	4771
897.949	4736
898.07	4599
898.19	4702
898.311	4847
898.431	4717
898.552	4752
898.672	4911
898.792	4870
898.913	4763
899.033	4653
899.153	4516
899.273	4443
899.393	4535
899.513	4542
899.633	4519
899.753	4527
899.873	4523
899.993	4592
900.113	4558
900.232	4645
900.352	4516
900.472	4474
900.591	4405
900.711	4462
900.83	4436
900.95	4611
901.069	4668
901.189	4573
901.308	4371
901.427	4363
901.546	4398
901.665	4459
901.784	4538
901.904	4363
902.023	4325
902.141	4227
902.26	4166
902.379	4306
902.498	4268
902.617	4249
902.735	4375
902.854	4402
902.973	4356
903.091	4249
903.21	4223
903.328	4352
903.446	4230
903.565	4284
903.683	4341
903.801	4322
903.919	4398
904.038	4485
904.156	4344
904.274	4489
904.392	4383
904.51	4443
904.627	4508
904.745	4615
904.863	4664
904.981	4379
905.098	4352
905.216	4383
905.334	4447
905.451	4440
905.569	4428
905.686	4535
905.803	4603
905.921	4409
906.038	4592
906.155	4500
906.272	4371
906.389	4519
906.506	4367
906.623	4398
906.74	4413
906.857	4276
906.974	4432
907.091	4603
907.208	4694
907.324	4615
907.441	4535
907.557	4371
907.674	4333
907.79	4284
907.907	4383
908.023	4466
908.139	4478
908.256	4451
908.372	4478
908.488	4485
908.604	4344
908.72	4348
908.836	4375
908.952	4409
909.068	4417
909.184	4611
909.3	4466
909.415	4599
909.531	4531
909.647	4367
909.762	4424
909.878	4360
909.993	4443
910.108	4386
910.224	4402
910.339	4508
910.454	4417
910.57	4402
910.685	4337
910.8	4679
910.915	4634
911.03	4508
911.145	4325
911.259	4337
911.374	4375
911.489	4276
911.604	4291
911.718	4185
911.833	4192
911.947	4067
912.062	4059
912.176	4177
912.291	4276
912.405	4310
912.519	4462
912.633	4512
912.748	4379
912.862	4348
912.976	4227
913.09	4074
913.204	4200
913.318	4295
913.431	4322
913.545	4383
913.659	4428
913.772	4371
913.886	4219
914	4261
914.113	4375
914.226	4424
914.34	4428
914.453	4261
914.566	4459
914.68	4325
914.793	4291
914.906	4177
915.019	4131
915.132	4105
915.245	4185
915.358	4253
915.47	4253
915.583	4234
915.696	4287
915.809	4405
915.921	4402
916.034	4284
916.146	4310
916.259	4200
916.371	4428
916.483	4344
916.595	4280
916.708	4318
916.82	4322
916.932	4310
917.044	4367
917.156	4291
917.268	4185
917.38	4284
917.491	4276
917.603	4348
917.715	4424
917.826	4413
917.938	4310
918.049	4223
918.161	4421
918.272	4531
918.384	4577
918.495	4489
918.606	4287
918.717	4238
918.828	4386
918.939	4360
919.05	4284
919.161	4299
919.272	4128
919.383	4223
919.494	4470
919.604	4641
919.715	4443
919.826	4352
919.936	4428
920.047	4546
920.157	4516
920.267	4702
920.378	4535
920.488	4497
920.598	4702
920.708	4873
920.818	4763
920.928	4744
921.038	4946
921.148	4911
921.258	4687
921.368	4535
921.477	4535
921.587	4527
921.697	4394
921.806	4508
921.916	4466
922.025	4303
922.134	4261
922.244	4207
922.353	4310
922.462	4116
922.571	4150
922.68	3991
922.789	3994
922.898	4002
923.007	3975
923.116	4128
923.224	4029
923.333	4063
923.442	3987
923.55	3983
923.659	4032
923.767	4101
923.876	4067
923.984	4082
924.092	3987
924.201	4124
924.309	4120
924.417	4147
924.525	4078
924.633	4055
924.741	4881
924.849	3949
924.956	4135
925.064	3975
925.172	3918
925.279	3953
925.387	4067
925.494	4059
925.602	4219
925.709	4173
925.816	4036
925.924	4116
926.031	4272
926.138	4200
926.245	4204
926.352	4116
926.459	4257
926.566	4306
926.673	4162
926.779	4086
926.886	4074
926.993	3979
927.099	4021
927.206	3892
927.312	3934
927.419	4067
927.525	3987
927.631	4071
927.737	3918
927.843	3941
927.95	3857
928.056	3964
928.162	3975
928.267	4051
928.373	4717
928.479	4097
928.585	3884
928.69	3994
928.796	4044
928.901	3937
929.007	3823
929.112	3975
929.218	3949
929.323	3983
929.428	3949
929.533	4124
929.638	3907
929.743	3956
929.848	4036
929.953	3998
930.058	3937
930.163	3770
930.267	3854
930.372	3953
930.477	3838
930.581	4082
930.685	3956
930.79	3812
930.894	3896
930.998	3892
931.103	4048
931.207	3751
931.311	3705
931.415	3671
931.519	3534
931.623	3534
