Data from test_V78500241_422.txt Node
Date: Fri Mar 25 16:51:56 CST 2022
User: usil
Spectrometer: V785-0024
Trigger mode: 0
Integration Time (sec): 4.000000E-1
Scans to average: 1
Nonlinearity correction enabled: false
Boxcar width: 0
Storing dark spectrum: false
XAxis mode: Wavelengths
Number of Pixels in Spectrum: 1024
>>>>>Begin Spectral Data<<<<<
801.071	8001
801.214	8008
801.356	7875
801.499	7925
801.641	7811
801.783	7887
801.926	8016
802.068	7993
802.211	7963
802.353	8020
802.496	7875
802.638	7818
802.78	7940
802.923	7963
803.065	7902
803.208	7792
803.35	7917
803.492	8046
803.635	8073
803.777	7951
803.919	8142
804.061	8377
804.204	8073
804.346	8039
804.488	7951
804.63	8119
804.773	7978
804.915	8073
805.057	8313
805.199	8202
805.341	8263
805.483	8237
805.626	8172
805.768	8020
805.91	8214
806.052	8126
806.194	8103
806.336	8355
806.478	8164
806.62	8142
806.762	8161
806.904	8263
807.046	8419
807.188	8366
807.33	8263
807.472	8267
807.614	8233
807.756	8202
807.898	7967
808.04	7921
808.182	7928
808.324	7993
808.465	7989
808.607	8126
808.749	8134
808.891	8199
809.033	8286
809.174	8229
809.316	8008
809.458	8054
809.6	7959
809.741	8016
809.883	8069
810.025	8088
810.166	8084
810.308	8027
810.45	8088
810.591	7871
810.733	7822
810.875	7586
811.016	7525
811.158	7540
811.299	7639
811.441	7814
811.582	7792
811.724	7666
811.865	7601
812.007	7670
812.148	7624
812.29	7601
812.431	7738
812.573	7890
812.714	8027
812.855	8214
812.997	8267
813.138	8400
813.279	8202
813.421	8149
813.562	8016
813.703	7974
813.845	7860
813.986	7540
814.127	7369
814.268	7293
814.41	7266
814.551	7202
814.692	7274
814.833	7091
814.974	7126
815.115	7133
815.256	6924
815.397	6996
815.539	6951
815.68	6867
815.821	6856
815.962	6897
816.103	6916
816.244	6768
816.385	6654
816.526	6642
816.666	6559
816.807	6361
816.948	6452
817.089	6486
817.23	6445
817.371	6395
817.512	6384
817.653	6483
817.793	6365
817.934	6441
818.075	6407
818.216	6460
818.356	6448
818.497	6247
818.638	6083
818.778	6178
818.919	6148
819.06	6205
819.2	6304
819.341	6369
819.481	6372
819.622	6578
819.762	6749
819.903	6726
820.043	6589
820.184	6601
820.324	6559
820.465	6681
820.605	6703
820.746	6696
820.886	6494
821.026	6612
821.167	6734
821.307	6802
821.447	6734
821.588	6631
821.728	6616
821.868	6502
822.008	6361
822.149	6388
822.289	6369
822.429	6186
822.569	6072
822.709	6095
822.849	5882
822.99	5904
823.13	5977
823.27	5916
823.41	5805
823.55	5786
823.69	5771
823.83	5824
823.97	5718
824.11	5577
824.25	5524
824.389	5535
824.529	5562
824.669	5562
824.809	5634
824.949	5604
825.089	5619
825.228	5570
825.368	5414
825.508	5315
825.648	5383
825.787	5402
825.927	5425
826.067	5292
826.206	5353
826.346	5376
826.485	5410
826.625	5402
826.765	5512
826.904	5474
827.044	5216
827.183	5216
827.323	5147
827.462	5269
827.601	5235
827.741	5162
827.88	5220
828.02	5143
828.159	5208
828.298	5277
828.437	5368
828.577	5250
828.716	5471
828.855	5341
828.994	5204
829.134	5143
829.273	5197
829.412	5102
829.551	5117
829.69	5155
829.829	5273
829.968	5387
830.107	5265
830.246	5273
830.385	5189
830.524	5155
830.663	5098
830.802	4942
830.941	4923
831.08	4892
831.219	4987
831.357	4976
831.496	5181
831.635	4900
831.774	4873
831.913	4885
832.051	4744
832.19	4717
832.329	4847
832.467	4702
832.606	4641
832.744	4725
832.883	4706
833.022	4752
833.16	4752
833.299	4835
833.437	4801
833.576	4820
833.714	4892
833.852	4854
833.991	4889
834.129	5029
834.267	4968
834.406	4870
834.544	4976
834.682	4976
834.821	4942
834.959	5124
835.097	5006
835.235	5128
835.373	5094
835.511	5083
835.65	4980
835.788	5048
835.926	4923
836.064	4892
836.202	4953
836.34	5170
836.478	5242
836.615	5128
836.753	5189
836.891	5349
837.029	5265
837.167	5235
837.305	5155
837.443	5113
837.58	5086
837.718	5280
837.856	5151
837.993	5166
838.131	5185
838.269	5242
838.406	5181
838.544	5185
838.681	5018
838.819	5022
838.956	4927
839.094	4980
839.231	5006
839.369	5022
839.506	5440
839.643	5277
839.781	5045
839.918	5033
840.055	5094
840.193	5083
840.33	5071
840.467	5170
840.604	5189
840.742	5455
840.879	5083
841.016	5109
841.153	5109
841.29	5383
841.427	5326
841.564	5330
841.701	5353
841.838	5269
841.975	5223
842.112	5269
842.249	5121
842.385	5094
842.522	5318
842.659	5147
842.796	5143
842.933	5204
843.069	5083
843.206	5162
843.343	5303
843.479	5250
843.616	5299
843.752	5033
843.889	4991
844.025	5181
844.162	5060
844.298	5227
844.435	5079
844.571	5083
844.708	5239
844.844	5315
844.98	5410
845.117	5292
845.253	5121
845.389	5056
845.525	5212
845.661	5140
845.798	5025
845.934	5140
846.07	5075
846.206	5204
846.342	5296
846.478	5189
846.614	4999
846.75	4999
846.886	4953
847.022	5117
847.158	5003
847.294	5014
847.429	5102
847.565	5052
847.701	5269
847.837	4866
847.972	4748
848.108	4976
848.244	5018
848.379	4763
848.515	4778
848.65	4687
848.786	4778
848.921	4771
849.057	4873
849.192	4885
849.328	4839
849.463	4831
849.598	4752
849.734	4774
849.869	4702
850.004	4622
850.14	4687
850.275	4588
850.41	4550
850.545	4569
850.68	4592
850.815	4615
850.95	4580
851.085	4850
851.22	4767
851.355	4672
851.49	4565
851.625	4660
851.76	4653
851.895	4565
852.03	4565
852.165	4603
852.299	4729
852.434	4763
852.569	4717
852.703	4778
852.838	4873
852.973	4904
853.107	4927
853.242	4744
853.376	4687
853.511	4527
853.645	4618
853.78	4820
853.914	4683
854.048	4664
854.183	4645
854.317	4721
854.451	4854
854.585	4679
854.72	4683
854.854	4767
854.988	4561
855.122	4622
855.256	4504
855.39	4626
855.524	4835
855.658	4740
855.792	4744
855.926	4763
856.06	4767
856.194	4782
856.327	4698
856.461	4630
856.595	4630
856.729	4664
856.862	4710
856.996	4656
857.13	4717
857.263	4710
857.397	4812
857.53	4653
857.664	4702
857.797	4771
857.931	4748
858.064	4721
858.197	4752
858.331	4630
858.464	4618
858.597	4550
858.731	4668
858.864	4649
858.997	4637
859.13	4698
859.263	4656
859.396	4675
859.529	4607
859.662	4599
859.795	4531
859.928	4656
860.061	4759
860.194	4778
860.327	4634
860.46	4588
860.592	4721
860.725	4687
860.858	4721
860.99	4558
861.123	4531
861.256	4527
861.388	4580
861.521	5444
861.653	4462
861.786	4489
861.918	4500
862.05	4527
862.183	4535
862.315	4641
862.447	4668
862.58	4550
862.712	4413
862.844	4371
862.976	4489
863.108	4481
863.24	4721
863.372	4367
863.504	4443
863.636	4398
863.768	4478
863.9	4459
864.032	4352
864.164	4398
864.296	4489
864.428	4531
864.559	4577
864.691	4481
864.823	4516
864.954	4485
865.086	4535
865.217	4436
865.349	4405
865.48	4493
865.612	4466
865.743	4656
865.875	4481
866.006	4504
866.137	4493
866.269	4455
866.4	4466
866.531	4413
866.662	4386
866.793	4409
866.924	4462
867.055	4512
867.186	4459
867.317	4436
867.448	4386
867.579	4375
867.71	4379
867.841	4363
867.972	4447
868.103	4466
868.233	4462
868.364	4440
868.495	4489
868.625	4637
868.756	4771
868.886	4569
869.017	4634
869.147	4759
869.278	4782
869.408	4679
869.539	4622
869.669	4706
869.799	4637
869.929	4721
870.06	4744
870.19	4980
870.32	4915
870.45	4946
870.58	5025
870.71	5056
870.84	5071
870.97	4953
871.1	4892
871.23	5147
871.36	5136
871.489	5010
871.619	5045
871.749	5140
871.879	5143
872.008	5189
872.138	5067
872.267	4995
872.397	4847
872.526	4812
872.656	4740
872.785	4790
872.915	4953
873.044	5033
873.173	4942
873.303	4965
873.432	4953
873.561	5010
873.69	4900
873.819	4847
873.948	4904
874.077	4801
874.206	4782
874.335	4831
874.464	4942
874.593	5079
874.722	4980
874.851	5098
874.979	5079
875.108	5029
875.237	4919
875.365	4904
875.494	4915
875.623	4957
875.751	4774
875.88	4885
876.008	5022
876.136	5064
876.265	5178
876.393	5364
876.521	5216
876.65	5208
876.778	5185
876.906	5102
877.034	5037
877.162	5071
877.29	5006
877.418	5086
877.546	5052
877.674	5090
877.802	5045
877.93	5075
878.058	4934
878.185	4892
878.313	4968
878.441	4911
878.568	4790
878.696	4889
878.824	4968
878.951	5025
879.079	5128
879.206	5322
879.333	5136
879.461	5010
879.588	4957
879.715	5140
879.842	5227
879.97	4984
880.097	4809
880.224	4755
880.351	4774
880.478	4835
880.605	4786
880.732	4812
880.859	5086
880.986	4900
881.112	4938
881.239	4778
881.366	4653
881.493	4607
881.619	4615
881.746	4664
881.872	4679
881.999	4656
882.125	4736
882.252	4778
882.378	4866
882.505	5010
882.631	4805
882.757	4706
882.883	4778
883.01	4714
883.136	4675
883.262	4611
883.388	4603
883.514	4843
883.64	4870
883.766	4801
883.892	4664
884.018	4729
884.143	4911
884.269	4999
884.395	4714
884.52	4611
884.646	4649
884.772	4599
884.897	4561
885.023	4656
885.148	4835
885.274	4862
885.399	4854
885.524	4774
885.65	4729
885.775	4733
885.9	4782
886.025	4866
886.15	4778
886.275	4702
886.4	4679
886.525	4736
886.65	4664
886.775	4664
886.9	4911
887.025	5010
887.149	4809
887.274	4656
887.399	4607
887.523	4637
887.648	4565
887.773	4554
887.897	4759
888.021	4744
888.146	4736
888.27	4801
888.395	4927
888.519	4873
888.643	4847
888.767	4862
888.891	4714
889.015	4596
889.139	4675
889.263	4645
889.387	4748
889.511	4919
889.635	4797
889.759	4637
889.883	4637
890.006	4740
890.13	4850
890.254	4637
890.377	4687
890.501	4531
890.624	4500
890.748	4634
890.871	4497
890.995	4436
891.118	4436
891.241	4500
891.364	4538
891.488	4656
891.611	4508
891.734	4577
891.857	4618
891.98	4584
892.103	4641
892.226	4641
892.349	4531
892.471	4432
892.594	4573
892.717	4611
892.839	4596
892.962	4577
893.085	4691
893.207	4634
893.33	4459
893.452	4523
893.575	4672
893.697	4611
893.819	4805
893.941	4790
894.064	4759
894.186	4615
894.308	4569
894.43	4752
894.552	4847
894.674	4729
894.796	4535
894.918	4596
895.04	4573
895.161	4672
895.283	4675
895.405	4596
895.526	4641
895.648	4702
895.769	4706
895.891	4706
896.012	4725
896.134	4767
896.255	4740
896.376	4615
896.498	4565
896.619	4672
896.74	4588
896.861	4641
896.982	4915
897.103	5086
897.224	4843
897.345	4725
897.466	4694
897.587	4778
897.708	4881
897.828	4744
897.949	4698
898.07	4577
898.19	4687
898.311	4847
898.431	4729
898.552	4725
898.672	4870
898.792	4801
898.913	4752
899.033	4675
899.153	4523
899.273	4459
899.393	4500
899.513	4580
899.633	4538
899.753	4565
899.873	4478
899.993	4577
900.113	4489
900.232	4580
900.352	4531
900.472	4481
900.591	4394
900.711	4493
900.83	4474
900.95	4618
901.069	4694
901.189	4531
901.308	4394
901.427	4306
901.546	4344
901.665	4485
901.784	4489
901.904	4405
902.023	4303
902.141	4173
902.26	4150
902.379	4306
902.498	4234
902.617	4246
902.735	4383
902.854	4424
902.973	4329
903.091	4200
903.21	4219
903.328	4322
903.446	4280
903.565	4265
903.683	4360
903.801	4257
903.919	4424
904.038	4432
904.156	4344
904.274	4440
904.392	4421
904.51	4462
904.627	4462
904.745	4596
904.863	4618
904.981	4386
905.098	4333
905.216	4337
905.334	4451
905.451	4455
905.569	4424
905.686	4584
905.803	4512
905.921	4394
906.038	4577
906.155	4451
906.272	4379
906.389	4428
906.506	4402
906.623	4352
906.74	4356
906.857	4314
906.974	4356
907.091	4542
907.208	4672
907.324	4611
907.441	4478
907.557	4344
907.674	4344
907.79	4318
907.907	4428
908.023	4470
908.139	4485
908.256	4478
908.372	4470
908.488	4436
908.604	4348
908.72	4363
908.836	4375
908.952	4405
909.068	4398
909.184	4577
909.3	4481
909.415	4577
909.531	4577
909.647	4344
909.762	4356
909.878	4325
909.993	4440
910.108	4390
910.224	4409
910.339	4516
910.454	4375
910.57	4417
910.685	4306
910.8	4637
910.915	4592
911.03	4504
911.145	4398
911.259	4348
911.374	4371
911.489	4303
911.604	4280
911.718	4162
911.833	4219
911.947	4116
912.062	4032
912.176	4223
912.291	4265
912.405	4192
912.519	4470
912.633	4485
912.748	4402
912.862	4306
912.976	4200
913.09	4086
913.204	4211
913.318	4253
913.431	4375
913.545	4379
913.659	4451
913.772	4367
913.886	4265
914	4219
914.113	4383
914.226	4470
914.34	4424
914.453	4158
914.566	4432
914.68	4325
914.793	4337
914.906	4192
915.019	4185
915.132	4109
915.245	4173
915.358	4207
915.47	4242
915.583	4230
915.696	4272
915.809	4443
915.921	4421
916.034	4246
916.146	4219
916.259	4196
916.371	4356
916.483	4379
916.595	4299
916.708	4363
916.82	4356
916.932	4360
917.044	4333
917.156	4310
917.268	4299
917.38	4276
917.491	4268
917.603	4356
917.715	4398
917.826	4436
917.938	4333
918.049	4246
918.161	4386
918.272	4550
918.384	4542
918.495	4455
918.606	4287
918.717	4257
918.828	4360
918.939	4375
919.05	4306
919.161	4356
919.272	4124
919.383	4227
919.494	4455
919.604	4611
919.715	4447
919.826	4375
919.936	4386
920.047	4531
920.157	4512
920.267	4740
920.378	4569
920.488	4489
920.598	4706
920.708	4877
920.818	4717
920.928	4733
921.038	4957
921.148	4972
921.258	4603
921.368	4558
921.477	4493
921.587	4478
921.697	4386
921.806	4523
921.916	4432
922.025	4265
922.134	4291
922.244	4261
922.353	4344
922.462	4185
922.571	4109
922.68	4044
922.789	3934
922.898	4074
923.007	4002
923.116	4090
923.224	4112
923.333	4040
923.442	3956
923.55	4017
923.659	4059
923.767	4135
923.876	4006
923.984	4105
924.092	3987
924.201	4097
924.309	4097
924.417	4120
924.525	4051
924.633	4169
924.741	5109
924.849	3903
924.956	4097
925.064	3968
925.172	3884
925.279	3994
925.387	4067
925.494	4071
925.602	4261
925.709	4147
925.816	4032
925.924	4158
926.031	4192
926.138	4150
926.245	4238
926.352	4082
926.459	4234
926.566	4310
926.673	4204
926.779	4109
926.886	4074
926.993	3979
927.099	3998
927.206	3949
927.312	3918
927.419	4025
927.525	4017
927.631	4090
927.737	3979
927.843	3926
927.95	3838
928.056	3945
928.162	3994
928.267	4059
928.373	4744
928.479	4082
928.585	3911
928.69	4021
928.796	4071
928.901	4048
929.007	3846
929.112	3991
929.218	4032
929.323	3945
929.428	3953
929.533	4128
929.638	3876
929.743	3949
929.848	4021
929.953	3991
930.058	3896
930.163	3759
930.267	3789
930.372	3956
930.477	3857
930.581	4109
930.685	3896
930.79	3854
930.894	3869
930.998	3869
931.103	4063
931.207	3743
931.311	3671
931.415	3690
931.519	3534
931.623	3542
