Data from test_V78500241_532.txt Node
Date: Fri Mar 25 16:52:42 CST 2022
User: usil
Spectrometer: V785-0024
Trigger mode: 0
Integration Time (sec): 4.000000E-1
Scans to average: 1
Nonlinearity correction enabled: false
Boxcar width: 0
Storing dark spectrum: false
XAxis mode: Wavelengths
Number of Pixels in Spectrum: 1024
>>>>>Begin Spectral Data<<<<<
801.071	7989
801.214	7989
801.356	7852
801.499	7769
801.641	7746
801.783	7792
801.926	7955
802.068	8001
802.211	8012
802.353	7925
802.496	7852
802.638	7906
802.78	7913
802.923	7864
803.065	7837
803.208	7894
803.35	7921
803.492	8031
803.635	8130
803.777	7993
803.919	8092
804.061	8431
804.204	8111
804.346	7989
804.488	7978
804.63	8039
804.773	7928
804.915	8062
805.057	8252
805.199	8138
805.341	8176
805.483	8206
805.626	8172
805.768	8050
805.91	8187
806.052	8138
806.194	8035
806.336	8275
806.478	8096
806.62	8027
806.762	8153
806.904	8267
807.046	8442
807.188	8279
807.33	8240
807.472	8218
807.614	8073
807.756	8153
807.898	7947
808.04	7879
808.182	7932
808.324	7868
808.465	7868
808.607	7993
808.749	8100
808.891	8221
809.033	8263
809.174	8172
809.316	8043
809.458	8005
809.6	7978
809.741	8005
809.883	8054
810.025	8054
810.166	8058
810.308	8020
810.45	7944
810.591	7845
810.733	7674
810.875	7639
811.016	7518
811.158	7552
811.299	7544
811.441	7780
811.582	7700
811.724	7502
811.865	7548
812.007	7597
812.148	7533
812.29	7590
812.431	7811
812.573	7833
812.714	7955
812.855	8161
812.997	8244
813.138	8393
813.279	8237
813.421	8244
813.562	8012
813.703	7925
813.845	7784
813.986	7510
814.127	7301
814.268	7324
814.41	7217
814.551	7122
814.692	7160
814.833	7046
814.974	7118
815.115	7110
815.256	6985
815.397	6989
815.539	6954
815.68	6863
815.821	6821
815.962	6871
816.103	6871
816.244	6741
816.385	6642
816.526	6536
816.666	6452
816.807	6353
816.948	6441
817.089	6426
817.23	6418
817.371	6369
817.512	6464
817.653	6391
817.793	6372
817.934	6426
818.075	6429
818.216	6384
818.356	6395
818.497	6220
818.638	6114
818.778	6102
818.919	6144
819.06	6117
819.2	6334
819.341	6346
819.481	6350
819.622	6540
819.762	6696
819.903	6662
820.043	6544
820.184	6616
820.324	6578
820.465	6700
820.605	6620
820.746	6578
820.886	6498
821.026	6646
821.167	6703
821.307	6772
821.447	6738
821.588	6589
821.728	6528
821.868	6471
822.008	6266
822.149	6403
822.289	6311
822.429	6117
822.569	6117
822.709	6106
822.849	5931
822.99	5882
823.13	5878
823.27	5885
823.41	5821
823.55	5764
823.69	5729
823.83	5764
823.97	5615
824.11	5581
824.25	5497
824.389	5520
824.529	5585
824.669	5497
824.809	5661
824.949	5604
825.089	5589
825.228	5573
825.368	5452
825.508	5330
825.648	5292
825.787	5414
825.927	5414
826.067	5284
826.206	5296
826.346	5395
826.485	5417
826.625	5315
826.765	5524
826.904	5493
827.044	5318
827.183	5162
827.323	5159
827.462	5246
827.601	5239
827.741	5201
827.88	5303
828.02	5113
828.159	5273
828.298	5353
828.437	5402
828.577	5254
828.716	5455
828.855	5299
828.994	5159
829.134	5220
829.273	5239
829.412	5166
829.551	5159
829.69	5197
829.829	5258
829.968	5364
830.107	5315
830.246	5277
830.385	5223
830.524	5155
830.663	5140
830.802	4991
830.941	4938
831.08	4889
831.219	4987
831.357	5018
831.496	5223
831.635	4927
831.774	4896
831.913	4915
832.051	4850
832.19	4771
832.329	4908
832.467	4733
832.606	4637
832.744	4736
832.883	4767
833.022	4752
833.16	4843
833.299	4797
833.437	4812
833.576	4866
833.714	4915
833.852	4904
833.991	4957
834.129	5048
834.267	5018
834.406	4942
834.544	4972
834.682	5048
834.821	4976
834.959	5204
835.097	4995
835.235	5204
835.373	5124
835.511	5136
835.65	5064
835.788	5064
835.926	4934
836.064	4889
836.202	4968
836.34	5261
836.478	5258
836.615	5147
836.753	5235
836.891	5307
837.029	5250
837.167	5269
837.305	5227
837.443	5166
837.58	5132
837.718	5307
837.856	5223
837.993	5197
838.131	5296
838.269	5231
838.406	5216
838.544	5212
838.681	5086
838.819	4999
838.956	4915
839.094	4934
839.231	4999
839.369	5071
839.506	5478
839.643	5334
839.781	5140
839.918	5052
840.055	5151
840.193	5113
840.33	5121
840.467	5178
840.604	5246
840.742	5501
840.879	5086
841.016	5159
841.153	5208
841.29	5414
841.427	5364
841.564	5322
841.701	5360
841.838	5307
841.975	5258
842.112	5349
842.249	5159
842.385	5132
842.522	5372
842.659	5201
842.796	5151
842.933	5250
843.069	5178
843.206	5132
843.343	5349
843.479	5250
843.616	5311
843.752	5056
843.889	5086
844.025	5288
844.162	5067
844.298	5235
844.435	5083
844.571	5117
844.708	5239
844.844	5288
844.98	5360
845.117	5341
845.253	5155
845.389	5090
845.525	5140
845.661	5147
845.798	5098
845.934	5178
846.07	5075
846.206	5216
846.342	5341
846.478	5181
846.614	5018
846.75	5029
846.886	4938
847.022	5162
847.158	5037
847.294	5075
847.429	5140
847.565	5117
847.701	5376
847.837	4885
847.972	4866
848.108	4957
848.244	4965
848.379	4839
848.515	4733
848.65	4763
848.786	4752
848.921	4816
849.057	4885
849.192	4904
849.328	4892
849.463	4816
849.598	4847
849.734	4793
849.869	4767
850.004	4637
850.14	4656
850.275	4637
850.41	4542
850.545	4588
850.68	4656
850.815	4675
850.95	4664
851.085	4858
851.22	4744
851.355	4729
851.49	4664
851.625	4653
851.76	4679
851.895	4596
852.03	4584
852.165	4660
852.299	4759
852.434	4824
852.569	4805
852.703	4824
852.838	4843
852.973	4938
853.107	4930
853.242	4759
853.376	4706
853.511	4561
853.645	4660
853.78	4801
853.914	4683
854.048	4664
854.183	4656
854.317	4736
854.451	4812
854.585	4691
854.72	4649
854.854	4771
854.988	4561
855.122	4637
855.256	4584
855.39	4706
855.524	4835
855.658	4797
855.792	4721
855.926	4797
856.06	4793
856.194	4847
856.327	4755
856.461	4611
856.595	4622
856.729	4656
856.862	4767
856.996	4649
857.13	4786
857.263	4797
857.397	4839
857.53	4687
857.664	4782
857.797	4812
857.931	4828
858.064	4733
858.197	4812
858.331	4675
858.464	4664
858.597	4588
858.731	4691
858.864	4645
858.997	4618
859.13	4706
859.263	4675
859.396	4698
859.529	4580
859.662	4596
859.795	4565
859.928	4645
860.061	4790
860.194	4843
860.327	4668
860.46	4596
860.592	4740
860.725	4698
860.858	4771
860.99	4607
861.123	4512
861.256	4580
861.388	4584
861.521	5440
861.653	4500
861.786	4459
861.918	4516
862.05	4516
862.183	4577
862.315	4565
862.447	4694
862.58	4565
862.712	4405
862.844	4314
862.976	4459
863.108	4474
863.24	4915
863.372	4360
863.504	4398
863.636	4402
863.768	4527
863.9	4459
864.032	4360
864.164	4443
864.296	4504
864.428	4573
864.559	4611
864.691	4565
864.823	4497
864.954	4500
865.086	4481
865.217	4512
865.349	4421
865.48	4508
865.612	4542
865.743	4645
865.875	4508
866.006	4466
866.137	4478
866.269	4481
866.4	4497
866.531	4462
866.662	4436
866.793	4493
866.924	4413
867.055	4508
867.186	4485
867.317	4474
867.448	4386
867.579	4402
867.71	4489
867.841	4447
867.972	4508
868.103	4481
868.233	4493
868.364	4493
868.495	4542
868.625	4683
868.756	4793
868.886	4577
869.017	4656
869.147	4805
869.278	4809
869.408	4664
869.539	4679
869.669	4736
869.799	4675
869.929	4774
870.06	4717
870.19	4968
870.32	4987
870.45	4938
870.58	5071
870.71	5155
870.84	5128
870.97	5022
871.1	4957
871.23	5090
871.36	5204
871.489	5048
871.619	5105
871.749	5113
871.879	5174
872.008	5212
872.138	5109
872.267	5003
872.397	4881
872.526	4809
872.656	4740
872.785	4828
872.915	4980
873.044	5079
873.173	5003
873.303	5018
873.432	4980
873.561	5014
873.69	4919
873.819	4892
873.948	4908
874.077	4805
874.206	4801
874.335	4877
874.464	4915
874.593	5113
874.722	5003
874.851	5090
874.979	5132
875.108	5071
875.237	4900
875.365	4870
875.494	4843
875.623	5029
875.751	4854
875.88	4911
876.008	5018
876.136	5041
876.265	5170
876.393	5406
876.521	5250
876.65	5250
876.778	5181
876.906	5128
877.034	5060
877.162	5117
877.29	5003
877.418	5075
877.546	5094
877.674	5086
877.802	5025
877.93	5014
878.058	4976
878.185	4930
878.313	4934
878.441	4987
878.568	4805
878.696	4908
878.824	5029
878.951	4976
879.079	5147
879.206	5322
879.333	5067
879.461	4999
879.588	5022
879.715	5121
879.842	5216
879.97	5025
880.097	4858
880.224	4725
880.351	4839
880.478	4850
880.605	4828
880.732	4839
880.859	5075
880.986	4953
881.112	4930
881.239	4786
881.366	4675
881.493	4622
881.619	4580
881.746	4668
881.872	4660
881.999	4675
882.125	4691
882.252	4793
882.378	4816
882.505	4980
882.631	4858
882.757	4710
882.883	4733
883.01	4687
883.136	4668
883.262	4592
883.388	4660
883.514	4858
883.64	4862
883.766	4824
883.892	4691
884.018	4702
884.143	4946
884.269	4987
884.395	4740
884.52	4679
884.646	4649
884.772	4550
884.897	4538
885.023	4706
885.148	4812
885.274	4843
885.399	4820
885.524	4744
885.65	4752
885.775	4755
885.9	4698
886.025	4904
886.15	4820
886.275	4767
886.4	4687
886.525	4717
886.65	4710
886.775	4729
886.9	4911
887.025	5029
887.149	4839
887.274	4664
887.399	4584
887.523	4626
887.648	4607
887.773	4603
887.897	4774
888.021	4835
888.146	4702
888.27	4850
888.395	4904
888.519	4809
888.643	4881
888.767	4877
888.891	4687
889.015	4584
889.139	4641
889.263	4634
889.387	4790
889.511	4839
889.635	4786
889.759	4672
889.883	4694
890.006	4790
890.13	4816
890.254	4660
890.377	4725
890.501	4535
890.624	4550
890.748	4626
890.871	4558
890.995	4424
891.118	4424
891.241	4504
891.364	4542
891.488	4626
891.611	4512
891.734	4558
891.857	4630
891.98	4580
892.103	4664
892.226	4622
892.349	4538
892.471	4432
892.594	4531
892.717	4634
892.839	4607
892.962	4630
893.085	4725
893.207	4618
893.33	4417
893.452	4538
893.575	4675
893.697	4599
893.819	4847
893.941	4904
894.064	4824
894.186	4580
894.308	4580
894.43	4694
894.552	4797
894.674	4740
894.796	4596
894.918	4607
895.04	4626
895.161	4679
895.283	4664
895.405	4618
895.526	4675
895.648	4744
895.769	4714
895.891	4778
896.012	4759
896.134	4771
896.255	4653
896.376	4664
896.498	4615
896.619	4683
896.74	4607
896.861	4611
896.982	4942
897.103	5117
897.224	4854
897.345	4752
897.466	4702
897.587	4740
897.708	4892
897.828	4778
897.949	4679
898.07	4603
898.19	4672
898.311	4843
898.431	4637
898.552	4755
898.672	4831
898.792	4847
898.913	4748
899.033	4630
899.153	4542
899.273	4432
899.393	4478
899.513	4535
899.633	4535
899.753	4531
899.873	4542
899.993	4622
900.113	4519
900.232	4592
900.352	4542
900.472	4485
900.591	4409
900.711	4516
900.83	4455
900.95	4634
901.069	4679
901.189	4542
901.308	4337
901.427	4295
901.546	4436
901.665	4485
901.784	4519
901.904	4428
902.023	4329
902.141	4204
902.26	4131
902.379	4322
902.498	4284
902.617	4234
902.735	4428
902.854	4424
902.973	4394
903.091	4227
903.21	4211
903.328	4295
903.446	4234
903.565	4276
903.683	4352
903.801	4303
903.919	4432
904.038	4447
904.156	4310
904.274	4375
904.392	4386
904.51	4462
904.627	4474
904.745	4622
904.863	4675
904.981	4394
905.098	4306
905.216	4379
905.334	4440
905.451	4466
905.569	4428
905.686	4588
905.803	4577
905.921	4371
906.038	4550
906.155	4447
906.272	4405
906.389	4462
906.506	4375
906.623	4360
906.74	4440
906.857	4318
906.974	4405
907.091	4569
907.208	4668
907.324	4573
907.441	4538
907.557	4306
907.674	4333
907.79	4344
907.907	4360
908.023	4485
908.139	4478
908.256	4466
908.372	4405
908.488	4481
908.604	4398
908.72	4314
908.836	4413
908.952	4363
909.068	4421
909.184	4592
909.3	4493
909.415	4580
909.531	4577
909.647	4333
909.762	4386
909.878	4325
909.993	4474
910.108	4402
910.224	4421
910.339	4519
910.454	4428
910.57	4341
910.685	4356
910.8	4668
910.915	4630
911.03	4558
911.145	4303
911.259	4360
911.374	4348
911.489	4310
911.604	4227
911.718	4192
911.833	4227
911.947	4109
912.062	4040
912.176	4272
912.291	4223
912.405	4253
912.519	4485
912.633	4485
912.748	4356
912.862	4310
912.976	4261
913.09	4185
913.204	4192
913.318	4261
913.431	4405
913.545	4363
913.659	4432
913.772	4383
913.886	4230
914	4207
914.113	4390
914.226	4466
914.34	4379
914.453	4227
914.566	4436
914.68	4310
914.793	4356
914.906	4150
915.019	4101
915.132	4093
915.245	4154
915.358	4219
915.47	4261
915.583	4276
915.696	4287
915.809	4367
915.921	4481
916.034	4333
916.146	4253
916.259	4242
916.371	4379
916.483	4333
916.595	4280
916.708	4337
916.82	4325
916.932	4322
917.044	4352
917.156	4348
917.268	4253
917.38	4329
917.491	4257
917.603	4428
917.715	4379
917.826	4451
917.938	4371
918.049	4291
918.161	4440
918.272	4546
918.384	4516
918.495	4466
918.606	4295
918.717	4207
918.828	4356
918.939	4443
919.05	4272
919.161	4344
919.272	4112
919.383	4242
919.494	4447
919.604	4630
919.715	4421
919.826	4310
919.936	4394
920.047	4542
920.157	4516
920.267	4733
920.378	4558
920.488	4481
920.598	4725
920.708	4889
920.818	4759
920.928	4759
921.038	4927
921.148	4908
921.258	4634
921.368	4527
921.477	4500
921.587	4447
921.697	4386
921.806	4538
921.916	4428
922.025	4299
922.134	4188
922.244	4207
922.353	4337
922.462	4166
922.571	4090
922.68	4051
922.789	3926
922.898	4055
923.007	3994
923.116	4082
923.224	4074
923.333	4162
923.442	3994
923.55	3972
923.659	4055
923.767	4154
923.876	4032
923.984	4131
924.092	4006
924.201	4078
924.309	4120
924.417	4109
924.525	4074
924.633	4105
924.741	5079
924.849	3918
924.956	4139
925.064	3956
925.172	3888
925.279	3975
925.387	4021
925.494	4002
925.602	4196
925.709	4188
925.816	4063
925.924	4162
926.031	4280
926.138	4143
926.245	4177
926.352	4097
926.459	4265
926.566	4299
926.673	4177
926.779	4078
926.886	4074
926.993	3991
927.099	3941
927.206	3964
927.312	3968
927.419	4044
927.525	4044
927.631	4162
927.737	4017
927.843	3941
927.95	3857
928.056	3979
928.162	3987
928.267	4097
928.373	4660
928.479	4135
928.585	3884
928.69	4021
928.796	4124
928.901	3972
929.007	3827
929.112	4025
929.218	4010
929.323	3949
929.428	3907
929.533	4112
929.638	3960
929.743	3975
929.848	4097
929.953	3987
930.058	3953
930.163	3778
930.267	3857
930.372	3949
930.477	3816
930.581	4071
930.685	3968
930.79	3854
930.894	3884
930.998	3842
931.103	4032
931.207	3720
931.311	3682
931.415	3679
931.519	3564
931.623	3549
