Data from test_V78500241_379.txt Node
Date: Fri Mar 25 16:51:38 CST 2022
User: usil
Spectrometer: V785-0024
Trigger mode: 0
Integration Time (sec): 4.000000E-1
Scans to average: 1
Nonlinearity correction enabled: false
Boxcar width: 0
Storing dark spectrum: false
XAxis mode: Wavelengths
Number of Pixels in Spectrum: 1024
>>>>>Begin Spectral Data<<<<<
801.071	8103
801.214	8126
801.356	7925
801.499	7909
801.641	7860
801.783	7864
801.926	7993
802.068	7947
802.211	8054
802.353	7989
802.496	7932
802.638	7875
802.78	7928
802.923	7955
803.065	7883
803.208	7818
803.35	7993
803.492	8123
803.635	8172
803.777	8046
803.919	8214
804.061	8492
804.204	8191
804.346	8077
804.488	8012
804.63	8111
804.773	8065
804.915	8092
805.057	8313
805.199	8183
805.341	8229
805.483	8267
805.626	8225
805.768	8103
805.91	8153
806.052	8256
806.194	8130
806.336	8377
806.478	8164
806.62	8164
806.762	8202
806.904	8328
807.046	8400
807.188	8343
807.33	8279
807.472	8362
807.614	8191
807.756	8252
807.898	8020
808.04	8016
808.182	7947
808.324	7982
808.465	8016
808.607	8153
808.749	8221
808.891	8256
809.033	8351
809.174	8100
809.316	8065
809.458	8123
809.6	8058
809.741	8077
809.883	8024
810.025	8092
810.166	8084
810.308	8062
810.45	8065
810.591	7947
810.733	7727
810.875	7689
811.016	7556
811.158	7586
811.299	7677
811.441	7875
811.582	7849
811.724	7636
811.865	7658
812.007	7658
812.148	7696
812.29	7651
812.431	7826
812.573	7883
812.714	8008
812.855	8252
812.997	8301
813.138	8305
813.279	8153
813.421	8142
813.562	8058
813.703	7951
813.845	7856
813.986	7563
814.127	7396
814.268	7198
814.41	7266
814.551	7209
814.692	7274
814.833	7122
814.974	7175
815.115	7076
815.256	7000
815.397	6932
815.539	7023
815.68	6852
815.821	6844
815.962	6924
816.103	6848
816.244	6840
816.385	6722
816.526	6734
816.666	6566
816.807	6357
816.948	6483
817.089	6498
817.23	6563
817.371	6376
817.512	6471
817.653	6445
817.793	6376
817.934	6456
818.075	6517
818.216	6521
818.356	6452
818.497	6258
818.638	6140
818.778	6194
818.919	6155
819.06	6258
819.2	6342
819.341	6342
819.481	6403
819.622	6555
819.762	6783
819.903	6749
820.043	6589
820.184	6585
820.324	6608
820.465	6738
820.605	6719
820.746	6684
820.886	6544
821.026	6703
821.167	6722
821.307	6810
821.447	6806
821.588	6719
821.728	6620
821.868	6544
822.008	6376
822.149	6384
822.289	6437
822.429	6194
822.569	6129
822.709	6175
822.849	5912
822.99	5939
823.13	5988
823.27	5916
823.41	5809
823.55	5870
823.69	5805
823.83	5832
823.97	5714
824.11	5573
824.25	5573
824.389	5608
824.529	5608
824.669	5570
824.809	5653
824.949	5657
825.089	5619
825.228	5611
825.368	5417
825.508	5353
825.648	5395
825.787	5387
825.927	5395
826.067	5391
826.206	5318
826.346	5414
826.485	5425
826.625	5471
826.765	5600
826.904	5524
827.044	5261
827.183	5250
827.323	5166
827.462	5250
827.601	5162
827.741	5201
827.88	5277
828.02	5174
828.159	5246
828.298	5326
828.437	5395
828.577	5326
828.716	5512
828.855	5337
828.994	5178
829.134	5223
829.273	5178
829.412	5185
829.551	5170
829.69	5201
829.829	5269
829.968	5421
830.107	5311
830.246	5330
830.385	5212
830.524	5193
830.663	5136
830.802	5018
830.941	4927
831.08	4908
831.219	5010
831.357	4984
831.496	5159
831.635	4949
831.774	4904
831.913	4843
832.051	4740
832.19	4774
832.329	4904
832.467	4694
832.606	4649
832.744	4733
832.883	4767
833.022	4774
833.16	4847
833.299	4866
833.437	4828
833.576	4885
833.714	4919
833.852	4896
833.991	4919
834.129	4999
834.267	5025
834.406	4930
834.544	5052
834.682	5014
834.821	4949
834.959	5174
835.097	4976
835.235	5155
835.373	5109
835.511	5121
835.65	5052
835.788	5041
835.926	4900
836.064	4896
836.202	4953
836.34	5151
836.478	5288
836.615	5136
836.753	5261
836.891	5296
837.029	5288
837.167	5185
837.305	5208
837.443	5223
837.58	5143
837.718	5315
837.856	5239
837.993	5174
838.131	5250
838.269	5277
838.406	5193
838.544	5220
838.681	5102
838.819	5010
838.956	4892
839.094	4919
839.231	5029
839.369	5105
839.506	5501
839.643	5334
839.781	5117
839.918	5056
840.055	5159
840.193	5132
840.33	5151
840.467	5128
840.604	5208
840.742	5433
840.879	5178
841.016	5090
841.153	5151
841.29	5452
841.427	5395
841.564	5372
841.701	5448
841.838	5341
841.975	5220
842.112	5292
842.249	5128
842.385	5159
842.522	5372
842.659	5193
842.796	5170
842.933	5220
843.069	5197
843.206	5181
843.343	5330
843.479	5349
843.616	5265
843.752	5109
843.889	5060
844.025	5212
844.162	5045
844.298	5246
844.435	5117
844.571	5083
844.708	5151
844.844	5315
844.98	5414
845.117	5277
845.253	5208
845.389	5132
845.525	5147
845.661	5189
845.798	5037
845.934	5124
846.07	5083
846.206	5212
846.342	5273
846.478	5185
846.614	5071
846.75	4995
846.886	4927
847.022	5166
847.158	4991
847.294	5060
847.429	5155
847.565	5029
847.701	5330
847.837	4870
847.972	4862
848.108	4961
848.244	4942
848.379	4812
848.515	4797
848.65	4763
848.786	4793
848.921	4828
849.057	4892
849.192	4953
849.328	4790
849.463	4900
849.598	4812
849.734	4782
849.869	4687
850.004	4637
850.14	4687
850.275	4649
850.41	4497
850.545	4607
850.68	4649
850.815	4653
850.95	4622
851.085	4801
851.22	4771
851.355	4679
851.49	4649
851.625	4607
851.76	4618
851.895	4519
852.03	4523
852.165	4653
852.299	4759
852.434	4782
852.569	4790
852.703	4767
852.838	4839
852.973	4949
853.107	4904
853.242	4744
853.376	4691
853.511	4573
853.645	4672
853.78	4812
853.914	4721
854.048	4584
854.183	4702
854.317	4793
854.451	4892
854.585	4721
854.72	4668
854.854	4782
854.988	4649
855.122	4675
855.256	4573
855.39	4672
855.524	4812
855.658	4748
855.792	4755
855.926	4778
856.06	4812
856.194	4835
856.327	4717
856.461	4698
856.595	4668
856.729	4656
856.862	4725
856.996	4748
857.13	4793
857.263	4820
857.397	4843
857.53	4729
857.664	4774
857.797	4812
857.931	4858
858.064	4714
858.197	4828
858.331	4714
858.464	4660
858.597	4588
858.731	4679
858.864	4698
858.997	4672
859.13	4721
859.263	4748
859.396	4786
859.529	4607
859.662	4630
859.795	4599
859.928	4672
860.061	4812
860.194	4862
860.327	4649
860.46	4637
860.592	4748
860.725	4759
860.858	4801
860.99	4656
861.123	4630
861.256	4558
861.388	4668
861.521	5440
861.653	4584
861.786	4489
861.918	4523
862.05	4584
862.183	4580
862.315	4664
862.447	4721
862.58	4592
862.712	4459
862.844	4417
862.976	4535
863.108	4470
863.24	4763
863.372	4383
863.504	4481
863.636	4455
863.768	4508
863.9	4504
864.032	4424
864.164	4447
864.296	4542
864.428	4542
864.559	4603
864.691	4580
864.823	4546
864.954	4558
865.086	4626
865.217	4588
865.349	4478
865.48	4512
865.612	4550
865.743	4698
865.875	4504
866.006	4481
866.137	4538
866.269	4470
866.4	4462
866.531	4489
866.662	4459
866.793	4440
866.924	4451
867.055	4527
867.186	4481
867.317	4478
867.448	4424
867.579	4455
867.71	4462
867.841	4466
867.972	4508
868.103	4455
868.233	4523
868.364	4474
868.495	4577
868.625	4702
868.756	4828
868.886	4622
869.017	4706
869.147	4790
869.278	4816
869.408	4675
869.539	4675
869.669	4721
869.799	4717
869.929	4782
870.06	4771
870.19	5029
870.32	4995
870.45	5014
870.58	5064
870.71	5140
870.84	5136
870.97	4995
871.1	4938
871.23	5231
871.36	5151
871.489	5064
871.619	5117
871.749	5109
871.879	5132
872.008	5261
872.138	5090
872.267	5033
872.397	4908
872.526	4835
872.656	4740
872.785	4866
872.915	4995
873.044	5143
873.173	4953
873.303	5014
873.432	5006
873.561	4995
873.69	4934
873.819	4919
873.948	4934
874.077	4862
874.206	4793
874.335	4870
874.464	4972
874.593	5132
874.722	4987
874.851	5124
874.979	5140
875.108	5098
875.237	4968
875.365	4911
875.494	4938
875.623	5037
875.751	4862
875.88	4908
876.008	5006
876.136	5064
876.265	5254
876.393	5433
876.521	5296
876.65	5254
876.778	5201
876.906	5121
877.034	5102
877.162	5079
877.29	5060
877.418	5128
877.546	5098
877.674	5102
877.802	5037
877.93	5056
878.058	5006
878.185	4953
878.313	4972
878.441	5025
878.568	4866
878.696	4934
878.824	4965
878.951	5124
879.079	5178
879.206	5318
879.333	5132
879.461	5033
879.588	5041
879.715	5178
879.842	5261
879.97	5010
880.097	4847
880.224	4801
880.351	4847
880.478	4885
880.605	4839
880.732	4816
880.859	5132
880.986	4965
881.112	4984
881.239	4824
881.366	4744
881.493	4668
881.619	4641
881.746	4668
881.872	4694
881.999	4714
882.125	4748
882.252	4858
882.378	4866
882.505	5018
882.631	4816
882.757	4714
882.883	4759
883.01	4774
883.136	4717
883.262	4634
883.388	4664
883.514	4835
883.64	4881
883.766	4831
883.892	4736
884.018	4786
884.143	4927
884.269	5109
884.395	4759
884.52	4615
884.646	4653
884.772	4656
884.897	4599
885.023	4679
885.148	4805
885.274	4889
885.399	4892
885.524	4759
885.65	4740
885.775	4774
885.9	4729
886.025	4889
886.15	4824
886.275	4759
886.4	4755
886.525	4828
886.65	4771
886.775	4763
886.9	4877
887.025	5132
887.149	4858
887.274	4710
887.399	4626
887.523	4664
887.648	4637
887.773	4630
887.897	4793
888.021	4793
888.146	4702
888.27	4877
888.395	4976
888.519	4812
888.643	4831
888.767	4896
888.891	4660
889.015	4664
889.139	4675
889.263	4660
889.387	4778
889.511	4881
889.635	4850
889.759	4653
889.883	4683
890.006	4748
890.13	4824
890.254	4656
890.377	4729
890.501	4596
890.624	4584
890.748	4675
890.871	4542
890.995	4428
891.118	4363
891.241	4577
891.364	4538
891.488	4683
891.611	4523
891.734	4592
891.857	4660
891.98	4596
892.103	4660
892.226	4622
892.349	4542
892.471	4459
892.594	4546
892.717	4603
892.839	4554
892.962	4649
893.085	4740
893.207	4637
893.33	4527
893.452	4565
893.575	4675
893.697	4596
893.819	4786
893.941	4873
894.064	4809
894.186	4615
894.308	4603
894.43	4763
894.552	4904
894.674	4801
894.796	4637
894.918	4656
895.04	4596
895.161	4755
895.283	4721
895.405	4615
895.526	4679
895.648	4740
895.769	4675
895.891	4752
896.012	4763
896.134	4767
896.255	4744
896.376	4660
896.498	4618
896.619	4691
896.74	4637
896.861	4641
896.982	4934
897.103	5098
897.224	4866
897.345	4801
897.466	4706
897.587	4793
897.708	4881
897.828	4782
897.949	4710
898.07	4599
898.19	4664
898.311	4873
898.431	4683
898.552	4790
898.672	4839
898.792	4816
898.913	4786
899.033	4641
899.153	4538
899.273	4493
899.393	4512
899.513	4550
899.633	4573
899.753	4580
899.873	4565
899.993	4569
900.113	4573
900.232	4603
900.352	4569
900.472	4500
900.591	4459
900.711	4546
900.83	4474
900.95	4622
901.069	4721
901.189	4573
901.308	4379
901.427	4322
901.546	4413
901.665	4493
901.784	4561
901.904	4413
902.023	4348
902.141	4242
902.26	4253
902.379	4333
902.498	4246
902.617	4253
902.735	4424
902.854	4440
902.973	4367
903.091	4211
903.21	4253
903.328	4344
903.446	4306
903.565	4295
903.683	4432
903.801	4303
903.919	4424
904.038	4455
904.156	4341
904.274	4478
904.392	4436
904.51	4462
904.627	4489
904.745	4596
904.863	4672
904.981	4413
905.098	4341
905.216	4371
905.334	4466
905.451	4481
905.569	4489
905.686	4542
905.803	4546
905.921	4443
906.038	4580
906.155	4489
906.272	4409
906.389	4485
906.506	4390
906.623	4405
906.74	4440
906.857	4341
906.974	4379
907.091	4607
907.208	4660
907.324	4607
907.441	4504
907.557	4409
907.674	4383
907.79	4383
907.907	4371
908.023	4588
908.139	4489
908.256	4462
908.372	4474
908.488	4485
908.604	4383
908.72	4337
908.836	4424
908.952	4360
909.068	4443
909.184	4596
909.3	4584
909.415	4596
909.531	4622
909.647	4383
909.762	4421
909.878	4409
909.993	4512
910.108	4443
910.224	4447
910.339	4470
910.454	4440
910.57	4367
910.685	4303
910.8	4683
910.915	4660
911.03	4561
911.145	4333
911.259	4371
911.374	4451
911.489	4337
911.604	4242
911.718	4166
911.833	4223
911.947	4131
912.062	4074
912.176	4192
912.291	4280
912.405	4287
912.519	4508
912.633	4512
912.748	4394
912.862	4314
912.976	4238
913.09	4109
913.204	4177
913.318	4257
913.431	4409
913.545	4390
913.659	4508
913.772	4394
913.886	4280
914	4196
914.113	4405
914.226	4402
914.34	4394
914.453	4272
914.566	4424
914.68	4348
914.793	4367
914.906	4169
915.019	4158
915.132	4116
915.245	4185
915.358	4234
915.47	4276
915.583	4291
915.696	4337
915.809	4417
915.921	4443
916.034	4287
916.146	4325
916.259	4261
916.371	4421
916.483	4405
916.595	4280
916.708	4314
916.82	4306
916.932	4337
917.044	4337
917.156	4310
917.268	4280
917.38	4318
917.491	4272
917.603	4383
917.715	4455
917.826	4398
917.938	4379
918.049	4284
918.161	4432
918.272	4561
918.384	4599
918.495	4443
918.606	4348
918.717	4234
918.828	4363
918.939	4405
919.05	4265
919.161	4306
919.272	4135
919.383	4299
919.494	4527
919.604	4698
919.715	4470
919.826	4379
919.936	4417
920.047	4577
920.157	4523
920.267	4694
920.378	4527
920.488	4519
920.598	4767
920.708	4854
920.818	4729
920.928	4812
921.038	4938
921.148	4957
921.258	4660
921.368	4516
921.477	4546
921.587	4443
921.697	4356
921.806	4577
921.916	4466
922.025	4314
922.134	4276
922.244	4234
922.353	4284
922.462	4192
922.571	4143
922.68	4048
922.789	4021
922.898	4048
923.007	4040
923.116	4116
923.224	4135
923.333	4093
923.442	4059
923.55	4051
923.659	4059
923.767	4139
923.876	4051
923.984	4131
924.092	4032
924.201	4086
924.309	4139
924.417	4131
924.525	4116
924.633	4120
924.741	4915
924.849	3918
924.956	4158
925.064	3975
925.172	3949
925.279	3964
925.387	4040
925.494	4082
925.602	4238
925.709	4207
925.816	4071
925.924	4131
926.031	4249
926.138	4234
926.245	4238
926.352	4097
926.459	4234
926.566	4310
926.673	4158
926.779	4143
926.886	4090
926.993	4029
927.099	3991
927.206	3926
927.312	3968
927.419	4063
927.525	4063
927.631	4120
927.737	3987
927.843	3975
927.95	3838
928.056	3941
928.162	3987
928.267	4055
928.373	4733
928.479	4147
928.585	3915
928.69	3991
928.796	4109
928.901	3979
929.007	3876
929.112	4025
929.218	3964
929.323	3972
929.428	3960
929.533	4147
929.638	3934
929.743	3937
929.848	4044
929.953	4044
930.058	3964
930.163	3850
930.267	3850
930.372	3983
930.477	3869
930.581	4128
930.685	3964
930.79	3842
930.894	3911
930.998	3827
931.103	4074
931.207	3732
931.311	3713
931.415	3675
931.519	3553
931.623	3538
