Data from test_V78500241_1488.txt Node
Date: Fri Mar 25 16:59:20 CST 2022
User: usil
Spectrometer: V785-0024
Trigger mode: 0
Integration Time (sec): 4.000000E-1
Scans to average: 1
Nonlinearity correction enabled: false
Boxcar width: 0
Storing dark spectrum: false
XAxis mode: Wavelengths
Number of Pixels in Spectrum: 1024
>>>>>Begin Spectral Data<<<<<
801.071	8001
801.214	8050
801.356	7902
801.499	7883
801.641	7841
801.783	7841
801.926	7959
802.068	7875
802.211	7974
802.353	8008
802.496	7894
802.638	7898
802.78	7841
802.923	7883
803.065	7890
803.208	7932
803.35	7970
803.492	8073
803.635	8088
803.777	7982
803.919	8168
804.061	8465
804.204	8168
804.346	8096
804.488	8012
804.63	8123
804.773	7997
804.915	8130
805.057	8347
805.199	8183
805.341	8199
805.483	8218
805.626	8225
805.768	8149
805.91	8233
806.052	8237
806.194	8039
806.336	8301
806.478	8024
806.62	8119
806.762	8115
806.904	8294
807.046	8442
807.188	8332
807.33	8320
807.472	8332
807.614	8210
807.756	8176
807.898	7989
808.04	7803
808.182	7894
808.324	7845
808.465	7963
808.607	8100
808.749	8115
808.891	8130
809.033	8187
809.174	8225
809.316	8039
809.458	8069
809.6	7997
809.741	8062
809.883	7989
810.025	8134
810.166	8138
810.308	8077
810.45	8012
810.591	7818
810.733	7723
810.875	7696
811.016	7518
811.158	7514
811.299	7575
811.441	7670
811.582	7712
811.724	7575
811.865	7537
812.007	7559
812.148	7601
812.29	7609
812.431	7708
812.573	7799
812.714	7978
812.855	8035
812.997	8195
813.138	8267
813.279	8221
813.421	8138
813.562	8005
813.703	7841
813.845	7708
813.986	7400
814.127	7282
814.268	7251
814.41	7187
814.551	7171
814.692	7122
814.833	7114
814.974	7114
815.115	7057
815.256	7027
815.397	6916
815.539	6977
815.68	6795
815.821	6772
815.962	6890
816.103	6856
816.244	6722
816.385	6574
816.526	6612
816.666	6498
816.807	6308
816.948	6441
817.089	6418
817.23	6448
817.371	6399
817.512	6384
817.653	6414
817.793	6334
817.934	6441
818.075	6391
818.216	6426
818.356	6350
818.497	6281
818.638	6110
818.778	6140
818.919	6110
819.06	6163
819.2	6308
819.341	6311
819.481	6357
819.622	6517
819.762	6722
819.903	6711
820.043	6498
820.184	6574
820.324	6559
820.465	6677
820.605	6692
820.746	6620
820.886	6528
821.026	6635
821.167	6703
821.307	6802
821.447	6707
821.588	6604
821.728	6559
821.868	6536
822.008	6308
822.149	6395
822.289	6304
822.429	6091
822.569	5999
822.709	6106
822.849	5874
822.99	5863
823.13	5931
823.27	5916
823.41	5779
823.55	5722
823.69	5726
823.83	5771
823.97	5653
824.11	5486
824.25	5501
824.389	5585
824.529	5585
824.669	5554
824.809	5642
824.949	5657
825.089	5611
825.228	5493
825.368	5414
825.508	5269
825.648	5307
825.787	5318
825.927	5379
826.067	5322
826.206	5265
826.346	5406
826.485	5440
826.625	5387
826.765	5505
826.904	5436
827.044	5239
827.183	5197
827.323	5124
827.462	5193
827.601	5174
827.741	5174
827.88	5216
828.02	5143
828.159	5284
828.298	5258
828.437	5334
828.577	5303
828.716	5497
828.855	5318
828.994	5170
829.134	5162
829.273	5166
829.412	5136
829.551	5102
829.69	5162
829.829	5284
829.968	5353
830.107	5258
830.246	5269
830.385	5174
830.524	5105
830.663	5060
830.802	4889
830.941	4908
831.08	4885
831.219	4942
831.357	4999
831.496	5159
831.635	4881
831.774	4858
831.913	4835
832.051	4729
832.19	4721
832.329	4847
832.467	4679
832.606	4660
832.744	4714
832.883	4679
833.022	4706
833.16	4778
833.299	4843
833.437	4820
833.576	4831
833.714	4820
833.852	4847
833.991	4847
834.129	4908
834.267	4900
834.406	4900
834.544	4953
834.682	4927
834.821	4991
834.959	5143
835.097	4995
835.235	5128
835.373	4999
835.511	5124
835.65	5052
835.788	5029
835.926	4908
836.064	4835
836.202	4984
836.34	5124
836.478	5231
836.615	5071
836.753	5231
836.891	5273
837.029	5216
837.167	5193
837.305	5124
837.443	5113
837.58	5079
837.718	5208
837.856	5166
837.993	5181
838.131	5223
838.269	5220
838.406	5162
838.544	5124
838.681	5041
838.819	5006
838.956	4904
839.094	4904
839.231	4972
839.369	5052
839.506	5383
839.643	5254
839.781	5045
839.918	4991
840.055	5109
840.193	5045
840.33	5037
840.467	5113
840.604	5181
840.742	5433
840.879	5098
841.016	5086
841.153	5174
841.29	5345
841.427	5315
841.564	5258
841.701	5357
841.838	5273
841.975	5193
842.112	5277
842.249	5143
842.385	5113
842.522	5315
842.659	5162
842.796	5140
842.933	5162
843.069	5143
843.206	5102
843.343	5280
843.479	5170
843.616	5239
843.752	5045
843.889	4934
844.025	5181
844.162	5033
844.298	5155
844.435	5022
844.571	5045
844.708	5174
844.844	5277
844.98	5330
845.117	5246
845.253	5132
845.389	5060
845.525	5128
845.661	5159
845.798	5105
845.934	5109
846.07	5003
846.206	5227
846.342	5261
846.478	5174
846.614	5041
846.75	4976
846.886	4957
847.022	5102
847.158	4984
847.294	5056
847.429	5094
847.565	5033
847.701	5296
847.837	4850
847.972	4809
848.108	4934
848.244	4919
848.379	4755
848.515	4694
848.65	4698
848.786	4748
848.921	4854
849.057	4862
849.192	4892
849.328	4759
849.463	4828
849.598	4759
849.734	4786
849.869	4649
850.004	4607
850.14	4626
850.275	4592
850.41	4542
850.545	4508
850.68	4615
850.815	4607
850.95	4607
851.085	4866
851.22	4733
851.355	4630
851.49	4603
851.625	4649
851.76	4611
851.895	4516
852.03	4504
852.165	4641
852.299	4714
852.434	4744
852.569	4752
852.703	4786
852.838	4896
852.973	4919
853.107	4923
853.242	4725
853.376	4664
853.511	4569
853.645	4664
853.78	4797
853.914	4687
854.048	4656
854.183	4645
854.317	4683
854.451	4843
854.585	4702
854.72	4611
854.854	4740
854.988	4637
855.122	4618
855.256	4478
855.39	4736
855.524	4790
855.658	4748
855.792	4691
855.926	4679
856.06	4714
856.194	4786
856.327	4641
856.461	4599
856.595	4637
856.729	4596
856.862	4740
856.996	4702
857.13	4649
857.263	4759
857.397	4763
857.53	4672
857.664	4744
857.797	4755
857.931	4786
858.064	4653
858.197	4721
858.331	4630
858.464	4588
858.597	4497
858.731	4615
858.864	4649
858.997	4569
859.13	4675
859.263	4679
859.396	4672
859.529	4596
859.662	4508
859.795	4497
859.928	4645
860.061	4752
860.194	4725
860.327	4558
860.46	4512
860.592	4668
860.725	4668
860.858	4691
860.99	4580
861.123	4504
861.256	4504
861.388	4558
861.521	5398
861.653	4440
861.786	4432
861.918	4485
862.05	4519
862.183	4546
862.315	4592
862.447	4641
862.58	4527
862.712	4402
862.844	4322
862.976	4493
863.108	4462
863.24	4759
863.372	4341
863.504	4402
863.636	4421
863.768	4493
863.9	4436
864.032	4363
864.164	4417
864.296	4470
864.428	4512
864.559	4523
864.691	4504
864.823	4500
864.954	4474
865.086	4504
865.217	4470
865.349	4424
865.48	4470
865.612	4485
865.743	4641
865.875	4443
866.006	4390
866.137	4481
866.269	4443
866.4	4409
866.531	4409
866.662	4379
866.793	4443
866.924	4443
867.055	4485
867.186	4436
867.317	4379
867.448	4367
867.579	4417
867.71	4375
867.841	4390
867.972	4462
868.103	4466
868.233	4421
868.364	4383
868.495	4500
868.625	4672
868.756	4767
868.886	4546
869.017	4630
869.147	4763
869.278	4778
869.408	4664
869.539	4618
869.669	4748
869.799	4641
869.929	4706
870.06	4778
870.19	4972
870.32	4938
870.45	4923
870.58	5041
870.71	5067
870.84	5090
870.97	4930
871.1	4885
871.23	5162
871.36	5132
871.489	5052
871.619	5086
871.749	5094
871.879	5071
872.008	5128
872.138	5033
872.267	4953
872.397	4809
872.526	4828
872.656	4694
872.785	4820
872.915	4953
873.044	4984
873.173	5003
873.303	4999
873.432	4930
873.561	4949
873.69	4847
873.819	4862
873.948	4862
874.077	4812
874.206	4786
874.335	4771
874.464	4946
874.593	5045
874.722	4881
874.851	5098
874.979	5052
875.108	5006
875.237	4870
875.365	4831
875.494	4831
875.623	5014
875.751	4824
875.88	4866
876.008	4949
876.136	4976
876.265	5170
876.393	5322
876.521	5269
876.65	5185
876.778	5143
876.906	5071
877.034	4991
877.162	5025
877.29	4999
877.418	5079
877.546	5083
877.674	5006
877.802	4999
877.93	4965
878.058	4904
878.185	4862
878.313	4995
878.441	4915
878.568	4782
878.696	4896
878.824	5003
878.951	4999
879.079	5090
879.206	5246
879.333	5102
879.461	4965
879.588	5037
879.715	5079
879.842	5231
879.97	5041
880.097	4824
880.224	4717
880.351	4801
880.478	4797
880.605	4774
880.732	4778
880.859	5090
880.986	4885
881.112	4881
881.239	4820
881.366	4660
881.493	4584
881.619	4584
881.746	4653
881.872	4603
881.999	4626
882.125	4694
882.252	4820
882.378	4835
882.505	4934
882.631	4801
882.757	4637
882.883	4725
883.01	4752
883.136	4618
883.262	4607
883.388	4615
883.514	4793
883.64	4850
883.766	4752
883.892	4710
884.018	4706
884.143	4843
884.269	4995
884.395	4630
884.52	4622
884.646	4611
884.772	4542
884.897	4584
885.023	4645
885.148	4771
885.274	4877
885.399	4736
885.524	4668
885.65	4683
885.775	4752
885.9	4714
886.025	4858
886.15	4763
886.275	4698
886.4	4660
886.525	4694
886.65	4687
886.775	4679
886.9	4889
887.025	4991
887.149	4828
887.274	4721
887.399	4626
887.523	4577
887.648	4546
887.773	4542
887.897	4786
888.021	4793
888.146	4691
888.27	4782
888.395	4877
888.519	4835
888.643	4763
888.767	4831
888.891	4653
889.015	4615
889.139	4641
889.263	4607
889.387	4771
889.511	4881
889.635	4828
889.759	4596
889.883	4630
890.006	4694
890.13	4812
890.254	4630
890.377	4679
890.501	4504
890.624	4485
890.748	4603
890.871	4493
890.995	4413
891.118	4417
891.241	4527
891.364	4573
891.488	4634
891.611	4489
891.734	4538
891.857	4577
891.98	4546
892.103	4618
892.226	4580
892.349	4523
892.471	4398
892.594	4558
892.717	4596
892.839	4573
892.962	4554
893.085	4656
893.207	4603
893.33	4447
893.452	4466
893.575	4672
893.697	4508
893.819	4740
893.941	4805
894.064	4721
894.186	4596
894.308	4565
894.43	4721
894.552	4801
894.674	4755
894.796	4504
894.918	4653
895.04	4554
895.161	4683
895.283	4618
895.405	4599
895.526	4641
895.648	4656
895.769	4641
895.891	4721
896.012	4744
896.134	4736
896.255	4706
896.376	4641
896.498	4622
896.619	4664
896.74	4622
896.861	4630
896.982	4877
897.103	5064
897.224	4786
897.345	4774
897.466	4679
897.587	4721
897.708	4839
897.828	4778
897.949	4653
898.07	4527
898.19	4599
898.311	4816
898.431	4683
898.552	4706
898.672	4786
898.792	4786
898.913	4736
899.033	4626
899.153	4500
899.273	4436
899.393	4485
899.513	4500
899.633	4527
899.753	4538
899.873	4527
899.993	4542
900.113	4489
900.232	4603
900.352	4535
900.472	4447
900.591	4424
900.711	4474
900.83	4459
900.95	4584
901.069	4710
901.189	4592
901.308	4402
901.427	4333
901.546	4318
901.665	4493
901.784	4455
901.904	4356
902.023	4310
902.141	4211
902.26	4166
902.379	4287
902.498	4261
902.617	4207
902.735	4375
902.854	4390
902.973	4322
903.091	4211
903.21	4230
903.328	4333
903.446	4268
903.565	4276
903.683	4386
903.801	4280
903.919	4409
904.038	4432
904.156	4306
904.274	4459
904.392	4371
904.51	4405
904.627	4443
904.745	4512
904.863	4618
904.981	4398
905.098	4276
905.216	4383
905.334	4455
905.451	4409
905.569	4424
905.686	4565
905.803	4577
905.921	4363
906.038	4561
906.155	4451
906.272	4398
906.389	4421
906.506	4367
906.623	4348
906.74	4360
906.857	4310
906.974	4413
907.091	4592
907.208	4691
907.324	4573
907.441	4538
907.557	4344
907.674	4360
907.79	4318
907.907	4413
908.023	4470
908.139	4489
908.256	4417
908.372	4470
908.488	4413
908.604	4394
908.72	4287
908.836	4322
908.952	4356
909.068	4413
909.184	4550
909.3	4531
909.415	4580
909.531	4504
909.647	4333
909.762	4394
909.878	4348
909.993	4447
910.108	4409
910.224	4390
910.339	4531
910.454	4417
910.57	4344
910.685	4329
910.8	4607
910.915	4580
911.03	4489
911.145	4276
911.259	4329
911.374	4371
911.489	4314
911.604	4276
911.718	4207
911.833	4181
911.947	4105
912.062	4040
912.176	4215
912.291	4230
912.405	4234
912.519	4489
912.633	4523
912.748	4398
912.862	4314
912.976	4162
913.09	4128
913.204	4169
913.318	4249
913.431	4325
913.545	4386
913.659	4383
913.772	4379
913.886	4204
914	4219
914.113	4329
914.226	4394
914.34	4405
914.453	4207
914.566	4409
914.68	4322
914.793	4329
914.906	4162
915.019	4105
915.132	4116
915.245	4181
915.358	4188
915.47	4253
915.583	4272
915.696	4287
915.809	4371
915.921	4428
916.034	4253
916.146	4249
916.259	4211
916.371	4383
916.483	4367
916.595	4268
916.708	4318
916.82	4325
916.932	4333
917.044	4325
917.156	4276
917.268	4238
917.38	4253
917.491	4234
917.603	4337
917.715	4383
917.826	4440
917.938	4344
918.049	4227
918.161	4394
918.272	4504
918.384	4462
918.495	4481
918.606	4356
918.717	4192
918.828	4322
918.939	4344
919.05	4272
919.161	4333
919.272	4124
919.383	4276
919.494	4402
919.604	4584
919.715	4375
919.826	4318
919.936	4348
920.047	4519
920.157	4497
920.267	4717
920.378	4527
920.488	4474
920.598	4706
920.708	4904
920.818	4733
920.928	4774
921.038	4930
921.148	4854
921.258	4584
921.368	4561
921.477	4497
921.587	4386
921.697	4409
921.806	4500
921.916	4383
922.025	4322
922.134	4272
922.244	4261
922.353	4371
922.462	4150
922.571	4147
922.68	4006
922.789	3991
922.898	4055
923.007	4013
923.116	4074
923.224	4032
923.333	4074
923.442	3983
923.55	3979
923.659	3994
923.767	4109
923.876	3956
923.984	4135
924.092	3949
924.201	4059
924.309	4105
924.417	4135
924.525	4048
924.633	4097
924.741	4835
924.849	3918
924.956	4120
925.064	3918
925.172	3903
925.279	3972
925.387	4040
925.494	4063
925.602	4200
925.709	4227
925.816	4021
925.924	4093
926.031	4234
926.138	4196
926.245	4154
926.352	4082
926.459	4246
926.566	4276
926.673	4112
926.779	4078
926.886	4090
926.993	3972
927.099	3941
927.206	3915
927.312	3903
927.419	4055
927.525	4048
927.631	4120
927.737	3945
927.843	3956
927.95	3808
928.056	3956
928.162	3979
928.267	4040
928.373	4607
928.479	4101
928.585	3876
928.69	4013
928.796	4063
928.901	3975
929.007	3838
929.112	3991
929.218	3975
929.323	3911
929.428	3926
929.533	4105
929.638	3926
929.743	3937
929.848	4017
929.953	3972
930.058	3926
930.163	3778
930.267	3797
930.372	3979
930.477	3816
930.581	4105
930.685	3956
930.79	3831
930.894	3888
930.998	3819
931.103	3983
931.207	3720
931.311	3682
931.415	3629
931.519	3485
931.623	3572
