Data from test_V78500241_2693.txt Node
Date: Fri Mar 25 17:07:43 CST 2022
User: usil
Spectrometer: V785-0024
Trigger mode: 0
Integration Time (sec): 4.000000E-1
Scans to average: 1
Nonlinearity correction enabled: false
Boxcar width: 0
Storing dark spectrum: false
XAxis mode: Wavelengths
Number of Pixels in Spectrum: 1024
>>>>>Begin Spectral Data<<<<<
801.071	8119
801.214	7993
801.356	7955
801.499	7860
801.641	7753
801.783	7849
801.926	7986
802.068	7921
802.211	7947
802.353	7940
802.496	7856
802.638	7898
802.78	7871
802.923	7906
803.065	7871
803.208	7940
803.35	7982
803.492	8046
803.635	8157
803.777	8100
803.919	8180
804.061	8450
804.204	8210
804.346	8157
804.488	7986
804.63	8077
804.773	8073
804.915	8065
805.057	8218
805.199	8229
805.341	8225
805.483	8317
805.626	8240
805.768	8134
805.91	8248
806.052	8161
806.194	8100
806.336	8286
806.478	8065
806.62	8069
806.762	8088
806.904	8218
807.046	8393
807.188	8275
807.33	8290
807.472	8305
807.614	8191
807.756	8153
807.898	7986
808.04	7841
808.182	7826
808.324	7898
808.465	7909
808.607	8096
808.749	8183
808.891	8218
809.033	8259
809.174	8172
809.316	8077
809.458	8058
809.6	7963
809.741	8050
809.883	8073
810.025	8111
810.166	8111
810.308	8054
810.45	7986
810.591	7921
810.733	7761
810.875	7674
811.016	7487
811.158	7575
811.299	7647
811.441	7784
811.582	7761
811.724	7632
811.865	7586
812.007	7655
812.148	7582
812.29	7620
812.431	7693
812.573	7852
812.714	8024
812.855	8134
812.997	8164
813.138	8301
813.279	8191
813.421	8119
813.562	8058
813.703	7852
813.845	7780
813.986	7384
814.127	7339
814.268	7217
814.41	7217
814.551	7209
814.692	7171
814.833	7114
814.974	7072
815.115	7110
815.256	6996
815.397	6878
815.539	6939
815.68	6791
815.821	6715
815.962	6829
816.103	6844
816.244	6662
816.385	6654
816.526	6601
816.666	6490
816.807	6319
816.948	6403
817.089	6452
817.23	6445
817.371	6361
817.512	6361
817.653	6437
817.793	6357
817.934	6388
818.075	6532
818.216	6448
818.356	6418
818.497	6251
818.638	6133
818.778	6095
818.919	6171
819.06	6083
819.2	6319
819.341	6331
819.481	6380
819.622	6563
819.762	6715
819.903	6627
820.043	6639
820.184	6536
820.324	6597
820.465	6764
820.605	6726
820.746	6620
820.886	6551
821.026	6692
821.167	6757
821.307	6821
821.447	6783
821.588	6692
821.728	6589
821.868	6528
822.008	6376
822.149	6426
822.289	6372
822.429	6220
822.569	6117
822.709	6121
822.849	5927
822.99	5973
823.13	5935
823.27	5946
823.41	5783
823.55	5794
823.69	5794
823.83	5771
823.97	5691
824.11	5493
824.25	5452
824.389	5570
824.529	5573
824.669	5566
824.809	5596
824.949	5668
825.089	5630
825.228	5570
825.368	5455
825.508	5337
825.648	5334
825.787	5398
825.927	5372
826.067	5296
826.206	5250
826.346	5402
826.485	5387
826.625	5387
826.765	5524
826.904	5474
827.044	5258
827.183	5181
827.323	5117
827.462	5258
827.601	5166
827.741	5124
827.88	5189
828.02	5121
828.159	5258
828.298	5277
828.437	5360
828.577	5288
828.716	5490
828.855	5292
828.994	5151
829.134	5136
829.273	5155
829.412	5121
829.551	5147
829.69	5136
829.829	5303
829.968	5360
830.107	5284
830.246	5231
830.385	5140
830.524	5140
830.663	5033
830.802	4991
830.941	4896
831.08	4873
831.219	4965
831.357	4976
831.496	5159
831.635	4968
831.774	4858
831.913	4854
832.051	4748
832.19	4717
832.329	4847
832.467	4683
832.606	4626
832.744	4725
832.883	4679
833.022	4736
833.16	4778
833.299	4816
833.437	4809
833.576	4809
833.714	4831
833.852	4881
833.991	4911
834.129	4957
834.267	4942
834.406	4923
834.544	4923
834.682	4972
834.821	4976
834.959	5102
835.097	5033
835.235	5147
835.373	5109
835.511	5067
835.65	5006
835.788	5037
835.926	4885
836.064	4885
836.202	4900
836.34	5185
836.478	5250
836.615	5155
836.753	5292
836.891	5280
837.029	5220
837.167	5197
837.305	5178
837.443	5132
837.58	5083
837.718	5239
837.856	5162
837.993	5174
838.131	5258
838.269	5174
838.406	5212
838.544	5193
838.681	5006
838.819	5025
838.956	4904
839.094	4892
839.231	4953
839.369	5025
839.506	5387
839.643	5223
839.781	5071
839.918	5003
840.055	5181
840.193	5098
840.33	5056
840.467	5132
840.604	5201
840.742	5421
840.879	5064
841.016	5132
841.153	5143
841.29	5425
841.427	5303
841.564	5254
841.701	5334
841.838	5261
841.975	5201
842.112	5273
842.249	5113
842.385	5048
842.522	5345
842.659	5174
842.796	5124
842.933	5288
843.069	5147
843.206	5162
843.343	5235
843.479	5239
843.616	5231
843.752	5006
843.889	5029
844.025	5208
844.162	5025
844.298	5212
844.435	5086
844.571	5029
844.708	5174
844.844	5288
844.98	5318
845.117	5311
845.253	5094
845.389	5105
845.525	5147
845.661	5128
845.798	5079
845.934	5128
846.07	5048
846.206	5235
846.342	5315
846.478	5174
846.614	5067
846.75	4987
846.886	4930
847.022	5132
847.158	4961
847.294	5071
847.429	5105
847.565	5029
847.701	5250
847.837	4835
847.972	4774
848.108	4965
848.244	4862
848.379	4767
848.515	4717
848.65	4687
848.786	4752
848.921	4778
849.057	4831
849.192	4900
849.328	4839
849.463	4828
849.598	4847
849.734	4763
849.869	4672
850.004	4626
850.14	4683
850.275	4588
850.41	4531
850.545	4565
850.68	4584
850.815	4645
850.95	4645
851.085	4862
851.22	4759
851.355	4691
851.49	4588
851.625	4615
851.76	4649
851.895	4538
852.03	4531
852.165	4668
852.299	4733
852.434	4767
852.569	4763
852.703	4767
852.838	4820
852.973	4934
853.107	4885
853.242	4752
853.376	4687
853.511	4542
853.645	4641
853.78	4812
853.914	4675
854.048	4687
854.183	4683
854.317	4698
854.451	4828
854.585	4656
854.72	4645
854.854	4733
854.988	4565
855.122	4569
855.256	4527
855.39	4694
855.524	4748
855.658	4714
855.792	4717
855.926	4771
856.06	4771
856.194	4767
856.327	4672
856.461	4592
856.595	4622
856.729	4653
856.862	4729
856.996	4698
857.13	4759
857.263	4740
857.397	4793
857.53	4615
857.664	4721
857.797	4797
857.931	4809
858.064	4698
858.197	4744
858.331	4717
858.464	4611
858.597	4497
858.731	4603
858.864	4691
858.997	4599
859.13	4660
859.263	4656
859.396	4717
859.529	4558
859.662	4577
859.795	4504
859.928	4637
860.061	4736
860.194	4744
860.327	4573
860.46	4531
860.592	4763
860.725	4729
860.858	4691
860.99	4618
861.123	4500
861.256	4531
861.388	4615
861.521	5307
861.653	4421
861.786	4413
861.918	4455
862.05	4542
862.183	4523
862.315	4565
862.447	4618
862.58	4542
862.712	4352
862.844	4310
862.976	4447
863.108	4470
863.24	4736
863.372	4310
863.504	4455
863.636	4428
863.768	4474
863.9	4462
864.032	4371
864.164	4432
864.296	4478
864.428	4535
864.559	4580
864.691	4561
864.823	4519
864.954	4504
865.086	4519
865.217	4504
865.349	4436
865.48	4493
865.612	4470
865.743	4653
865.875	4470
866.006	4459
866.137	4489
866.269	4447
866.4	4409
866.531	4421
866.662	4424
866.793	4371
866.924	4390
867.055	4478
867.186	4409
867.317	4409
867.448	4386
867.579	4383
867.71	4394
867.841	4325
867.972	4428
868.103	4421
868.233	4493
868.364	4459
868.495	4500
868.625	4668
868.756	4786
868.886	4565
869.017	4653
869.147	4774
869.278	4752
869.408	4683
869.539	4691
869.669	4683
869.799	4641
869.929	4790
870.06	4748
870.19	4972
870.32	4915
870.45	4949
870.58	4984
870.71	5094
870.84	5166
870.97	4927
871.1	4904
871.23	5109
871.36	5086
871.489	5029
871.619	5014
871.749	5098
871.879	5113
872.008	5143
872.138	5048
872.267	4965
872.397	4828
872.526	4801
872.656	4725
872.785	4790
872.915	4949
873.044	4991
873.173	4904
873.303	4972
873.432	4911
873.561	4927
873.69	4904
873.819	4862
873.948	4885
874.077	4812
874.206	4755
874.335	4828
874.464	4938
874.593	5079
874.722	4972
874.851	5143
874.979	5025
875.108	5033
875.237	4930
875.365	4938
875.494	4866
875.623	4957
875.751	4824
875.88	4919
876.008	4961
876.136	5010
876.265	5181
876.393	5337
876.521	5239
876.65	5174
876.778	5162
876.906	5003
877.034	4984
877.162	5052
877.29	4995
877.418	5064
877.546	5014
877.674	5014
877.802	5014
877.93	5014
878.058	4957
878.185	4930
878.313	4904
878.441	4927
878.568	4801
878.696	4858
878.824	4942
878.951	4968
879.079	5098
879.206	5277
879.333	5060
879.461	4987
879.588	5010
879.715	5132
879.842	5178
879.97	5018
880.097	4847
880.224	4752
880.351	4786
880.478	4812
880.605	4839
880.732	4759
880.859	5102
880.986	4896
881.112	4889
881.239	4809
881.366	4656
881.493	4615
881.619	4580
881.746	4698
881.872	4599
881.999	4615
882.125	4717
882.252	4786
882.378	4805
882.505	4991
882.631	4771
882.757	4702
882.883	4740
883.01	4725
883.136	4634
883.262	4618
883.388	4588
883.514	4820
883.64	4854
883.766	4805
883.892	4653
884.018	4733
884.143	4930
884.269	4984
884.395	4683
884.52	4634
884.646	4626
884.772	4531
884.897	4542
885.023	4698
885.148	4771
885.274	4828
885.399	4839
885.524	4656
885.65	4755
885.775	4744
885.9	4714
886.025	4831
886.15	4809
886.275	4721
886.4	4615
886.525	4714
886.65	4656
886.775	4736
886.9	4885
887.025	5064
887.149	4778
887.274	4630
887.399	4550
887.523	4634
887.648	4561
887.773	4561
887.897	4729
888.021	4752
888.146	4653
888.27	4782
888.395	4908
888.519	4812
888.643	4771
888.767	4850
888.891	4653
889.015	4611
889.139	4679
889.263	4668
889.387	4752
889.511	4889
889.635	4839
889.759	4668
889.883	4637
890.006	4767
890.13	4763
890.254	4675
890.377	4698
890.501	4523
890.624	4489
890.748	4630
890.871	4504
890.995	4440
891.118	4333
891.241	4542
891.364	4474
891.488	4706
891.611	4466
891.734	4470
891.857	4630
891.98	4584
892.103	4622
892.226	4573
892.349	4497
892.471	4478
892.594	4535
892.717	4615
892.839	4588
892.962	4596
893.085	4675
893.207	4519
893.33	4462
893.452	4546
893.575	4630
893.697	4607
893.819	4782
893.941	4809
894.064	4774
894.186	4588
894.308	4542
894.43	4717
894.552	4797
894.674	4702
894.796	4611
894.918	4550
895.04	4607
895.161	4694
895.283	4672
895.405	4561
895.526	4626
895.648	4645
895.769	4702
895.891	4702
896.012	4710
896.134	4714
896.255	4664
896.376	4637
896.498	4611
896.619	4668
896.74	4618
896.861	4622
896.982	4927
897.103	5071
897.224	4816
897.345	4691
897.466	4683
897.587	4721
897.708	4850
897.828	4771
897.949	4668
898.07	4550
898.19	4622
898.311	4831
898.431	4611
898.552	4706
898.672	4782
898.792	4767
898.913	4694
899.033	4603
899.153	4451
899.273	4451
899.393	4474
899.513	4531
899.633	4519
899.753	4512
899.873	4504
899.993	4622
900.113	4512
900.232	4546
900.352	4558
900.472	4478
900.591	4417
900.711	4500
900.83	4413
900.95	4588
901.069	4687
901.189	4554
901.308	4360
901.427	4295
901.546	4329
901.665	4478
901.784	4474
901.904	4409
902.023	4257
902.141	4128
902.26	4154
902.379	4318
902.498	4215
902.617	4223
902.735	4402
902.854	4405
902.973	4318
903.091	4166
903.21	4219
903.328	4306
903.446	4276
903.565	4204
903.683	4348
903.801	4272
903.919	4379
904.038	4394
904.156	4344
904.274	4398
904.392	4428
904.51	4451
904.627	4462
904.745	4607
904.863	4622
904.981	4394
905.098	4287
905.216	4367
905.334	4417
905.451	4421
905.569	4413
905.686	4592
905.803	4561
905.921	4413
906.038	4577
906.155	4497
906.272	4371
906.389	4481
906.506	4348
906.623	4344
906.74	4394
906.857	4291
906.974	4356
907.091	4508
907.208	4717
907.324	4622
907.441	4519
907.557	4314
907.674	4329
907.79	4337
907.907	4421
908.023	4497
908.139	4493
908.256	4443
908.372	4474
908.488	4500
908.604	4375
908.72	4325
908.836	4394
908.952	4432
909.068	4462
909.184	4558
909.3	4516
909.415	4573
909.531	4577
909.647	4402
909.762	4432
909.878	4371
909.993	4451
910.108	4478
910.224	4478
910.339	4512
910.454	4405
910.57	4386
910.685	4344
910.8	4725
910.915	4596
911.03	4516
911.145	4352
911.259	4405
911.374	4390
911.489	4367
911.604	4325
911.718	4223
911.833	4272
911.947	4154
912.062	4086
912.176	4246
912.291	4287
912.405	4314
912.519	4512
912.633	4519
912.748	4417
912.862	4337
912.976	4272
913.09	4124
913.204	4207
913.318	4303
913.431	4394
913.545	4375
913.659	4451
913.772	4417
913.886	4257
914	4303
914.113	4402
914.226	4466
914.34	4432
914.453	4253
914.566	4447
914.68	4318
914.793	4341
914.906	4200
915.019	4192
915.132	4116
915.245	4230
915.358	4265
915.47	4318
915.583	4314
915.696	4280
915.809	4440
915.921	4500
916.034	4306
916.146	4318
916.259	4306
916.371	4402
916.483	4417
916.595	4337
916.708	4341
916.82	4379
916.932	4375
917.044	4394
917.156	4375
917.268	4238
917.38	4318
917.491	4310
917.603	4398
917.715	4424
917.826	4497
917.938	4352
918.049	4322
918.161	4428
918.272	4565
918.384	4580
918.495	4481
918.606	4341
918.717	4257
918.828	4367
918.939	4379
919.05	4268
919.161	4367
919.272	4147
919.383	4329
919.494	4447
919.604	4656
919.715	4462
919.826	4375
919.936	4413
920.047	4588
920.157	4508
920.267	4714
920.378	4584
920.488	4542
920.598	4763
920.708	4923
920.818	4839
920.928	4824
921.038	5064
921.148	4934
921.258	4618
921.368	4603
921.477	4531
921.587	4489
921.697	4363
921.806	4550
921.916	4478
922.025	4325
922.134	4299
922.244	4204
922.353	4333
922.462	4162
922.571	4158
922.68	4063
922.789	4029
922.898	4101
923.007	4063
923.116	4093
923.224	4128
923.333	4131
923.442	4002
923.55	4021
923.659	4112
923.767	4166
923.876	4006
923.984	4150
924.092	3987
924.201	4067
924.309	4101
924.417	4200
924.525	4116
924.633	4120
924.741	5060
924.849	3953
924.956	4188
925.064	3987
925.172	3911
925.279	3987
925.387	4093
925.494	4071
925.602	4219
925.709	4253
925.816	4059
925.924	4173
926.031	4238
926.138	4162
926.245	4227
926.352	4128
926.459	4291
926.566	4333
926.673	4192
926.779	4139
926.886	4143
926.993	3998
927.099	3987
927.206	4006
927.312	4006
927.419	4086
927.525	4086
927.631	4139
927.737	4013
927.843	3968
927.95	3884
928.056	4017
928.162	4013
928.267	4071
928.373	4656
928.479	4158
928.585	3975
928.69	4036
928.796	4158
928.901	3991
929.007	3899
929.112	4010
929.218	4021
929.323	3937
929.428	4025
929.533	4150
929.638	3937
929.743	4025
929.848	4116
929.953	4029
930.058	3953
930.163	3838
930.267	3842
930.372	3987
930.477	3869
930.581	4090
930.685	4021
930.79	3861
930.894	3937
930.998	3857
931.103	4097
931.207	3743
931.311	3759
931.415	3728
931.519	3576
931.623	3587
