Data from test_V78500241_2232.txt Node
Date: Fri Mar 25 17:04:31 CST 2022
User: usil
Spectrometer: V785-0024
Trigger mode: 0
Integration Time (sec): 4.000000E-1
Scans to average: 1
Nonlinearity correction enabled: false
Boxcar width: 0
Storing dark spectrum: false
XAxis mode: Wavelengths
Number of Pixels in Spectrum: 1024
>>>>>Begin Spectral Data<<<<<
801.071	8005
801.214	7978
801.356	7833
801.499	7860
801.641	7788
801.783	7826
801.926	7963
802.068	7955
802.211	8001
802.353	8005
802.496	7887
802.638	7837
802.78	7883
802.923	7951
803.065	7909
803.208	7837
803.35	7932
803.492	8088
803.635	8172
803.777	7970
803.919	8123
804.061	8381
804.204	8176
804.346	8039
804.488	7967
804.63	8073
804.773	7940
804.915	8084
805.057	8267
805.199	8123
805.341	8149
805.483	8240
805.626	8195
805.768	8134
805.91	8233
806.052	8157
806.194	8115
806.336	8240
806.478	8088
806.62	8031
806.762	8088
806.904	8298
807.046	8457
807.188	8286
807.33	8244
807.472	8377
807.614	8126
807.756	8126
807.898	8043
808.04	7883
808.182	7841
808.324	7871
808.465	7871
808.607	8115
808.749	8126
808.891	8145
809.033	8343
809.174	8248
809.316	8123
809.458	8050
809.6	7993
809.741	8065
809.883	8027
810.025	8054
810.166	8016
810.308	8016
810.45	7909
810.591	7803
810.733	7685
810.875	7719
811.016	7518
811.158	7441
811.299	7575
811.441	7715
811.582	7685
811.724	7582
811.865	7571
812.007	7609
812.148	7597
812.29	7594
812.431	7753
812.573	7890
812.714	7974
812.855	8126
812.997	8218
813.138	8313
813.279	8100
813.421	8081
813.562	7967
813.703	7830
813.845	7715
813.986	7445
814.127	7255
814.268	7301
814.41	7194
814.551	7190
814.692	7240
814.833	7114
814.974	7046
815.115	7137
815.256	6985
815.397	6905
815.539	6939
815.68	6787
815.821	6810
815.962	6829
816.103	6829
816.244	6707
816.385	6642
816.526	6578
816.666	6433
816.807	6262
816.948	6388
817.089	6456
817.23	6479
817.371	6380
817.512	6372
817.653	6399
817.793	6369
817.934	6437
818.075	6426
818.216	6460
818.356	6475
818.497	6190
818.638	6110
818.778	6197
818.919	6152
819.06	6159
819.2	6376
819.341	6319
819.481	6338
819.622	6559
819.762	6707
819.903	6696
820.043	6570
820.184	6582
820.324	6578
820.465	6738
820.605	6665
820.746	6669
820.886	6494
821.026	6677
821.167	6711
821.307	6757
821.447	6787
821.588	6623
821.728	6601
821.868	6506
822.008	6270
822.149	6376
822.289	6353
822.429	6194
822.569	6110
822.709	6102
822.849	5912
822.99	5904
823.13	5939
823.27	5931
823.41	5786
823.55	5756
823.69	5771
823.83	5760
823.97	5608
824.11	5505
824.25	5524
824.389	5566
824.529	5589
824.669	5501
824.809	5604
824.949	5699
825.089	5600
825.228	5592
825.368	5402
825.508	5368
825.648	5353
825.787	5357
825.927	5345
826.067	5280
826.206	5273
826.346	5433
826.485	5376
826.625	5402
826.765	5509
826.904	5478
827.044	5280
827.183	5254
827.323	5143
827.462	5296
827.601	5212
827.741	5185
827.88	5227
828.02	5079
828.159	5246
828.298	5311
828.437	5357
828.577	5322
828.716	5505
828.855	5318
828.994	5254
829.134	5212
829.273	5197
829.412	5155
829.551	5174
829.69	5174
829.829	5246
829.968	5376
830.107	5235
830.246	5250
830.385	5189
830.524	5155
830.663	5075
830.802	4972
830.941	4854
831.08	4927
831.219	4965
831.357	4953
831.496	5162
831.635	4934
831.774	4858
831.913	4839
832.051	4755
832.19	4702
832.329	4843
832.467	4717
832.606	4649
832.744	4702
832.883	4740
833.022	4675
833.16	4771
833.299	4824
833.437	4805
833.576	4771
833.714	4858
833.852	4862
833.991	4877
834.129	4919
834.267	4953
834.406	4873
834.544	4957
834.682	4972
834.821	4957
834.959	5155
835.097	5025
835.235	5178
835.373	5060
835.511	5041
835.65	5022
835.788	4984
835.926	4870
836.064	4904
836.202	4911
836.34	5155
836.478	5216
836.615	5136
836.753	5231
836.891	5269
837.029	5284
837.167	5212
837.305	5204
837.443	5113
837.58	5143
837.718	5212
837.856	5216
837.993	5132
838.131	5292
838.269	5204
838.406	5223
838.544	5189
838.681	5045
838.819	5014
838.956	4896
839.094	4904
839.231	4984
839.369	5056
839.506	5440
839.643	5231
839.781	4995
839.918	4968
840.055	5098
840.193	5075
840.33	5109
840.467	5102
840.604	5212
840.742	5444
840.879	5102
841.016	5052
841.153	5124
841.29	5364
841.427	5258
841.564	5269
841.701	5421
841.838	5235
841.975	5235
842.112	5288
842.249	5117
842.385	5105
842.522	5315
842.659	5185
842.796	5174
842.933	5155
843.069	5128
843.206	5159
843.343	5315
843.479	5258
843.616	5269
843.752	5014
843.889	5022
844.025	5239
844.162	5033
844.298	5204
844.435	5064
844.571	5052
844.708	5193
844.844	5288
844.98	5315
845.117	5208
845.253	5174
845.389	5037
845.525	5189
845.661	5132
845.798	5033
845.934	5117
846.07	5037
846.206	5204
846.342	5242
846.478	5155
846.614	5090
846.75	4999
846.886	4976
847.022	5140
847.158	5029
847.294	5075
847.429	5079
847.565	5071
847.701	5292
847.837	4885
847.972	4862
848.108	5022
848.244	4972
848.379	4740
848.515	4752
848.65	4694
848.786	4733
848.921	4801
849.057	4809
849.192	4885
849.328	4801
849.463	4790
849.598	4839
849.734	4717
849.869	4668
850.004	4645
850.14	4649
850.275	4580
850.41	4508
850.545	4546
850.68	4573
850.815	4630
850.95	4622
851.085	4870
851.22	4740
851.355	4660
851.49	4596
851.625	4637
851.76	4634
851.895	4558
852.03	4565
852.165	4592
852.299	4717
852.434	4793
852.569	4759
852.703	4767
852.838	4858
852.973	4934
853.107	4934
853.242	4774
853.376	4691
853.511	4592
853.645	4668
853.78	4862
853.914	4721
854.048	4649
854.183	4607
854.317	4710
854.451	4831
854.585	4702
854.72	4630
854.854	4710
854.988	4577
855.122	4622
855.256	4531
855.39	4649
855.524	4767
855.658	4706
855.792	4717
855.926	4706
856.06	4755
856.194	4828
856.327	4672
856.461	4577
856.595	4615
856.729	4607
856.862	4752
856.996	4683
857.13	4717
857.263	4763
857.397	4786
857.53	4599
857.664	4725
857.797	4771
857.931	4717
858.064	4679
858.197	4725
858.331	4603
858.464	4615
858.597	4550
858.731	4611
858.864	4683
858.997	4561
859.13	4687
859.263	4679
859.396	4660
859.529	4618
859.662	4584
859.795	4508
859.928	4630
860.061	4752
860.194	4706
860.327	4622
860.46	4535
860.592	4733
860.725	4675
860.858	4706
860.99	4558
861.123	4542
861.256	4493
861.388	4611
861.521	5277
861.653	4516
861.786	4443
861.918	4474
862.05	4538
862.183	4569
862.315	4577
862.447	4664
862.58	4554
862.712	4352
862.844	4333
862.976	4455
863.108	4443
863.24	4866
863.372	4371
863.504	4432
863.636	4390
863.768	4485
863.9	4489
864.032	4333
864.164	4436
864.296	4516
864.428	4493
864.559	4535
864.691	4535
864.823	4512
864.954	4500
865.086	4538
865.217	4428
865.349	4390
865.48	4428
865.612	4466
865.743	4630
865.875	4466
866.006	4478
866.137	4432
866.269	4413
866.4	4470
866.531	4424
866.662	4417
866.793	4390
866.924	4451
867.055	4489
867.186	4466
867.317	4390
867.448	4386
867.579	4436
867.71	4375
867.841	4352
867.972	4497
868.103	4440
868.233	4443
868.364	4478
868.495	4493
868.625	4649
868.756	4744
868.886	4565
869.017	4573
869.147	4748
869.278	4744
869.408	4672
869.539	4656
869.669	4706
869.799	4694
869.929	4717
870.06	4763
870.19	5006
870.32	4927
870.45	4923
870.58	5018
870.71	5045
870.84	5098
870.97	4934
871.1	4919
871.23	5071
871.36	5109
871.489	5022
871.619	5037
871.749	5056
871.879	5109
872.008	5162
872.138	5090
872.267	4968
872.397	4816
872.526	4763
872.656	4755
872.785	4797
872.915	4919
873.044	5033
873.173	4919
873.303	4965
873.432	4911
873.561	4961
873.69	4835
873.819	4831
873.948	4873
874.077	4828
874.206	4793
874.335	4809
874.464	4946
874.593	5056
874.722	4991
874.851	5079
874.979	5067
875.108	5010
875.237	4892
875.365	4877
875.494	4828
875.623	5003
875.751	4816
875.88	4873
876.008	4957
876.136	5041
876.265	5136
876.393	5334
876.521	5235
876.65	5185
876.778	5166
876.906	5060
877.034	5045
877.162	5083
877.29	4976
877.418	5060
877.546	5083
877.674	5022
877.802	5025
877.93	4999
878.058	4953
878.185	4843
878.313	4957
878.441	4980
878.568	4763
878.696	4923
878.824	4915
878.951	4991
879.079	5143
879.206	5239
879.333	5079
879.461	4949
879.588	5041
879.715	5124
879.842	5239
879.97	5010
880.097	4797
880.224	4748
880.351	4793
880.478	4824
880.605	4778
880.732	4862
880.859	5079
880.986	4885
881.112	4881
881.239	4774
881.366	4630
881.493	4622
881.619	4580
881.746	4649
881.872	4664
881.999	4656
882.125	4645
882.252	4774
882.378	4774
882.505	4915
882.631	4797
882.757	4664
882.883	4706
883.01	4694
883.136	4664
883.262	4611
883.388	4672
883.514	4793
883.64	4892
883.766	4790
883.892	4668
884.018	4691
884.143	4908
884.269	5037
884.395	4714
884.52	4634
884.646	4596
884.772	4592
884.897	4550
885.023	4630
885.148	4786
885.274	4881
885.399	4797
885.524	4755
885.65	4675
885.775	4725
885.9	4675
886.025	4866
886.15	4774
886.275	4675
886.4	4645
886.525	4733
886.65	4668
886.775	4672
886.9	4904
887.025	5022
887.149	4801
887.274	4710
887.399	4592
887.523	4637
887.648	4565
887.773	4561
887.897	4706
888.021	4774
888.146	4706
888.27	4839
888.395	4854
888.519	4793
888.643	4797
888.767	4843
888.891	4721
889.015	4626
889.139	4675
889.263	4618
889.387	4759
889.511	4866
889.635	4797
889.759	4618
889.883	4637
890.006	4714
890.13	4847
890.254	4660
890.377	4637
890.501	4535
890.624	4497
890.748	4565
890.871	4485
890.995	4394
891.118	4337
891.241	4523
891.364	4550
891.488	4679
891.611	4512
891.734	4538
891.857	4656
891.98	4493
892.103	4611
892.226	4584
892.349	4508
892.471	4474
892.594	4508
892.717	4546
892.839	4538
892.962	4634
893.085	4721
893.207	4596
893.33	4462
893.452	4497
893.575	4668
893.697	4512
893.819	4786
893.941	4820
894.064	4778
894.186	4596
894.308	4592
894.43	4748
894.552	4778
894.674	4786
894.796	4538
894.918	4603
895.04	4512
895.161	4698
895.283	4645
895.405	4584
895.526	4596
895.648	4706
895.769	4702
895.891	4687
896.012	4706
896.134	4694
896.255	4736
896.376	4687
896.498	4592
896.619	4653
896.74	4656
896.861	4607
896.982	4930
897.103	5086
897.224	4801
897.345	4736
897.466	4645
897.587	4702
897.708	4858
897.828	4767
897.949	4622
898.07	4569
898.19	4645
898.311	4774
898.431	4668
898.552	4748
898.672	4797
898.792	4782
898.913	4725
899.033	4618
899.153	4478
899.273	4451
899.393	4459
899.513	4489
899.633	4508
899.753	4550
899.873	4500
899.993	4588
900.113	4516
900.232	4546
900.352	4558
900.472	4462
900.591	4314
900.711	4489
900.83	4466
900.95	4584
901.069	4683
901.189	4500
901.308	4337
901.427	4306
901.546	4398
901.665	4462
901.784	4478
901.904	4356
902.023	4291
902.141	4204
902.26	4188
902.379	4272
902.498	4242
902.617	4223
902.735	4352
902.854	4341
902.973	4344
903.091	4227
903.21	4242
903.328	4272
903.446	4280
903.565	4306
903.683	4363
903.801	4272
903.919	4375
904.038	4394
904.156	4341
904.274	4398
904.392	4379
904.51	4428
904.627	4443
904.745	4577
904.863	4649
904.981	4394
905.098	4325
905.216	4356
905.334	4413
905.451	4413
905.569	4398
905.686	4519
905.803	4550
905.921	4390
906.038	4554
906.155	4436
906.272	4402
906.389	4386
906.506	4386
906.623	4390
906.74	4405
906.857	4284
906.974	4363
907.091	4569
907.208	4656
907.324	4565
907.441	4519
907.557	4299
907.674	4306
907.79	4314
907.907	4413
908.023	4497
908.139	4478
908.256	4398
908.372	4466
908.488	4455
908.604	4352
908.72	4337
908.836	4409
908.952	4386
909.068	4474
909.184	4580
909.3	4470
909.415	4580
909.531	4573
909.647	4421
909.762	4428
909.878	4371
909.993	4470
910.108	4405
910.224	4398
910.339	4516
910.454	4466
910.57	4367
910.685	4310
910.8	4649
910.915	4634
911.03	4489
911.145	4314
911.259	4329
911.374	4352
911.489	4276
911.604	4333
911.718	4166
911.833	4196
911.947	4074
912.062	4025
912.176	4181
912.291	4249
912.405	4242
912.519	4424
912.633	4519
912.748	4394
912.862	4337
912.976	4219
913.09	4086
913.204	4166
913.318	4257
913.431	4341
913.545	4421
913.659	4440
913.772	4352
913.886	4249
914	4238
914.113	4409
914.226	4470
914.34	4421
914.453	4219
914.566	4375
914.68	4295
914.793	4291
914.906	4177
915.019	4124
915.132	4105
915.245	4173
915.358	4234
915.47	4230
915.583	4242
915.696	4306
915.809	4405
915.921	4417
916.034	4234
916.146	4265
916.259	4207
916.371	4398
916.483	4337
916.595	4261
916.708	4284
916.82	4280
916.932	4352
917.044	4284
917.156	4322
917.268	4211
917.38	4306
917.491	4276
917.603	4344
917.715	4428
917.826	4424
917.938	4375
918.049	4284
918.161	4367
918.272	4546
918.384	4554
918.495	4493
918.606	4276
918.717	4242
918.828	4341
918.939	4360
919.05	4276
919.161	4314
919.272	4154
919.383	4215
919.494	4413
919.604	4660
919.715	4379
919.826	4344
919.936	4405
920.047	4523
920.157	4459
920.267	4729
920.378	4519
920.488	4489
920.598	4691
920.708	4854
920.818	4729
920.928	4812
921.038	4923
921.148	4946
921.258	4615
921.368	4516
921.477	4500
921.587	4424
921.697	4371
921.806	4497
921.916	4440
922.025	4322
922.134	4295
922.244	4246
922.353	4261
922.462	4150
922.571	4135
922.68	4021
922.789	3991
922.898	4013
923.007	3991
923.116	4109
923.224	4067
923.333	4055
923.442	3968
923.55	3987
923.659	4021
923.767	4109
923.876	3945
923.984	4105
924.092	3975
924.201	4097
924.309	4086
924.417	4109
924.525	4021
924.633	4067
924.741	5037
924.849	3911
924.956	4082
925.064	3945
925.172	3907
925.279	3972
925.387	4048
925.494	4090
925.602	4230
925.709	4162
925.816	3998
925.924	4097
926.031	4211
926.138	4169
926.245	4188
926.352	4074
926.459	4177
926.566	4318
926.673	4154
926.779	4048
926.886	4078
926.993	3998
927.099	3987
927.206	3930
927.312	3964
927.419	4044
927.525	4002
927.631	4093
927.737	3956
927.843	3937
927.95	3804
928.056	3949
928.162	3941
928.267	4067
928.373	4645
928.479	4150
928.585	3892
928.69	4029
928.796	4109
928.901	3960
929.007	3842
929.112	3964
929.218	3983
929.323	3972
929.428	3960
929.533	4135
929.638	3911
929.743	3968
929.848	4055
929.953	3964
930.058	3926
930.163	3740
930.267	3850
930.372	3968
930.477	3793
930.581	4112
930.685	3869
930.79	3793
930.894	3911
930.998	3835
931.103	4044
931.207	3709
931.311	3690
931.415	3698
931.519	3519
931.623	3584
