Data from test_V78500241_1223.txt Node
Date: Fri Mar 25 16:57:30 CST 2022
User: usil
Spectrometer: V785-0024
Trigger mode: 0
Integration Time (sec): 4.000000E-1
Scans to average: 1
Nonlinearity correction enabled: false
Boxcar width: 0
Storing dark spectrum: false
XAxis mode: Wavelengths
Number of Pixels in Spectrum: 1024
>>>>>Begin Spectral Data<<<<<
801.071	8092
801.214	8062
801.356	7856
801.499	7879
801.641	7830
801.783	7769
801.926	7951
802.068	7967
802.211	7986
802.353	7959
802.496	7833
802.638	7849
802.78	7970
802.923	7913
803.065	7879
803.208	7887
803.35	7944
803.492	8058
803.635	8164
803.777	8024
803.919	8130
804.061	8400
804.204	8195
804.346	8081
804.488	7974
804.63	8149
804.773	8043
804.915	8096
805.057	8294
805.199	8180
805.341	8271
805.483	8214
805.626	8259
805.768	8149
805.91	8237
806.052	8229
806.194	8069
806.336	8328
806.478	8115
806.62	8073
806.762	8172
806.904	8328
807.046	8503
807.188	8240
807.33	8286
807.472	8343
807.614	8176
807.756	8157
807.898	7963
808.04	7898
808.182	7936
808.324	7875
808.465	7974
808.607	8065
808.749	8103
808.891	8187
809.033	8282
809.174	8191
809.316	8081
809.458	8058
809.6	7959
809.741	8016
809.883	8039
810.025	8092
810.166	8115
810.308	7986
810.45	8024
810.591	7898
810.733	7776
810.875	7731
811.016	7563
811.158	7472
811.299	7590
811.441	7693
811.582	7784
811.724	7563
811.865	7529
812.007	7567
812.148	7529
812.29	7628
812.431	7719
812.573	7921
812.714	7963
812.855	8145
812.997	8202
813.138	8317
813.279	8172
813.421	8119
813.562	7959
813.703	7879
813.845	7753
813.986	7495
814.127	7289
814.268	7247
814.41	7255
814.551	7129
814.692	7175
814.833	7053
814.974	7050
815.115	7145
815.256	6985
815.397	6939
815.539	7042
815.68	6924
815.821	6798
815.962	6802
816.103	6772
816.244	6677
816.385	6642
816.526	6623
816.666	6486
816.807	6323
816.948	6418
817.089	6509
817.23	6407
817.371	6388
817.512	6441
817.653	6365
817.793	6357
817.934	6365
818.075	6403
818.216	6395
818.356	6418
818.497	6213
818.638	6125
818.778	6209
818.919	6144
819.06	6136
819.2	6342
819.341	6308
819.481	6342
819.622	6513
819.762	6654
819.903	6650
820.043	6612
820.184	6601
820.324	6608
820.465	6681
820.605	6681
820.746	6681
820.886	6559
821.026	6669
821.167	6703
821.307	6791
821.447	6776
821.588	6604
821.728	6593
821.868	6490
822.008	6365
822.149	6399
822.289	6369
822.429	6155
822.569	6083
822.709	6129
822.849	5916
822.99	5950
823.13	5904
823.27	5942
823.41	5760
823.55	5813
823.69	5794
823.83	5760
823.97	5684
824.11	5490
824.25	5512
824.389	5501
824.529	5539
824.669	5551
824.809	5684
824.949	5608
825.089	5600
825.228	5577
825.368	5387
825.508	5326
825.648	5364
825.787	5357
825.927	5337
826.067	5280
826.206	5284
826.346	5349
826.485	5398
826.625	5414
826.765	5573
826.904	5482
827.044	5277
827.183	5208
827.323	5117
827.462	5170
827.601	5170
827.741	5216
827.88	5212
828.02	5098
828.159	5269
828.298	5292
828.437	5349
828.577	5258
828.716	5474
828.855	5277
828.994	5128
829.134	5140
829.273	5216
829.412	5140
829.551	5105
829.69	5185
829.829	5235
829.968	5357
830.107	5273
830.246	5261
830.385	5159
830.524	5105
830.663	5018
830.802	4949
830.941	4923
831.08	4828
831.219	4984
831.357	4991
831.496	5170
831.635	4900
831.774	4816
831.913	4850
832.051	4744
832.19	4702
832.329	4820
832.467	4725
832.606	4649
832.744	4710
832.883	4706
833.022	4683
833.16	4774
833.299	4831
833.437	4816
833.576	4816
833.714	4873
833.852	4866
833.991	4873
834.129	4911
834.267	4919
834.406	4930
834.544	4946
834.682	4965
834.821	5014
834.959	5147
835.097	5018
835.235	5124
835.373	5033
835.511	5113
835.65	4991
835.788	4946
835.926	4930
836.064	4843
836.202	4885
836.34	5159
836.478	5204
836.615	5121
836.753	5174
836.891	5284
837.029	5201
837.167	5147
837.305	5162
837.443	5132
837.58	5064
837.718	5212
837.856	5246
837.993	5159
838.131	5208
838.269	5204
838.406	5231
838.544	5208
838.681	5041
838.819	5003
838.956	4896
839.094	4889
839.231	4923
839.369	5067
839.506	5421
839.643	5280
839.781	5029
839.918	4991
840.055	5102
840.193	5102
840.33	5079
840.467	5132
840.604	5208
840.742	5425
840.879	5052
841.016	5121
841.153	5098
841.29	5341
841.427	5341
841.564	5341
841.701	5311
841.838	5292
841.975	5273
842.112	5273
842.249	5140
842.385	5083
842.522	5307
842.659	5174
842.796	5098
842.933	5239
843.069	5143
843.206	5170
843.343	5311
843.479	5197
843.616	5250
843.752	5022
843.889	5010
844.025	5185
844.162	5033
844.298	5170
844.435	5132
844.571	5052
844.708	5155
844.844	5307
844.98	5387
845.117	5360
845.253	5105
845.389	5128
845.525	5159
845.661	5159
845.798	5037
845.934	5132
846.07	5033
846.206	5181
846.342	5269
846.478	5121
846.614	4999
846.75	4930
846.886	4923
847.022	5094
847.158	5041
847.294	5029
847.429	5143
847.565	5060
847.701	5292
847.837	4934
847.972	4759
848.108	4915
848.244	4938
848.379	4755
848.515	4733
848.65	4683
848.786	4744
848.921	4729
849.057	4850
849.192	4889
849.328	4831
849.463	4858
849.598	4767
849.734	4759
849.869	4694
850.004	4656
850.14	4634
850.275	4630
850.41	4481
850.545	4535
850.68	4584
850.815	4618
850.95	4660
851.085	4824
851.22	4710
851.355	4634
851.49	4607
851.625	4630
851.76	4569
851.895	4577
852.03	4516
852.165	4630
852.299	4710
852.434	4755
852.569	4752
852.703	4725
852.838	4877
852.973	4923
853.107	4915
853.242	4710
853.376	4683
853.511	4489
853.645	4596
853.78	4793
853.914	4702
854.048	4649
854.183	4660
854.317	4653
854.451	4812
854.585	4694
854.72	4611
854.854	4733
854.988	4630
855.122	4584
855.256	4508
855.39	4603
855.524	4744
855.658	4679
855.792	4668
855.926	4698
856.06	4786
856.194	4820
856.327	4668
856.461	4641
856.595	4637
856.729	4603
856.862	4763
856.996	4626
857.13	4717
857.263	4759
857.397	4797
857.53	4641
857.664	4717
857.797	4729
857.931	4816
858.064	4675
858.197	4714
858.331	4641
858.464	4649
858.597	4523
858.731	4607
858.864	4611
858.997	4596
859.13	4645
859.263	4649
859.396	4687
859.529	4607
859.662	4550
859.795	4527
859.928	4558
860.061	4767
860.194	4744
860.327	4592
860.46	4611
860.592	4714
860.725	4687
860.858	4725
860.99	4554
861.123	4497
861.256	4493
861.388	4565
861.521	5402
861.653	4481
861.786	4443
861.918	4432
862.05	4519
862.183	4550
862.315	4561
862.447	4645
862.58	4535
862.712	4394
862.844	4341
862.976	4405
863.108	4440
863.24	4858
863.372	4322
863.504	4394
863.636	4421
863.768	4421
863.9	4417
864.032	4375
864.164	4386
864.296	4497
864.428	4512
864.559	4516
864.691	4447
864.823	4535
864.954	4489
865.086	4512
865.217	4447
865.349	4409
865.48	4424
865.612	4413
865.743	4565
865.875	4462
866.006	4462
866.137	4432
866.269	4413
866.4	4451
866.531	4447
866.662	4417
866.793	4383
866.924	4432
867.055	4478
867.186	4481
867.317	4386
867.448	4386
867.579	4440
867.71	4440
867.841	4333
867.972	4424
868.103	4485
868.233	4421
868.364	4455
868.495	4428
868.625	4645
868.756	4744
868.886	4561
869.017	4607
869.147	4759
869.278	4702
869.408	4656
869.539	4630
869.669	4679
869.799	4630
869.929	4763
870.06	4790
870.19	4934
870.32	4919
870.45	4911
870.58	4991
870.71	5113
870.84	5109
870.97	4930
871.1	4889
871.23	5113
871.36	5052
871.489	5052
871.619	5090
871.749	5022
871.879	5102
872.008	5143
872.138	4991
872.267	4953
872.397	4828
872.526	4767
872.656	4736
872.785	4793
872.915	4980
873.044	5022
873.173	4889
873.303	4972
873.432	4987
873.561	4908
873.69	4904
873.819	4862
873.948	4927
874.077	4820
874.206	4744
874.335	4812
874.464	4889
874.593	5048
874.722	4976
874.851	5124
874.979	5048
875.108	5045
875.237	4949
875.365	4866
875.494	4889
875.623	4968
875.751	4820
875.88	4896
876.008	4984
876.136	5029
876.265	5181
876.393	5296
876.521	5220
876.65	5227
876.778	5128
876.906	5056
877.034	5003
877.162	4999
877.29	5014
877.418	5071
877.546	4999
877.674	5045
877.802	4995
877.93	5033
878.058	4930
878.185	4820
878.313	4927
878.441	4904
878.568	4748
878.696	4885
878.824	4911
878.951	4995
879.079	5113
879.206	5307
879.333	5086
879.461	4972
879.588	5018
879.715	5071
879.842	5265
879.97	4968
880.097	4752
880.224	4744
880.351	4790
880.478	4831
880.605	4759
880.732	4782
880.859	5060
880.986	4858
881.112	4873
881.239	4771
881.366	4656
881.493	4577
881.619	4542
881.746	4615
881.872	4599
881.999	4618
882.125	4702
882.252	4801
882.378	4858
882.505	4968
882.631	4778
882.757	4683
882.883	4748
883.01	4752
883.136	4698
883.262	4542
883.388	4626
883.514	4816
883.64	4820
883.766	4812
883.892	4656
884.018	4744
884.143	4881
884.269	4972
884.395	4649
884.52	4607
884.646	4596
884.772	4599
884.897	4588
885.023	4653
885.148	4763
885.274	4847
885.399	4767
885.524	4679
885.65	4687
885.775	4763
885.9	4706
886.025	4862
886.15	4786
886.275	4694
886.4	4698
886.525	4698
886.65	4710
886.775	4683
886.9	4908
887.025	5060
887.149	4816
887.274	4630
887.399	4577
887.523	4550
887.648	4588
887.773	4538
887.897	4786
888.021	4809
888.146	4691
888.27	4820
888.395	4919
888.519	4778
888.643	4885
888.767	4805
888.891	4653
889.015	4580
889.139	4641
889.263	4565
889.387	4763
889.511	4843
889.635	4790
889.759	4660
889.883	4611
890.006	4767
890.13	4820
890.254	4607
890.377	4687
890.501	4500
890.624	4512
890.748	4660
890.871	4497
890.995	4390
891.118	4428
891.241	4493
891.364	4531
891.488	4584
891.611	4489
891.734	4550
891.857	4577
891.98	4535
892.103	4626
892.226	4550
892.349	4500
892.471	4421
892.594	4523
892.717	4603
892.839	4558
892.962	4565
893.085	4611
893.207	4645
893.33	4443
893.452	4504
893.575	4634
893.697	4558
893.819	4748
893.941	4828
894.064	4729
894.186	4596
894.308	4535
894.43	4717
894.552	4828
894.674	4778
894.796	4550
894.918	4596
895.04	4569
895.161	4656
895.283	4599
895.405	4516
895.526	4618
895.648	4672
895.769	4675
895.891	4733
896.012	4706
896.134	4702
896.255	4729
896.376	4618
896.498	4634
896.619	4660
896.74	4618
896.861	4592
896.982	4900
897.103	5052
897.224	4835
897.345	4717
897.466	4672
897.587	4725
897.708	4809
897.828	4824
897.949	4660
898.07	4580
898.19	4588
898.311	4771
898.431	4656
898.552	4725
898.672	4831
898.792	4782
898.913	4729
899.033	4630
899.153	4500
899.273	4424
899.393	4493
899.513	4546
899.633	4493
899.753	4565
899.873	4523
899.993	4615
900.113	4550
900.232	4577
900.352	4519
900.472	4443
900.591	4348
900.711	4500
900.83	4462
900.95	4603
901.069	4615
901.189	4508
901.308	4352
901.427	4295
901.546	4367
901.665	4466
901.784	4558
901.904	4383
902.023	4329
902.141	4181
902.26	4185
902.379	4272
902.498	4249
902.617	4257
902.735	4356
902.854	4363
902.973	4348
903.091	4238
903.21	4219
903.328	4299
903.446	4276
903.565	4261
903.683	4306
903.801	4268
903.919	4432
904.038	4413
904.156	4341
904.274	4424
904.392	4386
904.51	4421
904.627	4466
904.745	4569
904.863	4660
904.981	4413
905.098	4299
905.216	4356
905.334	4421
905.451	4424
905.569	4428
905.686	4561
905.803	4554
905.921	4356
906.038	4546
906.155	4478
906.272	4344
906.389	4440
906.506	4375
906.623	4371
906.74	4379
906.857	4268
906.974	4360
907.091	4550
907.208	4653
907.324	4592
907.441	4508
907.557	4390
907.674	4352
907.79	4341
907.907	4367
908.023	4485
908.139	4413
908.256	4405
908.372	4451
908.488	4493
908.604	4318
908.72	4318
908.836	4352
908.952	4363
909.068	4383
909.184	4546
909.3	4500
909.415	4573
909.531	4569
909.647	4352
909.762	4341
909.878	4356
909.993	4394
910.108	4383
910.224	4451
910.339	4451
910.454	4383
910.57	4360
910.685	4291
910.8	4664
910.915	4592
911.03	4508
911.145	4322
911.259	4337
911.374	4337
911.489	4268
911.604	4295
911.718	4112
911.833	4200
911.947	4071
912.062	4006
912.176	4196
912.291	4238
912.405	4249
912.519	4504
912.633	4451
912.748	4379
912.862	4253
912.976	4230
913.09	4086
913.204	4181
913.318	4249
913.431	4360
913.545	4386
913.659	4390
913.772	4341
913.886	4227
914	4223
914.113	4413
914.226	4367
914.34	4363
914.453	4253
914.566	4436
914.68	4310
914.793	4306
914.906	4143
915.019	4093
915.132	4082
915.245	4109
915.358	4215
915.47	4196
915.583	4291
915.696	4276
915.809	4383
915.921	4440
916.034	4227
916.146	4265
916.259	4261
916.371	4360
916.483	4398
916.595	4211
916.708	4310
916.82	4333
916.932	4284
917.044	4367
917.156	4329
917.268	4246
917.38	4303
917.491	4249
917.603	4341
917.715	4390
917.826	4436
917.938	4337
918.049	4211
918.161	4390
918.272	4527
918.384	4481
918.495	4424
918.606	4276
918.717	4249
918.828	4280
918.939	4417
919.05	4291
919.161	4303
919.272	4101
919.383	4234
919.494	4402
919.604	4649
919.715	4462
919.826	4333
919.936	4405
920.047	4500
920.157	4459
920.267	4691
920.378	4531
920.488	4478
920.598	4710
920.708	4885
920.818	4774
920.928	4717
921.038	4919
921.148	4896
921.258	4622
921.368	4584
921.477	4485
921.587	4402
921.697	4344
921.806	4516
921.916	4443
922.025	4234
922.134	4257
922.244	4166
922.353	4306
922.462	4177
922.571	4124
922.68	3994
922.789	3968
922.898	4051
923.007	3960
923.116	4082
923.224	4090
923.333	4059
923.442	3991
923.55	3991
923.659	3991
923.767	4112
923.876	3998
923.984	4101
924.092	4002
924.201	4097
924.309	4044
924.417	4139
924.525	4048
924.633	4093
924.741	5041
924.849	3892
924.956	4150
925.064	3994
925.172	3930
925.279	3956
925.387	4078
925.494	4063
925.602	4196
925.709	4166
925.816	4067
925.924	4112
926.031	4192
926.138	4166
926.245	4177
926.352	4029
926.459	4246
926.566	4284
926.673	4135
926.779	4086
926.886	4055
926.993	3953
927.099	3926
927.206	3907
927.312	3899
927.419	4048
927.525	3998
927.631	4048
927.737	3975
927.843	3941
927.95	3831
928.056	3979
928.162	3953
928.267	4017
928.373	4683
928.479	4067
928.585	3861
928.69	4078
928.796	4105
928.901	3926
929.007	3854
929.112	4010
929.218	4006
929.323	3930
929.428	3956
929.533	4078
929.638	3926
929.743	3934
929.848	4044
929.953	4002
930.058	3892
930.163	3816
930.267	3812
930.372	3941
930.477	3797
930.581	4093
930.685	3945
930.79	3793
930.894	3926
930.998	3861
931.103	4059
931.207	3698
931.311	3705
931.415	3667
931.519	3542
931.623	3500
