Data from test_V78500241_1445.txt Node
Date: Fri Mar 25 16:59:02 CST 2022
User: usil
Spectrometer: V785-0024
Trigger mode: 0
Integration Time (sec): 4.000000E-1
Scans to average: 1
Nonlinearity correction enabled: false
Boxcar width: 0
Storing dark spectrum: false
XAxis mode: Wavelengths
Number of Pixels in Spectrum: 1024
>>>>>Begin Spectral Data<<<<<
801.071	7997
801.214	8069
801.356	7913
801.499	7879
801.641	7898
801.783	7803
801.926	7963
802.068	7970
802.211	7940
802.353	8046
802.496	7871
802.638	7909
802.78	7951
802.923	7944
803.065	7917
803.208	7852
803.35	8016
803.492	8096
803.635	8172
803.777	8024
803.919	8172
804.061	8412
804.204	8176
804.346	8107
804.488	7959
804.63	8065
804.773	8054
804.915	8149
805.057	8385
805.199	8229
805.341	8282
805.483	8286
805.626	8195
805.768	8237
805.91	8221
806.052	8252
806.194	8149
806.336	8396
806.478	8153
806.62	8073
806.762	8134
806.904	8252
807.046	8530
807.188	8381
807.33	8377
807.472	8358
807.614	8210
807.756	8180
807.898	8001
808.04	7887
808.182	7974
808.324	7917
808.465	8008
808.607	8199
808.749	8164
808.891	8271
809.033	8252
809.174	8202
809.316	8107
809.458	8039
809.6	8039
809.741	8046
809.883	8050
810.025	8119
810.166	8031
810.308	8092
810.45	8069
810.591	7917
810.733	7795
810.875	7662
811.016	7540
811.158	7518
811.299	7647
811.441	7731
811.582	7719
811.724	7597
811.865	7476
812.007	7594
812.148	7632
812.29	7578
812.431	7799
812.573	7883
812.714	8054
812.855	8161
812.997	8275
813.138	8298
813.279	8267
813.421	8153
813.562	7940
813.703	7826
813.845	7750
813.986	7502
814.127	7282
814.268	7240
814.41	7190
814.551	7213
814.692	7168
814.833	7069
814.974	7137
815.115	7149
815.256	7065
815.397	6920
815.539	6939
815.68	6837
815.821	6802
815.962	6894
816.103	6837
816.244	6738
816.385	6597
816.526	6677
816.666	6517
816.807	6323
816.948	6414
817.089	6426
817.23	6403
817.371	6429
817.512	6422
817.653	6445
817.793	6403
817.934	6395
818.075	6441
818.216	6467
818.356	6395
818.497	6311
818.638	6110
818.778	6155
818.919	6235
819.06	6186
819.2	6323
819.341	6300
819.481	6403
819.622	6551
819.762	6722
819.903	6707
820.043	6665
820.184	6597
820.324	6635
820.465	6749
820.605	6692
820.746	6601
820.886	6559
821.026	6662
821.167	6760
821.307	6745
821.447	6818
821.588	6749
821.728	6597
821.868	6486
822.008	6380
822.149	6376
822.289	6323
822.429	6182
822.569	6102
822.709	6171
822.849	5946
822.99	5931
823.13	5908
823.27	5893
823.41	5779
823.55	5817
823.69	5790
823.83	5783
823.97	5680
824.11	5554
824.25	5551
824.389	5566
824.529	5596
824.669	5501
824.809	5653
824.949	5672
825.089	5608
825.228	5532
825.368	5402
825.508	5334
825.648	5288
825.787	5421
825.927	5395
826.067	5315
826.206	5345
826.346	5425
826.485	5379
826.625	5425
826.765	5528
826.904	5463
827.044	5220
827.183	5189
827.323	5136
827.462	5307
827.601	5231
827.741	5204
827.88	5265
828.02	5071
828.159	5269
828.298	5349
828.437	5360
828.577	5303
828.716	5459
828.855	5357
828.994	5159
829.134	5162
829.273	5174
829.412	5113
829.551	5178
829.69	5151
829.829	5242
829.968	5383
830.107	5280
830.246	5322
830.385	5235
830.524	5151
830.663	5136
830.802	5010
830.941	4911
831.08	4889
831.219	4984
831.357	5022
831.496	5155
831.635	4915
831.774	4866
831.913	4877
832.051	4790
832.19	4763
832.329	4858
832.467	4706
832.606	4675
832.744	4729
832.883	4710
833.022	4748
833.16	4805
833.299	4812
833.437	4786
833.576	4812
833.714	4904
833.852	4820
833.991	4896
834.129	4923
834.267	4991
834.406	4885
834.544	5014
834.682	5052
834.821	4987
834.959	5181
835.097	4980
835.235	5117
835.373	5098
835.511	5128
835.65	5041
835.788	5022
835.926	4934
836.064	4934
836.202	4953
836.34	5151
836.478	5197
836.615	5117
836.753	5178
836.891	5277
837.029	5273
837.167	5201
837.305	5201
837.443	5147
837.58	5117
837.718	5303
837.856	5178
837.993	5204
838.131	5288
838.269	5242
838.406	5269
838.544	5216
838.681	5064
838.819	5033
838.956	4892
839.094	4927
839.231	4961
839.369	5086
839.506	5425
839.643	5265
839.781	5079
839.918	4976
840.055	5086
840.193	5071
840.33	5143
840.467	5128
840.604	5220
840.742	5433
840.879	5098
841.016	5071
841.153	5181
841.29	5337
841.427	5337
841.564	5318
841.701	5330
841.838	5258
841.975	5273
842.112	5296
842.249	5128
842.385	5132
842.522	5311
842.659	5220
842.796	5155
842.933	5220
843.069	5143
843.206	5223
843.343	5364
843.479	5227
843.616	5277
843.752	5090
843.889	4946
844.025	5208
844.162	5048
844.298	5246
844.435	5071
844.571	5075
844.708	5193
844.844	5261
844.98	5311
845.117	5353
845.253	5151
845.389	5075
845.525	5147
845.661	5132
845.798	4965
845.934	5155
846.07	5064
846.206	5121
846.342	5265
846.478	5174
846.614	5052
846.75	4999
846.886	4873
847.022	5128
847.158	5048
847.294	5064
847.429	5147
847.565	5045
847.701	5299
847.837	4824
847.972	4824
848.108	4949
848.244	4965
848.379	4752
848.515	4679
848.65	4714
848.786	4744
848.921	4759
849.057	4885
849.192	4961
849.328	4831
849.463	4881
849.598	4771
849.734	4706
849.869	4698
850.004	4603
850.14	4656
850.275	4603
850.41	4516
850.545	4573
850.68	4607
850.815	4607
850.95	4630
851.085	4892
851.22	4778
851.355	4649
851.49	4615
851.625	4599
851.76	4626
851.895	4592
852.03	4523
852.165	4603
852.299	4774
852.434	4771
852.569	4771
852.703	4824
852.838	4885
852.973	4938
853.107	4896
853.242	4809
853.376	4698
853.511	4500
853.645	4641
853.78	4858
853.914	4702
854.048	4668
854.183	4679
854.317	4694
854.451	4843
854.585	4664
854.72	4626
854.854	4683
854.988	4626
855.122	4679
855.256	4592
855.39	4668
855.524	4805
855.658	4733
855.792	4725
855.926	4752
856.06	4729
856.194	4824
856.327	4694
856.461	4596
856.595	4611
856.729	4618
856.862	4744
856.996	4660
857.13	4782
857.263	4755
857.397	4824
857.53	4649
857.664	4744
857.797	4759
857.931	4774
858.064	4706
858.197	4759
858.331	4645
858.464	4561
858.597	4535
858.731	4634
858.864	4626
858.997	4611
859.13	4672
859.263	4679
859.396	4668
859.529	4618
859.662	4550
859.795	4550
859.928	4634
860.061	4797
860.194	4835
860.327	4679
860.46	4580
860.592	4725
860.725	4706
860.858	4725
860.99	4599
861.123	4554
861.256	4546
861.388	4637
861.521	5383
861.653	4493
861.786	4436
861.918	4470
862.05	4535
862.183	4554
862.315	4596
862.447	4618
862.58	4516
862.712	4405
862.844	4325
862.976	4485
863.108	4428
863.24	4862
863.372	4344
863.504	4466
863.636	4421
863.768	4516
863.9	4432
864.032	4341
864.164	4367
864.296	4455
864.428	4538
864.559	4516
864.691	4527
864.823	4550
864.954	4508
865.086	4558
865.217	4459
865.349	4394
865.48	4466
865.612	4497
865.743	4634
865.875	4500
866.006	4497
866.137	4489
866.269	4417
866.4	4459
866.531	4459
866.662	4371
866.793	4436
866.924	4421
867.055	4470
867.186	4451
867.317	4383
867.448	4383
867.579	4363
867.71	4417
867.841	4356
867.972	4421
868.103	4459
868.233	4443
868.364	4436
868.495	4466
868.625	4660
868.756	4793
868.886	4584
869.017	4577
869.147	4778
869.278	4733
869.408	4679
869.539	4630
869.669	4725
869.799	4694
869.929	4755
870.06	4771
870.19	4980
870.32	4968
870.45	4930
870.58	5003
870.71	5067
870.84	5067
870.97	4938
871.1	4919
871.23	5136
871.36	5128
871.489	5014
871.619	5029
871.749	5094
871.879	5132
872.008	5178
872.138	5010
872.267	4980
872.397	4858
872.526	4771
872.656	4721
872.785	4843
872.915	4999
873.044	5022
873.173	4900
873.303	4980
873.432	4946
873.561	4930
873.69	4896
873.819	4873
873.948	4877
874.077	4831
874.206	4801
874.335	4778
874.464	4911
874.593	5083
874.722	4980
874.851	5109
874.979	5075
875.108	5022
875.237	4919
875.365	4892
875.494	4923
875.623	4980
875.751	4854
875.88	4862
876.008	4961
876.136	5060
876.265	5170
876.393	5303
876.521	5246
876.65	5181
876.778	5143
876.906	5102
877.034	4949
877.162	5067
877.29	4976
877.418	5083
877.546	5018
877.674	5060
877.802	5033
877.93	5018
878.058	4934
878.185	4904
878.313	4938
878.441	4965
878.568	4793
878.696	4866
878.824	4957
878.951	5010
879.079	5143
879.206	5284
879.333	5083
879.461	5025
879.588	5010
879.715	5140
879.842	5193
879.97	5022
880.097	4790
880.224	4706
880.351	4801
880.478	4816
880.605	4797
880.732	4786
880.859	5079
880.986	4904
881.112	4911
881.239	4752
881.366	4702
881.493	4565
881.619	4584
881.746	4615
881.872	4687
881.999	4618
882.125	4691
882.252	4797
882.378	4809
882.505	4919
882.631	4816
882.757	4641
882.883	4725
883.01	4710
883.136	4641
883.262	4538
883.388	4672
883.514	4801
883.64	4877
883.766	4797
883.892	4714
884.018	4752
884.143	4934
884.269	4984
884.395	4649
884.52	4656
884.646	4615
884.772	4630
884.897	4573
885.023	4698
885.148	4759
885.274	4847
885.399	4774
885.524	4694
885.65	4710
885.775	4717
885.9	4717
886.025	4809
886.15	4801
886.275	4733
886.4	4675
886.525	4759
886.65	4656
886.775	4687
886.9	4896
887.025	4976
887.149	4816
887.274	4645
887.399	4603
887.523	4603
887.648	4596
887.773	4573
887.897	4759
888.021	4759
888.146	4698
888.27	4862
888.395	4900
888.519	4786
888.643	4824
888.767	4843
888.891	4710
889.015	4618
889.139	4672
889.263	4615
889.387	4752
889.511	4873
889.635	4831
889.759	4672
889.883	4645
890.006	4752
890.13	4828
890.254	4584
890.377	4649
890.501	4519
890.624	4508
890.748	4611
890.871	4512
890.995	4451
891.118	4318
891.241	4500
891.364	4535
891.488	4596
891.611	4504
891.734	4481
891.857	4607
891.98	4527
892.103	4630
892.226	4603
892.349	4596
892.471	4436
892.594	4580
892.717	4584
892.839	4573
892.962	4592
893.085	4683
893.207	4615
893.33	4455
893.452	4527
893.575	4649
893.697	4580
893.819	4824
893.941	4809
894.064	4740
894.186	4596
894.308	4546
894.43	4736
894.552	4809
894.674	4740
894.796	4500
894.918	4561
895.04	4603
895.161	4679
895.283	4637
895.405	4573
895.526	4611
895.648	4694
895.769	4687
895.891	4660
896.012	4786
896.134	4721
896.255	4675
896.376	4584
896.498	4630
896.619	4679
896.74	4618
896.861	4630
896.982	4870
897.103	5094
897.224	4847
897.345	4725
897.466	4626
897.587	4714
897.708	4900
897.828	4797
897.949	4687
898.07	4531
898.19	4641
898.311	4835
898.431	4664
898.552	4786
898.672	4801
898.792	4828
898.913	4759
899.033	4611
899.153	4546
899.273	4421
899.393	4481
899.513	4504
899.633	4554
899.753	4527
899.873	4542
899.993	4630
900.113	4504
900.232	4607
900.352	4565
900.472	4500
900.591	4367
900.711	4466
900.83	4455
900.95	4577
901.069	4645
901.189	4550
901.308	4383
901.427	4337
901.546	4443
901.665	4447
901.784	4481
901.904	4367
902.023	4314
902.141	4234
902.26	4143
902.379	4310
902.498	4257
902.617	4238
902.735	4375
902.854	4424
902.973	4329
903.091	4196
903.21	4230
903.328	4249
903.446	4318
903.565	4291
903.683	4379
903.801	4276
903.919	4379
904.038	4409
904.156	4322
904.274	4421
904.392	4375
904.51	4394
904.627	4428
904.745	4596
904.863	4656
904.981	4379
905.098	4344
905.216	4409
905.334	4417
905.451	4379
905.569	4436
905.686	4523
905.803	4554
905.921	4405
906.038	4588
906.155	4493
906.272	4367
906.389	4481
906.506	4386
906.623	4329
906.74	4409
906.857	4284
906.974	4390
907.091	4558
907.208	4675
907.324	4580
907.441	4489
907.557	4363
907.674	4379
907.79	4291
907.907	4333
908.023	4493
908.139	4474
908.256	4383
908.372	4474
908.488	4405
908.604	4379
908.72	4287
908.836	4394
908.952	4424
909.068	4383
909.184	4577
909.3	4489
909.415	4622
909.531	4531
909.647	4356
909.762	4371
909.878	4341
909.993	4394
910.108	4440
910.224	4413
910.339	4481
910.454	4436
910.57	4386
910.685	4287
910.8	4618
910.915	4577
911.03	4462
911.145	4341
911.259	4360
911.374	4360
911.489	4261
911.604	4287
911.718	4124
911.833	4139
911.947	4055
912.062	4010
912.176	4230
912.291	4257
912.405	4257
912.519	4474
912.633	4516
912.748	4390
912.862	4299
912.976	4223
913.09	4116
913.204	4185
913.318	4238
913.431	4371
913.545	4379
913.659	4474
913.772	4348
913.886	4242
914	4227
914.113	4379
914.226	4436
914.34	4383
914.453	4238
914.566	4409
914.68	4299
914.793	4352
914.906	4162
915.019	4112
915.132	4051
915.245	4196
915.358	4211
915.47	4234
915.583	4265
915.696	4280
915.809	4371
915.921	4398
916.034	4207
916.146	4272
916.259	4181
916.371	4405
916.483	4344
916.595	4234
916.708	4356
916.82	4341
916.932	4314
917.044	4344
917.156	4295
917.268	4227
917.38	4253
917.491	4303
917.603	4329
917.715	4443
917.826	4398
917.938	4314
918.049	4272
918.161	4424
918.272	4538
918.384	4550
918.495	4459
918.606	4310
918.717	4200
918.828	4299
918.939	4379
919.05	4287
919.161	4337
919.272	4147
919.383	4211
919.494	4451
919.604	4584
919.715	4379
919.826	4360
919.936	4394
920.047	4542
920.157	4481
920.267	4679
920.378	4523
920.488	4497
920.598	4702
920.708	4858
920.818	4733
920.928	4759
921.038	4946
921.148	4934
921.258	4653
921.368	4516
921.477	4459
921.587	4478
921.697	4394
921.806	4504
921.916	4394
922.025	4284
922.134	4219
922.244	4192
922.353	4280
922.462	4150
922.571	4116
922.68	3979
922.789	3953
922.898	4021
923.007	4006
923.116	4173
923.224	4032
923.333	4048
923.442	4017
923.55	3968
923.659	4006
923.767	4169
923.876	3991
923.984	4124
924.092	4013
924.201	4093
924.309	4112
924.417	4086
924.525	4055
924.633	4120
924.741	5003
924.849	3949
924.956	4112
925.064	3949
925.172	3892
925.279	3922
925.387	4086
925.494	4063
925.602	4211
925.709	4120
925.816	4017
925.924	4093
926.031	4227
926.138	4204
926.245	4150
926.352	4120
926.459	4223
926.566	4265
926.673	4135
926.779	4055
926.886	4017
926.993	3953
927.099	3949
927.206	3915
927.312	3903
927.419	4017
927.525	4006
927.631	4086
927.737	3922
927.843	3968
927.95	3827
928.056	3930
928.162	3945
928.267	4067
928.373	4561
928.479	4093
928.585	3838
928.69	4013
928.796	4078
928.901	3937
929.007	3857
929.112	3987
929.218	3972
929.323	3907
929.428	3915
929.533	4093
929.638	3892
929.743	3922
929.848	3991
929.953	3953
930.058	3888
930.163	3736
930.267	3800
930.372	3994
930.477	3808
930.581	4074
930.685	3945
930.79	3831
930.894	3861
930.998	3869
931.103	4006
931.207	3736
931.311	3701
931.415	3660
931.519	3515
931.623	3561
