Data from test_V78500241_988.txt Node
Date: Fri Mar 25 16:55:52 CST 2022
User: usil
Spectrometer: V785-0024
Trigger mode: 0
Integration Time (sec): 4.000000E-1
Scans to average: 1
Nonlinearity correction enabled: false
Boxcar width: 0
Storing dark spectrum: false
XAxis mode: Wavelengths
Number of Pixels in Spectrum: 1024
>>>>>Begin Spectral Data<<<<<
801.071	8054
801.214	8005
801.356	7841
801.499	7890
801.641	7765
801.783	7681
801.926	7963
802.068	7845
802.211	7947
802.353	7921
802.496	7871
802.638	7871
802.78	7887
802.923	7898
803.065	7856
803.208	7940
803.35	7967
803.492	8081
803.635	8126
803.777	8046
803.919	8145
804.061	8457
804.204	8062
804.346	8005
804.488	7970
804.63	8084
804.773	7993
804.915	8138
805.057	8286
805.199	8199
805.341	8142
805.483	8161
805.626	8187
805.768	8096
805.91	8161
806.052	8183
806.194	8096
806.336	8225
806.478	8084
806.62	8020
806.762	8077
806.904	8240
807.046	8457
807.188	8366
807.33	8237
807.472	8282
807.614	8164
807.756	8123
807.898	7970
808.04	7860
808.182	7864
808.324	7841
808.465	7879
808.607	7997
808.749	8142
808.891	8229
809.033	8286
809.174	8157
809.316	8005
809.458	8012
809.6	7967
809.741	7936
809.883	8012
810.025	8062
810.166	8054
810.308	8043
810.45	8054
810.591	7890
810.733	7776
810.875	7620
811.016	7529
811.158	7449
811.299	7556
811.441	7689
811.582	7666
811.724	7529
811.865	7518
812.007	7476
812.148	7537
812.29	7613
812.431	7708
812.573	7837
812.714	7986
812.855	8111
812.997	8183
813.138	8294
813.279	8218
813.421	8123
813.562	7997
813.703	7849
813.845	7795
813.986	7460
814.127	7259
814.268	7217
814.41	7133
814.551	7129
814.692	7160
814.833	7012
814.974	7095
815.115	7076
815.256	6954
815.397	6943
815.539	6920
815.68	6798
815.821	6764
815.962	6901
816.103	6802
816.244	6772
816.385	6646
816.526	6570
816.666	6502
816.807	6300
816.948	6414
817.089	6448
817.23	6490
817.371	6350
817.512	6365
817.653	6403
817.793	6395
817.934	6452
818.075	6426
818.216	6437
818.356	6361
818.497	6228
818.638	6079
818.778	6190
818.919	6083
819.06	6163
819.2	6308
819.341	6266
819.481	6391
819.622	6525
819.762	6764
819.903	6715
820.043	6570
820.184	6623
820.324	6551
820.465	6734
820.605	6741
820.746	6642
820.886	6517
821.026	6620
821.167	6707
821.307	6719
821.447	6741
821.588	6665
821.728	6509
821.868	6525
822.008	6296
822.149	6395
822.289	6285
822.429	6167
822.569	6095
822.709	6091
822.849	5901
822.99	5832
823.13	5901
823.27	5889
823.41	5832
823.55	5760
823.69	5771
823.83	5775
823.97	5653
824.11	5551
824.25	5474
824.389	5543
824.529	5543
824.669	5532
824.809	5611
824.949	5566
825.089	5573
825.228	5551
825.368	5360
825.508	5345
825.648	5330
825.787	5429
825.927	5349
826.067	5296
826.206	5296
826.346	5315
826.485	5417
826.625	5357
826.765	5551
826.904	5486
827.044	5258
827.183	5208
827.323	5064
827.462	5235
827.601	5155
827.741	5208
827.88	5159
828.02	5117
828.159	5269
828.298	5292
828.437	5311
828.577	5273
828.716	5414
828.855	5292
828.994	5162
829.134	5105
829.273	5185
829.412	5121
829.551	5098
829.69	5204
829.829	5201
829.968	5341
830.107	5246
830.246	5231
830.385	5143
830.524	5109
830.663	5067
830.802	4957
830.941	4949
831.08	4896
831.219	5006
831.357	4972
831.496	5155
831.635	4892
831.774	4847
831.913	4873
832.051	4717
832.19	4702
832.329	4847
832.467	4637
832.606	4645
832.744	4660
832.883	4721
833.022	4733
833.16	4809
833.299	4824
833.437	4797
833.576	4866
833.714	4850
833.852	4866
833.991	4854
834.129	4984
834.267	4953
834.406	4892
834.544	4972
834.682	4927
834.821	4934
834.959	5117
835.097	4972
835.235	5147
835.373	5041
835.511	5041
835.65	5045
835.788	5025
835.926	4892
836.064	4820
836.202	4953
836.34	5132
836.478	5201
836.615	5067
836.753	5178
836.891	5296
837.029	5223
837.167	5136
837.305	5155
837.443	5117
837.58	5041
837.718	5212
837.856	5143
837.993	5147
838.131	5220
838.269	5189
838.406	5208
838.544	5204
838.681	5014
838.819	4995
838.956	4885
839.094	4866
839.231	4961
839.369	5018
839.506	5417
839.643	5250
839.781	5041
839.918	5029
840.055	5083
840.193	5102
840.33	5102
840.467	5090
840.604	5181
840.742	5395
840.879	5086
841.016	5079
841.153	5113
841.29	5417
841.427	5261
841.564	5303
841.701	5368
841.838	5280
841.975	5216
842.112	5223
842.249	5124
842.385	5121
842.522	5360
842.659	5132
842.796	5166
842.933	5174
843.069	5174
843.206	5166
843.343	5280
843.479	5201
843.616	5178
843.752	5003
843.889	4968
844.025	5208
844.162	4987
844.298	5189
844.435	5025
844.571	4984
844.708	5159
844.844	5242
844.98	5288
845.117	5315
845.253	5140
845.389	5045
845.525	5143
845.661	5143
845.798	5056
845.934	5052
846.07	5048
846.206	5140
846.342	5269
846.478	5124
846.614	4999
846.75	4915
846.886	4965
847.022	5098
847.158	5048
847.294	5075
847.429	5075
847.565	5067
847.701	5261
847.837	4850
847.972	4790
848.108	4900
848.244	4889
848.379	4812
848.515	4786
848.65	4755
848.786	4725
848.921	4767
849.057	4870
849.192	4930
849.328	4820
849.463	4850
849.598	4790
849.734	4706
849.869	4664
850.004	4611
850.14	4649
850.275	4618
850.41	4466
850.545	4527
850.68	4584
850.815	4592
850.95	4664
851.085	4820
851.22	4752
851.355	4645
851.49	4603
851.625	4618
851.76	4649
851.895	4561
852.03	4493
852.165	4637
852.299	4694
852.434	4752
852.569	4748
852.703	4790
852.838	4801
852.973	4892
853.107	4889
853.242	4744
853.376	4645
853.511	4535
853.645	4611
853.78	4763
853.914	4729
854.048	4626
854.183	4626
854.317	4694
854.451	4850
854.585	4691
854.72	4615
854.854	4733
854.988	4592
855.122	4611
855.256	4512
855.39	4630
855.524	4767
855.658	4740
855.792	4710
855.926	4714
856.06	4778
856.194	4790
856.327	4714
856.461	4603
856.595	4622
856.729	4611
856.862	4744
856.996	4672
857.13	4755
857.263	4714
857.397	4790
857.53	4675
857.664	4675
857.797	4782
857.931	4752
858.064	4706
858.197	4706
858.331	4622
858.464	4611
858.597	4523
858.731	4580
858.864	4656
858.997	4561
859.13	4649
859.263	4649
859.396	4672
859.529	4580
859.662	4542
859.795	4474
859.928	4599
860.061	4729
860.194	4710
860.327	4596
860.46	4558
860.592	4698
860.725	4714
860.858	4736
860.99	4569
861.123	4485
861.256	4516
861.388	4584
861.521	5280
861.653	4474
861.786	4409
861.918	4470
862.05	4523
862.183	4523
862.315	4561
862.447	4626
862.58	4470
862.712	4405
862.844	4318
862.976	4462
863.108	4447
863.24	4904
863.372	4367
863.504	4402
863.636	4386
863.768	4481
863.9	4474
864.032	4383
864.164	4386
864.296	4462
864.428	4554
864.559	4531
864.691	4493
864.823	4485
864.954	4478
865.086	4500
865.217	4466
865.349	4409
865.48	4459
865.612	4451
865.743	4626
865.875	4481
866.006	4421
866.137	4466
866.269	4440
866.4	4478
866.531	4413
866.662	4344
866.793	4417
866.924	4436
867.055	4474
867.186	4421
867.317	4390
867.448	4371
867.579	4367
867.71	4333
867.841	4379
867.972	4428
868.103	4432
868.233	4481
868.364	4455
868.495	4527
868.625	4653
868.756	4740
868.886	4565
869.017	4615
869.147	4771
869.278	4763
869.408	4649
869.539	4630
869.669	4702
869.799	4679
869.929	4797
870.06	4736
870.19	4984
870.32	4877
870.45	4873
870.58	4995
870.71	5113
870.84	5029
870.97	4896
871.1	4896
871.23	5132
871.36	5094
871.489	4995
871.619	5052
871.749	5056
871.879	5105
872.008	5155
872.138	5045
872.267	4961
872.397	4824
872.526	4763
872.656	4687
872.785	4797
872.915	4957
873.044	4999
873.173	4923
873.303	4984
873.432	4873
873.561	4984
873.69	4866
873.819	4839
873.948	4892
874.077	4786
874.206	4729
874.335	4752
874.464	4919
874.593	5048
874.722	4934
874.851	5117
874.979	5033
875.108	5056
875.237	4930
875.365	4839
875.494	4881
875.623	4934
875.751	4782
875.88	4858
876.008	4991
876.136	5006
876.265	5166
876.393	5307
876.521	5220
876.65	5189
876.778	5162
876.906	5083
877.034	5006
877.162	5018
877.29	4930
877.418	5006
877.546	5045
877.674	4976
877.802	5025
877.93	4953
878.058	4953
878.185	4835
878.313	4942
878.441	4911
878.568	4763
878.696	4873
878.824	4915
878.951	4972
879.079	5064
879.206	5277
879.333	5090
879.461	4965
879.588	5014
879.715	5102
879.842	5231
879.97	5003
880.097	4816
880.224	4725
880.351	4805
880.478	4835
880.605	4740
880.732	4778
880.859	5083
880.986	4904
881.112	4908
881.239	4740
881.366	4664
881.493	4603
881.619	4577
881.746	4603
881.872	4630
881.999	4649
882.125	4664
882.252	4809
882.378	4774
882.505	4942
882.631	4797
882.757	4596
882.883	4774
883.01	4717
883.136	4668
883.262	4615
883.388	4641
883.514	4790
883.64	4866
883.766	4748
883.892	4641
884.018	4691
884.143	4911
884.269	4961
884.395	4683
884.52	4584
884.646	4634
884.772	4580
884.897	4561
885.023	4656
885.148	4824
885.274	4797
885.399	4797
885.524	4694
885.65	4683
885.775	4752
885.9	4691
886.025	4843
886.15	4835
886.275	4694
886.4	4637
886.525	4729
886.65	4672
886.775	4687
886.9	4934
887.025	5018
887.149	4793
887.274	4675
887.399	4607
887.523	4565
887.648	4584
887.773	4588
887.897	4729
888.021	4767
888.146	4630
888.27	4759
888.395	4862
888.519	4774
888.643	4782
888.767	4854
888.891	4664
889.015	4573
889.139	4645
889.263	4615
889.387	4721
889.511	4854
889.635	4828
889.759	4584
889.883	4588
890.006	4698
890.13	4782
890.254	4603
890.377	4698
890.501	4508
890.624	4516
890.748	4603
890.871	4481
890.995	4466
891.118	4394
891.241	4497
891.364	4535
891.488	4634
891.611	4466
891.734	4531
891.857	4569
891.98	4554
892.103	4645
892.226	4580
892.349	4523
892.471	4375
892.594	4542
892.717	4535
892.839	4535
892.962	4577
893.085	4710
893.207	4611
893.33	4512
893.452	4527
893.575	4580
893.697	4577
893.819	4778
893.941	4900
894.064	4733
894.186	4558
894.308	4573
894.43	4691
894.552	4892
894.674	4725
894.796	4561
894.918	4554
895.04	4599
895.161	4721
895.283	4645
895.405	4569
895.526	4603
895.648	4649
895.769	4675
895.891	4698
896.012	4710
896.134	4698
896.255	4611
896.376	4622
896.498	4607
896.619	4668
896.74	4599
896.861	4656
896.982	4896
897.103	5067
897.224	4816
897.345	4710
897.466	4626
897.587	4694
897.708	4801
897.828	4755
897.949	4702
898.07	4592
898.19	4634
898.311	4835
898.431	4714
898.552	4714
898.672	4767
898.792	4748
898.913	4767
899.033	4645
899.153	4535
899.273	4443
899.393	4459
899.513	4519
899.633	4531
899.753	4527
899.873	4512
899.993	4550
900.113	4508
900.232	4596
900.352	4573
900.472	4466
900.591	4390
900.711	4497
900.83	4443
900.95	4584
901.069	4729
901.189	4508
901.308	4356
901.427	4325
901.546	4390
901.665	4470
901.784	4497
901.904	4383
902.023	4303
902.141	4177
902.26	4173
902.379	4303
902.498	4219
902.617	4173
902.735	4367
902.854	4390
902.973	4322
903.091	4196
903.21	4162
903.328	4287
903.446	4295
903.565	4291
903.683	4356
903.801	4249
903.919	4371
904.038	4417
904.156	4341
904.274	4421
904.392	4367
904.51	4436
904.627	4447
904.745	4546
904.863	4660
904.981	4375
905.098	4306
905.216	4329
905.334	4466
905.451	4447
905.569	4413
905.686	4554
905.803	4565
905.921	4432
906.038	4546
906.155	4417
906.272	4371
906.389	4478
906.506	4337
906.623	4390
906.74	4363
906.857	4306
906.974	4333
907.091	4535
907.208	4706
907.324	4580
907.441	4500
907.557	4363
907.674	4344
907.79	4360
907.907	4417
908.023	4535
908.139	4500
908.256	4440
908.372	4462
908.488	4432
908.604	4337
908.72	4303
908.836	4367
908.952	4379
909.068	4451
909.184	4580
909.3	4451
909.415	4565
909.531	4558
909.647	4348
909.762	4360
909.878	4337
909.993	4375
910.108	4386
910.224	4383
910.339	4462
910.454	4409
910.57	4360
910.685	4306
910.8	4706
910.915	4577
911.03	4459
911.145	4322
911.259	4303
911.374	4337
911.489	4272
911.604	4276
911.718	4196
911.833	4204
911.947	4090
912.062	4036
912.176	4192
912.291	4253
912.405	4215
912.519	4424
912.633	4478
912.748	4322
912.862	4287
912.976	4196
913.09	4067
913.204	4204
913.318	4249
913.431	4306
913.545	4356
913.659	4409
913.772	4375
913.886	4234
914	4242
914.113	4432
914.226	4398
914.34	4371
914.453	4230
914.566	4455
914.68	4287
914.793	4337
914.906	4112
915.019	4143
915.132	4063
915.245	4166
915.358	4200
915.47	4265
915.583	4249
915.696	4337
915.809	4398
915.921	4440
916.034	4192
916.146	4249
916.259	4215
916.371	4341
916.483	4371
916.595	4276
916.708	4268
916.82	4314
916.932	4306
917.044	4390
917.156	4356
917.268	4249
917.38	4261
917.491	4276
917.603	4352
917.715	4390
917.826	4478
917.938	4337
918.049	4219
918.161	4394
918.272	4546
918.384	4440
918.495	4421
918.606	4253
918.717	4246
918.828	4303
918.939	4344
919.05	4249
919.161	4310
919.272	4109
919.383	4257
919.494	4432
919.604	4592
919.715	4424
919.826	4337
919.936	4367
920.047	4474
920.157	4451
920.267	4679
920.378	4512
920.488	4459
920.598	4729
920.708	4824
920.818	4710
920.928	4694
921.038	4953
921.148	4892
921.258	4618
921.368	4580
921.477	4489
921.587	4432
921.697	4413
921.806	4542
921.916	4421
922.025	4253
922.134	4325
922.244	4215
922.353	4318
922.462	4238
922.571	4147
922.68	3987
922.789	3972
922.898	4055
923.007	3968
923.116	4101
923.224	4055
923.333	4055
923.442	3975
923.55	3975
923.659	3998
923.767	4086
923.876	3964
923.984	4082
924.092	3941
924.201	4055
924.309	4067
924.417	4120
924.525	4044
924.633	4074
924.741	4980
924.849	3922
924.956	4128
925.064	3964
925.172	3945
925.279	3945
925.387	3998
925.494	4044
925.602	4147
925.709	4139
925.816	4036
925.924	4135
926.031	4204
926.138	4173
926.245	4215
926.352	4036
926.459	4234
926.566	4291
926.673	4169
926.779	4044
926.886	4055
926.993	3960
927.099	3975
927.206	3922
927.312	3972
927.419	4048
927.525	4013
927.631	4071
927.737	3941
927.843	3926
927.95	3850
928.056	3983
928.162	4010
928.267	4010
928.373	4675
928.479	4090
928.585	3869
928.69	4051
928.796	4048
928.901	3960
929.007	3861
929.112	3975
929.218	3979
929.323	3979
929.428	3918
929.533	4101
929.638	3922
929.743	3968
929.848	4051
929.953	4017
930.058	3934
930.163	3774
930.267	3793
930.372	3991
930.477	3823
930.581	4082
930.685	3934
930.79	3797
930.894	3869
930.998	3804
931.103	4048
931.207	3694
931.311	3682
931.415	3663
931.519	3458
931.623	3557
