Data from test_V78500241_1931.txt Node
Date: Fri Mar 25 17:02:25 CST 2022
User: usil
Spectrometer: V785-0024
Trigger mode: 0
Integration Time (sec): 4.000000E-1
Scans to average: 1
Nonlinearity correction enabled: false
Boxcar width: 0
Storing dark spectrum: false
XAxis mode: Wavelengths
Number of Pixels in Spectrum: 1024
>>>>>Begin Spectral Data<<<<<
801.071	7970
801.214	7898
801.356	7849
801.499	7807
801.641	7780
801.783	7784
801.926	7940
802.068	7959
802.211	8043
802.353	7974
802.496	7841
802.638	7883
802.78	7906
802.923	7906
803.065	7807
803.208	7864
803.35	7913
803.492	8035
803.635	8172
803.777	8062
803.919	8142
804.061	8457
804.204	8191
804.346	8115
804.488	7932
804.63	8077
804.773	7982
804.915	8100
805.057	8343
805.199	8126
805.341	8176
805.483	8343
805.626	8221
805.768	8142
805.91	8210
806.052	8294
806.194	8142
806.336	8286
806.478	8187
806.62	8168
806.762	8176
806.904	8336
807.046	8503
807.188	8358
807.33	8370
807.472	8355
807.614	8233
807.756	8202
807.898	8084
808.04	7917
808.182	7898
808.324	7921
808.465	7913
808.607	8058
808.749	8183
808.891	8256
809.033	8256
809.174	8252
809.316	8123
809.458	8096
809.6	8084
809.741	8039
809.883	8054
810.025	8073
810.166	8111
810.308	8092
810.45	7993
810.591	7906
810.733	7738
810.875	7753
811.016	7521
811.158	7457
811.299	7620
811.441	7769
811.582	7674
811.724	7586
811.865	7514
812.007	7639
812.148	7616
812.29	7677
812.431	7841
812.573	7921
812.714	7982
812.855	8119
812.997	8271
813.138	8286
813.279	8248
813.421	8096
813.562	8005
813.703	7849
813.845	7811
813.986	7472
814.127	7274
814.268	7274
814.41	7152
814.551	7145
814.692	7187
814.833	7118
814.974	7202
815.115	7145
815.256	7012
815.397	6954
815.539	6951
815.68	6840
815.821	6738
815.962	6916
816.103	6905
816.244	6658
816.385	6688
816.526	6669
816.666	6532
816.807	6315
816.948	6517
817.089	6479
817.23	6448
817.371	6410
817.512	6414
817.653	6414
817.793	6350
817.934	6448
818.075	6506
818.216	6483
818.356	6490
818.497	6277
818.638	6182
818.778	6159
818.919	6167
819.06	6190
819.2	6395
819.341	6311
819.481	6372
819.622	6517
819.762	6779
819.903	6669
820.043	6608
820.184	6589
820.324	6593
820.465	6741
820.605	6677
820.746	6631
820.886	6547
821.026	6665
821.167	6722
821.307	6814
821.447	6776
821.588	6677
821.728	6566
821.868	6528
822.008	6334
822.149	6441
822.289	6365
822.429	6159
822.569	6152
822.709	6114
822.849	5973
822.99	5878
823.13	5931
823.27	5908
823.41	5783
823.55	5813
823.69	5809
823.83	5771
823.97	5691
824.11	5619
824.25	5577
824.389	5566
824.529	5646
824.669	5558
824.809	5642
824.949	5668
825.089	5600
825.228	5543
825.368	5429
825.508	5311
825.648	5326
825.787	5387
825.927	5414
826.067	5337
826.206	5280
826.346	5425
826.485	5433
826.625	5379
826.765	5516
826.904	5509
827.044	5261
827.183	5227
827.323	5162
827.462	5296
827.601	5147
827.741	5155
827.88	5261
828.02	5140
828.159	5235
828.298	5288
828.437	5379
828.577	5337
828.716	5520
828.855	5330
828.994	5204
829.134	5151
829.273	5162
829.412	5155
829.551	5136
829.69	5193
829.829	5227
829.968	5349
830.107	5292
830.246	5261
830.385	5216
830.524	5124
830.663	5048
830.802	4999
830.941	4900
831.08	4896
831.219	4995
831.357	4949
831.496	5109
831.635	4987
831.774	4892
831.913	4835
832.051	4740
832.19	4805
832.329	4862
832.467	4656
832.606	4668
832.744	4763
832.883	4809
833.022	4771
833.16	4774
833.299	4812
833.437	4854
833.576	4915
833.714	4870
833.852	4904
833.991	4938
834.129	4987
834.267	4957
834.406	4965
834.544	5033
834.682	4980
834.821	4976
834.959	5178
835.097	4991
835.235	5151
835.373	5075
835.511	5151
835.65	5029
835.788	5033
835.926	4881
836.064	4847
836.202	4885
836.34	5151
836.478	5254
836.615	5162
836.753	5223
836.891	5292
837.029	5261
837.167	5159
837.305	5166
837.443	5178
837.58	5132
837.718	5261
837.856	5185
837.993	5166
838.131	5288
838.269	5197
838.406	5223
838.544	5223
838.681	5045
838.819	5033
838.956	4889
839.094	4923
839.231	4961
839.369	5124
839.506	5357
839.643	5258
839.781	5098
839.918	5025
840.055	5159
840.193	5075
840.33	5151
840.467	5181
840.604	5147
840.742	5402
840.879	5098
841.016	5102
841.153	5185
841.29	5383
841.427	5429
841.564	5383
841.701	5398
841.838	5311
841.975	5277
842.112	5315
842.249	5174
842.385	5109
842.522	5376
842.659	5193
842.796	5178
842.933	5235
843.069	5128
843.206	5136
843.343	5307
843.479	5220
843.616	5269
843.752	5067
843.889	5006
844.025	5181
844.162	5083
844.298	5220
844.435	5109
844.571	5014
844.708	5201
844.844	5299
844.98	5341
845.117	5288
845.253	5162
845.389	5075
845.525	5178
845.661	5159
845.798	5022
845.934	5124
846.07	5090
846.206	5181
846.342	5261
846.478	5170
846.614	5025
846.75	4995
846.886	4961
847.022	5136
847.158	5003
847.294	5071
847.429	5094
847.565	5064
847.701	5292
847.837	4809
847.972	4828
848.108	4949
848.244	4938
848.379	4854
848.515	4710
848.65	4763
848.786	4740
848.921	4797
849.057	4877
849.192	4889
849.328	4831
849.463	4835
849.598	4854
849.734	4778
849.869	4725
850.004	4683
850.14	4672
850.275	4649
850.41	4573
850.545	4531
850.68	4653
850.815	4615
850.95	4649
851.085	4843
851.22	4733
851.355	4653
851.49	4573
851.625	4630
851.76	4660
851.895	4599
852.03	4592
852.165	4630
852.299	4767
852.434	4854
852.569	4744
852.703	4782
852.838	4839
852.973	4942
853.107	4961
853.242	4759
853.376	4683
853.511	4565
853.645	4675
853.78	4805
853.914	4679
854.048	4656
854.183	4687
854.317	4721
854.451	4881
854.585	4736
854.72	4672
854.854	4793
854.988	4569
855.122	4634
855.256	4622
855.39	4618
855.524	4778
855.658	4714
855.792	4717
855.926	4691
856.06	4763
856.194	4850
856.327	4725
856.461	4618
856.595	4626
856.729	4615
856.862	4740
856.996	4714
857.13	4717
857.263	4763
857.397	4835
857.53	4637
857.664	4733
857.797	4744
857.931	4774
858.064	4710
858.197	4733
858.331	4683
858.464	4622
858.597	4508
858.731	4649
858.864	4656
858.997	4649
859.13	4672
859.263	4691
859.396	4691
859.529	4580
859.662	4588
859.795	4516
859.928	4683
860.061	4736
860.194	4725
860.327	4618
860.46	4577
860.592	4748
860.725	4706
860.858	4687
860.99	4565
861.123	4542
861.256	4519
861.388	4588
861.521	5322
861.653	4436
861.786	4474
861.918	4451
862.05	4542
862.183	4603
862.315	4618
862.447	4641
862.58	4531
862.712	4367
862.844	4367
862.976	4485
863.108	4485
863.24	4740
863.372	4318
863.504	4428
863.636	4440
863.768	4459
863.9	4489
864.032	4383
864.164	4375
864.296	4485
864.428	4550
864.559	4508
864.691	4516
864.823	4542
864.954	4485
865.086	4550
865.217	4470
865.349	4455
865.48	4417
865.612	4519
865.743	4630
865.875	4485
866.006	4428
866.137	4512
866.269	4443
866.4	4405
866.531	4459
866.662	4432
866.793	4421
866.924	4440
867.055	4512
867.186	4466
867.317	4421
867.448	4402
867.579	4413
867.71	4447
867.841	4348
867.972	4489
868.103	4512
868.233	4474
868.364	4470
868.495	4478
868.625	4664
868.756	4683
868.886	4603
869.017	4641
869.147	4828
869.278	4763
869.408	4694
869.539	4668
869.669	4748
869.799	4687
869.929	4748
870.06	4774
870.19	4965
870.32	4938
870.45	4930
870.58	4991
870.71	5155
870.84	5124
870.97	4930
871.1	4908
871.23	5136
871.36	5151
871.489	4984
871.619	5083
871.749	5105
871.879	5121
872.008	5155
872.138	5022
872.267	4968
872.397	4839
872.526	4820
872.656	4714
872.785	4816
872.915	4949
873.044	5006
873.173	4946
873.303	4953
873.432	4991
873.561	4961
873.69	4873
873.819	4885
873.948	4881
874.077	4828
874.206	4786
874.335	4820
874.464	4904
874.593	5022
874.722	4987
874.851	5098
874.979	5075
875.108	5010
875.237	4919
875.365	4858
875.494	4915
875.623	4961
875.751	4812
875.88	4877
876.008	4965
876.136	5071
876.265	5231
876.393	5341
876.521	5242
876.65	5220
876.778	5155
876.906	5098
877.034	5029
877.162	5090
877.29	5003
877.418	5048
877.546	5079
877.674	5094
877.802	5045
877.93	5018
878.058	4942
878.185	4820
878.313	4930
878.441	4972
878.568	4866
878.696	4900
878.824	4930
878.951	4995
879.079	5094
879.206	5299
879.333	5060
879.461	5010
879.588	4995
879.715	5075
879.842	5212
879.97	5018
880.097	4790
880.224	4710
880.351	4801
880.478	4854
880.605	4812
880.732	4790
880.859	5090
880.986	4927
881.112	4889
881.239	4816
881.366	4702
881.493	4596
881.619	4554
881.746	4672
881.872	4679
881.999	4645
882.125	4706
882.252	4793
882.378	4835
882.505	4938
882.631	4805
882.757	4675
882.883	4687
883.01	4736
883.136	4706
883.262	4599
883.388	4626
883.514	4736
883.64	4877
883.766	4755
883.892	4694
884.018	4736
884.143	4892
884.269	5025
884.395	4710
884.52	4611
884.646	4660
884.772	4607
884.897	4542
885.023	4679
885.148	4774
885.274	4870
885.399	4847
885.524	4733
885.65	4698
885.775	4736
885.9	4694
886.025	4866
886.15	4797
886.275	4691
886.4	4664
886.525	4733
886.65	4664
886.775	4725
886.9	4938
887.025	5052
887.149	4828
887.274	4672
887.399	4565
887.523	4649
887.648	4592
887.773	4573
887.897	4763
888.021	4778
888.146	4683
888.27	4843
888.395	4881
888.519	4820
888.643	4809
888.767	4805
888.891	4645
889.015	4618
889.139	4653
889.263	4618
889.387	4755
889.511	4820
889.635	4801
889.759	4641
889.883	4615
890.006	4729
890.13	4854
890.254	4611
890.377	4641
890.501	4550
890.624	4516
890.748	4656
890.871	4470
890.995	4478
891.118	4375
891.241	4466
891.364	4542
891.488	4626
891.611	4485
891.734	4527
891.857	4565
891.98	4519
892.103	4649
892.226	4569
892.349	4489
892.471	4413
892.594	4500
892.717	4596
892.839	4607
892.962	4573
893.085	4664
893.207	4641
893.33	4455
893.452	4561
893.575	4626
893.697	4584
893.819	4771
893.941	4805
894.064	4763
894.186	4592
894.308	4569
894.43	4714
894.552	4820
894.674	4706
894.796	4497
894.918	4580
895.04	4596
895.161	4683
895.283	4656
895.405	4573
895.526	4618
895.648	4698
895.769	4714
895.891	4717
896.012	4736
896.134	4729
896.255	4645
896.376	4653
896.498	4637
896.619	4710
896.74	4626
896.861	4683
896.982	4877
897.103	5041
897.224	4862
897.345	4752
897.466	4637
897.587	4687
897.708	4881
897.828	4824
897.949	4706
898.07	4569
898.19	4653
898.311	4809
898.431	4653
898.552	4714
898.672	4797
898.792	4748
898.913	4725
899.033	4607
899.153	4527
899.273	4440
899.393	4535
899.513	4554
899.633	4523
899.753	4542
899.873	4478
899.993	4592
900.113	4546
900.232	4577
900.352	4493
900.472	4440
900.591	4413
900.711	4493
900.83	4428
900.95	4615
901.069	4664
901.189	4535
901.308	4356
901.427	4314
901.546	4375
901.665	4417
901.784	4493
901.904	4405
902.023	4344
902.141	4188
902.26	4143
902.379	4310
902.498	4257
902.617	4207
902.735	4371
902.854	4451
902.973	4363
903.091	4215
903.21	4246
903.328	4287
903.446	4284
903.565	4249
903.683	4371
903.801	4234
903.919	4398
904.038	4405
904.156	4333
904.274	4466
904.392	4432
904.51	4436
904.627	4447
904.745	4599
904.863	4634
904.981	4371
905.098	4287
905.216	4341
905.334	4409
905.451	4421
905.569	4466
905.686	4580
905.803	4596
905.921	4421
906.038	4580
906.155	4421
906.272	4386
906.389	4481
906.506	4363
906.623	4379
906.74	4341
906.857	4284
906.974	4394
907.091	4542
907.208	4653
907.324	4554
907.441	4504
907.557	4310
907.674	4363
907.79	4318
907.907	4329
908.023	4451
908.139	4493
908.256	4367
908.372	4459
908.488	4443
908.604	4291
908.72	4295
908.836	4394
908.952	4363
909.068	4443
909.184	4592
909.3	4470
909.415	4542
909.531	4516
909.647	4379
909.762	4367
909.878	4333
909.993	4390
910.108	4398
910.224	4451
910.339	4478
910.454	4421
910.57	4436
910.685	4272
910.8	4611
910.915	4565
911.03	4546
911.145	4318
911.259	4337
911.374	4379
911.489	4284
911.604	4276
911.718	4196
911.833	4196
911.947	4105
912.062	4002
912.176	4246
912.291	4238
912.405	4295
912.519	4447
912.633	4500
912.748	4329
912.862	4299
912.976	4253
913.09	4090
913.204	4192
913.318	4268
913.431	4371
913.545	4398
913.659	4413
913.772	4363
913.886	4242
914	4215
914.113	4390
914.226	4390
914.34	4344
914.453	4238
914.566	4428
914.68	4265
914.793	4314
914.906	4154
915.019	4101
915.132	4067
915.245	4234
915.358	4219
915.47	4211
915.583	4261
915.696	4246
915.809	4383
915.921	4451
916.034	4227
916.146	4219
916.259	4223
916.371	4310
916.483	4394
916.595	4272
916.708	4318
916.82	4314
916.932	4310
917.044	4344
917.156	4325
917.268	4227
917.38	4265
917.491	4287
917.603	4318
917.715	4436
917.826	4421
917.938	4291
918.049	4238
918.161	4360
918.272	4535
918.384	4516
918.495	4443
918.606	4287
918.717	4265
918.828	4322
918.939	4398
919.05	4242
919.161	4284
919.272	4093
919.383	4227
919.494	4455
919.604	4656
919.715	4424
919.826	4341
919.936	4352
920.047	4493
920.157	4489
920.267	4714
920.378	4558
920.488	4531
920.598	4649
920.708	4904
920.818	4717
920.928	4733
921.038	4892
921.148	4946
921.258	4630
921.368	4523
921.477	4500
921.587	4478
921.697	4383
921.806	4558
921.916	4424
922.025	4291
922.134	4303
922.244	4196
922.353	4352
922.462	4166
922.571	4101
922.68	4013
922.789	3979
922.898	4036
923.007	3937
923.116	4120
923.224	4055
923.333	4055
923.442	3960
923.55	3998
923.659	4071
923.767	4097
923.876	3991
923.984	4124
924.092	3979
924.201	4074
924.309	4109
924.417	4109
924.525	4071
924.633	4063
924.741	5041
924.849	3888
924.956	4162
925.064	3968
925.172	3888
925.279	3972
925.387	4051
925.494	4051
925.602	4185
925.709	4185
925.816	4032
925.924	4147
926.031	4230
926.138	4147
926.245	4188
926.352	4071
926.459	4246
926.566	4299
926.673	4177
926.779	4082
926.886	4112
926.993	3998
927.099	3930
927.206	3911
927.312	3930
927.419	4071
927.525	3994
927.631	4067
927.737	3934
927.843	3903
927.95	3823
928.056	3953
928.162	3983
928.267	4067
928.373	4561
928.479	4101
928.585	3888
928.69	4002
928.796	4097
928.901	3964
929.007	3888
929.112	4017
929.218	3964
929.323	3956
929.428	3968
929.533	4120
929.638	3892
929.743	3998
929.848	4048
929.953	4010
930.058	3899
930.163	3774
930.267	3812
930.372	3998
930.477	3816
930.581	4105
930.685	3937
930.79	3778
930.894	3899
930.998	3850
931.103	4040
931.207	3686
931.311	3667
931.415	3690
931.519	3557
931.623	3561
