Data from test_V78500241_2660.txt Node
Date: Fri Mar 25 17:07:29 CST 2022
User: usil
Spectrometer: V785-0024
Trigger mode: 0
Integration Time (sec): 4.000000E-1
Scans to average: 1
Nonlinearity correction enabled: false
Boxcar width: 0
Storing dark spectrum: false
XAxis mode: Wavelengths
Number of Pixels in Spectrum: 1024
>>>>>Begin Spectral Data<<<<<
801.071	8035
801.214	8039
801.356	7868
801.499	7925
801.641	7807
801.783	7841
801.926	8008
802.068	7913
802.211	7989
802.353	8039
802.496	7833
802.638	7932
802.78	7936
802.923	7959
803.065	7940
803.208	7849
803.35	7955
803.492	8157
803.635	8237
803.777	8084
803.919	8176
804.061	8465
804.204	8168
804.346	8123
804.488	8008
804.63	8107
804.773	8092
804.915	8210
805.057	8313
805.199	8176
805.341	8225
805.483	8286
805.626	8336
805.768	8187
805.91	8221
806.052	8259
806.194	8081
806.336	8336
806.478	8092
806.62	8012
806.762	8119
806.904	8210
807.046	8480
807.188	8336
807.33	8343
807.472	8313
807.614	8172
807.756	8142
807.898	8008
808.04	7940
808.182	7997
808.324	7871
808.465	7932
808.607	8088
808.749	8191
808.891	8282
809.033	8301
809.174	8153
809.316	8115
809.458	8092
809.6	7986
809.741	8005
809.883	8005
810.025	8100
810.166	8111
810.308	8069
810.45	8046
810.591	7906
810.733	7776
810.875	7666
811.016	7510
811.158	7419
811.299	7597
811.441	7731
811.582	7700
811.724	7575
811.865	7559
812.007	7636
812.148	7605
812.29	7613
812.431	7799
812.573	7921
812.714	7993
812.855	8092
812.997	8259
813.138	8294
813.279	8199
813.421	8107
813.562	8024
813.703	7841
813.845	7704
813.986	7510
814.127	7305
814.268	7259
814.41	7236
814.551	7236
814.692	7187
814.833	7099
814.974	7122
815.115	7129
815.256	7000
815.397	6973
815.539	6985
815.68	6798
815.821	6818
815.962	6924
816.103	6916
816.244	6734
816.385	6620
816.526	6623
816.666	6502
816.807	6372
816.948	6441
817.089	6513
817.23	6479
817.371	6380
817.512	6376
817.653	6350
817.793	6338
817.934	6410
818.075	6498
818.216	6426
818.356	6433
818.497	6304
818.638	6133
818.778	6152
818.919	6144
819.06	6144
819.2	6311
819.341	6376
819.481	6372
819.622	6547
819.762	6776
819.903	6730
820.043	6604
820.184	6604
820.324	6601
820.465	6734
820.605	6700
820.746	6669
820.886	6532
821.026	6639
821.167	6722
821.307	6844
821.447	6783
821.588	6658
821.728	6604
821.868	6483
822.008	6304
822.149	6414
822.289	6399
822.429	6228
822.569	6102
822.709	6175
822.849	5954
822.99	5874
823.13	5946
823.27	5874
823.41	5817
823.55	5805
823.69	5760
823.83	5802
823.97	5634
824.11	5455
824.25	5535
824.389	5570
824.529	5589
824.669	5474
824.809	5703
824.949	5722
825.089	5543
825.228	5547
825.368	5421
825.508	5368
825.648	5357
825.787	5364
825.927	5376
826.067	5322
826.206	5357
826.346	5341
826.485	5414
826.625	5406
826.765	5596
826.904	5486
827.044	5242
827.183	5208
827.323	5124
827.462	5235
827.601	5178
827.741	5189
827.88	5258
828.02	5193
828.159	5235
828.298	5345
828.437	5383
828.577	5322
828.716	5497
828.855	5318
828.994	5223
829.134	5197
829.273	5189
829.412	5143
829.551	5128
829.69	5151
829.829	5284
829.968	5391
830.107	5258
830.246	5269
830.385	5216
830.524	5136
830.663	5090
830.802	5014
830.941	4892
831.08	4889
831.219	4965
831.357	4942
831.496	5136
831.635	4987
831.774	4866
831.913	4847
832.051	4706
832.19	4797
832.329	4809
832.467	4687
832.606	4687
832.744	4664
832.883	4714
833.022	4778
833.16	4797
833.299	4847
833.437	4793
833.576	4835
833.714	4866
833.852	4816
833.991	4885
834.129	4987
834.267	4900
834.406	4889
834.544	4976
834.682	4980
834.821	4908
834.959	5178
835.097	5010
835.235	5098
835.373	5090
835.511	5113
835.65	5037
835.788	5022
835.926	4980
836.064	4923
836.202	4911
836.34	5136
836.478	5239
836.615	5083
836.753	5162
836.891	5334
837.029	5284
837.167	5201
837.305	5113
837.443	5155
837.58	5075
837.718	5250
837.856	5166
837.993	5132
838.131	5216
838.269	5220
838.406	5227
838.544	5181
838.681	5022
838.819	5006
838.956	4877
839.094	4896
839.231	4995
839.369	5056
839.506	5402
839.643	5296
839.781	5071
839.918	5010
840.055	5098
840.193	5136
840.33	5067
840.467	5151
840.604	5185
840.742	5429
840.879	5105
841.016	5105
841.153	5181
841.29	5391
841.427	5345
841.564	5307
841.701	5379
841.838	5299
841.975	5204
842.112	5261
842.249	5147
842.385	5105
842.522	5330
842.659	5140
842.796	5128
842.933	5220
843.069	5174
843.206	5159
843.343	5296
843.479	5277
843.616	5273
843.752	5048
843.889	5033
844.025	5246
844.162	5033
844.298	5261
844.435	5075
844.571	5109
844.708	5231
844.844	5337
844.98	5337
845.117	5288
845.253	5132
845.389	5098
845.525	5193
845.661	5174
845.798	5018
845.934	5124
846.07	5037
846.206	5197
846.342	5303
846.478	5193
846.614	4984
846.75	5003
846.886	4953
847.022	5174
847.158	5060
847.294	4995
847.429	5117
847.565	5014
847.701	5288
847.837	4850
847.972	4835
848.108	4991
848.244	4923
848.379	4782
848.515	4729
848.65	4702
848.786	4721
848.921	4736
849.057	4862
849.192	4904
849.328	4820
849.463	4816
849.598	4786
849.734	4748
849.869	4687
850.004	4626
850.14	4668
850.275	4626
850.41	4561
850.545	4588
850.68	4573
850.815	4649
850.95	4668
851.085	4812
851.22	4736
851.355	4694
851.49	4611
851.625	4630
851.76	4645
851.895	4542
852.03	4508
852.165	4679
852.299	4714
852.434	4824
852.569	4736
852.703	4759
852.838	4858
852.973	4949
853.107	4923
853.242	4736
853.376	4672
853.511	4554
853.645	4641
853.78	4850
853.914	4683
854.048	4675
854.183	4672
854.317	4691
854.451	4858
854.585	4672
854.72	4649
854.854	4786
854.988	4599
855.122	4634
855.256	4489
855.39	4687
855.524	4816
855.658	4759
855.792	4679
855.926	4694
856.06	4790
856.194	4797
856.327	4634
856.461	4645
856.595	4615
856.729	4611
856.862	4805
856.996	4660
857.13	4725
857.263	4790
857.397	4809
857.53	4626
857.664	4687
857.797	4714
857.931	4771
858.064	4698
858.197	4763
858.331	4641
858.464	4580
858.597	4523
858.731	4584
858.864	4637
858.997	4599
859.13	4618
859.263	4634
859.396	4748
859.529	4580
859.662	4554
859.795	4523
859.928	4630
860.061	4729
860.194	4752
860.327	4592
860.46	4558
860.592	4710
860.725	4694
860.858	4736
860.99	4527
861.123	4558
861.256	4523
861.388	4618
861.521	5421
861.653	4474
861.786	4428
861.918	4466
862.05	4527
862.183	4538
862.315	4580
862.447	4660
862.58	4535
862.712	4371
862.844	4325
862.976	4478
863.108	4508
863.24	4736
863.372	4303
863.504	4413
863.636	4417
863.768	4478
863.9	4470
864.032	4363
864.164	4394
864.296	4459
864.428	4554
864.559	4538
864.691	4561
864.823	4531
864.954	4478
865.086	4493
865.217	4443
865.349	4417
865.48	4493
865.612	4466
865.743	4664
865.875	4478
866.006	4409
866.137	4493
866.269	4459
866.4	4481
866.531	4428
866.662	4409
866.793	4405
866.924	4428
867.055	4485
867.186	4443
867.317	4390
867.448	4352
867.579	4428
867.71	4352
867.841	4333
867.972	4474
868.103	4455
868.233	4451
868.364	4478
868.495	4485
868.625	4679
868.756	4774
868.886	4554
869.017	4611
869.147	4790
869.278	4790
869.408	4653
869.539	4588
869.669	4683
869.799	4683
869.929	4790
870.06	4683
870.19	4908
870.32	4953
870.45	4968
870.58	5025
870.71	5109
870.84	5162
870.97	4961
871.1	4934
871.23	5136
871.36	5090
871.489	5079
871.619	5102
871.749	5086
871.879	5090
872.008	5128
872.138	5071
872.267	5025
872.397	4870
872.526	4824
872.656	4755
872.785	4809
872.915	4904
873.044	5060
873.173	4949
873.303	4927
873.432	4938
873.561	5010
873.69	4870
873.819	4877
873.948	4870
874.077	4862
874.206	4736
874.335	4820
874.464	4953
874.593	5109
874.722	4911
874.851	5102
874.979	5048
875.108	5045
875.237	4877
875.365	4850
875.494	4900
875.623	4961
875.751	4801
875.88	4873
876.008	4953
876.136	5045
876.265	5246
876.393	5330
876.521	5204
876.65	5227
876.778	5121
876.906	5067
877.034	5006
877.162	5079
877.29	4999
877.418	5075
877.546	5052
877.674	5067
877.802	5109
877.93	5014
878.058	4961
878.185	4934
878.313	4961
878.441	4942
878.568	4828
878.696	4904
878.824	5018
878.951	5022
879.079	5121
879.206	5296
879.333	5090
879.461	5018
879.588	5003
879.715	5094
879.842	5178
879.97	5022
880.097	4752
880.224	4759
880.351	4816
880.478	4858
880.605	4797
880.732	4759
880.859	5132
880.986	4885
881.112	4881
881.239	4786
881.366	4653
881.493	4569
881.619	4599
881.746	4672
881.872	4672
881.999	4675
882.125	4721
882.252	4752
882.378	4790
882.505	4938
882.631	4839
882.757	4702
882.883	4767
883.01	4744
883.136	4668
883.262	4592
883.388	4653
883.514	4828
883.64	4885
883.766	4809
883.892	4615
884.018	4698
884.143	4911
884.269	5022
884.395	4664
884.52	4679
884.646	4615
884.772	4584
884.897	4580
885.023	4675
885.148	4778
885.274	4828
885.399	4786
885.524	4733
885.65	4744
885.775	4755
885.9	4714
886.025	4839
886.15	4790
886.275	4721
886.4	4645
886.525	4729
886.65	4668
886.775	4694
886.9	4915
887.025	4972
887.149	4755
887.274	4725
887.399	4611
887.523	4584
887.648	4596
887.773	4584
887.897	4748
888.021	4767
888.146	4687
888.27	4744
888.395	4938
888.519	4740
888.643	4771
888.767	4858
888.891	4637
889.015	4542
889.139	4660
889.263	4622
889.387	4740
889.511	4866
889.635	4767
889.759	4656
889.883	4622
890.006	4755
890.13	4797
890.254	4630
890.377	4656
890.501	4550
890.624	4474
890.748	4603
890.871	4478
890.995	4432
891.118	4409
891.241	4497
891.364	4573
891.488	4641
891.611	4508
891.734	4569
891.857	4588
891.98	4523
892.103	4599
892.226	4599
892.349	4500
892.471	4447
892.594	4569
892.717	4653
892.839	4611
892.962	4584
893.085	4672
893.207	4615
893.33	4447
893.452	4466
893.575	4687
893.697	4554
893.819	4752
893.941	4843
894.064	4774
894.186	4573
894.308	4535
894.43	4691
894.552	4847
894.674	4744
894.796	4565
894.918	4592
895.04	4535
895.161	4702
895.283	4725
895.405	4618
895.526	4615
895.648	4748
895.769	4649
895.891	4710
896.012	4790
896.134	4725
896.255	4710
896.376	4668
896.498	4656
896.619	4679
896.74	4615
896.861	4687
896.982	4915
897.103	5090
897.224	4828
897.345	4752
897.466	4672
897.587	4736
897.708	4862
897.828	4809
897.949	4672
898.07	4531
898.19	4641
898.311	4850
898.431	4683
898.552	4698
898.672	4839
898.792	4786
898.913	4752
899.033	4611
899.153	4531
899.273	4402
899.393	4500
899.513	4512
899.633	4542
899.753	4565
899.873	4527
899.993	4615
900.113	4569
900.232	4565
900.352	4580
900.472	4493
900.591	4409
900.711	4459
900.83	4436
900.95	4637
901.069	4687
901.189	4497
901.308	4348
901.427	4325
901.546	4375
901.665	4478
901.784	4504
901.904	4371
902.023	4341
902.141	4234
902.26	4185
902.379	4284
902.498	4219
902.617	4242
902.735	4333
902.854	4386
902.973	4360
903.091	4188
903.21	4242
903.328	4314
903.446	4287
903.565	4280
903.683	4337
903.801	4272
903.919	4413
904.038	4409
904.156	4356
904.274	4432
904.392	4413
904.51	4398
904.627	4462
904.745	4580
904.863	4672
904.981	4367
905.098	4291
905.216	4371
905.334	4500
905.451	4436
905.569	4432
905.686	4569
905.803	4565
905.921	4421
906.038	4535
906.155	4459
906.272	4402
906.389	4451
906.506	4348
906.623	4436
906.74	4360
906.857	4344
906.974	4360
907.091	4569
907.208	4675
907.324	4607
907.441	4478
907.557	4310
907.674	4329
907.79	4295
907.907	4367
908.023	4527
908.139	4512
908.256	4478
908.372	4451
908.488	4421
908.604	4329
908.72	4310
908.836	4386
908.952	4371
909.068	4390
909.184	4580
909.3	4519
909.415	4584
909.531	4561
909.647	4352
909.762	4344
909.878	4344
909.993	4493
910.108	4417
910.224	4455
910.339	4497
910.454	4443
910.57	4333
910.685	4314
910.8	4668
910.915	4615
911.03	4504
911.145	4314
911.259	4352
911.374	4352
911.489	4291
911.604	4314
911.718	4169
911.833	4219
911.947	4090
912.062	4048
912.176	4158
912.291	4265
912.405	4219
912.519	4497
912.633	4508
912.748	4386
912.862	4295
912.976	4257
913.09	4116
913.204	4211
913.318	4242
913.431	4341
913.545	4341
913.659	4424
913.772	4379
913.886	4246
914	4223
914.113	4325
914.226	4428
914.34	4405
914.453	4287
914.566	4447
914.68	4276
914.793	4303
914.906	4188
915.019	4109
915.132	4051
915.245	4166
915.358	4204
915.47	4234
915.583	4246
915.696	4280
915.809	4421
915.921	4394
916.034	4242
916.146	4284
916.259	4242
916.371	4375
916.483	4333
916.595	4280
916.708	4272
916.82	4371
916.932	4329
917.044	4337
917.156	4333
917.268	4249
917.38	4268
917.491	4246
917.603	4367
917.715	4398
917.826	4394
917.938	4337
918.049	4272
918.161	4424
918.272	4508
918.384	4558
918.495	4421
918.606	4348
918.717	4246
918.828	4329
918.939	4398
919.05	4272
919.161	4363
919.272	4173
919.383	4268
919.494	4474
919.604	4675
919.715	4451
919.826	4310
919.936	4344
920.047	4500
920.157	4493
920.267	4755
920.378	4577
920.488	4519
920.598	4679
920.708	4877
920.818	4748
920.928	4721
921.038	4927
921.148	4915
921.258	4672
921.368	4554
921.477	4497
921.587	4443
921.697	4383
921.806	4531
921.916	4405
922.025	4261
922.134	4246
922.244	4253
922.353	4337
922.462	4158
922.571	4139
922.68	4017
922.789	3941
922.898	4048
923.007	3983
923.116	4101
923.224	4086
923.333	4063
923.442	3975
923.55	3987
923.659	3998
923.767	4086
923.876	3960
923.984	4139
924.092	3991
924.201	4082
924.309	4097
924.417	4124
924.525	4051
924.633	4101
924.741	5025
924.849	3941
924.956	4147
925.064	3960
925.172	3903
925.279	3987
925.387	4025
925.494	4074
925.602	4234
925.709	4215
925.816	4051
925.924	4090
926.031	4238
926.138	4192
926.245	4188
926.352	4082
926.459	4265
926.566	4268
926.673	4120
926.779	4055
926.886	4082
926.993	3964
927.099	3949
927.206	3911
927.312	3972
927.419	4055
927.525	4029
927.631	4112
927.737	3934
927.843	3941
927.95	3827
928.056	3956
928.162	3968
928.267	4025
928.373	4611
928.479	4120
928.585	3827
928.69	4044
928.796	4105
928.901	4006
929.007	3808
929.112	4017
929.218	3983
929.323	3918
929.428	3899
929.533	4131
929.638	3918
929.743	3994
929.848	4029
929.953	4029
930.058	3941
930.163	3778
930.267	3789
930.372	3964
930.477	3846
930.581	4124
930.685	3972
930.79	3876
930.894	3937
930.998	3846
931.103	4013
931.207	3728
931.311	3717
931.415	3667
931.519	3504
931.623	3542
