Data from test_V78500241_1351.txt Node
Date: Fri Mar 25 16:58:23 CST 2022
User: usil
Spectrometer: V785-0024
Trigger mode: 0
Integration Time (sec): 4.000000E-1
Scans to average: 1
Nonlinearity correction enabled: false
Boxcar width: 0
Storing dark spectrum: false
XAxis mode: Wavelengths
Number of Pixels in Spectrum: 1024
>>>>>Begin Spectral Data<<<<<
801.071	7997
801.214	8062
801.356	7871
801.499	7811
801.641	7818
801.783	7833
801.926	7951
802.068	7967
802.211	8008
802.353	8012
802.496	7860
802.638	7788
802.78	7887
802.923	7955
803.065	7818
803.208	7902
803.35	7967
803.492	8062
803.635	8111
803.777	8008
803.919	8126
804.061	8446
804.204	8123
804.346	8020
804.488	7959
804.63	8092
804.773	8008
804.915	8100
805.057	8309
805.199	8145
805.341	8259
805.483	8252
805.626	8244
805.768	8111
805.91	8218
806.052	8214
806.194	8103
806.336	8263
806.478	8046
806.62	8065
806.762	8103
806.904	8259
807.046	8511
807.188	8374
807.33	8370
807.472	8332
807.614	8187
807.756	8206
807.898	8005
808.04	7970
808.182	7917
808.324	7959
808.465	7993
808.607	8195
808.749	8157
808.891	8199
809.033	8332
809.174	8237
809.316	8153
809.458	8111
809.6	7974
809.741	8069
809.883	8020
810.025	8100
810.166	8119
810.308	8065
810.45	8058
810.591	7883
810.733	7727
810.875	7708
811.016	7632
811.158	7529
811.299	7639
811.441	7738
811.582	7742
811.724	7658
811.865	7597
812.007	7567
812.148	7613
812.29	7651
812.431	7765
812.573	7936
812.714	8027
812.855	8149
812.997	8286
813.138	8366
813.279	8237
813.421	8111
813.562	8031
813.703	7913
813.845	7780
813.986	7491
814.127	7324
814.268	7244
814.41	7225
814.551	7240
814.692	7190
814.833	7202
814.974	7091
815.115	7069
815.256	7019
815.397	6939
815.539	6962
815.68	6848
815.821	6734
815.962	6943
816.103	6802
816.244	6753
816.385	6650
816.526	6669
816.666	6490
816.807	6334
816.948	6448
817.089	6521
817.23	6498
817.371	6361
817.512	6422
817.653	6395
817.793	6441
817.934	6437
818.075	6513
818.216	6445
818.356	6456
818.497	6277
818.638	6121
818.778	6163
818.919	6182
819.06	6178
819.2	6357
819.341	6369
819.481	6369
819.622	6528
819.762	6734
819.903	6635
820.043	6662
820.184	6540
820.324	6585
820.465	6757
820.605	6741
820.746	6658
820.886	6517
821.026	6669
821.167	6730
821.307	6814
821.447	6768
821.588	6696
821.728	6585
821.868	6483
822.008	6350
822.149	6414
822.289	6365
822.429	6148
822.569	6102
822.709	6110
822.849	5969
822.99	5897
823.13	5927
823.27	5961
823.41	5786
823.55	5783
823.69	5748
823.83	5767
823.97	5615
824.11	5566
824.25	5528
824.389	5516
824.529	5592
824.669	5581
824.809	5649
824.949	5657
825.089	5668
825.228	5562
825.368	5433
825.508	5307
825.648	5387
825.787	5425
825.927	5417
826.067	5299
826.206	5296
826.346	5402
826.485	5406
826.625	5448
826.765	5566
826.904	5459
827.044	5307
827.183	5204
827.323	5151
827.462	5239
827.601	5193
827.741	5227
827.88	5220
828.02	5143
828.159	5227
828.298	5353
828.437	5383
828.577	5322
828.716	5482
828.855	5265
828.994	5159
829.134	5162
829.273	5220
829.412	5143
829.551	5170
829.69	5162
829.829	5299
829.968	5376
830.107	5292
830.246	5288
830.385	5235
830.524	5136
830.663	5128
830.802	4980
830.941	4824
831.08	4870
831.219	5010
831.357	5018
831.496	5246
831.635	4896
831.774	4805
831.913	4877
832.051	4805
832.19	4820
832.329	4885
832.467	4706
832.606	4622
832.744	4767
832.883	4759
833.022	4687
833.16	4828
833.299	4801
833.437	4854
833.576	4843
833.714	4904
833.852	4900
833.991	4889
834.129	4972
834.267	4934
834.406	4919
834.544	4991
834.682	5025
834.821	4953
834.959	5166
835.097	4999
835.235	5147
835.373	5086
835.511	5105
835.65	5041
835.788	5045
835.926	4919
836.064	4862
836.202	4965
836.34	5212
836.478	5223
836.615	5185
836.753	5208
836.891	5360
837.029	5254
837.167	5181
837.305	5159
837.443	5136
837.58	5102
837.718	5273
837.856	5204
837.993	5170
838.131	5261
838.269	5212
838.406	5185
838.544	5174
838.681	5048
838.819	4995
838.956	4927
839.094	4911
839.231	4968
839.369	5064
839.506	5387
839.643	5273
839.781	5124
839.918	5060
840.055	5140
840.193	5048
840.33	5162
840.467	5128
840.604	5193
840.742	5444
840.879	5041
841.016	5136
841.153	5189
841.29	5402
841.427	5357
841.564	5330
841.701	5360
841.838	5311
841.975	5273
842.112	5273
842.249	5121
842.385	5121
842.522	5326
842.659	5159
842.796	5178
842.933	5223
843.069	5159
843.206	5189
843.343	5296
843.479	5231
843.616	5277
843.752	4984
843.889	5033
844.025	5204
844.162	5025
844.298	5242
844.435	5113
844.571	5025
844.708	5189
844.844	5341
844.98	5387
845.117	5311
845.253	5124
845.389	5086
845.525	5170
845.661	5086
845.798	5029
845.934	5136
846.07	5086
846.206	5166
846.342	5299
846.478	5117
846.614	5025
846.75	4991
846.886	4987
847.022	5132
847.158	5014
847.294	5060
847.429	5075
847.565	5064
847.701	5318
847.837	4870
847.972	4816
848.108	4976
848.244	4930
848.379	4877
848.515	4733
848.65	4759
848.786	4733
848.921	4736
849.057	4881
849.192	4934
849.328	4786
849.463	4839
849.598	4759
849.734	4763
849.869	4672
850.004	4622
850.14	4702
850.275	4634
850.41	4523
850.545	4535
850.68	4649
850.815	4618
850.95	4634
851.085	4824
851.22	4752
851.355	4653
851.49	4611
851.625	4637
851.76	4634
851.895	4584
852.03	4489
852.165	4675
852.299	4717
852.434	4782
852.569	4736
852.703	4816
852.838	4843
852.973	4968
853.107	4949
853.242	4721
853.376	4660
853.511	4584
853.645	4641
853.78	4801
853.914	4691
854.048	4691
854.183	4656
854.317	4733
854.451	4843
854.585	4683
854.72	4615
854.854	4729
854.988	4599
855.122	4687
855.256	4565
855.39	4691
855.524	4812
855.658	4782
855.792	4698
855.926	4748
856.06	4763
856.194	4820
856.327	4733
856.461	4588
856.595	4626
856.729	4641
856.862	4748
856.996	4759
857.13	4656
857.263	4786
857.397	4790
857.53	4721
857.664	4702
857.797	4793
857.931	4793
858.064	4687
858.197	4736
858.331	4626
858.464	4577
858.597	4516
858.731	4641
858.864	4664
858.997	4618
859.13	4622
859.263	4645
859.396	4687
859.529	4592
859.662	4580
859.795	4596
859.928	4645
860.061	4763
860.194	4778
860.327	4626
860.46	4596
860.592	4733
860.725	4710
860.858	4736
860.99	4584
861.123	4531
861.256	4535
861.388	4565
861.521	5379
861.653	4504
861.786	4398
861.918	4440
862.05	4519
862.183	4588
862.315	4622
862.447	4691
862.58	4527
862.712	4455
862.844	4348
862.976	4519
863.108	4436
863.24	4889
863.372	4337
863.504	4383
863.636	4447
863.768	4485
863.9	4459
864.032	4348
864.164	4455
864.296	4508
864.428	4538
864.559	4580
864.691	4523
864.823	4512
864.954	4493
865.086	4485
865.217	4523
865.349	4428
865.48	4493
865.612	4493
865.743	4622
865.875	4462
866.006	4428
866.137	4478
866.269	4436
866.4	4500
866.531	4383
866.662	4394
866.793	4402
866.924	4436
867.055	4481
867.186	4447
867.317	4413
867.448	4371
867.579	4428
867.71	4379
867.841	4390
867.972	4443
868.103	4443
868.233	4485
868.364	4424
868.495	4497
868.625	4668
868.756	4755
868.886	4596
869.017	4615
869.147	4771
869.278	4733
869.408	4725
869.539	4679
869.669	4675
869.799	4683
869.929	4740
870.06	4786
870.19	4976
870.32	4927
870.45	4919
870.58	5029
870.71	5109
870.84	5079
870.97	4938
871.1	4949
871.23	5197
871.36	5159
871.489	5003
871.619	5094
871.749	5083
871.879	5094
872.008	5166
872.138	5056
872.267	5018
872.397	4870
872.526	4839
872.656	4717
872.785	4755
872.915	4953
873.044	5006
873.173	4923
873.303	4984
873.432	4965
873.561	4934
873.69	4896
873.819	4850
873.948	4904
874.077	4835
874.206	4721
874.335	4782
874.464	4923
874.593	5048
874.722	4987
874.851	5143
874.979	5098
875.108	5048
875.237	4927
875.365	4900
875.494	4900
875.623	4972
875.751	4843
875.88	4870
876.008	4976
876.136	5025
876.265	5185
876.393	5299
876.521	5265
876.65	5212
876.778	5121
876.906	5022
877.034	5029
877.162	5056
877.29	4999
877.418	5056
877.546	5102
877.674	4999
877.802	5022
877.93	5018
878.058	4946
878.185	4870
878.313	5018
878.441	4911
878.568	4790
878.696	4915
878.824	4949
878.951	4976
879.079	5121
879.206	5334
879.333	5048
879.461	4942
879.588	4976
879.715	5090
879.842	5201
879.97	4999
880.097	4774
880.224	4771
880.351	4824
880.478	4797
880.605	4786
880.732	4790
880.859	5102
880.986	4889
881.112	4877
881.239	4774
881.366	4698
881.493	4615
881.619	4626
881.746	4634
881.872	4653
881.999	4660
882.125	4740
882.252	4820
882.378	4809
882.505	4930
882.631	4801
882.757	4622
882.883	4767
883.01	4744
883.136	4668
883.262	4599
883.388	4592
883.514	4824
883.64	4835
883.766	4797
883.892	4656
884.018	4744
884.143	4923
884.269	5041
884.395	4710
884.52	4653
884.646	4653
884.772	4588
884.897	4573
885.023	4615
885.148	4744
885.274	4839
885.399	4812
885.524	4710
885.65	4683
885.775	4759
885.9	4721
886.025	4889
886.15	4786
886.275	4717
886.4	4664
886.525	4698
886.65	4694
886.775	4725
886.9	4908
887.025	5025
887.149	4786
887.274	4698
887.399	4569
887.523	4592
887.648	4573
887.773	4531
887.897	4793
888.021	4771
888.146	4668
888.27	4831
888.395	4873
888.519	4767
888.643	4790
888.767	4793
888.891	4584
889.015	4622
889.139	4653
889.263	4618
889.387	4740
889.511	4862
889.635	4740
889.759	4675
889.883	4622
890.006	4748
890.13	4809
890.254	4554
890.377	4698
890.501	4538
890.624	4500
890.748	4622
890.871	4508
890.995	4436
891.118	4348
891.241	4527
891.364	4531
891.488	4634
891.611	4500
891.734	4527
891.857	4611
891.98	4599
892.103	4694
892.226	4561
892.349	4558
892.471	4470
892.594	4569
892.717	4630
892.839	4558
892.962	4615
893.085	4679
893.207	4618
893.33	4440
893.452	4523
893.575	4622
893.697	4550
893.819	4752
893.941	4847
894.064	4767
894.186	4558
894.308	4519
894.43	4668
894.552	4782
894.674	4729
894.796	4550
894.918	4599
895.04	4558
895.161	4622
895.283	4649
895.405	4573
895.526	4618
895.648	4698
895.769	4668
895.891	4748
896.012	4755
896.134	4721
896.255	4687
896.376	4596
896.498	4599
896.619	4698
896.74	4561
896.861	4645
896.982	4896
897.103	5124
897.224	4797
897.345	4717
897.466	4630
897.587	4687
897.708	4858
897.828	4771
897.949	4672
898.07	4565
898.19	4630
898.311	4801
898.431	4660
898.552	4714
898.672	4835
898.792	4797
898.913	4786
899.033	4607
899.153	4504
899.273	4470
899.393	4478
899.513	4535
899.633	4504
899.753	4577
899.873	4516
899.993	4569
900.113	4546
900.232	4577
900.352	4550
900.472	4500
900.591	4394
900.711	4485
900.83	4443
900.95	4550
901.069	4698
901.189	4512
901.308	4314
901.427	4333
901.546	4413
901.665	4489
901.784	4500
901.904	4405
902.023	4303
902.141	4169
902.26	4147
902.379	4272
902.498	4246
902.617	4215
902.735	4360
902.854	4398
902.973	4314
903.091	4234
903.21	4211
903.328	4333
903.446	4238
903.565	4272
903.683	4337
903.801	4257
903.919	4424
904.038	4409
904.156	4360
904.274	4443
904.392	4421
904.51	4451
904.627	4417
904.745	4573
904.863	4615
904.981	4348
905.098	4303
905.216	4386
905.334	4459
905.451	4455
905.569	4417
905.686	4580
905.803	4531
905.921	4409
906.038	4546
906.155	4443
906.272	4424
906.389	4440
906.506	4329
906.623	4352
906.74	4333
906.857	4333
906.974	4367
907.091	4573
907.208	4660
907.324	4535
907.441	4493
907.557	4322
907.674	4295
907.79	4306
907.907	4394
908.023	4474
908.139	4474
908.256	4383
908.372	4432
908.488	4424
908.604	4363
908.72	4265
908.836	4394
908.952	4375
909.068	4390
909.184	4538
909.3	4493
909.415	4550
909.531	4618
909.647	4325
909.762	4379
909.878	4280
909.993	4409
910.108	4459
910.224	4390
910.339	4443
910.454	4413
910.57	4386
910.685	4310
910.8	4653
910.915	4592
911.03	4462
911.145	4303
911.259	4371
911.374	4375
911.489	4306
911.604	4310
911.718	4169
911.833	4188
911.947	4071
912.062	4036
912.176	4227
912.291	4196
912.405	4253
912.519	4447
912.633	4478
912.748	4348
912.862	4265
912.976	4154
913.09	4093
913.204	4162
913.318	4238
913.431	4348
913.545	4371
913.659	4474
913.772	4363
913.886	4276
914	4192
914.113	4386
914.226	4428
914.34	4348
914.453	4234
914.566	4409
914.68	4314
914.793	4322
914.906	4135
915.019	4082
915.132	4040
915.245	4185
915.358	4204
915.47	4223
915.583	4303
915.696	4257
915.809	4390
915.921	4443
916.034	4230
916.146	4314
916.259	4230
916.371	4352
916.483	4333
916.595	4284
916.708	4314
916.82	4344
916.932	4284
917.044	4329
917.156	4333
917.268	4230
917.38	4261
917.491	4303
917.603	4299
917.715	4413
917.826	4455
917.938	4337
918.049	4268
918.161	4394
918.272	4512
918.384	4497
918.495	4432
918.606	4253
918.717	4223
918.828	4295
918.939	4360
919.05	4242
919.161	4333
919.272	4128
919.383	4242
919.494	4405
919.604	4645
919.715	4413
919.826	4360
919.936	4386
920.047	4584
920.157	4474
920.267	4672
920.378	4558
920.488	4493
920.598	4656
920.708	4812
920.818	4759
920.928	4740
921.038	4919
921.148	4862
921.258	4611
921.368	4554
921.477	4493
921.587	4462
921.697	4341
921.806	4527
921.916	4440
922.025	4253
922.134	4249
922.244	4249
922.353	4306
922.462	4154
922.571	4097
922.68	4006
922.789	3941
922.898	4055
923.007	3979
923.116	4131
923.224	4078
923.333	4032
923.442	3987
923.55	4010
923.659	4029
923.767	4086
923.876	4025
923.984	4120
924.092	3937
924.201	4048
924.309	4086
924.417	4128
924.525	4067
924.633	4128
924.741	5003
924.849	3918
924.956	4147
925.064	3972
925.172	3922
925.279	4006
925.387	4021
925.494	4071
925.602	4257
925.709	4192
925.816	4013
925.924	4181
926.031	4207
926.138	4185
926.245	4188
926.352	4071
926.459	4246
926.566	4325
926.673	4135
926.779	4067
926.886	4074
926.993	3960
927.099	3918
927.206	3876
927.312	3934
927.419	4048
927.525	4006
927.631	4101
927.737	3972
927.843	3907
927.95	3869
928.056	3964
928.162	3975
928.267	4067
928.373	4672
928.479	4105
928.585	3869
928.69	3991
928.796	4071
928.901	3972
929.007	3873
929.112	3975
929.218	3972
929.323	3899
929.428	3934
929.533	4128
929.638	3880
929.743	3930
929.848	4017
929.953	3964
930.058	3945
930.163	3724
930.267	3838
930.372	3968
930.477	3831
930.581	4105
930.685	3930
930.79	3838
930.894	3911
930.998	3846
931.103	3987
931.207	3705
931.311	3698
931.415	3675
931.519	3473
931.623	3553
