Data from test_V78500241_563.txt Node
Date: Fri Mar 25 16:52:54 CST 2022
User: usil
Spectrometer: V785-0024
Trigger mode: 0
Integration Time (sec): 4.000000E-1
Scans to average: 1
Nonlinearity correction enabled: false
Boxcar width: 0
Storing dark spectrum: false
XAxis mode: Wavelengths
Number of Pixels in Spectrum: 1024
>>>>>Begin Spectral Data<<<<<
801.071	8020
801.214	7963
801.356	7803
801.499	7875
801.641	7757
801.783	7864
801.926	8027
802.068	8001
802.211	8050
802.353	8001
802.496	7925
802.638	7978
802.78	7879
802.923	7871
803.065	7799
803.208	7811
803.35	7928
803.492	8096
803.635	8092
803.777	8103
803.919	8130
804.061	8396
804.204	8161
804.346	8035
804.488	7883
804.63	8077
804.773	7970
804.915	8054
805.057	8301
805.199	8214
805.341	8214
805.483	8267
805.626	8164
805.768	8031
805.91	8210
806.052	8240
806.194	8081
806.336	8206
806.478	8103
806.62	8046
806.762	8107
806.904	8199
807.046	8454
807.188	8263
807.33	8259
807.472	8252
807.614	8092
807.756	8103
807.898	7944
808.04	7906
808.182	7967
808.324	7944
808.465	7868
808.607	8077
808.749	8142
808.891	8233
809.033	8339
809.174	8107
809.316	8027
809.458	8058
809.6	7982
809.741	8043
809.883	8024
810.025	8088
810.166	8073
810.308	8005
810.45	7989
810.591	7799
810.733	7769
810.875	7655
811.016	7518
811.158	7453
811.299	7616
811.441	7742
811.582	7658
811.724	7578
811.865	7533
812.007	7613
812.148	7620
812.29	7556
812.431	7704
812.573	7890
812.714	8050
812.855	8199
812.997	8267
813.138	8320
813.279	8221
813.421	8134
813.562	8039
813.703	7879
813.845	7849
813.986	7487
814.127	7358
814.268	7293
814.41	7209
814.551	7228
814.692	7209
814.833	7061
814.974	7069
815.115	7088
815.256	6993
815.397	6890
815.539	6977
815.68	6829
815.821	6810
815.962	6848
816.103	6848
816.244	6681
816.385	6642
816.526	6578
816.666	6467
816.807	6296
816.948	6365
817.089	6509
817.23	6437
817.371	6346
817.512	6346
817.653	6403
817.793	6376
817.934	6391
818.075	6517
818.216	6441
818.356	6372
818.497	6213
818.638	6091
818.778	6133
818.919	6102
819.06	6171
819.2	6304
819.341	6342
819.481	6273
819.622	6502
819.762	6642
819.903	6665
820.043	6544
820.184	6589
820.324	6551
820.465	6719
820.605	6654
820.746	6566
820.886	6490
821.026	6608
821.167	6681
821.307	6760
821.447	6779
821.588	6612
821.728	6525
821.868	6483
822.008	6289
822.149	6361
822.289	6331
822.429	6209
822.569	6041
822.709	6095
822.849	5889
822.99	5912
823.13	5958
823.27	5920
823.41	5745
823.55	5790
823.69	5722
823.83	5798
823.97	5695
824.11	5516
824.25	5429
824.389	5562
824.529	5547
824.669	5524
824.809	5619
824.949	5703
825.089	5623
825.228	5516
825.368	5372
825.508	5345
825.648	5402
825.787	5345
825.927	5349
826.067	5292
826.206	5269
826.346	5417
826.485	5379
826.625	5379
826.765	5566
826.904	5444
827.044	5227
827.183	5204
827.323	5136
827.462	5254
827.601	5147
827.741	5189
827.88	5223
828.02	5071
828.159	5201
828.298	5284
828.437	5318
828.577	5296
828.716	5421
828.855	5360
828.994	5166
829.134	5121
829.273	5208
829.412	5151
829.551	5105
829.69	5128
829.829	5185
829.968	5330
830.107	5288
830.246	5277
830.385	5159
830.524	5109
830.663	5124
830.802	4946
830.941	4892
831.08	4866
831.219	4961
831.357	4892
831.496	5143
831.635	4934
831.774	4835
831.913	4816
832.051	4755
832.19	4740
832.329	4805
832.467	4694
832.606	4645
832.744	4752
832.883	4653
833.022	4755
833.16	4790
833.299	4759
833.437	4835
833.576	4812
833.714	4835
833.852	4873
833.991	4892
834.129	4938
834.267	4957
834.406	4919
834.544	4949
834.682	4923
834.821	4976
834.959	5128
835.097	4968
835.235	5113
835.373	5064
835.511	5056
835.65	4980
835.788	5060
835.926	4877
836.064	4847
836.202	4911
836.34	5193
836.478	5216
836.615	5140
836.753	5223
836.891	5277
837.029	5242
837.167	5208
837.305	5204
837.443	5121
837.58	5056
837.718	5265
837.856	5170
837.993	5128
838.131	5254
838.269	5212
838.406	5254
838.544	5185
838.681	5003
838.819	4961
838.956	4911
839.094	4908
839.231	4953
839.369	4999
839.506	5372
839.643	5288
839.781	5037
839.918	5010
840.055	5067
840.193	5045
840.33	5140
840.467	5140
840.604	5181
840.742	5368
840.879	5079
841.016	5109
841.153	5178
841.29	5345
841.427	5288
841.564	5303
841.701	5353
841.838	5299
841.975	5227
842.112	5269
842.249	5181
842.385	5071
842.522	5250
842.659	5189
842.796	5124
842.933	5174
843.069	5143
843.206	5143
843.343	5277
843.479	5197
843.616	5261
843.752	5056
843.889	5006
844.025	5227
844.162	4984
844.298	5181
844.435	5064
844.571	5033
844.708	5140
844.844	5284
844.98	5265
845.117	5273
845.253	5132
845.389	5075
845.525	5159
845.661	5090
845.798	5025
845.934	5121
846.07	5086
846.206	5166
846.342	5280
846.478	5193
846.614	5022
846.75	4995
846.886	4938
847.022	5109
847.158	5041
847.294	5056
847.429	5071
847.565	5022
847.701	5311
847.837	4858
847.972	4774
848.108	4946
848.244	4900
848.379	4812
848.515	4733
848.65	4725
848.786	4763
848.921	4744
849.057	4904
849.192	4889
849.328	4774
849.463	4854
849.598	4828
849.734	4759
849.869	4717
850.004	4630
850.14	4637
850.275	4584
850.41	4489
850.545	4523
850.68	4569
850.815	4596
850.95	4622
851.085	4870
851.22	4759
851.355	4683
851.49	4618
851.625	4653
851.76	4615
851.895	4531
852.03	4558
852.165	4634
852.299	4706
852.434	4797
852.569	4649
852.703	4801
852.838	4828
852.973	4934
853.107	4896
853.242	4721
853.376	4645
853.511	4519
853.645	4622
853.78	4725
853.914	4660
854.048	4656
854.183	4622
854.317	4634
854.451	4816
854.585	4702
854.72	4683
854.854	4759
854.988	4588
855.122	4691
855.256	4531
855.39	4622
855.524	4763
855.658	4679
855.792	4660
855.926	4702
856.06	4767
856.194	4782
856.327	4702
856.461	4561
856.595	4615
856.729	4691
856.862	4782
856.996	4660
857.13	4744
857.263	4767
857.397	4801
857.53	4679
857.664	4721
857.797	4706
857.931	4790
858.064	4687
858.197	4729
858.331	4626
858.464	4558
858.597	4504
858.731	4634
858.864	4626
858.997	4607
859.13	4615
859.263	4618
859.396	4679
859.529	4535
859.662	4565
859.795	4527
859.928	4630
860.061	4774
860.194	4774
860.327	4615
860.46	4580
860.592	4755
860.725	4694
860.858	4660
860.99	4584
861.123	4546
861.256	4481
861.388	4603
861.521	5417
861.653	4474
861.786	4413
861.918	4481
862.05	4535
862.183	4554
862.315	4599
862.447	4664
862.58	4596
862.712	4402
862.844	4333
862.976	4481
863.108	4443
863.24	4843
863.372	4337
863.504	4409
863.636	4398
863.768	4504
863.9	4436
864.032	4329
864.164	4409
864.296	4459
864.428	4519
864.559	4554
864.691	4542
864.823	4519
864.954	4459
865.086	4516
865.217	4466
865.349	4424
865.48	4436
865.612	4459
865.743	4649
865.875	4455
866.006	4409
866.137	4432
866.269	4394
866.4	4383
866.531	4413
866.662	4360
866.793	4379
866.924	4443
867.055	4516
867.186	4424
867.317	4424
867.448	4360
867.579	4379
867.71	4413
867.841	4375
867.972	4443
868.103	4470
868.233	4459
868.364	4462
868.495	4451
868.625	4634
868.756	4759
868.886	4558
869.017	4626
869.147	4736
869.278	4774
869.408	4653
869.539	4626
869.669	4740
869.799	4664
869.929	4786
870.06	4725
870.19	4938
870.32	4927
870.45	4927
870.58	4995
870.71	5052
870.84	5079
870.97	4946
871.1	4877
871.23	5197
871.36	5117
871.489	5006
871.619	5086
871.749	5048
871.879	5075
872.008	5231
872.138	5025
872.267	5037
872.397	4892
872.526	4812
872.656	4733
872.785	4771
872.915	4896
873.044	5029
873.173	4965
873.303	4968
873.432	4934
873.561	4995
873.69	4870
873.819	4835
873.948	4877
874.077	4812
874.206	4717
874.335	4740
874.464	4934
874.593	5052
874.722	5006
874.851	5071
874.979	5045
875.108	5010
875.237	4866
875.365	4892
875.494	4892
875.623	4953
875.751	4847
875.88	4870
876.008	4991
876.136	4984
876.265	5204
876.393	5349
876.521	5239
876.65	5223
876.778	5147
876.906	5048
877.034	5022
877.162	5014
877.29	4999
877.418	5060
877.546	5025
877.674	5067
877.802	4999
877.93	5025
878.058	4911
878.185	4828
878.313	4987
878.441	4965
878.568	4797
878.696	4866
878.824	4984
878.951	4946
879.079	5159
879.206	5261
879.333	5102
879.461	5029
879.588	5018
879.715	5075
879.842	5208
879.97	4991
880.097	4771
880.224	4782
880.351	4797
880.478	4850
880.605	4820
880.732	4763
880.859	5098
880.986	4896
881.112	4923
881.239	4763
881.366	4679
881.493	4626
881.619	4615
881.746	4637
881.872	4649
881.999	4645
882.125	4672
882.252	4850
882.378	4816
882.505	4968
882.631	4790
882.757	4649
882.883	4706
883.01	4721
883.136	4615
883.262	4653
883.388	4603
883.514	4793
883.64	4877
883.766	4778
883.892	4679
884.018	4687
884.143	4889
884.269	5075
884.395	4660
884.52	4607
884.646	4668
884.772	4588
884.897	4550
885.023	4656
885.148	4782
885.274	4870
885.399	4774
885.524	4679
885.65	4694
885.775	4759
885.9	4714
886.025	4847
886.15	4759
886.275	4698
886.4	4641
886.525	4687
886.65	4687
886.775	4672
886.9	4965
887.025	5094
887.149	4801
887.274	4649
887.399	4596
887.523	4630
887.648	4561
887.773	4584
887.897	4740
888.021	4805
888.146	4656
888.27	4877
888.395	4835
888.519	4801
888.643	4862
888.767	4782
888.891	4649
889.015	4618
889.139	4626
889.263	4622
889.387	4755
889.511	4870
889.635	4759
889.759	4637
889.883	4599
890.006	4721
890.13	4812
890.254	4630
890.377	4691
890.501	4497
890.624	4546
890.748	4645
890.871	4512
890.995	4459
891.118	4390
891.241	4497
891.364	4554
891.488	4615
891.611	4485
891.734	4550
891.857	4550
891.98	4504
892.103	4664
892.226	4542
892.349	4519
892.471	4428
892.594	4508
892.717	4577
892.839	4535
892.962	4634
893.085	4668
893.207	4561
893.33	4436
893.452	4531
893.575	4641
893.697	4668
893.819	4831
893.941	4805
894.064	4824
894.186	4561
894.308	4573
894.43	4778
894.552	4816
894.674	4729
894.796	4569
894.918	4630
895.04	4546
895.161	4721
895.283	4668
895.405	4607
895.526	4653
895.648	4679
895.769	4717
895.891	4717
896.012	4771
896.134	4687
896.255	4641
896.376	4634
896.498	4634
896.619	4725
896.74	4630
896.861	4641
896.982	4911
897.103	5029
897.224	4774
897.345	4744
897.466	4634
897.587	4668
897.708	4862
897.828	4771
897.949	4656
898.07	4577
898.19	4630
898.311	4847
898.431	4672
898.552	4725
898.672	4790
898.792	4854
898.913	4763
899.033	4603
899.153	4535
899.273	4481
899.393	4493
899.513	4531
899.633	4527
899.753	4519
899.873	4470
899.993	4516
900.113	4550
900.232	4618
900.352	4584
900.472	4531
900.591	4424
900.711	4489
900.83	4451
900.95	4588
901.069	4702
901.189	4546
901.308	4337
901.427	4333
901.546	4363
901.665	4443
901.784	4485
901.904	4379
902.023	4322
902.141	4219
902.26	4131
902.379	4295
902.498	4200
902.617	4204
902.735	4379
902.854	4398
902.973	4341
903.091	4215
903.21	4238
903.328	4318
903.446	4276
903.565	4257
903.683	4371
903.801	4303
903.919	4413
904.038	4383
904.156	4348
904.274	4417
904.392	4375
904.51	4417
904.627	4459
904.745	4626
904.863	4637
904.981	4405
905.098	4295
905.216	4360
905.334	4424
905.451	4421
905.569	4447
905.686	4554
905.803	4542
905.921	4443
906.038	4588
906.155	4531
906.272	4455
906.389	4459
906.506	4341
906.623	4360
906.74	4383
906.857	4299
906.974	4386
907.091	4523
907.208	4668
907.324	4554
907.441	4493
907.557	4318
907.674	4356
907.79	4280
907.907	4352
908.023	4519
908.139	4470
908.256	4447
908.372	4474
908.488	4421
908.604	4363
908.72	4295
908.836	4371
908.952	4325
909.068	4440
909.184	4565
909.3	4432
909.415	4535
909.531	4588
909.647	4371
909.762	4398
909.878	4360
909.993	4443
910.108	4421
910.224	4409
910.339	4443
910.454	4379
910.57	4375
910.685	4318
910.8	4645
910.915	4584
911.03	4504
911.145	4352
911.259	4375
911.374	4344
911.489	4333
911.604	4257
911.718	4196
911.833	4177
911.947	4071
912.062	4055
912.176	4200
912.291	4219
912.405	4276
912.519	4478
912.633	4504
912.748	4383
912.862	4272
912.976	4196
913.09	4078
913.204	4177
913.318	4246
913.431	4440
913.545	4367
913.659	4455
913.772	4333
913.886	4268
914	4261
914.113	4394
914.226	4432
914.34	4344
914.453	4280
914.566	4398
914.68	4284
914.793	4329
914.906	4131
915.019	4116
915.132	4059
915.245	4158
915.358	4227
915.47	4204
915.583	4234
915.696	4310
915.809	4440
915.921	4405
916.034	4227
916.146	4261
916.259	4196
916.371	4371
916.483	4371
916.595	4242
916.708	4333
916.82	4287
916.932	4344
917.044	4276
917.156	4318
917.268	4230
917.38	4284
917.491	4234
917.603	4371
917.715	4451
917.826	4466
917.938	4322
918.049	4249
918.161	4390
918.272	4519
918.384	4497
918.495	4451
918.606	4299
918.717	4234
918.828	4341
918.939	4386
919.05	4306
919.161	4306
919.272	4105
919.383	4276
919.494	4455
919.604	4603
919.715	4417
919.826	4398
919.936	4398
920.047	4573
920.157	4500
920.267	4729
920.378	4531
920.488	4474
920.598	4694
920.708	4843
920.818	4752
920.928	4824
921.038	4927
921.148	4927
921.258	4649
921.368	4546
921.477	4497
921.587	4436
921.697	4375
921.806	4565
921.916	4443
922.025	4238
922.134	4204
922.244	4181
922.353	4287
922.462	4109
922.571	4128
922.68	4032
922.789	3998
922.898	4067
923.007	3983
923.116	4078
923.224	4090
923.333	4013
923.442	4002
923.55	3998
923.659	3975
923.767	4116
923.876	3960
923.984	4051
924.092	3972
924.201	4093
924.309	4105
924.417	4105
924.525	4055
924.633	4086
924.741	5071
924.849	3899
924.956	4147
925.064	3983
925.172	3884
925.279	3941
925.387	4067
925.494	4074
925.602	4192
925.709	4162
925.816	4051
925.924	4143
926.031	4253
926.138	4169
926.245	4188
926.352	4105
926.459	4238
926.566	4306
926.673	4185
926.779	4059
926.886	4055
926.993	3941
927.099	3953
927.206	3911
927.312	3930
927.419	4074
927.525	4013
927.631	4090
927.737	3949
927.843	3960
927.95	3816
928.056	3953
928.162	3956
928.267	4036
928.373	4710
928.479	4116
928.585	3876
928.69	3998
928.796	4063
928.901	3918
929.007	3831
929.112	4021
929.218	4036
929.323	3922
929.428	3949
929.533	4101
929.638	3949
929.743	4013
929.848	4044
929.953	3975
930.058	3937
930.163	3785
930.267	3850
930.372	3949
930.477	3835
930.581	4074
930.685	3953
930.79	3808
930.894	3926
930.998	3865
931.103	4055
931.207	3732
931.311	3728
931.415	3625
931.519	3538
931.623	3545
