Data from test_V78500241_1820.txt Node
Date: Fri Mar 25 17:01:39 CST 2022
User: usil
Spectrometer: V785-0024
Trigger mode: 0
Integration Time (sec): 4.000000E-1
Scans to average: 1
Nonlinearity correction enabled: false
Boxcar width: 0
Storing dark spectrum: false
XAxis mode: Wavelengths
Number of Pixels in Spectrum: 1024
>>>>>Begin Spectral Data<<<<<
801.071	8065
801.214	8031
801.356	7887
801.499	7871
801.641	7780
801.783	7814
801.926	7959
802.068	7963
802.211	8012
802.353	8016
802.496	7852
802.638	7837
802.78	7841
802.923	7902
803.065	7864
803.208	7883
803.35	7963
803.492	8073
803.635	8164
803.777	7967
803.919	8157
804.061	8503
804.204	8145
804.346	8081
804.488	7951
804.63	8081
804.773	8065
804.915	8065
805.057	8294
805.199	8153
805.341	8202
805.483	8294
805.626	8172
805.768	8100
805.91	8191
806.052	8248
806.194	8103
806.336	8233
806.478	8126
806.62	8111
806.762	8111
806.904	8317
807.046	8514
807.188	8381
807.33	8320
807.472	8320
807.614	8180
807.756	8183
807.898	8001
808.04	7932
808.182	7849
808.324	7860
808.465	7902
808.607	8107
808.749	8100
808.891	8233
809.033	8279
809.174	8183
809.316	8046
809.458	8039
809.6	8027
809.741	8035
809.883	8001
810.025	8062
810.166	8043
810.308	7982
810.45	8039
810.591	7849
810.733	7712
810.875	7708
811.016	7605
811.158	7499
811.299	7628
811.441	7685
811.582	7681
811.724	7582
811.865	7521
812.007	7647
812.148	7563
812.29	7651
812.431	7799
812.573	7875
812.714	8005
812.855	8134
812.997	8199
813.138	8259
813.279	8176
813.421	8107
813.562	8031
813.703	7780
813.845	7723
813.986	7464
814.127	7282
814.268	7213
814.41	7244
814.551	7198
814.692	7221
814.833	7145
814.974	7091
815.115	7202
815.256	6996
815.397	6954
815.539	6981
815.68	6779
815.821	6734
815.962	6795
816.103	6840
816.244	6730
816.385	6597
816.526	6604
816.666	6502
816.807	6327
816.948	6464
817.089	6494
817.23	6418
817.371	6403
817.512	6361
817.653	6376
817.793	6403
817.934	6407
818.075	6513
818.216	6441
818.356	6445
818.497	6296
818.638	6133
818.778	6155
818.919	6133
819.06	6178
819.2	6338
819.341	6300
819.481	6353
819.622	6509
819.762	6787
819.903	6707
820.043	6650
820.184	6589
820.324	6608
820.465	6722
820.605	6745
820.746	6612
820.886	6475
821.026	6654
821.167	6711
821.307	6783
821.447	6741
821.588	6635
821.728	6616
821.868	6490
822.008	6361
822.149	6353
822.289	6311
822.429	6133
822.569	6110
822.709	6114
822.849	5878
822.99	5927
823.13	5912
823.27	5912
823.41	5775
823.55	5748
823.69	5752
823.83	5809
823.97	5668
824.11	5512
824.25	5493
824.389	5577
824.529	5520
824.669	5493
824.809	5676
824.949	5653
825.089	5634
825.228	5570
825.368	5353
825.508	5349
825.648	5376
825.787	5425
825.927	5398
826.067	5296
826.206	5318
826.346	5372
826.485	5379
826.625	5448
826.765	5570
826.904	5482
827.044	5280
827.183	5193
827.323	5174
827.462	5284
827.601	5181
827.741	5185
827.88	5212
828.02	5117
828.159	5212
828.298	5265
828.437	5395
828.577	5307
828.716	5471
828.855	5322
828.994	5185
829.134	5155
829.273	5216
829.412	5147
829.551	5128
829.69	5166
829.829	5280
829.968	5383
830.107	5292
830.246	5235
830.385	5136
830.524	5124
830.663	5064
830.802	4999
830.941	4870
831.08	4889
831.219	4965
831.357	4980
831.496	5143
831.635	4896
831.774	4866
831.913	4873
832.051	4744
832.19	4725
832.329	4877
832.467	4733
832.606	4584
832.744	4721
832.883	4729
833.022	4740
833.16	4778
833.299	4824
833.437	4824
833.576	4839
833.714	4858
833.852	4854
833.991	4862
834.129	4957
834.267	4942
834.406	4919
834.544	4965
834.682	4942
834.821	4938
834.959	5174
835.097	4965
835.235	5147
835.373	5090
835.511	5124
835.65	5006
835.788	4984
835.926	4892
836.064	4889
836.202	4900
836.34	5159
836.478	5246
836.615	5102
836.753	5185
836.891	5261
837.029	5269
837.167	5178
837.305	5155
837.443	5159
837.58	5086
837.718	5250
837.856	5159
837.993	5166
838.131	5273
838.269	5216
838.406	5185
838.544	5140
838.681	5083
838.819	4961
838.956	4873
839.094	4862
839.231	4976
839.369	5064
839.506	5429
839.643	5220
839.781	5075
839.918	5048
840.055	5201
840.193	5105
840.33	5113
840.467	5102
840.604	5208
840.742	5421
840.879	5086
841.016	5071
841.153	5159
841.29	5387
841.427	5303
841.564	5334
841.701	5334
841.838	5265
841.975	5227
842.112	5273
842.249	5147
842.385	5113
842.522	5357
842.659	5174
842.796	5132
842.933	5174
843.069	5124
843.206	5166
843.343	5296
843.479	5235
843.616	5303
843.752	5060
843.889	5018
844.025	5227
844.162	5033
844.298	5235
844.435	5090
844.571	5075
844.708	5197
844.844	5318
844.98	5364
845.117	5284
845.253	5178
845.389	5079
845.525	5147
845.661	5140
845.798	5052
845.934	5128
846.07	5037
846.206	5185
846.342	5307
846.478	5124
846.614	5029
846.75	5006
846.886	4885
847.022	5159
847.158	5033
847.294	5086
847.429	5094
847.565	5022
847.701	5337
847.837	4805
847.972	4767
848.108	4987
848.244	4904
848.379	4767
848.515	4698
848.65	4729
848.786	4774
848.921	4774
849.057	4862
849.192	4873
849.328	4820
849.463	4839
849.598	4820
849.734	4782
849.869	4687
850.004	4672
850.14	4698
850.275	4607
850.41	4516
850.545	4538
850.68	4599
850.815	4599
850.95	4588
851.085	4831
851.22	4774
851.355	4622
851.49	4588
851.625	4615
851.76	4641
851.895	4565
852.03	4577
852.165	4641
852.299	4706
852.434	4778
852.569	4759
852.703	4706
852.838	4835
852.973	4934
853.107	4919
853.242	4702
853.376	4664
853.511	4611
853.645	4622
853.78	4771
853.914	4668
854.048	4664
854.183	4645
854.317	4702
854.451	4797
854.585	4664
854.72	4618
854.854	4767
854.988	4580
855.122	4649
855.256	4550
855.39	4626
855.524	4771
855.658	4706
855.792	4687
855.926	4710
856.06	4767
856.194	4767
856.327	4660
856.461	4592
856.595	4611
856.729	4630
856.862	4744
856.996	4717
857.13	4683
857.263	4771
857.397	4824
857.53	4592
857.664	4698
857.797	4736
857.931	4752
858.064	4687
858.197	4736
858.331	4645
858.464	4611
858.597	4508
858.731	4660
858.864	4664
858.997	4592
859.13	4653
859.263	4675
859.396	4656
859.529	4584
859.662	4519
859.795	4554
859.928	4672
860.061	4778
860.194	4805
860.327	4588
860.46	4538
860.592	4694
860.725	4733
860.858	4710
860.99	4588
861.123	4485
861.256	4531
861.388	4637
861.521	5429
861.653	4466
861.786	4451
861.918	4432
862.05	4516
862.183	4523
862.315	4577
862.447	4611
862.58	4546
862.712	4379
862.844	4299
862.976	4508
863.108	4390
863.24	4870
863.372	4314
863.504	4409
863.636	4379
863.768	4497
863.9	4455
864.032	4417
864.164	4348
864.296	4500
864.428	4519
864.559	4538
864.691	4497
864.823	4569
864.954	4481
865.086	4508
865.217	4455
865.349	4436
865.48	4447
865.612	4497
865.743	4615
865.875	4470
866.006	4421
866.137	4424
866.269	4447
866.4	4409
866.531	4402
866.662	4409
866.793	4394
866.924	4398
867.055	4500
867.186	4455
867.317	4367
867.448	4367
867.579	4360
867.71	4383
867.841	4371
867.972	4493
868.103	4409
868.233	4470
868.364	4432
868.495	4512
868.625	4637
868.756	4755
868.886	4569
869.017	4630
869.147	4744
869.278	4759
869.408	4645
869.539	4615
869.669	4710
869.799	4668
869.929	4759
870.06	4691
870.19	4946
870.32	4873
870.45	4919
870.58	5018
870.71	5075
870.84	5075
870.97	4930
871.1	4927
871.23	5121
871.36	5128
871.489	5048
871.619	5090
871.749	5105
871.879	5117
872.008	5155
872.138	5056
872.267	4980
872.397	4831
872.526	4763
872.656	4698
872.785	4744
872.915	4915
873.044	5037
873.173	4942
873.303	4923
873.432	4908
873.561	4961
873.69	4911
873.819	4885
873.948	4946
874.077	4820
874.206	4748
874.335	4816
874.464	4870
874.593	5041
874.722	4915
874.851	5041
874.979	5041
875.108	5045
875.237	4915
875.365	4885
875.494	4896
875.623	4987
875.751	4801
875.88	4850
876.008	5033
876.136	5086
876.265	5174
876.393	5337
876.521	5231
876.65	5239
876.778	5155
876.906	5075
877.034	5025
877.162	5033
877.29	4965
877.418	5003
877.546	5052
877.674	5041
877.802	5033
877.93	5033
878.058	4919
878.185	4793
878.313	4919
878.441	4927
878.568	4782
878.696	4904
878.824	4949
878.951	4991
879.079	5143
879.206	5235
879.333	5117
879.461	4965
879.588	4976
879.715	5128
879.842	5201
879.97	4987
880.097	4755
880.224	4736
880.351	4797
880.478	4740
880.605	4771
880.732	4748
880.859	5048
880.986	4911
881.112	4934
881.239	4790
881.366	4645
881.493	4630
881.619	4611
881.746	4615
881.872	4691
881.999	4611
882.125	4656
882.252	4820
882.378	4801
882.505	4965
882.631	4805
882.757	4660
882.883	4694
883.01	4740
883.136	4637
883.262	4577
883.388	4603
883.514	4862
883.64	4854
883.766	4790
883.892	4634
884.018	4725
884.143	4892
884.269	5006
884.395	4664
884.52	4630
884.646	4561
884.772	4565
884.897	4554
885.023	4622
885.148	4786
885.274	4839
885.399	4824
885.524	4675
885.65	4717
885.775	4771
885.9	4664
886.025	4812
886.15	4790
886.275	4679
886.4	4649
886.525	4714
886.65	4698
886.775	4679
886.9	4858
887.025	5079
887.149	4771
887.274	4664
887.399	4596
887.523	4592
887.648	4554
887.773	4569
887.897	4729
888.021	4755
888.146	4653
888.27	4835
888.395	4919
888.519	4767
888.643	4809
888.767	4752
888.891	4702
889.015	4622
889.139	4641
889.263	4561
889.387	4733
889.511	4847
889.635	4820
889.759	4603
889.883	4653
890.006	4710
890.13	4824
890.254	4618
890.377	4687
890.501	4538
890.624	4497
890.748	4675
890.871	4512
890.995	4432
891.118	4360
891.241	4500
891.364	4535
891.488	4611
891.611	4481
891.734	4523
891.857	4599
891.98	4596
892.103	4649
892.226	4584
892.349	4542
892.471	4379
892.594	4531
892.717	4618
892.839	4504
892.962	4569
893.085	4634
893.207	4573
893.33	4443
893.452	4527
893.575	4626
893.697	4577
893.819	4763
893.941	4797
894.064	4797
894.186	4565
894.308	4550
894.43	4790
894.552	4889
894.674	4782
894.796	4550
894.918	4580
895.04	4573
895.161	4672
895.283	4664
895.405	4535
895.526	4611
895.648	4721
895.769	4687
895.891	4717
896.012	4736
896.134	4736
896.255	4714
896.376	4588
896.498	4626
896.619	4641
896.74	4630
896.861	4664
896.982	4854
897.103	5086
897.224	4831
897.345	4717
897.466	4611
897.587	4744
897.708	4801
897.828	4793
897.949	4748
898.07	4592
898.19	4622
898.311	4793
898.431	4649
898.552	4710
898.672	4759
898.792	4782
898.913	4725
899.033	4645
899.153	4527
899.273	4394
899.393	4478
899.513	4538
899.633	4508
899.753	4558
899.873	4489
899.993	4603
900.113	4527
900.232	4622
900.352	4561
900.472	4493
900.591	4409
900.711	4485
900.83	4466
900.95	4554
901.069	4714
901.189	4474
901.308	4379
901.427	4306
901.546	4367
901.665	4455
901.784	4504
901.904	4383
902.023	4303
902.141	4204
902.26	4169
902.379	4284
902.498	4234
902.617	4211
902.735	4402
902.854	4424
902.973	4417
903.091	4192
903.21	4192
903.328	4284
903.446	4223
903.565	4234
903.683	4348
903.801	4268
903.919	4356
904.038	4386
904.156	4344
904.274	4402
904.392	4424
904.51	4409
904.627	4424
904.745	4550
904.863	4637
904.981	4379
905.098	4291
905.216	4348
905.334	4428
905.451	4455
905.569	4443
905.686	4580
905.803	4523
905.921	4394
906.038	4584
906.155	4497
906.272	4440
906.389	4459
906.506	4360
906.623	4337
906.74	4352
906.857	4333
906.974	4360
907.091	4569
907.208	4691
907.324	4607
907.441	4493
907.557	4337
907.674	4352
907.79	4291
907.907	4402
908.023	4504
908.139	4531
908.256	4440
908.372	4542
908.488	4455
908.604	4348
908.72	4314
908.836	4348
908.952	4329
909.068	4402
909.184	4554
909.3	4474
909.415	4584
909.531	4504
909.647	4379
909.762	4413
909.878	4344
909.993	4402
910.108	4394
910.224	4417
910.339	4497
910.454	4386
910.57	4390
910.685	4356
910.8	4664
910.915	4626
911.03	4523
911.145	4337
911.259	4306
911.374	4341
911.489	4253
911.604	4276
911.718	4162
911.833	4143
911.947	4097
912.062	4074
912.176	4188
912.291	4261
912.405	4230
912.519	4413
912.633	4459
912.748	4371
912.862	4295
912.976	4215
913.09	4105
913.204	4143
913.318	4322
913.431	4405
913.545	4352
913.659	4440
913.772	4322
913.886	4268
914	4223
914.113	4390
914.226	4421
914.34	4383
914.453	4223
914.566	4432
914.68	4322
914.793	4363
914.906	4162
915.019	4097
915.132	4067
915.245	4200
915.358	4177
915.47	4242
915.583	4280
915.696	4318
915.809	4443
915.921	4405
916.034	4242
916.146	4261
916.259	4227
916.371	4360
916.483	4360
916.595	4261
916.708	4352
916.82	4268
916.932	4261
917.044	4325
917.156	4379
917.268	4272
917.38	4246
917.491	4291
917.603	4360
917.715	4398
917.826	4443
917.938	4371
918.049	4249
918.161	4360
918.272	4500
918.384	4546
918.495	4428
918.606	4333
918.717	4223
918.828	4314
918.939	4375
919.05	4253
919.161	4261
919.272	4090
919.383	4272
919.494	4462
919.604	4615
919.715	4432
919.826	4367
919.936	4421
920.047	4474
920.157	4417
920.267	4664
920.378	4535
920.488	4466
920.598	4744
920.708	4904
920.818	4721
920.928	4744
921.038	4927
921.148	4896
921.258	4626
921.368	4535
921.477	4546
921.587	4470
921.697	4356
921.806	4546
921.916	4455
922.025	4272
922.134	4261
922.244	4192
922.353	4314
922.462	4147
922.571	4143
922.68	4029
922.789	3941
922.898	4013
923.007	3991
923.116	4131
923.224	4082
923.333	4074
923.442	3998
923.55	4006
923.659	4017
923.767	4124
923.876	3998
923.984	4112
924.092	3987
924.201	4074
924.309	4128
924.417	4093
924.525	4063
924.633	4112
924.741	5022
924.849	3937
924.956	4147
925.064	3987
925.172	3899
925.279	3979
925.387	4036
925.494	4063
925.602	4238
925.709	4181
925.816	4044
925.924	4139
926.031	4227
926.138	4166
926.245	4200
926.352	4135
926.459	4257
926.566	4303
926.673	4139
926.779	4109
926.886	4063
926.993	3994
927.099	3960
927.206	3945
927.312	3934
927.419	4021
927.525	3991
927.631	4074
927.737	3972
927.843	3915
927.95	3835
928.056	3960
928.162	3991
928.267	4036
928.373	4596
928.479	4097
928.585	3865
928.69	4040
928.796	4090
928.901	3949
929.007	3854
929.112	3987
929.218	3998
929.323	3926
929.428	3930
929.533	4124
929.638	3907
929.743	3975
929.848	4036
929.953	3960
930.058	3941
930.163	3770
930.267	3778
930.372	3949
930.477	3823
930.581	4101
930.685	3972
930.79	3854
930.894	3861
930.998	3854
931.103	4048
931.207	3709
931.311	3682
931.415	3679
931.519	3500
931.623	3591
