Data from test_V78500241_499.txt Node
Date: Fri Mar 25 16:52:28 CST 2022
User: usil
Spectrometer: V785-0024
Trigger mode: 0
Integration Time (sec): 4.000000E-1
Scans to average: 1
Nonlinearity correction enabled: false
Boxcar width: 0
Storing dark spectrum: false
XAxis mode: Wavelengths
Number of Pixels in Spectrum: 1024
>>>>>Begin Spectral Data<<<<<
801.071	8016
801.214	7959
801.356	7879
801.499	7818
801.641	7811
801.783	7837
801.926	7986
802.068	7955
802.211	8012
802.353	7986
802.496	7906
802.638	7906
802.78	7947
802.923	7921
803.065	7856
803.208	7871
803.35	7967
803.492	8012
803.635	8142
803.777	7959
803.919	8073
804.061	8408
804.204	8115
804.346	8024
804.488	7970
804.63	8043
804.773	7917
804.915	8092
805.057	8282
805.199	8214
805.341	8195
805.483	8286
805.626	8248
805.768	8130
805.91	8130
806.052	8172
806.194	8130
806.336	8290
806.478	8111
806.62	8084
806.762	8164
806.904	8267
807.046	8438
807.188	8358
807.33	8199
807.472	8206
807.614	8100
807.756	8119
807.898	7982
808.04	7849
808.182	7898
808.324	7887
808.465	7894
808.607	8020
808.749	8073
808.891	8180
809.033	8256
809.174	8218
809.316	7993
809.458	8073
809.6	7928
809.741	8092
809.883	8069
810.025	8130
810.166	8039
810.308	8039
810.45	8012
810.591	7894
810.733	7731
810.875	7628
811.016	7578
811.158	7495
811.299	7616
811.441	7712
811.582	7681
811.724	7594
811.865	7636
812.007	7658
812.148	7613
812.29	7571
812.431	7757
812.573	7860
812.714	7970
812.855	8157
812.997	8191
813.138	8301
813.279	8244
813.421	8126
813.562	8069
813.703	7890
813.845	7807
813.986	7529
814.127	7384
814.268	7259
814.41	7209
814.551	7149
814.692	7213
814.833	7019
814.974	7091
815.115	7149
815.256	6977
815.397	6939
815.539	6951
815.68	6856
815.821	6791
815.962	6894
816.103	6852
816.244	6734
816.385	6597
816.526	6654
816.666	6563
816.807	6300
816.948	6486
817.089	6483
817.23	6418
817.371	6323
817.512	6369
817.653	6380
817.793	6410
817.934	6395
818.075	6486
818.216	6460
818.356	6361
818.497	6258
818.638	6076
818.778	6114
818.919	6155
819.06	6171
819.2	6285
819.341	6304
819.481	6311
819.622	6509
819.762	6681
819.903	6745
820.043	6593
820.184	6574
820.324	6521
820.465	6726
820.605	6612
820.746	6582
820.886	6506
821.026	6650
821.167	6677
821.307	6802
821.447	6776
821.588	6658
821.728	6498
821.868	6437
822.008	6350
822.149	6331
822.289	6403
822.429	6178
822.569	6117
822.709	6186
822.849	5897
822.99	5908
823.13	5927
823.27	5859
823.41	5710
823.55	5790
823.69	5779
823.83	5805
823.97	5668
824.11	5535
824.25	5589
824.389	5600
824.529	5592
824.669	5554
824.809	5592
824.949	5676
825.089	5619
825.228	5535
825.368	5398
825.508	5265
825.648	5349
825.787	5360
825.927	5383
826.067	5265
826.206	5311
826.346	5398
826.485	5379
826.625	5448
826.765	5547
826.904	5474
827.044	5265
827.183	5212
827.323	5136
827.462	5299
827.601	5212
827.741	5204
827.88	5162
828.02	5132
828.159	5242
828.298	5299
828.437	5414
828.577	5303
828.716	5459
828.855	5360
828.994	5178
829.134	5155
829.273	5170
829.412	5174
829.551	5098
829.69	5197
829.829	5231
829.968	5379
830.107	5318
830.246	5280
830.385	5197
830.524	5132
830.663	5083
830.802	4923
830.941	4915
831.08	4873
831.219	4980
831.357	4965
831.496	5170
831.635	4938
831.774	4908
831.913	4797
832.051	4717
832.19	4755
832.329	4873
832.467	4634
832.606	4618
832.744	4714
832.883	4721
833.022	4710
833.16	4793
833.299	4831
833.437	4870
833.576	4889
833.714	4858
833.852	4866
833.991	4881
834.129	4991
834.267	4923
834.406	4900
834.544	4980
834.682	5006
834.821	4972
834.959	5155
835.097	4995
835.235	5136
835.373	5083
835.511	5071
835.65	4976
835.788	5022
835.926	4828
836.064	4828
836.202	4938
836.34	5189
836.478	5227
836.615	5151
836.753	5170
836.891	5307
837.029	5258
837.167	5220
837.305	5166
837.443	5185
837.58	5121
837.718	5204
837.856	5174
837.993	5109
838.131	5246
838.269	5124
838.406	5197
838.544	5189
838.681	5014
838.819	5052
838.956	4889
839.094	4904
839.231	4984
839.369	5048
839.506	5395
839.643	5280
839.781	5060
839.918	5033
840.055	5083
840.193	5136
840.33	5121
840.467	5151
840.604	5204
840.742	5414
840.879	5067
841.016	5140
841.153	5151
841.29	5383
841.427	5337
841.564	5360
841.701	5379
841.838	5277
841.975	5212
842.112	5296
842.249	5124
842.385	5124
842.522	5307
842.659	5162
842.796	5231
842.933	5204
843.069	5143
843.206	5136
843.343	5273
843.479	5212
843.616	5296
843.752	5079
843.889	5010
844.025	5201
844.162	5025
844.298	5201
844.435	5094
844.571	5029
844.708	5166
844.844	5318
844.98	5364
845.117	5239
845.253	5147
845.389	5064
845.525	5132
845.661	5181
845.798	5079
845.934	5124
846.07	5064
846.206	5201
846.342	5220
846.478	5223
846.614	5029
846.75	4976
846.886	4961
847.022	5140
847.158	5048
847.294	5064
847.429	5098
847.565	5048
847.701	5334
847.837	4847
847.972	4797
848.108	4995
848.244	4953
848.379	4790
848.515	4725
848.65	4755
848.786	4744
848.921	4790
849.057	4885
849.192	4934
849.328	4786
849.463	4828
849.598	4820
849.734	4831
849.869	4656
850.004	4603
850.14	4592
850.275	4637
850.41	4535
850.545	4599
850.68	4626
850.815	4611
850.95	4641
851.085	4843
851.22	4752
851.355	4668
851.49	4618
851.625	4622
851.76	4641
851.895	4523
852.03	4550
852.165	4660
852.299	4729
852.434	4801
852.569	4748
852.703	4812
852.838	4866
852.973	4915
853.107	4919
853.242	4736
853.376	4664
853.511	4546
853.645	4546
853.78	4801
853.914	4668
854.048	4649
854.183	4687
854.317	4702
854.451	4839
854.585	4698
854.72	4656
854.854	4774
854.988	4577
855.122	4622
855.256	4481
855.39	4672
855.524	4763
855.658	4748
855.792	4725
855.926	4748
856.06	4748
856.194	4812
856.327	4683
856.461	4607
856.595	4603
856.729	4645
856.862	4778
856.996	4755
857.13	4740
857.263	4759
857.397	4805
857.53	4653
857.664	4714
857.797	4736
857.931	4752
858.064	4679
858.197	4729
858.331	4656
858.464	4615
858.597	4508
858.731	4660
858.864	4656
858.997	4603
859.13	4687
859.263	4706
859.396	4725
859.529	4584
859.662	4630
859.795	4527
859.928	4649
860.061	4774
860.194	4755
860.327	4588
860.46	4535
860.592	4721
860.725	4767
860.858	4740
860.99	4599
861.123	4523
861.256	4550
861.388	4626
861.521	5383
861.653	4481
861.786	4481
861.918	4462
862.05	4569
862.183	4554
862.315	4577
862.447	4596
862.58	4592
862.712	4409
862.844	4341
862.976	4485
863.108	4440
863.24	4812
863.372	4360
863.504	4455
863.636	4398
863.768	4478
863.9	4451
864.032	4371
864.164	4443
864.296	4485
864.428	4573
864.559	4569
864.691	4569
864.823	4478
864.954	4497
865.086	4535
865.217	4443
865.349	4466
865.48	4466
865.612	4504
865.743	4622
865.875	4489
866.006	4451
866.137	4500
866.269	4451
866.4	4485
866.531	4455
866.662	4474
866.793	4367
866.924	4462
867.055	4538
867.186	4440
867.317	4424
867.448	4390
867.579	4402
867.71	4356
867.841	4386
867.972	4459
868.103	4478
868.233	4432
868.364	4485
868.495	4493
868.625	4645
868.756	4797
868.886	4569
869.017	4599
869.147	4805
869.278	4790
869.408	4668
869.539	4653
869.669	4702
869.799	4653
869.929	4782
870.06	4729
870.19	4972
870.32	4949
870.45	4923
870.58	4991
870.71	5052
870.84	5083
870.97	4972
871.1	4919
871.23	5140
871.36	5109
871.489	4968
871.619	5025
871.749	5071
871.879	5159
872.008	5159
872.138	5064
872.267	5010
872.397	4877
872.526	4774
872.656	4717
872.785	4801
872.915	4980
873.044	5022
873.173	4946
873.303	4957
873.432	4968
873.561	4972
873.69	4938
873.819	4839
873.948	4953
874.077	4843
874.206	4752
874.335	4793
874.464	4946
874.593	5033
874.722	4976
874.851	5105
874.979	5052
875.108	5022
875.237	4949
875.365	4946
875.494	4885
875.623	4965
875.751	4812
875.88	4942
876.008	5025
876.136	5052
876.265	5204
876.393	5353
876.521	5277
876.65	5174
876.778	5170
876.906	5060
877.034	5083
877.162	5060
877.29	5037
877.418	5064
877.546	5064
877.674	5041
877.802	5045
877.93	5014
878.058	4923
878.185	4904
878.313	4934
878.441	5014
878.568	4790
878.696	4892
878.824	4946
878.951	5033
879.079	5185
879.206	5269
879.333	5090
879.461	4980
879.588	5025
879.715	5056
879.842	5223
879.97	5037
880.097	4771
880.224	4763
880.351	4778
880.478	4839
880.605	4790
880.732	4755
880.859	5075
880.986	4850
881.112	4873
881.239	4801
881.366	4626
881.493	4596
881.619	4565
881.746	4672
881.872	4656
881.999	4649
882.125	4653
882.252	4786
882.378	4839
882.505	4953
882.631	4816
882.757	4649
882.883	4771
883.01	4740
883.136	4664
883.262	4645
883.388	4599
883.514	4793
883.64	4843
883.766	4733
883.892	4679
884.018	4717
884.143	4923
884.269	4965
884.395	4702
884.52	4637
884.646	4664
884.772	4558
884.897	4599
885.023	4664
885.148	4793
885.274	4847
885.399	4793
885.524	4687
885.65	4714
885.775	4767
885.9	4706
886.025	4812
886.15	4793
886.275	4725
886.4	4679
886.525	4736
886.65	4656
886.775	4698
886.9	4915
887.025	5045
887.149	4786
887.274	4645
887.399	4588
887.523	4599
887.648	4588
887.773	4577
887.897	4740
888.021	4782
888.146	4660
888.27	4793
888.395	4927
888.519	4828
888.643	4797
888.767	4854
888.891	4675
889.015	4611
889.139	4656
889.263	4607
889.387	4744
889.511	4873
889.635	4786
889.759	4660
889.883	4634
890.006	4740
890.13	4828
890.254	4615
890.377	4706
890.501	4519
890.624	4485
890.748	4615
890.871	4512
890.995	4443
891.118	4421
891.241	4580
891.364	4558
891.488	4618
891.611	4504
891.734	4531
891.857	4611
891.98	4565
892.103	4672
892.226	4596
892.349	4531
892.471	4379
892.594	4577
892.717	4588
892.839	4584
892.962	4630
893.085	4630
893.207	4653
893.33	4493
893.452	4584
893.575	4679
893.697	4596
893.819	4820
893.941	4843
894.064	4786
894.186	4542
894.308	4573
894.43	4725
894.552	4843
894.674	4714
894.796	4592
894.918	4596
895.04	4580
895.161	4733
895.283	4660
895.405	4607
895.526	4634
895.648	4649
895.769	4702
895.891	4683
896.012	4714
896.134	4702
896.255	4675
896.376	4637
896.498	4649
896.619	4649
896.74	4603
896.861	4668
896.982	4877
897.103	5071
897.224	4831
897.345	4763
897.466	4645
897.587	4763
897.708	4870
897.828	4767
897.949	4691
898.07	4592
898.19	4622
898.311	4809
898.431	4672
898.552	4729
898.672	4812
898.792	4809
898.913	4733
899.033	4634
899.153	4474
899.273	4428
899.393	4500
899.513	4512
899.633	4531
899.753	4584
899.873	4493
899.993	4599
900.113	4538
900.232	4588
900.352	4538
900.472	4519
900.591	4424
900.711	4485
900.83	4436
900.95	4546
901.069	4683
901.189	4504
901.308	4379
901.427	4341
901.546	4363
901.665	4470
901.784	4516
901.904	4375
902.023	4333
902.141	4181
902.26	4166
902.379	4284
902.498	4276
902.617	4265
902.735	4379
902.854	4402
902.973	4398
903.091	4196
903.21	4227
903.328	4306
903.446	4303
903.565	4280
903.683	4356
903.801	4287
903.919	4424
904.038	4451
904.156	4333
904.274	4443
904.392	4402
904.51	4455
904.627	4481
904.745	4588
904.863	4618
904.981	4402
905.098	4337
905.216	4405
905.334	4451
905.451	4459
905.569	4451
905.686	4542
905.803	4573
905.921	4413
906.038	4550
906.155	4451
906.272	4371
906.389	4474
906.506	4306
906.623	4341
906.74	4402
906.857	4333
906.974	4409
907.091	4565
907.208	4752
907.324	4588
907.441	4474
907.557	4360
907.674	4333
907.79	4325
907.907	4428
908.023	4497
908.139	4451
908.256	4504
908.372	4493
908.488	4440
908.604	4341
908.72	4367
908.836	4421
908.952	4356
909.068	4428
909.184	4588
909.3	4478
909.415	4558
909.531	4569
909.647	4322
909.762	4405
909.878	4322
909.993	4424
910.108	4436
910.224	4421
910.339	4459
910.454	4432
910.57	4337
910.685	4322
910.8	4668
910.915	4622
911.03	4523
911.145	4348
911.259	4306
911.374	4356
911.489	4295
911.604	4291
911.718	4124
911.833	4230
911.947	4093
912.062	4021
912.176	4268
912.291	4242
912.405	4230
912.519	4489
912.633	4527
912.748	4310
912.862	4318
912.976	4219
913.09	4082
913.204	4230
913.318	4215
913.431	4352
913.545	4344
913.659	4489
913.772	4299
913.886	4223
914	4200
914.113	4402
914.226	4462
914.34	4417
914.453	4242
914.566	4398
914.68	4306
914.793	4379
914.906	4192
915.019	4128
915.132	4116
915.245	4162
915.358	4215
915.47	4261
915.583	4257
915.696	4318
915.809	4424
915.921	4436
916.034	4284
916.146	4306
916.259	4261
916.371	4398
916.483	4375
916.595	4253
916.708	4352
916.82	4333
916.932	4310
917.044	4318
917.156	4348
917.268	4249
917.38	4295
917.491	4268
917.603	4337
917.715	4432
917.826	4398
917.938	4398
918.049	4261
918.161	4379
918.272	4504
918.384	4516
918.495	4451
918.606	4272
918.717	4242
918.828	4360
918.939	4352
919.05	4230
919.161	4287
919.272	4181
919.383	4188
919.494	4421
919.604	4611
919.715	4428
919.826	4306
919.936	4432
920.047	4527
920.157	4508
920.267	4694
920.378	4512
920.488	4523
920.598	4687
920.708	4919
920.818	4774
920.928	4733
921.038	4938
921.148	4908
921.258	4554
921.368	4554
921.477	4485
921.587	4424
921.697	4394
921.806	4573
921.916	4455
922.025	4310
922.134	4303
922.244	4238
922.353	4341
922.462	4177
922.571	4135
922.68	3991
922.789	3987
922.898	4025
923.007	4029
923.116	4105
923.224	4078
923.333	4067
923.442	3994
923.55	4017
923.659	4025
923.767	4101
923.876	3949
923.984	4154
924.092	3956
924.201	4055
924.309	4044
924.417	4150
924.525	4067
924.633	4116
924.741	5090
924.849	3930
924.956	4139
925.064	4002
925.172	3934
925.279	3991
925.387	4078
925.494	4013
925.602	4234
925.709	4166
925.816	4093
925.924	4158
926.031	4215
926.138	4112
926.245	4185
926.352	4109
926.459	4204
926.566	4341
926.673	4139
926.779	4101
926.886	4048
926.993	3979
927.099	3937
927.206	3922
927.312	3953
927.419	4090
927.525	4002
927.631	4124
927.737	3956
927.843	3949
927.95	3873
928.056	3975
928.162	3994
928.267	4074
928.373	4740
928.479	4139
928.585	3846
928.69	4051
928.796	4059
928.901	3941
929.007	3804
929.112	4025
929.218	4002
929.323	3964
929.428	3903
929.533	4109
929.638	3880
929.743	4010
929.848	4097
929.953	3968
930.058	3915
930.163	3751
930.267	3846
930.372	3991
930.477	3823
930.581	4059
930.685	3960
930.79	3819
930.894	3934
930.998	3823
931.103	4044
931.207	3682
931.311	3671
931.415	3610
931.519	3523
931.623	3530
