Data from test_V78500241_1301.txt Node
Date: Fri Mar 25 16:58:02 CST 2022
User: usil
Spectrometer: V785-0024
Trigger mode: 0
Integration Time (sec): 4.000000E-1
Scans to average: 1
Nonlinearity correction enabled: false
Boxcar width: 0
Storing dark spectrum: false
XAxis mode: Wavelengths
Number of Pixels in Spectrum: 1024
>>>>>Begin Spectral Data<<<<<
801.071	8035
801.214	8084
801.356	7879
801.499	7860
801.641	7894
801.783	7852
801.926	7932
802.068	7955
802.211	8039
802.353	7898
802.496	7852
802.638	7841
802.78	7974
802.923	7963
803.065	7833
803.208	7921
803.35	7955
803.492	8069
803.635	8168
803.777	8084
803.919	8130
804.061	8423
804.204	8130
804.346	8084
804.488	7967
804.63	8119
804.773	8039
804.915	8168
805.057	8294
805.199	8187
805.341	8244
805.483	8279
805.626	8183
805.768	8172
805.91	8256
806.052	8214
806.194	8183
806.336	8271
806.478	8096
806.62	8054
806.762	8206
806.904	8320
807.046	8469
807.188	8385
807.33	8324
807.472	8317
807.614	8096
807.756	8164
807.898	8005
808.04	7936
808.182	7917
808.324	7921
808.465	7967
808.607	8130
808.749	8130
808.891	8240
809.033	8244
809.174	8206
809.316	8100
809.458	8081
809.6	8065
809.741	8058
809.883	8081
810.025	8096
810.166	8073
810.308	8043
810.45	8039
810.591	7864
810.733	7811
810.875	7689
811.016	7578
811.158	7445
811.299	7590
811.441	7734
811.582	7685
811.724	7605
811.865	7559
812.007	7582
812.148	7613
812.29	7658
812.431	7734
812.573	7947
812.714	7932
812.855	8107
812.997	8282
813.138	8267
813.279	8210
813.421	8119
813.562	8031
813.703	7928
813.845	7761
813.986	7491
814.127	7221
814.268	7270
814.41	7247
814.551	7122
814.692	7232
814.833	7103
814.974	7069
815.115	7084
815.256	6985
815.397	6943
815.539	7053
815.68	6833
815.821	6795
815.962	6901
816.103	6806
816.244	6722
816.385	6654
816.526	6604
816.666	6486
816.807	6380
816.948	6456
817.089	6536
817.23	6422
817.371	6331
817.512	6372
817.653	6353
817.793	6437
817.934	6467
818.075	6460
818.216	6422
818.356	6380
818.497	6289
818.638	6152
818.778	6209
818.919	6155
819.06	6182
819.2	6346
819.341	6353
819.481	6372
819.622	6570
819.762	6662
819.903	6646
820.043	6642
820.184	6642
820.324	6631
820.465	6700
820.605	6734
820.746	6703
820.886	6555
821.026	6639
821.167	6753
821.307	6776
821.447	6753
821.588	6665
821.728	6593
821.868	6483
822.008	6315
822.149	6452
822.289	6380
822.429	6171
822.569	6121
822.709	6133
822.849	5969
822.99	5889
823.13	5958
823.27	5950
823.41	5798
823.55	5718
823.69	5779
823.83	5786
823.97	5665
824.11	5554
824.25	5524
824.389	5558
824.529	5528
824.669	5577
824.809	5733
824.949	5691
825.089	5680
825.228	5577
825.368	5414
825.508	5364
825.648	5383
825.787	5360
825.927	5387
826.067	5303
826.206	5315
826.346	5414
826.485	5406
826.625	5406
826.765	5554
826.904	5410
827.044	5254
827.183	5220
827.323	5143
827.462	5216
827.601	5166
827.741	5166
827.88	5258
828.02	5128
828.159	5223
828.298	5269
828.437	5341
828.577	5330
828.716	5493
828.855	5258
828.994	5185
829.134	5181
829.273	5181
829.412	5151
829.551	5117
829.69	5189
829.829	5208
829.968	5318
830.107	5269
830.246	5239
830.385	5143
830.524	5155
830.663	5117
830.802	4923
830.941	4942
831.08	4881
831.219	5003
831.357	4957
831.496	5155
831.635	4930
831.774	4805
831.913	4793
832.051	4748
832.19	4740
832.329	4824
832.467	4733
832.606	4645
832.744	4755
832.883	4771
833.022	4721
833.16	4763
833.299	4771
833.437	4824
833.576	4828
833.714	4858
833.852	4862
833.991	4885
834.129	4968
834.267	4949
834.406	4904
834.544	5025
834.682	5029
834.821	4923
834.959	5166
835.097	4991
835.235	5136
835.373	5064
835.511	5102
835.65	5045
835.788	5048
835.926	4923
836.064	4896
836.202	4911
836.34	5124
836.478	5204
836.615	5113
836.753	5258
836.891	5254
837.029	5231
837.167	5204
837.305	5155
837.443	5197
837.58	5090
837.718	5254
837.856	5170
837.993	5143
838.131	5250
838.269	5181
838.406	5201
838.544	5178
838.681	5003
838.819	5010
838.956	4896
839.094	4881
839.231	5018
839.369	5067
839.506	5440
839.643	5250
839.781	5060
839.918	4984
840.055	5083
840.193	5117
840.33	5071
840.467	5162
840.604	5231
840.742	5406
840.879	5064
841.016	5060
841.153	5155
841.29	5337
841.427	5288
841.564	5299
841.701	5406
841.838	5292
841.975	5269
842.112	5269
842.249	5136
842.385	5098
842.522	5334
842.659	5189
842.796	5147
842.933	5193
843.069	5185
843.206	5174
843.343	5269
843.479	5208
843.616	5246
843.752	5048
843.889	5010
844.025	5227
844.162	5003
844.298	5212
844.435	5083
844.571	5067
844.708	5216
844.844	5273
844.98	5353
845.117	5311
845.253	5170
845.389	5094
845.525	5117
845.661	5113
845.798	4972
845.934	5121
846.07	5037
846.206	5185
846.342	5246
846.478	5185
846.614	4999
846.75	4942
846.886	4911
847.022	5143
847.158	4980
847.294	5098
847.429	5143
847.565	5075
847.701	5349
847.837	4850
847.972	4862
848.108	4927
848.244	4946
848.379	4771
848.515	4736
848.65	4706
848.786	4816
848.921	4774
849.057	4877
849.192	4923
849.328	4801
849.463	4824
849.598	4790
849.734	4752
849.869	4729
850.004	4599
850.14	4653
850.275	4626
850.41	4497
850.545	4561
850.68	4630
850.815	4580
850.95	4592
851.085	4908
851.22	4752
851.355	4653
851.49	4653
851.625	4664
851.76	4634
851.895	4538
852.03	4577
852.165	4687
852.299	4675
852.434	4763
852.569	4736
852.703	4763
852.838	4843
852.973	4900
853.107	4885
853.242	4729
853.376	4675
853.511	4538
853.645	4653
853.78	4797
853.914	4672
854.048	4660
854.183	4649
854.317	4725
854.451	4839
854.585	4679
854.72	4664
854.854	4774
854.988	4561
855.122	4607
855.256	4523
855.39	4660
855.524	4805
855.658	4729
855.792	4675
855.926	4763
856.06	4740
856.194	4809
856.327	4729
856.461	4599
856.595	4603
856.729	4573
856.862	4740
856.996	4702
857.13	4748
857.263	4755
857.397	4843
857.53	4607
857.664	4664
857.797	4763
857.931	4782
858.064	4706
858.197	4744
858.331	4618
858.464	4634
858.597	4497
858.731	4580
858.864	4656
858.997	4607
859.13	4664
859.263	4664
859.396	4675
859.529	4542
859.662	4580
859.795	4504
859.928	4649
860.061	4729
860.194	4721
860.327	4561
860.46	4584
860.592	4744
860.725	4698
860.858	4736
860.99	4611
861.123	4550
861.256	4542
861.388	4607
861.521	5121
861.653	4504
861.786	4436
861.918	4466
862.05	4497
862.183	4535
862.315	4618
862.447	4607
862.58	4546
862.712	4413
862.844	4314
862.976	4478
863.108	4466
863.24	4858
863.372	4303
863.504	4398
863.636	4375
863.768	4474
863.9	4462
864.032	4356
864.164	4413
864.296	4497
864.428	4554
864.559	4580
864.691	4508
864.823	4538
864.954	4508
865.086	4497
865.217	4466
865.349	4424
865.48	4455
865.612	4508
865.743	4634
865.875	4485
866.006	4398
866.137	4470
866.269	4413
866.4	4443
866.531	4402
866.662	4352
866.793	4394
866.924	4421
867.055	4516
867.186	4417
867.317	4402
867.448	4394
867.579	4394
867.71	4386
867.841	4333
867.972	4474
868.103	4474
868.233	4455
868.364	4424
868.495	4489
868.625	4664
868.756	4755
868.886	4531
869.017	4596
869.147	4755
869.278	4744
869.408	4679
869.539	4622
869.669	4698
869.799	4660
869.929	4767
870.06	4710
870.19	4927
870.32	4919
870.45	4953
870.58	5060
870.71	5056
870.84	5109
870.97	4957
871.1	4870
871.23	5090
871.36	5075
871.489	4995
871.619	5094
871.749	5094
871.879	5136
872.008	5109
872.138	5064
872.267	5006
872.397	4812
872.526	4790
872.656	4702
872.785	4793
872.915	5003
873.044	5041
873.173	4961
873.303	4965
873.432	4942
873.561	4927
873.69	4820
873.819	4847
873.948	4904
874.077	4805
874.206	4752
874.335	4786
874.464	4904
874.593	5048
874.722	4980
874.851	5113
874.979	5003
875.108	5033
875.237	4885
875.365	4873
875.494	4889
875.623	4957
875.751	4843
875.88	4862
876.008	4957
876.136	5018
876.265	5193
876.393	5349
876.521	5280
876.65	5216
876.778	5181
876.906	5098
877.034	5018
877.162	5029
877.29	4968
877.418	5003
877.546	5071
877.674	5022
877.802	5067
877.93	5006
878.058	4957
878.185	4866
878.313	4976
878.441	4953
878.568	4824
878.696	4873
878.824	4972
878.951	4999
879.079	5045
879.206	5303
879.333	5113
879.461	4995
879.588	5018
879.715	5102
879.842	5151
879.97	4968
880.097	4809
880.224	4771
880.351	4812
880.478	4839
880.605	4771
880.732	4782
880.859	5098
880.986	4885
881.112	4904
881.239	4854
881.366	4653
881.493	4611
881.619	4607
881.746	4656
881.872	4683
881.999	4630
882.125	4710
882.252	4744
882.378	4755
882.505	4911
882.631	4801
882.757	4622
882.883	4691
883.01	4721
883.136	4714
883.262	4592
883.388	4584
883.514	4831
883.64	4835
883.766	4767
883.892	4630
884.018	4736
884.143	4889
884.269	5056
884.395	4649
884.52	4653
884.646	4637
884.772	4584
884.897	4561
885.023	4622
885.148	4801
885.274	4782
885.399	4828
885.524	4694
885.65	4660
885.775	4740
885.9	4744
886.025	4862
886.15	4812
886.275	4653
886.4	4645
886.525	4698
886.65	4683
886.775	4733
886.9	4866
887.025	5060
887.149	4820
887.274	4653
887.399	4523
887.523	4622
887.648	4573
887.773	4615
887.897	4793
888.021	4786
888.146	4649
888.27	4835
888.395	4870
888.519	4839
888.643	4824
888.767	4839
888.891	4675
889.015	4622
889.139	4622
889.263	4615
889.387	4725
889.511	4820
889.635	4790
889.759	4637
889.883	4626
890.006	4733
890.13	4843
890.254	4637
890.377	4733
890.501	4531
890.624	4516
890.748	4645
890.871	4550
890.995	4432
891.118	4405
891.241	4497
891.364	4497
891.488	4672
891.611	4428
891.734	4512
891.857	4577
891.98	4519
892.103	4672
892.226	4546
892.349	4569
892.471	4440
892.594	4577
892.717	4550
892.839	4558
892.962	4596
893.085	4592
893.207	4565
893.33	4432
893.452	4531
893.575	4660
893.697	4558
893.819	4790
893.941	4824
894.064	4824
894.186	4558
894.308	4577
894.43	4752
894.552	4797
894.674	4733
894.796	4527
894.918	4630
895.04	4542
895.161	4687
895.283	4645
895.405	4584
895.526	4653
895.648	4637
895.769	4672
895.891	4683
896.012	4725
896.134	4698
896.255	4649
896.376	4634
896.498	4615
896.619	4706
896.74	4615
896.861	4660
896.982	4900
897.103	5052
897.224	4843
897.345	4702
897.466	4675
897.587	4744
897.708	4850
897.828	4752
897.949	4637
898.07	4531
898.19	4645
898.311	4801
898.431	4675
898.552	4717
898.672	4828
898.792	4782
898.913	4672
899.033	4694
899.153	4519
899.273	4405
899.393	4459
899.513	4516
899.633	4466
899.753	4516
899.873	4500
899.993	4580
900.113	4481
900.232	4569
900.352	4527
900.472	4493
900.591	4440
900.711	4466
900.83	4432
900.95	4584
901.069	4702
901.189	4512
901.308	4363
901.427	4299
901.546	4371
901.665	4497
901.784	4519
901.904	4417
902.023	4337
902.141	4185
902.26	4158
902.379	4284
902.498	4196
902.617	4204
902.735	4356
902.854	4402
902.973	4363
903.091	4181
903.21	4192
903.328	4291
903.446	4253
903.565	4246
903.683	4398
903.801	4253
903.919	4413
904.038	4459
904.156	4306
904.274	4413
904.392	4409
904.51	4440
904.627	4485
904.745	4584
904.863	4649
904.981	4421
905.098	4337
905.216	4428
905.334	4383
905.451	4402
905.569	4428
905.686	4546
905.803	4577
905.921	4398
906.038	4561
906.155	4428
906.272	4428
906.389	4481
906.506	4360
906.623	4383
906.74	4363
906.857	4333
906.974	4367
907.091	4519
907.208	4660
907.324	4554
907.441	4516
907.557	4386
907.674	4344
907.79	4337
907.907	4344
908.023	4432
908.139	4466
908.256	4455
908.372	4455
908.488	4489
908.604	4367
908.72	4291
908.836	4344
908.952	4337
909.068	4451
909.184	4538
909.3	4493
909.415	4626
909.531	4523
909.647	4329
909.762	4402
909.878	4333
909.993	4432
910.108	4394
910.224	4405
910.339	4447
910.454	4363
910.57	4375
910.685	4295
910.8	4626
910.915	4558
911.03	4485
911.145	4314
911.259	4322
911.374	4325
911.489	4257
911.604	4287
911.718	4120
911.833	4234
911.947	4063
912.062	4021
912.176	4215
912.291	4227
912.405	4257
912.519	4481
912.633	4538
912.748	4356
912.862	4360
912.976	4196
913.09	4090
913.204	4135
913.318	4276
913.431	4413
913.545	4398
913.659	4398
913.772	4371
913.886	4234
914	4204
914.113	4371
914.226	4459
914.34	4375
914.453	4200
914.566	4390
914.68	4318
914.793	4318
914.906	4169
915.019	4090
915.132	4097
915.245	4173
915.358	4230
915.47	4223
915.583	4207
915.696	4265
915.809	4405
915.921	4451
916.034	4287
916.146	4265
916.259	4234
916.371	4344
916.483	4337
916.595	4268
916.708	4306
916.82	4325
916.932	4299
917.044	4348
917.156	4329
917.268	4249
917.38	4284
917.491	4242
917.603	4329
917.715	4424
917.826	4440
917.938	4333
918.049	4246
918.161	4375
918.272	4558
918.384	4542
918.495	4337
918.606	4287
918.717	4181
918.828	4363
918.939	4367
919.05	4234
919.161	4325
919.272	4143
919.383	4185
919.494	4451
919.604	4656
919.715	4398
919.826	4390
919.936	4413
920.047	4538
920.157	4481
920.267	4698
920.378	4558
920.488	4478
920.598	4691
920.708	4862
920.818	4797
920.928	4714
921.038	4942
921.148	4927
921.258	4588
921.368	4569
921.477	4470
921.587	4447
921.697	4325
921.806	4504
921.916	4428
922.025	4230
922.134	4230
922.244	4192
922.353	4341
922.462	4135
922.571	4090
922.68	3991
922.789	3968
922.898	3975
923.007	4013
923.116	4101
923.224	4063
923.333	4036
923.442	3979
923.55	3945
923.659	3994
923.767	4059
923.876	3975
923.984	4090
924.092	4002
924.201	4059
924.309	4067
924.417	4120
924.525	4078
924.633	4067
924.741	4961
924.849	3896
924.956	4086
925.064	3979
925.172	3930
925.279	3979
925.387	4032
925.494	4021
925.602	4192
925.709	4173
925.816	4055
925.924	4116
926.031	4230
926.138	4135
926.245	4196
926.352	4059
926.459	4227
926.566	4287
926.673	4086
926.779	4010
926.886	4116
926.993	3972
927.099	3972
927.206	3956
927.312	3930
927.419	4032
927.525	4021
927.631	4063
927.737	3953
927.843	3937
927.95	3819
928.056	3930
928.162	4002
928.267	4010
928.373	4706
928.479	4120
928.585	3880
928.69	4006
928.796	4051
928.901	3922
929.007	3865
929.112	3991
929.218	3949
929.323	3949
929.428	3918
929.533	4116
929.638	3915
929.743	3968
929.848	4036
929.953	3964
930.058	3907
930.163	3755
930.267	3850
930.372	3949
930.477	3835
930.581	4086
930.685	3949
930.79	3781
930.894	3865
930.998	3857
931.103	4021
931.207	3736
931.311	3660
931.415	3663
931.519	3496
931.623	3530
