Data from test_V78500241_1338.txt Node
Date: Fri Mar 25 16:58:18 CST 2022
User: usil
Spectrometer: V785-0024
Trigger mode: 0
Integration Time (sec): 4.000000E-1
Scans to average: 1
Nonlinearity correction enabled: false
Boxcar width: 0
Storing dark spectrum: false
XAxis mode: Wavelengths
Number of Pixels in Spectrum: 1024
>>>>>Begin Spectral Data<<<<<
801.071	8035
801.214	8012
801.356	7837
801.499	7769
801.641	7788
801.783	7769
801.926	7940
802.068	7871
802.211	7951
802.353	8008
802.496	7799
802.638	7837
802.78	7837
802.923	7993
803.065	7940
803.208	7860
803.35	7932
803.492	8031
803.635	8191
803.777	7967
803.919	8126
804.061	8423
804.204	8077
804.346	8065
804.488	7944
804.63	8161
804.773	8050
804.915	8115
805.057	8252
805.199	8191
805.341	8256
805.483	8256
805.626	8206
805.768	8088
805.91	8142
806.052	8248
806.194	8103
806.336	8294
806.478	8092
806.62	8008
806.762	8134
806.904	8290
807.046	8419
807.188	8366
807.33	8305
807.472	8339
807.614	8123
807.756	8084
807.898	7970
808.04	7822
808.182	7868
808.324	7955
808.465	7909
808.607	8084
808.749	8058
808.891	8187
809.033	8237
809.174	8195
809.316	8058
809.458	7982
809.6	7932
809.741	8005
809.883	7967
810.025	8065
810.166	8024
810.308	8020
810.45	7997
810.591	7856
810.733	7693
810.875	7616
811.016	7529
811.158	7514
811.299	7609
811.441	7704
811.582	7670
811.724	7537
811.865	7540
812.007	7605
812.148	7544
812.29	7616
812.431	7780
812.573	7868
812.714	7936
812.855	8157
812.997	8119
813.138	8290
813.279	8202
813.421	8161
813.562	7986
813.703	7852
813.845	7731
813.986	7430
814.127	7251
814.268	7213
814.41	7202
814.551	7194
814.692	7156
814.833	7103
814.974	7107
815.115	7122
815.256	6954
815.397	6916
815.539	6916
815.68	6821
815.821	6696
815.962	6852
816.103	6795
816.244	6726
816.385	6612
816.526	6639
816.666	6448
816.807	6315
816.948	6429
817.089	6483
817.23	6391
817.371	6384
817.512	6350
817.653	6353
817.793	6331
817.934	6399
818.075	6475
818.216	6426
818.356	6384
818.497	6235
818.638	6163
818.778	6102
818.919	6114
819.06	6178
819.2	6323
819.341	6327
819.481	6388
819.622	6475
819.762	6738
819.903	6627
820.043	6582
820.184	6525
820.324	6563
820.465	6688
820.605	6669
820.746	6658
820.886	6506
821.026	6627
821.167	6734
821.307	6810
821.447	6760
821.588	6658
821.728	6574
821.868	6429
822.008	6350
822.149	6376
822.289	6350
822.429	6125
822.569	6072
822.709	6076
822.849	5961
822.99	5878
823.13	5878
823.27	5897
823.41	5775
823.55	5722
823.69	5798
823.83	5779
823.97	5634
824.11	5539
824.25	5474
824.389	5577
824.529	5551
824.669	5516
824.809	5600
824.949	5600
825.089	5558
825.228	5562
825.368	5330
825.508	5337
825.648	5372
825.787	5345
825.927	5341
826.067	5296
826.206	5277
826.346	5299
826.485	5406
826.625	5395
826.765	5516
826.904	5398
827.044	5227
827.183	5204
827.323	5151
827.462	5250
827.601	5147
827.741	5174
827.88	5208
828.02	5083
828.159	5269
828.298	5296
828.437	5349
828.577	5349
828.716	5440
828.855	5315
828.994	5143
829.134	5083
829.273	5197
829.412	5132
829.551	5102
829.69	5178
829.829	5261
829.968	5349
830.107	5265
830.246	5261
830.385	5178
830.524	5086
830.663	5018
830.802	4938
830.941	4877
831.08	4930
831.219	4968
831.357	4942
831.496	5143
831.635	4946
831.774	4873
831.913	4824
832.051	4729
832.19	4752
832.329	4824
832.467	4656
832.606	4653
832.744	4698
832.883	4698
833.022	4706
833.16	4797
833.299	4850
833.437	4828
833.576	4812
833.714	4843
833.852	4831
833.991	4885
834.129	4957
834.267	4900
834.406	4850
834.544	4946
834.682	4923
834.821	4984
834.959	5121
835.097	4961
835.235	5162
835.373	5067
835.511	5143
835.65	5056
835.788	4972
835.926	4896
836.064	4862
836.202	4904
836.34	5159
836.478	5208
836.615	5143
836.753	5136
836.891	5299
837.029	5265
837.167	5197
837.305	5132
837.443	5121
837.58	5033
837.718	5201
837.856	5174
837.993	5140
838.131	5239
838.269	5189
838.406	5170
838.544	5201
838.681	5041
838.819	5010
838.956	4885
839.094	4896
839.231	4987
839.369	5083
839.506	5395
839.643	5242
839.781	5086
839.918	4972
840.055	5124
840.193	5071
840.33	5094
840.467	5109
840.604	5197
840.742	5440
840.879	5010
841.016	5090
841.153	5113
841.29	5406
841.427	5280
841.564	5303
841.701	5360
841.838	5235
841.975	5277
842.112	5220
842.249	5117
842.385	5060
842.522	5326
842.659	5174
842.796	5185
842.933	5201
843.069	5147
843.206	5159
843.343	5288
843.479	5246
843.616	5235
843.752	5064
843.889	5014
844.025	5261
844.162	5056
844.298	5170
844.435	5048
844.571	5022
844.708	5185
844.844	5318
844.98	5334
845.117	5292
845.253	5067
845.389	5064
845.525	5140
845.661	5166
845.798	5006
845.934	5067
846.07	5067
846.206	5193
846.342	5284
846.478	5174
846.614	5025
846.75	4976
846.886	4915
847.022	5121
847.158	5037
847.294	5037
847.429	5098
847.565	5056
847.701	5254
847.837	4889
847.972	4752
848.108	4980
848.244	4908
848.379	4774
848.515	4733
848.65	4748
848.786	4717
848.921	4805
849.057	4835
849.192	4911
849.328	4774
849.463	4816
849.598	4797
849.734	4805
849.869	4634
850.004	4664
850.14	4637
850.275	4618
850.41	4478
850.545	4596
850.68	4565
850.815	4653
850.95	4630
851.085	4850
851.22	4714
851.355	4702
851.49	4660
851.625	4645
851.76	4626
851.895	4558
852.03	4535
852.165	4630
852.299	4698
852.434	4797
852.569	4729
852.703	4744
852.838	4858
852.973	4908
853.107	4889
853.242	4778
853.376	4637
853.511	4561
853.645	4561
853.78	4725
853.914	4687
854.048	4645
854.183	4611
854.317	4679
854.451	4820
854.585	4675
854.72	4641
854.854	4744
854.988	4615
855.122	4645
855.256	4516
855.39	4668
855.524	4774
855.658	4691
855.792	4645
855.926	4710
856.06	4740
856.194	4771
856.327	4725
856.461	4622
856.595	4580
856.729	4630
856.862	4755
856.996	4733
857.13	4664
857.263	4774
857.397	4812
857.53	4637
857.664	4740
857.797	4740
857.931	4790
858.064	4607
858.197	4721
858.331	4630
858.464	4546
858.597	4535
858.731	4603
858.864	4645
858.997	4592
859.13	4675
859.263	4675
859.396	4740
859.529	4569
859.662	4538
859.795	4535
859.928	4603
860.061	4782
860.194	4733
860.327	4588
860.46	4565
860.592	4714
860.725	4687
860.858	4721
860.99	4554
861.123	4523
861.256	4485
861.388	4577
861.521	5265
861.653	4489
861.786	4451
861.918	4421
862.05	4538
862.183	4596
862.315	4561
862.447	4618
862.58	4516
862.712	4386
862.844	4363
862.976	4451
863.108	4481
863.24	4824
863.372	4375
863.504	4409
863.636	4402
863.768	4474
863.9	4413
864.032	4352
864.164	4402
864.296	4504
864.428	4535
864.559	4561
864.691	4546
864.823	4504
864.954	4497
865.086	4470
865.217	4470
865.349	4409
865.48	4424
865.612	4500
865.743	4592
865.875	4474
866.006	4386
866.137	4489
866.269	4443
866.4	4379
866.531	4390
866.662	4363
866.793	4394
866.924	4443
867.055	4523
867.186	4424
867.317	4405
867.448	4432
867.579	4356
867.71	4398
867.841	4398
867.972	4417
868.103	4493
868.233	4436
868.364	4440
868.495	4497
868.625	4668
868.756	4710
868.886	4592
869.017	4577
869.147	4752
869.278	4736
869.408	4664
869.539	4656
869.669	4672
869.799	4626
869.929	4729
870.06	4698
870.19	4957
870.32	4919
870.45	4942
870.58	5018
870.71	5090
870.84	5083
870.97	4942
871.1	4854
871.23	5178
871.36	5124
871.489	4961
871.619	5006
871.749	5098
871.879	5174
872.008	5155
872.138	5098
872.267	4987
872.397	4816
872.526	4797
872.656	4714
872.785	4816
872.915	4961
873.044	4984
873.173	4927
873.303	4976
873.432	4930
873.561	4946
873.69	4877
873.819	4885
873.948	4877
874.077	4870
874.206	4786
874.335	4801
874.464	4866
874.593	5060
874.722	4915
874.851	5079
874.979	5025
875.108	4976
875.237	4889
875.365	4862
875.494	4885
875.623	4995
875.751	4831
875.88	4824
876.008	4923
876.136	5045
876.265	5223
876.393	5357
876.521	5239
876.65	5235
876.778	5185
876.906	5064
877.034	5014
877.162	5037
877.29	4949
877.418	5041
877.546	5056
877.674	5060
877.802	5045
877.93	5003
878.058	4961
878.185	4881
878.313	4927
878.441	4919
878.568	4744
878.696	4820
878.824	4968
878.951	4961
879.079	5102
879.206	5280
879.333	5052
879.461	5003
879.588	4995
879.715	5094
879.842	5201
879.97	5003
880.097	4774
880.224	4752
880.351	4778
880.478	4801
880.605	4805
880.732	4729
880.859	5090
880.986	4858
881.112	4892
881.239	4774
881.366	4618
881.493	4607
881.619	4596
881.746	4626
881.872	4641
881.999	4653
882.125	4641
882.252	4805
882.378	4820
882.505	4946
882.631	4759
882.757	4618
882.883	4679
883.01	4717
883.136	4706
883.262	4592
883.388	4596
883.514	4812
883.64	4858
883.766	4774
883.892	4691
884.018	4748
884.143	4911
884.269	5022
884.395	4683
884.52	4607
884.646	4668
884.772	4542
884.897	4569
885.023	4649
885.148	4767
885.274	4862
885.399	4797
885.524	4687
885.65	4664
885.775	4725
885.9	4687
886.025	4812
886.15	4774
886.275	4736
886.4	4637
886.525	4683
886.65	4641
886.775	4653
886.9	4911
887.025	5029
887.149	4778
887.274	4653
887.399	4618
887.523	4637
887.648	4573
887.773	4668
887.897	4733
888.021	4774
888.146	4672
888.27	4790
888.395	4949
888.519	4771
888.643	4767
888.767	4831
888.891	4656
889.015	4615
889.139	4599
889.263	4580
889.387	4755
889.511	4881
889.635	4801
889.759	4691
889.883	4611
890.006	4729
890.13	4824
890.254	4618
890.377	4691
890.501	4584
890.624	4531
890.748	4618
890.871	4478
890.995	4443
891.118	4405
891.241	4512
891.364	4554
891.488	4603
891.611	4497
891.734	4535
891.857	4637
891.98	4573
892.103	4603
892.226	4561
892.349	4531
892.471	4398
892.594	4542
892.717	4588
892.839	4542
892.962	4622
893.085	4645
893.207	4577
893.33	4485
893.452	4481
893.575	4683
893.697	4580
893.819	4790
893.941	4790
894.064	4733
894.186	4565
894.308	4542
894.43	4694
894.552	4793
894.674	4744
894.796	4523
894.918	4558
895.04	4584
895.161	4698
895.283	4660
895.405	4554
895.526	4660
895.648	4668
895.769	4710
895.891	4683
896.012	4797
896.134	4721
896.255	4637
896.376	4622
896.498	4630
896.619	4656
896.74	4588
896.861	4618
896.982	4942
897.103	5083
897.224	4767
897.345	4744
897.466	4645
897.587	4733
897.708	4809
897.828	4790
897.949	4675
898.07	4615
898.19	4634
898.311	4854
898.431	4596
898.552	4744
898.672	4763
898.792	4793
898.913	4767
899.033	4599
899.153	4508
899.273	4386
899.393	4485
899.513	4538
899.633	4523
899.753	4569
899.873	4512
899.993	4596
900.113	4504
900.232	4618
900.352	4546
900.472	4493
900.591	4432
900.711	4462
900.83	4379
900.95	4603
901.069	4668
901.189	4519
901.308	4383
901.427	4257
901.546	4367
901.665	4436
901.784	4462
901.904	4329
902.023	4322
902.141	4185
902.26	4169
902.379	4303
902.498	4238
902.617	4185
902.735	4333
902.854	4398
902.973	4329
903.091	4238
903.21	4204
903.328	4287
903.446	4280
903.565	4261
903.683	4348
903.801	4219
903.919	4375
904.038	4363
904.156	4348
904.274	4390
904.392	4356
904.51	4428
904.627	4466
904.745	4611
904.863	4649
904.981	4371
905.098	4284
905.216	4390
905.334	4383
905.451	4379
905.569	4447
905.686	4550
905.803	4565
905.921	4455
906.038	4538
906.155	4500
906.272	4363
906.389	4474
906.506	4402
906.623	4352
906.74	4379
906.857	4242
906.974	4363
907.091	4535
907.208	4698
907.324	4569
907.441	4481
907.557	4314
907.674	4337
907.79	4344
907.907	4386
908.023	4462
908.139	4459
908.256	4424
908.372	4440
908.488	4447
908.604	4322
908.72	4318
908.836	4344
908.952	4379
909.068	4474
909.184	4580
909.3	4462
909.415	4542
909.531	4535
909.647	4322
909.762	4348
909.878	4344
909.993	4455
910.108	4402
910.224	4383
910.339	4478
910.454	4341
910.57	4322
910.685	4303
910.8	4626
910.915	4618
911.03	4489
911.145	4314
911.259	4341
911.374	4390
911.489	4261
911.604	4238
911.718	4150
911.833	4162
911.947	4093
912.062	4017
912.176	4192
912.291	4196
912.405	4249
912.519	4455
912.633	4519
912.748	4329
912.862	4306
912.976	4204
913.09	4143
913.204	4207
913.318	4230
913.431	4348
913.545	4367
913.659	4409
913.772	4348
913.886	4280
914	4230
914.113	4306
914.226	4394
914.34	4356
914.453	4211
914.566	4402
914.68	4299
914.793	4322
914.906	4147
915.019	4177
915.132	4025
915.245	4139
915.358	4257
915.47	4227
915.583	4287
915.696	4268
915.809	4367
915.921	4428
916.034	4227
916.146	4253
916.259	4268
916.371	4383
916.483	4352
916.595	4246
916.708	4253
916.82	4310
916.932	4280
917.044	4352
917.156	4383
917.268	4230
917.38	4242
917.491	4310
917.603	4337
917.715	4432
917.826	4474
917.938	4337
918.049	4265
918.161	4405
918.272	4554
918.384	4485
918.495	4421
918.606	4291
918.717	4223
918.828	4310
918.939	4352
919.05	4246
919.161	4295
919.272	4131
919.383	4253
919.494	4421
919.604	4588
919.715	4405
919.826	4341
919.936	4344
920.047	4512
920.157	4523
920.267	4702
920.378	4497
920.488	4500
920.598	4683
920.708	4942
920.818	4733
920.928	4778
921.038	4949
921.148	4927
921.258	4641
921.368	4527
921.477	4512
921.587	4440
921.697	4318
921.806	4565
921.916	4394
922.025	4280
922.134	4257
922.244	4215
922.353	4310
922.462	4181
922.571	4139
922.68	4017
922.789	3949
922.898	4044
923.007	3983
923.116	4074
923.224	4074
923.333	4055
923.442	4002
923.55	3975
923.659	4021
923.767	4086
923.876	3979
923.984	4086
924.092	3983
924.201	4074
924.309	4078
924.417	4116
924.525	4109
924.633	4097
924.741	5022
924.849	3873
924.956	4131
925.064	3926
925.172	3926
925.279	3960
925.387	4036
925.494	4032
925.602	4204
925.709	4181
925.816	4044
925.924	4169
926.031	4200
926.138	4158
926.245	4215
926.352	4059
926.459	4284
926.566	4265
926.673	4147
926.779	4093
926.886	4067
926.993	3937
927.099	3926
927.206	3918
927.312	3937
927.419	3991
927.525	3983
927.631	4112
927.737	3964
927.843	3964
927.95	3827
928.056	3922
928.162	3991
928.267	4067
928.373	4672
928.479	4086
928.585	3857
928.69	3987
928.796	4082
928.901	3983
929.007	3842
929.112	4029
929.218	3937
929.323	3896
929.428	3964
929.533	4078
929.638	3876
929.743	3975
929.848	4025
929.953	4013
930.058	3907
930.163	3774
930.267	3838
930.372	3968
930.477	3838
930.581	4109
930.685	3945
930.79	3850
930.894	3869
930.998	3854
931.103	4006
931.207	3694
931.311	3686
931.415	3633
931.519	3504
931.623	3561
