Data from test_V78500241_825.txt Node
Date: Fri Mar 25 16:54:44 CST 2022
User: usil
Spectrometer: V785-0024
Trigger mode: 0
Integration Time (sec): 4.000000E-1
Scans to average: 1
Nonlinearity correction enabled: false
Boxcar width: 0
Storing dark spectrum: false
XAxis mode: Wavelengths
Number of Pixels in Spectrum: 1024
>>>>>Begin Spectral Data<<<<<
801.071	7978
801.214	8043
801.356	7841
801.499	7868
801.641	7795
801.783	7799
801.926	8001
802.068	7898
802.211	7928
802.353	7944
802.496	7883
802.638	7852
802.78	7906
802.923	7928
803.065	7852
803.208	7868
803.35	7940
803.492	8107
803.635	8145
803.777	8046
803.919	8100
804.061	8438
804.204	8092
804.346	8035
804.488	7940
804.63	8065
804.773	8035
804.915	8081
805.057	8263
805.199	8126
805.341	8210
805.483	8298
805.626	8142
805.768	8134
805.91	8134
806.052	8206
806.194	8164
806.336	8259
806.478	8107
806.62	8054
806.762	8168
806.904	8313
807.046	8427
807.188	8347
807.33	8248
807.472	8324
807.614	8138
807.756	8069
807.898	7925
808.04	7898
808.182	7871
808.324	7902
808.465	7955
808.607	8065
808.749	8058
808.891	8199
809.033	8282
809.174	8244
809.316	8088
809.458	8058
809.6	7959
809.741	7978
809.883	8016
810.025	8096
810.166	8039
810.308	8016
810.45	8020
810.591	7928
810.733	7708
810.875	7639
811.016	7502
811.158	7472
811.299	7586
811.441	7674
811.582	7662
811.724	7571
811.865	7499
812.007	7643
812.148	7575
812.29	7613
812.431	7742
812.573	7868
812.714	7913
812.855	8058
812.997	8134
813.138	8271
813.279	8168
813.421	8077
813.562	8012
813.703	7841
813.845	7776
813.986	7464
814.127	7247
814.268	7297
814.41	7149
814.551	7164
814.692	7110
814.833	7019
814.974	7072
815.115	7095
815.256	6905
815.397	6932
815.539	6989
815.68	6863
815.821	6818
815.962	6901
816.103	6837
816.244	6688
816.385	6604
816.526	6631
816.666	6528
816.807	6281
816.948	6388
817.089	6471
817.23	6490
817.371	6365
817.512	6437
817.653	6399
817.793	6327
817.934	6414
818.075	6437
818.216	6399
818.356	6418
818.497	6148
818.638	6121
818.778	6152
818.919	6175
819.06	6117
819.2	6311
819.341	6346
819.481	6308
819.622	6559
819.762	6719
819.903	6681
820.043	6551
820.184	6612
820.324	6566
820.465	6688
820.605	6627
820.746	6654
820.886	6517
821.026	6597
821.167	6722
821.307	6776
821.447	6730
821.588	6642
821.728	6620
821.868	6426
822.008	6304
822.149	6357
822.289	6338
822.429	6091
822.569	6083
822.709	6098
822.849	5859
822.99	5844
823.13	5836
823.27	5950
823.41	5866
823.55	5794
823.69	5737
823.83	5783
823.97	5649
824.11	5528
824.25	5490
824.389	5589
824.529	5558
824.669	5452
824.809	5592
824.949	5649
825.089	5585
825.228	5554
825.368	5433
825.508	5387
825.648	5341
825.787	5353
825.927	5330
826.067	5242
826.206	5254
826.346	5387
826.485	5406
826.625	5410
826.765	5516
826.904	5448
827.044	5242
827.183	5197
827.323	5132
827.462	5246
827.601	5147
827.741	5128
827.88	5254
828.02	5155
828.159	5159
828.298	5349
828.437	5395
828.577	5296
828.716	5512
828.855	5284
828.994	5159
829.134	5102
829.273	5174
829.412	5086
829.551	5117
829.69	5128
829.829	5277
829.968	5395
830.107	5250
830.246	5242
830.385	5185
830.524	5117
830.663	5098
830.802	4999
830.941	4881
831.08	4854
831.219	4987
831.357	4968
831.496	5140
831.635	4927
831.774	4831
831.913	4805
832.051	4778
832.19	4721
832.329	4831
832.467	4687
832.606	4611
832.744	4691
832.883	4710
833.022	4729
833.16	4790
833.299	4820
833.437	4805
833.576	4850
833.714	4843
833.852	4831
833.991	4930
834.129	4949
834.267	4942
834.406	4919
834.544	4991
834.682	4968
834.821	4946
834.959	5178
835.097	4976
835.235	5113
835.373	5098
835.511	5075
835.65	5045
835.788	5045
835.926	4862
836.064	4847
836.202	4934
836.34	5132
836.478	5273
836.615	5102
836.753	5181
836.891	5239
837.029	5204
837.167	5181
837.305	5174
837.443	5136
837.58	5071
837.718	5185
837.856	5132
837.993	5083
838.131	5204
838.269	5201
838.406	5155
838.544	5181
838.681	5029
838.819	5006
838.956	4900
839.094	4877
839.231	4942
839.369	5067
839.506	5387
839.643	5231
839.781	5071
839.918	4991
840.055	5102
840.193	5075
840.33	5060
840.467	5121
840.604	5174
840.742	5455
840.879	5086
841.016	5098
841.153	5162
841.29	5326
841.427	5330
841.564	5334
841.701	5318
841.838	5239
841.975	5246
842.112	5258
842.249	5113
842.385	5071
842.522	5334
842.659	5170
842.796	5128
842.933	5208
843.069	5166
843.206	5094
843.343	5277
843.479	5246
843.616	5239
843.752	5014
843.889	4972
844.025	5254
844.162	4968
844.298	5162
844.435	5041
844.571	5045
844.708	5170
844.844	5265
844.98	5315
845.117	5265
845.253	5113
845.389	5094
845.525	5132
845.661	5140
845.798	5022
845.934	5109
846.07	4984
846.206	5159
846.342	5231
846.478	5189
846.614	5025
846.75	4930
846.886	4911
847.022	5090
847.158	5006
847.294	5056
847.429	5102
847.565	5037
847.701	5322
847.837	4812
847.972	4797
848.108	4934
848.244	4946
848.379	4809
848.515	4717
848.65	4717
848.786	4721
848.921	4744
849.057	4812
849.192	4953
849.328	4786
849.463	4801
849.598	4778
849.734	4714
849.869	4694
850.004	4649
850.14	4637
850.275	4630
850.41	4500
850.545	4573
850.68	4569
850.815	4656
850.95	4577
851.085	4824
851.22	4736
851.355	4668
851.49	4626
851.625	4626
851.76	4645
851.895	4554
852.03	4462
852.165	4615
852.299	4698
852.434	4774
852.569	4714
852.703	4717
852.838	4812
852.973	4877
853.107	4949
853.242	4744
853.376	4649
853.511	4504
853.645	4626
853.78	4828
853.914	4672
854.048	4599
854.183	4645
854.317	4668
854.451	4870
854.585	4698
854.72	4603
854.854	4691
854.988	4569
855.122	4599
855.256	4462
855.39	4679
855.524	4744
855.658	4759
855.792	4702
855.926	4687
856.06	4744
856.194	4755
856.327	4714
856.461	4573
856.595	4603
856.729	4577
856.862	4687
856.996	4656
857.13	4672
857.263	4771
857.397	4801
857.53	4672
857.664	4698
857.797	4733
857.931	4793
858.064	4733
858.197	4710
858.331	4649
858.464	4554
858.597	4535
858.731	4641
858.864	4611
858.997	4603
859.13	4672
859.263	4645
859.396	4668
859.529	4584
859.662	4561
859.795	4508
859.928	4626
860.061	4767
860.194	4759
860.327	4573
860.46	4535
860.592	4755
860.725	4698
860.858	4759
860.99	4573
861.123	4500
861.256	4542
861.388	4527
861.521	5242
861.653	4436
861.786	4443
861.918	4474
862.05	4519
862.183	4481
862.315	4588
862.447	4649
862.58	4527
862.712	4367
862.844	4322
862.976	4485
863.108	4424
863.24	4733
863.372	4322
863.504	4379
863.636	4363
863.768	4455
863.9	4394
864.032	4405
864.164	4413
864.296	4478
864.428	4512
864.559	4516
864.691	4485
864.823	4497
864.954	4478
865.086	4481
865.217	4417
865.349	4390
865.48	4424
865.612	4485
865.743	4603
865.875	4485
866.006	4440
866.137	4443
866.269	4466
866.4	4443
866.531	4417
866.662	4386
866.793	4371
866.924	4379
867.055	4478
867.186	4394
867.317	4421
867.448	4356
867.579	4375
867.71	4417
867.841	4386
867.972	4447
868.103	4485
868.233	4440
868.364	4447
868.495	4485
868.625	4660
868.756	4740
868.886	4573
869.017	4588
869.147	4805
869.278	4710
869.408	4626
869.539	4622
869.669	4687
869.799	4618
869.929	4733
870.06	4736
870.19	4942
870.32	4923
870.45	4896
870.58	5029
870.71	5045
870.84	5037
870.97	4934
871.1	4885
871.23	5086
871.36	5102
871.489	5033
871.619	5086
871.749	5128
871.879	5117
872.008	5128
872.138	4987
872.267	4991
872.397	4843
872.526	4843
872.656	4706
872.785	4763
872.915	4942
873.044	5033
873.173	4949
873.303	4980
873.432	4980
873.561	4889
873.69	4873
873.819	4858
873.948	4873
874.077	4816
874.206	4786
874.335	4805
874.464	4850
874.593	5045
874.722	4957
874.851	5090
874.979	5075
875.108	5033
875.237	4957
875.365	4847
875.494	4885
875.623	4965
875.751	4748
875.88	4889
876.008	4957
876.136	5029
876.265	5162
876.393	5307
876.521	5254
876.65	5197
876.778	5121
876.906	5037
877.034	4976
877.162	5052
877.29	4999
877.418	5086
877.546	4999
877.674	5102
877.802	4984
877.93	4999
878.058	4915
878.185	4862
878.313	4953
878.441	4995
878.568	4774
878.696	4835
878.824	4984
878.951	5003
879.079	5121
879.206	5265
879.333	5052
879.461	4934
879.588	5025
879.715	5121
879.842	5128
879.97	5022
880.097	4729
880.224	4748
880.351	4828
880.478	4786
880.605	4805
880.732	4740
880.859	5128
880.986	4881
881.112	4843
881.239	4755
881.366	4634
881.493	4615
881.619	4558
881.746	4603
881.872	4645
881.999	4634
882.125	4668
882.252	4793
882.378	4816
882.505	4961
882.631	4816
882.757	4694
882.883	4675
883.01	4706
883.136	4668
883.262	4611
883.388	4653
883.514	4828
883.64	4809
883.766	4759
883.892	4664
884.018	4706
884.143	4870
884.269	5018
884.395	4668
884.52	4596
884.646	4634
884.772	4538
884.897	4508
885.023	4675
885.148	4793
885.274	4889
885.399	4778
885.524	4710
885.65	4694
885.775	4710
885.9	4679
886.025	4839
886.15	4759
886.275	4694
886.4	4637
886.525	4763
886.65	4626
886.775	4653
886.9	4900
887.025	5079
887.149	4839
887.274	4599
887.399	4573
887.523	4538
887.648	4592
887.773	4554
887.897	4786
888.021	4759
888.146	4615
888.27	4786
888.395	4900
888.519	4782
888.643	4820
888.767	4812
888.891	4664
889.015	4618
889.139	4637
889.263	4573
889.387	4778
889.511	4862
889.635	4771
889.759	4630
889.883	4687
890.006	4755
890.13	4892
890.254	4584
890.377	4679
890.501	4519
890.624	4573
890.748	4653
890.871	4531
890.995	4455
891.118	4375
891.241	4489
891.364	4500
891.488	4637
891.611	4481
891.734	4554
891.857	4603
891.98	4558
892.103	4668
892.226	4615
892.349	4538
892.471	4398
892.594	4592
892.717	4580
892.839	4580
892.962	4538
893.085	4626
893.207	4580
893.33	4428
893.452	4516
893.575	4660
893.697	4546
893.819	4778
893.941	4816
894.064	4835
894.186	4546
894.308	4592
894.43	4710
894.552	4805
894.674	4763
894.796	4561
894.918	4542
895.04	4599
895.161	4672
895.283	4675
895.405	4603
895.526	4626
895.648	4710
895.769	4687
895.891	4714
896.012	4710
896.134	4752
896.255	4649
896.376	4573
896.498	4596
896.619	4637
896.74	4607
896.861	4653
896.982	4923
897.103	5048
897.224	4831
897.345	4755
897.466	4649
897.587	4714
897.708	4889
897.828	4763
897.949	4679
898.07	4558
898.19	4603
898.311	4870
898.431	4672
898.552	4721
898.672	4820
898.792	4790
898.913	4702
899.033	4637
899.153	4527
899.273	4447
899.393	4512
899.513	4542
899.633	4478
899.753	4504
899.873	4512
899.993	4523
900.113	4516
900.232	4554
900.352	4535
900.472	4478
900.591	4402
900.711	4493
900.83	4417
900.95	4561
901.069	4694
901.189	4550
901.308	4356
901.427	4280
901.546	4405
901.665	4478
901.784	4512
901.904	4360
902.023	4299
902.141	4177
902.26	4166
902.379	4268
902.498	4211
902.617	4253
902.735	4356
902.854	4360
902.973	4325
903.091	4234
903.21	4211
903.328	4261
903.446	4253
903.565	4329
903.683	4303
903.801	4314
903.919	4379
904.038	4440
904.156	4329
904.274	4428
904.392	4386
904.51	4443
904.627	4459
904.745	4565
904.863	4672
904.981	4356
905.098	4306
905.216	4398
905.334	4390
905.451	4398
905.569	4428
905.686	4569
905.803	4611
905.921	4405
906.038	4527
906.155	4500
906.272	4390
906.389	4504
906.506	4360
906.623	4367
906.74	4383
906.857	4333
906.974	4402
907.091	4580
907.208	4687
907.324	4622
907.441	4489
907.557	4371
907.674	4363
907.79	4303
907.907	4371
908.023	4447
908.139	4489
908.256	4413
908.372	4440
908.488	4402
908.604	4337
908.72	4306
908.836	4413
908.952	4363
909.068	4428
909.184	4565
909.3	4436
909.415	4561
909.531	4580
909.647	4291
909.762	4371
909.878	4341
909.993	4428
910.108	4386
910.224	4390
910.339	4466
910.454	4386
910.57	4295
910.685	4356
910.8	4660
910.915	4542
911.03	4504
911.145	4329
911.259	4280
911.374	4341
911.489	4246
911.604	4268
911.718	4090
911.833	4204
911.947	4055
912.062	3953
912.176	4204
912.291	4215
912.405	4242
912.519	4478
912.633	4432
912.748	4367
912.862	4287
912.976	4227
913.09	4051
913.204	4177
913.318	4246
913.431	4337
913.545	4329
913.659	4462
913.772	4360
913.886	4246
914	4192
914.113	4390
914.226	4443
914.34	4371
914.453	4211
914.566	4417
914.68	4299
914.793	4360
914.906	4112
915.019	4116
915.132	4086
915.245	4188
915.358	4227
915.47	4257
915.583	4230
915.696	4272
915.809	4417
915.921	4394
916.034	4249
916.146	4215
916.259	4223
916.371	4375
916.483	4341
916.595	4257
916.708	4318
916.82	4276
916.932	4306
917.044	4318
917.156	4314
917.268	4207
917.38	4280
917.491	4230
917.603	4371
917.715	4432
917.826	4428
917.938	4318
918.049	4211
918.161	4367
918.272	4516
918.384	4535
918.495	4432
918.606	4333
918.717	4272
918.828	4371
918.939	4348
919.05	4238
919.161	4299
919.272	4120
919.383	4223
919.494	4405
919.604	4630
919.715	4428
919.826	4306
919.936	4405
920.047	4527
920.157	4535
920.267	4694
920.378	4489
920.488	4516
920.598	4721
920.708	4870
920.818	4755
920.928	4771
921.038	4934
921.148	4919
921.258	4596
921.368	4558
921.477	4481
921.587	4417
921.697	4333
921.806	4508
921.916	4443
922.025	4303
922.134	4249
922.244	4196
922.353	4329
922.462	4181
922.571	4150
922.68	4044
922.789	3994
922.898	4021
923.007	4017
923.116	4112
923.224	4036
923.333	4090
923.442	3998
923.55	3991
923.659	3987
923.767	4078
923.876	3964
923.984	4097
924.092	3994
924.201	4063
924.309	4082
924.417	4105
924.525	4040
924.633	4086
924.741	4839
924.849	3934
924.956	4067
925.064	4002
925.172	3915
925.279	3987
925.387	4074
925.494	4017
925.602	4154
925.709	4154
925.816	4036
925.924	4131
926.031	4249
926.138	4143
926.245	4188
926.352	4109
926.459	4185
926.566	4284
926.673	4116
926.779	4071
926.886	4116
926.993	3994
927.099	3956
927.206	3968
927.312	3968
927.419	4040
927.525	4036
927.631	4071
927.737	3934
927.843	3880
927.95	3869
928.056	3972
928.162	3945
928.267	4074
928.373	4717
928.479	4109
928.585	3800
928.69	4029
928.796	4048
928.901	4021
929.007	3808
929.112	3998
929.218	3945
929.323	3949
929.428	3922
929.533	4078
929.638	3915
929.743	3930
929.848	4017
929.953	3956
930.058	3903
930.163	3778
930.267	3835
930.372	3975
930.477	3812
930.581	4097
930.685	3937
930.79	3819
930.894	3896
930.998	3835
931.103	4048
931.207	3728
931.311	3717
931.415	3656
931.519	3507
931.623	3580
