Data from test_V78500241_341.txt Node
Date: Fri Mar 25 16:51:22 CST 2022
User: usil
Spectrometer: V785-0024
Trigger mode: 0
Integration Time (sec): 4.000000E-1
Scans to average: 1
Nonlinearity correction enabled: false
Boxcar width: 0
Storing dark spectrum: false
XAxis mode: Wavelengths
Number of Pixels in Spectrum: 1024
>>>>>Begin Spectral Data<<<<<
801.071	8016
801.214	8073
801.356	7898
801.499	7909
801.641	7799
801.783	7852
801.926	7997
802.068	7955
802.211	7967
802.353	8012
802.496	7887
802.638	7928
802.78	7909
802.923	7982
803.065	7902
803.208	7887
803.35	7974
803.492	7982
803.635	8138
803.777	8020
803.919	8123
804.061	8492
804.204	8195
804.346	8088
804.488	7955
804.63	8130
804.773	8020
804.915	8084
805.057	8286
805.199	8195
805.341	8248
805.483	8282
805.626	8237
805.768	8077
805.91	8100
806.052	8202
806.194	7997
806.336	8259
806.478	8210
806.62	8157
806.762	8214
806.904	8233
807.046	8450
807.188	8282
807.33	8313
807.472	8305
807.614	8149
807.756	8035
807.898	8024
808.04	7841
808.182	7856
808.324	7982
808.465	8016
808.607	8084
808.749	8103
808.891	8267
809.033	8301
809.174	8168
809.316	8069
809.458	8100
809.6	8027
809.741	7989
809.883	8058
810.025	8073
810.166	8115
810.308	8142
810.45	7967
810.591	7833
810.733	7696
810.875	7658
811.016	7434
811.158	7525
811.299	7674
811.441	7780
811.582	7696
811.724	7647
811.865	7620
812.007	7647
812.148	7601
812.29	7613
812.431	7772
812.573	7902
812.714	7963
812.855	8130
812.997	8183
813.138	8370
813.279	8103
813.421	8069
813.562	8005
813.703	7921
813.845	7811
813.986	7499
814.127	7362
814.268	7209
814.41	7190
814.551	7194
814.692	7198
814.833	7107
814.974	7080
815.115	7103
815.256	7034
815.397	6905
815.539	6916
815.68	6837
815.821	6757
815.962	6943
816.103	6916
816.244	6745
816.385	6673
816.526	6677
816.666	6593
816.807	6372
816.948	6426
817.089	6479
817.23	6445
817.371	6407
817.512	6391
817.653	6410
817.793	6342
817.934	6433
818.075	6460
818.216	6471
818.356	6395
818.497	6277
818.638	6125
818.778	6148
818.919	6194
819.06	6175
819.2	6311
819.341	6334
819.481	6407
819.622	6540
819.762	6745
819.903	6722
820.043	6604
820.184	6532
820.324	6623
820.465	6726
820.605	6665
820.746	6673
820.886	6456
821.026	6627
821.167	6757
821.307	6833
821.447	6844
821.588	6700
821.728	6597
821.868	6532
822.008	6331
822.149	6452
822.289	6372
822.429	6190
822.569	6117
822.709	6125
822.849	5973
822.99	5923
823.13	5920
823.27	5927
823.41	5805
823.55	5855
823.69	5733
823.83	5794
823.97	5710
824.11	5554
824.25	5490
824.389	5581
824.529	5604
824.669	5482
824.809	5649
824.949	5638
825.089	5634
825.228	5570
825.368	5402
825.508	5387
825.648	5360
825.787	5353
825.927	5372
826.067	5326
826.206	5288
826.346	5368
826.485	5417
826.625	5433
826.765	5501
826.904	5429
827.044	5242
827.183	5208
827.323	5174
827.462	5269
827.601	5155
827.741	5216
827.88	5159
828.02	5128
828.159	5220
828.298	5307
828.437	5337
828.577	5250
828.716	5493
828.855	5303
828.994	5174
829.134	5170
829.273	5212
829.412	5166
829.551	5159
829.69	5121
829.829	5231
829.968	5421
830.107	5322
830.246	5337
830.385	5181
830.524	5113
830.663	5037
830.802	4991
830.941	4911
831.08	4911
831.219	5018
831.357	4999
831.496	5162
831.635	4942
831.774	4824
831.913	4847
832.051	4763
832.19	4767
832.329	4824
832.467	4694
832.606	4687
832.744	4755
832.883	4721
833.022	4763
833.16	4801
833.299	4771
833.437	4877
833.576	4850
833.714	4854
833.852	4919
833.991	4870
834.129	4911
834.267	4930
834.406	4911
834.544	5006
834.682	5041
834.821	5003
834.959	5170
835.097	4995
835.235	5132
835.373	5098
835.511	5067
835.65	5037
835.788	5014
835.926	4896
836.064	4877
836.202	4938
836.34	5197
836.478	5231
836.615	5109
836.753	5204
836.891	5337
837.029	5220
837.167	5185
837.305	5147
837.443	5170
837.58	5071
837.718	5277
837.856	5181
837.993	5166
838.131	5208
838.269	5208
838.406	5208
838.544	5189
838.681	5067
838.819	5037
838.956	4885
839.094	4934
839.231	4999
839.369	5048
839.506	5440
839.643	5261
839.781	5067
839.918	5056
840.055	5159
840.193	5128
840.33	5121
840.467	5189
840.604	5216
840.742	5474
840.879	5075
841.016	5155
841.153	5132
841.29	5357
841.427	5398
841.564	5349
841.701	5360
841.838	5258
841.975	5265
842.112	5269
842.249	5094
842.385	5102
842.522	5322
842.659	5159
842.796	5189
842.933	5223
843.069	5197
843.206	5166
843.343	5379
843.479	5189
843.616	5277
843.752	5014
843.889	5037
844.025	5223
844.162	5052
844.298	5208
844.435	5113
844.571	5041
844.708	5128
844.844	5284
844.98	5322
845.117	5315
845.253	5075
845.389	5098
845.525	5155
845.661	5124
845.798	5048
845.934	5162
846.07	5060
846.206	5231
846.342	5318
846.478	5212
846.614	5033
846.75	4919
846.886	4930
847.022	5155
847.158	4991
847.294	5075
847.429	5121
847.565	5048
847.701	5326
847.837	4900
847.972	4809
848.108	4991
848.244	4995
848.379	4790
848.515	4744
848.65	4782
848.786	4725
848.921	4801
849.057	4862
849.192	4885
849.328	4793
849.463	4866
849.598	4767
849.734	4782
849.869	4736
850.004	4653
850.14	4736
850.275	4634
850.41	4546
850.545	4542
850.68	4645
850.815	4672
850.95	4622
851.085	4824
851.22	4771
851.355	4660
851.49	4641
851.625	4599
851.76	4630
851.895	4569
852.03	4523
852.165	4653
852.299	4725
852.434	4809
852.569	4717
852.703	4790
852.838	4816
852.973	4946
853.107	4934
853.242	4717
853.376	4759
853.511	4577
853.645	4611
853.78	4790
853.914	4694
854.048	4691
854.183	4626
854.317	4714
854.451	4904
854.585	4694
854.72	4634
854.854	4778
854.988	4561
855.122	4618
855.256	4504
855.39	4675
855.524	4778
855.658	4721
855.792	4691
855.926	4744
856.06	4752
856.194	4790
856.327	4691
856.461	4634
856.595	4618
856.729	4615
856.862	4771
856.996	4714
857.13	4755
857.263	4748
857.397	4793
857.53	4683
857.664	4774
857.797	4786
857.931	4812
858.064	4706
858.197	4763
858.331	4645
858.464	4584
858.597	4531
858.731	4653
858.864	4645
858.997	4577
859.13	4664
859.263	4679
859.396	4694
859.529	4607
859.662	4542
859.795	4558
859.928	4649
860.061	4797
860.194	4767
860.327	4641
860.46	4577
860.592	4683
860.725	4702
860.858	4733
860.99	4550
861.123	4546
861.256	4527
861.388	4622
861.521	5364
861.653	4512
861.786	4390
861.918	4421
862.05	4523
862.183	4535
862.315	4592
862.447	4675
862.58	4561
862.712	4409
862.844	4356
862.976	4481
863.108	4432
863.24	4771
863.372	4344
863.504	4402
863.636	4409
863.768	4485
863.9	4440
864.032	4371
864.164	4398
864.296	4519
864.428	4519
864.559	4489
864.691	4573
864.823	4508
864.954	4459
865.086	4519
865.217	4474
865.349	4398
865.48	4474
865.612	4474
865.743	4672
865.875	4443
866.006	4478
866.137	4478
866.269	4474
866.4	4443
866.531	4466
866.662	4356
866.793	4417
866.924	4447
867.055	4512
867.186	4443
867.317	4424
867.448	4398
867.579	4436
867.71	4360
867.841	4394
867.972	4455
868.103	4447
868.233	4440
868.364	4424
868.495	4512
868.625	4668
868.756	4809
868.886	4558
869.017	4577
869.147	4790
869.278	4771
869.408	4637
869.539	4634
869.669	4694
869.799	4649
869.929	4771
870.06	4691
870.19	4991
870.32	4949
870.45	4870
870.58	5056
870.71	5071
870.84	5090
870.97	4957
871.1	4892
871.23	5113
871.36	5121
871.489	5045
871.619	5094
871.749	5075
871.879	5124
872.008	5189
872.138	5037
872.267	4961
872.397	4881
872.526	4854
872.656	4740
872.785	4805
872.915	5003
873.044	5022
873.173	4987
873.303	4980
873.432	4965
873.561	4892
873.69	4850
873.819	4896
873.948	4938
874.077	4812
874.206	4782
874.335	4839
874.464	4885
874.593	5037
874.722	4965
874.851	5090
874.979	5071
875.108	5067
875.237	4900
875.365	4809
875.494	4934
875.623	4984
875.751	4889
875.88	4870
876.008	4976
876.136	5025
876.265	5216
876.393	5379
876.521	5269
876.65	5235
876.778	5178
876.906	5064
877.034	5014
877.162	5014
877.29	5033
877.418	5014
877.546	5014
877.674	5075
877.802	5060
877.93	5010
878.058	4919
878.185	4911
878.313	4965
878.441	4927
878.568	4733
878.696	4862
878.824	4919
878.951	5033
879.079	5117
879.206	5292
879.333	5086
879.461	4991
879.588	4999
879.715	5105
879.842	5239
879.97	5060
880.097	4786
880.224	4729
880.351	4828
880.478	4862
880.605	4793
880.732	4759
880.859	5083
880.986	4930
881.112	4889
881.239	4797
881.366	4679
881.493	4592
881.619	4580
881.746	4653
881.872	4641
881.999	4656
882.125	4748
882.252	4812
882.378	4847
882.505	4942
882.631	4793
882.757	4630
882.883	4733
883.01	4721
883.136	4645
883.262	4653
883.388	4573
883.514	4892
883.64	4900
883.766	4828
883.892	4641
884.018	4721
884.143	4873
884.269	5003
884.395	4740
884.52	4637
884.646	4622
884.772	4607
884.897	4546
885.023	4714
885.148	4797
885.274	4850
885.399	4790
885.524	4759
885.65	4786
885.775	4763
885.9	4710
886.025	4877
886.15	4816
886.275	4744
886.4	4637
886.525	4736
886.65	4675
886.775	4687
886.9	4873
887.025	5079
887.149	4820
887.274	4656
887.399	4599
887.523	4637
887.648	4538
887.773	4577
887.897	4782
888.021	4778
888.146	4645
888.27	4831
888.395	4915
888.519	4778
888.643	4790
888.767	4866
888.891	4668
889.015	4626
889.139	4672
889.263	4584
889.387	4767
889.511	4866
889.635	4831
889.759	4630
889.883	4653
890.006	4714
890.13	4843
890.254	4626
890.377	4683
890.501	4573
890.624	4500
890.748	4656
890.871	4523
890.995	4443
891.118	4333
891.241	4474
891.364	4508
891.488	4664
891.611	4504
891.734	4573
891.857	4622
891.98	4519
892.103	4634
892.226	4653
892.349	4561
892.471	4451
892.594	4550
892.717	4592
892.839	4573
892.962	4550
893.085	4664
893.207	4603
893.33	4493
893.452	4550
893.575	4656
893.697	4550
893.819	4812
893.941	4835
894.064	4736
894.186	4588
894.308	4573
894.43	4736
894.552	4889
894.674	4744
894.796	4588
894.918	4558
895.04	4573
895.161	4702
895.283	4664
895.405	4588
895.526	4599
895.648	4683
895.769	4694
895.891	4733
896.012	4782
896.134	4710
896.255	4694
896.376	4611
896.498	4603
896.619	4683
896.74	4660
896.861	4664
896.982	4961
897.103	5071
897.224	4839
897.345	4698
897.466	4645
897.587	4744
897.708	4919
897.828	4759
897.949	4656
898.07	4618
898.19	4675
898.311	4847
898.431	4706
898.552	4767
898.672	4790
898.792	4778
898.913	4797
899.033	4618
899.153	4558
899.273	4455
899.393	4478
899.513	4497
899.633	4512
899.753	4489
899.873	4504
899.993	4554
900.113	4554
900.232	4672
900.352	4546
900.472	4489
900.591	4394
900.711	4466
900.83	4432
900.95	4656
901.069	4717
901.189	4527
901.308	4363
901.427	4314
901.546	4379
901.665	4481
901.784	4500
901.904	4379
902.023	4356
902.141	4207
902.26	4200
902.379	4322
902.498	4268
902.617	4291
902.735	4363
902.854	4398
902.973	4371
903.091	4249
903.21	4158
903.328	4272
903.446	4257
903.565	4284
903.683	4398
903.801	4280
903.919	4352
904.038	4432
904.156	4310
904.274	4436
904.392	4394
904.51	4386
904.627	4504
904.745	4554
904.863	4698
904.981	4424
905.098	4322
905.216	4413
905.334	4375
905.451	4459
905.569	4443
905.686	4546
905.803	4599
905.921	4402
906.038	4535
906.155	4519
906.272	4474
906.389	4451
906.506	4295
906.623	4386
906.74	4379
906.857	4299
906.974	4356
907.091	4561
907.208	4675
907.324	4630
907.441	4527
907.557	4352
907.674	4356
907.79	4341
907.907	4386
908.023	4474
908.139	4493
908.256	4474
908.372	4474
908.488	4424
908.604	4371
908.72	4306
908.836	4394
908.952	4394
909.068	4409
909.184	4565
909.3	4493
909.415	4634
909.531	4535
909.647	4360
909.762	4379
909.878	4352
909.993	4405
910.108	4459
910.224	4466
910.339	4474
910.454	4348
910.57	4379
910.685	4306
910.8	4622
910.915	4634
911.03	4485
911.145	4333
911.259	4322
911.374	4390
911.489	4295
911.604	4261
911.718	4181
911.833	4200
911.947	4105
912.062	4048
912.176	4177
912.291	4227
912.405	4287
912.519	4485
912.633	4485
912.748	4375
912.862	4318
912.976	4192
913.09	4116
913.204	4192
913.318	4238
913.431	4348
913.545	4341
913.659	4440
913.772	4287
913.886	4306
914	4211
914.113	4371
914.226	4421
914.34	4424
914.453	4242
914.566	4470
914.68	4272
914.793	4333
914.906	4192
915.019	4086
915.132	4093
915.245	4227
915.358	4188
915.47	4249
915.583	4318
915.696	4341
915.809	4447
915.921	4409
916.034	4249
916.146	4268
916.259	4204
916.371	4386
916.483	4367
916.595	4257
916.708	4329
916.82	4329
916.932	4314
917.044	4325
917.156	4341
917.268	4272
917.38	4314
917.491	4261
917.603	4337
917.715	4409
917.826	4383
917.938	4344
918.049	4215
918.161	4417
918.272	4531
918.384	4554
918.495	4493
918.606	4341
918.717	4246
918.828	4306
918.939	4394
919.05	4295
919.161	4329
919.272	4135
919.383	4207
919.494	4409
919.604	4561
919.715	4443
919.826	4360
919.936	4356
920.047	4546
920.157	4538
920.267	4717
920.378	4546
920.488	4470
920.598	4717
920.708	4915
920.818	4812
920.928	4744
921.038	4949
921.148	4938
921.258	4580
921.368	4580
921.477	4500
921.587	4466
921.697	4409
921.806	4535
921.916	4500
922.025	4272
922.134	4253
922.244	4242
922.353	4322
922.462	4185
922.571	4166
922.68	4048
922.789	3987
922.898	4044
923.007	4006
923.116	4082
923.224	4090
923.333	4078
923.442	3991
923.55	3975
923.659	4086
923.767	4128
923.876	4044
923.984	4147
924.092	4017
924.201	4086
924.309	4109
924.417	4154
924.525	4063
924.633	4131
924.741	4873
924.849	3941
924.956	4162
925.064	3934
925.172	3934
925.279	3979
925.387	4036
925.494	4074
925.602	4200
925.709	4166
925.816	3998
925.924	4120
926.031	4268
926.138	4116
926.245	4215
926.352	4048
926.459	4238
926.566	4310
926.673	4173
926.779	4086
926.886	4059
926.993	3983
927.099	3892
927.206	3930
927.312	3930
927.419	4055
927.525	4044
927.631	4071
927.737	3960
927.843	3964
927.95	3808
928.056	3953
928.162	4010
928.267	4025
928.373	4554
928.479	4112
928.585	3865
928.69	4044
928.796	4086
928.901	4032
929.007	3838
929.112	4006
929.218	4006
929.323	3960
929.428	3983
929.533	4143
929.638	3945
929.743	3983
929.848	4040
929.953	4025
930.058	3934
930.163	3781
930.267	3816
930.372	4010
930.477	3766
930.581	4105
930.685	3998
930.79	3816
930.894	3865
930.998	3827
931.103	4063
931.207	3774
931.311	3694
931.415	3698
931.519	3504
931.623	3564
