Data from test_V78500241_1878.txt Node
Date: Fri Mar 25 17:02:03 CST 2022
User: usil
Spectrometer: V785-0024
Trigger mode: 0
Integration Time (sec): 4.000000E-1
Scans to average: 1
Nonlinearity correction enabled: false
Boxcar width: 0
Storing dark spectrum: false
XAxis mode: Wavelengths
Number of Pixels in Spectrum: 1024
>>>>>Begin Spectral Data<<<<<
801.071	8027
801.214	7982
801.356	7868
801.499	7852
801.641	7814
801.783	7807
801.926	7959
802.068	7902
802.211	8001
802.353	8039
802.496	7883
802.638	7826
802.78	7925
802.923	7932
803.065	7887
803.208	7871
803.35	7925
803.492	8145
803.635	8084
803.777	8050
803.919	8130
804.061	8480
804.204	8183
804.346	8062
804.488	7986
804.63	8153
804.773	8046
804.915	8138
805.057	8355
805.199	8103
805.341	8206
805.483	8263
805.626	8237
805.768	8126
805.91	8248
806.052	8290
806.194	8191
806.336	8320
806.478	8050
806.62	8100
806.762	8191
806.904	8256
807.046	8488
807.188	8317
807.33	8355
807.472	8366
807.614	8240
807.756	8176
807.898	7997
808.04	7894
808.182	7906
808.324	7925
808.465	7909
808.607	8096
808.749	8103
808.891	8202
809.033	8328
809.174	8210
809.316	8100
809.458	8111
809.6	8084
809.741	8084
809.883	8062
810.025	8077
810.166	8043
810.308	8027
810.45	7951
810.591	7871
810.733	7750
810.875	7658
811.016	7476
811.158	7487
811.299	7586
811.441	7700
811.582	7685
811.724	7586
811.865	7575
812.007	7636
812.148	7586
812.29	7590
812.431	7772
812.573	7936
812.714	7989
812.855	8145
812.997	8240
813.138	8324
813.279	8176
813.421	8020
813.562	7913
813.703	7799
813.845	7719
813.986	7403
814.127	7232
814.268	7232
814.41	7259
814.551	7206
814.692	7209
814.833	7091
814.974	7133
815.115	7126
815.256	6958
815.397	6947
815.539	6939
815.68	6806
815.821	6768
815.962	6818
816.103	6848
816.244	6722
816.385	6681
816.526	6551
816.666	6536
816.807	6365
816.948	6418
817.089	6490
817.23	6433
817.371	6369
817.512	6289
817.653	6429
817.793	6334
817.934	6414
818.075	6479
818.216	6433
818.356	6372
818.497	6292
818.638	6121
818.778	6136
818.919	6163
819.06	6125
819.2	6292
819.341	6289
819.481	6338
819.622	6559
819.762	6745
819.903	6692
820.043	6578
820.184	6532
820.324	6623
820.465	6700
820.605	6669
820.746	6654
820.886	6479
821.026	6650
821.167	6700
821.307	6848
821.447	6734
821.588	6738
821.728	6593
821.868	6494
822.008	6308
822.149	6369
822.289	6353
822.429	6102
822.569	6155
822.709	6136
822.849	5950
822.99	5897
823.13	5946
823.27	5908
823.41	5767
823.55	5798
823.69	5737
823.83	5752
823.97	5649
824.11	5501
824.25	5486
824.389	5543
824.529	5573
824.669	5493
824.809	5634
824.949	5676
825.089	5623
825.228	5627
825.368	5379
825.508	5387
825.648	5322
825.787	5433
825.927	5337
826.067	5254
826.206	5242
826.346	5315
826.485	5433
826.625	5429
826.765	5547
826.904	5448
827.044	5265
827.183	5166
827.323	5109
827.462	5239
827.601	5189
827.741	5216
827.88	5201
828.02	5109
828.159	5178
828.298	5299
828.437	5414
828.577	5292
828.716	5459
828.855	5330
828.994	5166
829.134	5117
829.273	5181
829.412	5178
829.551	5181
829.69	5170
829.829	5231
829.968	5414
830.107	5280
830.246	5307
830.385	5208
830.524	5124
830.663	5098
830.802	4904
830.941	4885
831.08	4946
831.219	4968
831.357	4980
831.496	5189
831.635	4930
831.774	4866
831.913	4889
832.051	4733
832.19	4733
832.329	4843
832.467	4675
832.606	4618
832.744	4725
832.883	4694
833.022	4767
833.16	4767
833.299	4828
833.437	4820
833.576	4831
833.714	4835
833.852	4839
833.991	4942
834.129	4972
834.267	4987
834.406	4904
834.544	5003
834.682	4968
834.821	4987
834.959	5159
835.097	4991
835.235	5086
835.373	5060
835.511	5121
835.65	5048
835.788	5052
835.926	4927
836.064	4873
836.202	4919
836.34	5166
836.478	5181
836.615	5124
836.753	5204
836.891	5265
837.029	5242
837.167	5235
837.305	5132
837.443	5124
837.58	5105
837.718	5242
837.856	5193
837.993	5128
838.131	5212
838.269	5201
838.406	5208
838.544	5197
838.681	5022
838.819	5052
838.956	4843
839.094	4885
839.231	4987
839.369	5033
839.506	5436
839.643	5258
839.781	5094
839.918	4991
840.055	5098
840.193	5071
840.33	5121
840.467	5102
840.604	5201
840.742	5364
840.879	5060
841.016	5090
841.153	5117
841.29	5376
841.427	5299
841.564	5318
841.701	5337
841.838	5246
841.975	5242
842.112	5242
842.249	5128
842.385	5052
842.522	5265
842.659	5162
842.796	5124
842.933	5170
843.069	5124
843.206	5159
843.343	5273
843.479	5204
843.616	5258
843.752	5041
843.889	5006
844.025	5189
844.162	4976
844.298	5162
844.435	5045
844.571	5029
844.708	5208
844.844	5280
844.98	5322
845.117	5296
845.253	5105
845.389	5132
845.525	5170
845.661	5147
845.798	5075
845.934	5147
846.07	5048
846.206	5231
846.342	5280
846.478	5189
846.614	4972
846.75	4991
846.886	4911
847.022	5113
847.158	5025
847.294	5037
847.429	5075
847.565	5083
847.701	5360
847.837	4839
847.972	4790
848.108	4938
848.244	4904
848.379	4793
848.515	4759
848.65	4729
848.786	4706
848.921	4748
849.057	4858
849.192	4885
849.328	4816
849.463	4774
849.598	4797
849.734	4714
849.869	4683
850.004	4641
850.14	4683
850.275	4573
850.41	4519
850.545	4542
850.68	4622
850.815	4645
850.95	4637
851.085	4854
851.22	4740
851.355	4683
851.49	4592
851.625	4641
851.76	4634
851.895	4592
852.03	4542
852.165	4664
852.299	4714
852.434	4809
852.569	4733
852.703	4778
852.838	4824
852.973	4889
853.107	4930
853.242	4763
853.376	4660
853.511	4554
853.645	4603
853.78	4767
853.914	4698
854.048	4683
854.183	4641
854.317	4748
854.451	4820
854.585	4656
854.72	4626
854.854	4763
854.988	4580
855.122	4603
855.256	4500
855.39	4645
855.524	4786
855.658	4664
855.792	4691
855.926	4683
856.06	4710
856.194	4843
856.327	4664
856.461	4603
856.595	4653
856.729	4615
856.862	4691
856.996	4675
857.13	4729
857.263	4790
857.397	4820
857.53	4592
857.664	4740
857.797	4763
857.931	4763
858.064	4660
858.197	4736
858.331	4611
858.464	4588
858.597	4512
858.731	4584
858.864	4626
858.997	4599
859.13	4634
859.263	4668
859.396	4744
859.529	4538
859.662	4580
859.795	4535
859.928	4653
860.061	4755
860.194	4748
860.327	4615
860.46	4554
860.592	4736
860.725	4733
860.858	4706
860.99	4580
861.123	4516
861.256	4527
861.388	4615
861.521	5379
861.653	4489
861.786	4409
861.918	4447
862.05	4489
862.183	4546
862.315	4645
862.447	4618
862.58	4527
862.712	4447
862.844	4295
862.976	4451
863.108	4459
863.24	4801
863.372	4314
863.504	4413
863.636	4436
863.768	4462
863.9	4405
864.032	4360
864.164	4394
864.296	4485
864.428	4577
864.559	4546
864.691	4558
864.823	4459
864.954	4459
865.086	4561
865.217	4500
865.349	4394
865.48	4474
865.612	4447
865.743	4615
865.875	4443
866.006	4428
866.137	4455
866.269	4443
866.4	4390
866.531	4451
866.662	4394
866.793	4405
866.924	4383
867.055	4516
867.186	4470
867.317	4386
867.448	4371
867.579	4417
867.71	4386
867.841	4314
867.972	4447
868.103	4474
868.233	4455
868.364	4432
868.495	4466
868.625	4691
868.756	4740
868.886	4550
869.017	4645
869.147	4797
869.278	4771
869.408	4596
869.539	4668
869.669	4694
869.799	4664
869.929	4767
870.06	4683
870.19	4984
870.32	4930
870.45	4927
870.58	4999
870.71	5121
870.84	5090
870.97	4938
871.1	4831
871.23	5132
871.36	5121
871.489	4984
871.619	5071
871.749	5117
871.879	5113
872.008	5185
872.138	5045
872.267	4984
872.397	4797
872.526	4778
872.656	4763
872.785	4786
872.915	4934
873.044	5029
873.173	4934
873.303	4900
873.432	4976
873.561	4957
873.69	4862
873.819	4805
873.948	4915
874.077	4843
874.206	4755
874.335	4786
874.464	4930
874.593	5075
874.722	4953
874.851	5098
874.979	5029
875.108	5029
875.237	4866
875.365	4934
875.494	4904
875.623	4976
875.751	4805
875.88	4847
876.008	5003
876.136	5045
876.265	5174
876.393	5277
876.521	5220
876.65	5246
876.778	5128
876.906	5037
877.034	5022
877.162	5079
877.29	4953
877.418	5048
877.546	4968
877.674	5014
877.802	5052
877.93	4946
878.058	4919
878.185	4843
878.313	4942
878.441	4923
878.568	4774
878.696	4877
878.824	4923
878.951	4942
879.079	5064
879.206	5231
879.333	5083
879.461	5018
879.588	5006
879.715	5037
879.842	5246
879.97	4987
880.097	4805
880.224	4729
880.351	4809
880.478	4812
880.605	4816
880.732	4797
880.859	5075
880.986	4934
881.112	4942
881.239	4809
881.366	4641
881.493	4558
881.619	4546
881.746	4649
881.872	4691
881.999	4664
882.125	4672
882.252	4778
882.378	4843
882.505	4938
882.631	4767
882.757	4698
882.883	4691
883.01	4733
883.136	4641
883.262	4550
883.388	4618
883.514	4790
883.64	4854
883.766	4733
883.892	4622
884.018	4675
884.143	4915
884.269	5029
884.395	4710
884.52	4641
884.646	4668
884.772	4569
884.897	4531
885.023	4687
885.148	4793
885.274	4782
885.399	4793
885.524	4691
885.65	4660
885.775	4717
885.9	4668
886.025	4828
886.15	4755
886.275	4740
886.4	4675
886.525	4736
886.65	4702
886.775	4664
886.9	4892
887.025	5033
887.149	4786
887.274	4630
887.399	4569
887.523	4588
887.648	4596
887.773	4542
887.897	4801
888.021	4790
888.146	4687
888.27	4824
888.395	4858
888.519	4824
888.643	4835
888.767	4820
888.891	4694
889.015	4649
889.139	4641
889.263	4603
889.387	4755
889.511	4889
889.635	4797
889.759	4645
889.883	4607
890.006	4736
890.13	4809
890.254	4580
890.377	4717
890.501	4577
890.624	4500
890.748	4618
890.871	4516
890.995	4409
891.118	4405
891.241	4535
891.364	4500
891.488	4626
891.611	4538
891.734	4546
891.857	4580
891.98	4523
892.103	4664
892.226	4580
892.349	4493
892.471	4367
892.594	4565
892.717	4607
892.839	4561
892.962	4538
893.085	4668
893.207	4558
893.33	4421
893.452	4550
893.575	4668
893.697	4603
893.819	4847
893.941	4816
894.064	4721
894.186	4561
894.308	4519
894.43	4725
894.552	4824
894.674	4733
894.796	4550
894.918	4569
895.04	4580
895.161	4679
895.283	4626
895.405	4546
895.526	4626
895.648	4702
895.769	4668
895.891	4706
896.012	4771
896.134	4660
896.255	4653
896.376	4634
896.498	4653
896.619	4641
896.74	4584
896.861	4607
896.982	4908
897.103	5090
897.224	4847
897.345	4767
897.466	4645
897.587	4714
897.708	4885
897.828	4778
897.949	4656
898.07	4603
898.19	4649
898.311	4839
898.431	4702
898.552	4748
898.672	4790
898.792	4786
898.913	4774
899.033	4611
899.153	4580
899.273	4436
899.393	4459
899.513	4500
899.633	4573
899.753	4542
899.873	4485
899.993	4611
900.113	4531
900.232	4611
900.352	4516
900.472	4527
900.591	4405
900.711	4485
900.83	4428
900.95	4592
901.069	4634
901.189	4489
901.308	4360
901.427	4325
901.546	4394
901.665	4459
901.784	4451
901.904	4363
902.023	4287
902.141	4169
902.26	4188
902.379	4299
902.498	4227
902.617	4207
902.735	4379
902.854	4371
902.973	4341
903.091	4162
903.21	4253
903.328	4257
903.446	4284
903.565	4276
903.683	4344
903.801	4257
903.919	4413
904.038	4470
904.156	4325
904.274	4474
904.392	4417
904.51	4386
904.627	4500
904.745	4542
904.863	4683
904.981	4398
905.098	4299
905.216	4322
905.334	4455
905.451	4440
905.569	4474
905.686	4611
905.803	4558
905.921	4417
906.038	4546
906.155	4516
906.272	4390
906.389	4440
906.506	4329
906.623	4394
906.74	4398
906.857	4287
906.974	4390
907.091	4561
907.208	4664
907.324	4535
907.441	4500
907.557	4356
907.674	4341
907.79	4295
907.907	4344
908.023	4497
908.139	4462
908.256	4455
908.372	4428
908.488	4436
908.604	4390
908.72	4363
908.836	4383
908.952	4375
909.068	4440
909.184	4599
909.3	4455
909.415	4577
909.531	4512
909.647	4405
909.762	4402
909.878	4310
909.993	4379
910.108	4424
910.224	4379
910.339	4459
910.454	4348
910.57	4363
910.685	4291
910.8	4653
910.915	4615
911.03	4504
911.145	4360
911.259	4333
911.374	4379
911.489	4280
911.604	4242
911.718	4135
911.833	4188
911.947	4093
912.062	4025
912.176	4181
912.291	4299
912.405	4211
912.519	4451
912.633	4535
912.748	4405
912.862	4310
912.976	4211
913.09	4131
913.204	4177
913.318	4257
913.431	4375
913.545	4375
913.659	4405
913.772	4413
913.886	4272
914	4227
914.113	4402
914.226	4447
914.34	4383
914.453	4253
914.566	4428
914.68	4337
914.793	4287
914.906	4177
915.019	4116
915.132	4063
915.245	4177
915.358	4185
915.47	4215
915.583	4257
915.696	4310
915.809	4428
915.921	4436
916.034	4246
916.146	4219
916.259	4188
916.371	4375
916.483	4322
916.595	4268
916.708	4295
916.82	4318
916.932	4314
917.044	4356
917.156	4333
917.268	4299
917.38	4280
917.491	4306
917.603	4344
917.715	4478
917.826	4428
917.938	4367
918.049	4268
918.161	4386
918.272	4527
918.384	4485
918.495	4455
918.606	4306
918.717	4276
918.828	4356
918.939	4402
919.05	4257
919.161	4314
919.272	4162
919.383	4223
919.494	4421
919.604	4656
919.715	4443
919.826	4322
919.936	4386
920.047	4535
920.157	4504
920.267	4752
920.378	4500
920.488	4519
920.598	4725
920.708	4850
920.818	4744
920.928	4675
921.038	4915
921.148	4911
921.258	4603
921.368	4512
921.477	4554
921.587	4447
921.697	4421
921.806	4584
921.916	4390
922.025	4280
922.134	4268
922.244	4234
922.353	4333
922.462	4116
922.571	4124
922.68	4025
922.789	4006
922.898	4071
923.007	4013
923.116	4082
923.224	4067
923.333	4048
923.442	4036
923.55	3972
923.659	4032
923.767	4101
923.876	3953
923.984	4097
924.092	3968
924.201	4078
924.309	4101
924.417	4166
924.525	4078
924.633	4116
924.741	5025
924.849	3857
924.956	4135
925.064	3949
925.172	3907
925.279	3994
925.387	4051
925.494	4032
925.602	4188
925.709	4219
925.816	4059
925.924	4101
926.031	4207
926.138	4169
926.245	4242
926.352	4112
926.459	4246
926.566	4322
926.673	4120
926.779	4021
926.886	4097
926.993	3991
927.099	3937
927.206	3892
927.312	3907
927.419	4044
927.525	4040
927.631	4097
927.737	3968
927.843	3945
927.95	3812
928.056	3949
928.162	3983
928.267	4059
928.373	4584
928.479	4135
928.585	3846
928.69	4036
928.796	4086
928.901	3983
929.007	3857
929.112	4032
929.218	3934
929.323	3979
929.428	3937
929.533	4063
929.638	3907
929.743	3934
929.848	4063
929.953	3975
930.058	3926
930.163	3781
930.267	3797
930.372	4044
930.477	3819
930.581	4128
930.685	3934
930.79	3823
930.894	3896
930.998	3880
931.103	4044
931.207	3743
931.311	3698
931.415	3625
931.519	3523
931.623	3557
